#   1 NUMBER                 Running object number                                     
#   2 MAG_AUTO               Kron-like elliptical aperture magnitude                    [mag]
#   3 X_IMAGE                Object position along x                                    [pixel]
#   4 Y_IMAGE                Object position along y                                    [pixel]
#   5 X_WORLD                Barycenter position along world x axis                     [deg]
#   6 Y_WORLD                Barycenter position along world y axis                     [deg]
#   7 A_WORLD                Profile RMS along major axis (world units)                 [deg]
#   8 B_WORLD                Profile RMS along minor axis (world units)                 [deg]
#   9 THETA_WORLD            Position angle (CCW/world-x)                               [deg]
#  10 FWHM_WORLD             FWHM assuming a gaussian core                              [deg]
#  11 ELONGATION             A_IMAGE/B_IMAGE                                           
#  12 ELLIPTICITY            1 - B_IMAGE/A_IMAGE                                       
         1 -10.3301     10.6881     18.6134   1.1096638920e+02   6.9490412051e+01     1.249898    0.4741747 -15.48  0.003622861    9.005    0.889
         2 -10.9540     21.9748     53.7783   1.1820168597e+02   6.2907195999e+01    0.7802755    0.4827639 -77.03  0.002894485    3.779    0.735
         3 -10.9004     22.8352     34.5386   1.1154302228e+02   6.6074847545e+01    0.7288849    0.4159122  -0.26   0.00319211    1.901    0.474
         4  -9.7533     27.9280     22.6712   1.0484936305e+02   6.7306008990e+01     1.280229    0.6135037  -2.05  0.005741355    3.495    0.714
         5 -10.1454     50.4488     15.8049   9.2924983517e+01   6.5320996124e+01     1.008681    0.4875143   4.64  0.004178608    3.851    0.740
         6 -10.2284     64.4760     13.3444   8.6966523957e+01   6.3406918607e+01     0.320815    0.2472347  22.89 0.0003470132    1.060    0.057
         7  -9.5931     63.1458     21.3826   9.0648135125e+01   6.2752142056e+01    0.3335084    0.2284207 -48.15 0.0009771008    2.230    0.552
         8  -9.0515    112.2555     15.8353   7.4819844801e+01   5.3994258232e+01    0.2708491    0.1633647 -33.11 0.0008152391    1.884    0.469
         9  -9.5602    198.7024     19.9559   6.2012901468e+01   3.3465606400e+01    0.5219869    0.2565504 -86.16  0.002259607    2.532    0.605
        10  -9.5261     73.5127     19.4492   8.6473303490e+01   6.1233734112e+01    0.4036691    0.2537708 -50.08  0.002091204    2.630    0.620
        11  -8.9635     73.3961     13.8049   8.4298863368e+01   6.1837727089e+01    0.3526966    0.1826588   2.55  0.001659952    2.782    0.641
        12 -10.6707     37.3454      9.8367   9.5485402247e+01   6.7779706292e+01    0.7448968    0.2372527 -37.71  0.002380491    3.498    0.714
        13  -8.9347     95.9599     16.9424   7.9114727500e+01   5.7274220160e+01    0.2618503    0.1671629 -29.71  0.001015827    1.742    0.426
        14  -8.6874     96.5127     12.9413   7.7532575556e+01   5.7543775170e+01    0.3054904    0.1654852   9.82  0.001451356    2.610    0.617
        15  -9.8860      2.1974     14.2486   1.1328273438e+02   7.0751179978e+01    0.4252991    0.1803209 -52.36  0.002212416    3.255    0.693
        16 -10.5815      6.2846      4.8850   1.0732485656e+02   7.1674891095e+01    0.5087901    0.3033634  15.49  0.002250669    1.532    0.347
        17 -10.9146    248.6137     10.9152   5.5425560330e+01   2.3413554620e+01    0.6200406    0.3588363 -36.22  0.003666752    1.919    0.479
        18  -9.9522    124.2695     14.4036   7.1821645908e+01   5.1496250303e+01    0.4783923    0.2273144  48.32  0.002338536    1.793    0.442
        19  -9.4194     85.1791     13.0406   8.0558089634e+01   5.9753226535e+01    0.3272828    0.2287843 -54.25  0.001338811    2.280    0.561
        20 -10.1720     46.2830     29.9496   1.0021960229e+02   6.4131340190e+01    0.4867314    0.2451191 -40.09 0.0009553094    2.055    0.513
        21  -9.3454     31.1918     12.2880   9.9116927826e+01   6.8260805886e+01    0.1987872    0.1728442  46.30  0.001459044    1.956    0.489
        22  -9.7391     25.1839     11.2596   1.0127772087e+02   6.9067586859e+01    0.4663512    0.2104069  26.85  0.002712915    2.102    0.524
        23  -9.2543     19.7834      8.6156   1.0254783724e+02   6.9958973252e+01    0.3542558    0.1951622   6.23  0.002225503    1.804    0.446
        24  -9.7350     18.1866      3.8486   1.0114038613e+02   7.0681337140e+01    0.2917158    0.2568048 -50.40  0.001478313    2.264    0.558
        25  -9.0131    133.6974     11.9207   6.9263296763e+01   4.9597305306e+01     0.345928    0.1371068 -50.53  0.001277113    4.201    0.762
        26  -8.8735    114.0404      9.9970   7.2479659395e+01   5.4140991871e+01    0.1929189    0.1521326  42.17 0.0004305749    1.100    0.091
        27  -9.4166    127.2422      8.8798   6.9506841403e+01   5.1327657873e+01    0.2540365    0.1170362  43.35 0.0006316179    2.049    0.512
        28  -9.0602    101.9958      8.4130   7.4598193788e+01   5.6825470850e+01    0.2036842    0.1655993 -45.97  0.000726104    1.568    0.362
        29  -9.2740     68.2615      9.4126   8.4145498055e+01   6.3153851542e+01    0.1480112    0.1027496  50.16 0.0004246494    1.516    0.340
        30  -7.7636    110.2965      7.6886   7.2499938126e+01   5.5142296541e+01    0.1137986   0.09331109 -76.83 0.0002712248    1.597    0.374
        31  -8.0972     80.7839     12.6062   8.1633053385e+01   6.0618586764e+01    0.2517088    0.1231865 -40.50 0.0009761881    2.725    0.633
        32  -8.7970    125.8552      5.0866   6.8576316472e+01   5.1956775264e+01    0.2457364    0.1637019  39.22  0.001442354    1.440    0.306
        33  -8.6863     97.6770      5.7081   7.4649104377e+01   5.7936362529e+01    0.2312637    0.1129629  46.93 0.0004305454    1.651    0.394
        34  -8.5670     95.6383      3.2037   7.4229966019e+01   5.8549452990e+01    0.1818284    0.1457931 -12.21 0.0003935114    1.389    0.280
        35  -9.2417     78.0333      4.1292   7.9122847373e+01   6.1879053225e+01    0.3675645    0.2137978   1.07  0.002036005    1.966    0.491
        36  -8.9027    115.0931      4.3169   7.0383281107e+01   5.4386249806e+01    0.1957127    0.1608934 -63.21 0.0006617836    1.548    0.354
        37  -8.4054     89.4247      3.7003   7.5928876667e+01   5.9745939136e+01    0.3181316    0.1047893 -25.72  0.001424946    3.258    0.693
        38  -9.6069     63.8349      2.8664   8.2858782495e+01   6.4493307430e+01    0.2722443    0.2115011 -48.26  0.001696369    2.030    0.507
        39  -8.8383    209.6687      3.1591   5.7135115357e+01   3.2749214191e+01    0.2312695   0.08492825 -41.52  0.001087344    2.570    0.611
        40  -7.6478    111.3425      4.3108   7.1142672770e+01   5.5194439209e+01    0.1327778   0.07495284  36.65  0.000704553    1.699    0.411
        41  -8.4873    104.5816      2.0558   7.1801947343e+01   5.6800549507e+01    0.2393909     0.127996  45.47 0.0008303906    1.535    0.348
        42  -7.9388    136.5113      1.5518   6.5672336858e+01   4.9838061025e+01    0.1247535    0.1030588  64.04 0.0002310992    1.022    0.022
        43 -10.0913     91.9341    113.3263   1.1069198379e+02   4.1744316071e+01    0.5328327    0.3687101 -79.29  0.001696031    2.057    0.514
        44  -9.6458     11.2587    236.4348   1.4712278324e+02   2.3701140190e+01     1.019684     0.173949 -71.95  0.003515195    4.433    0.774
        45 -12.6868     32.4601    247.5014   1.4420249799e+02   1.9107316187e+01     2.084879     0.690374  40.33   0.01018097    2.710    0.631
        46 -10.7525    108.8934    101.2283   1.0263153130e+02   4.1295549645e+01    0.9916717    0.7327753 -84.50  0.004446755    2.000    0.500
        47 -10.3240    123.3031     91.3942   9.5919246208e+01   4.0372263204e+01    0.6244538    0.4403082 -36.19  0.001124371    1.456    0.313
        48 -10.6680    121.1623    112.0056   1.0212443047e+02   3.6483918509e+01    0.8055396    0.5232443 -61.27  0.001826352    1.797    0.444
        49  -9.9454    120.5634    103.7574   1.0008992739e+02   3.8397768771e+01    0.5876977    0.3641973 -17.84  0.002177277    2.732    0.634
        50  -7.7513    153.3007    115.6707   9.4940063048e+01   2.8660073025e+01    0.1614874    0.1241856 -82.59 0.0004027212    1.644    0.392
        51 -11.0254    133.8999    109.2694   9.8054341014e+01   3.4372486795e+01    0.9142572      0.39793 -46.77  0.003077871    2.294    0.564
        52  -9.5956    139.3693    104.5459   9.5408812754e+01   3.4164577590e+01     0.344145    0.2995044 -85.42 0.0007951122    1.291    0.225
        53  -9.8117    139.6102     99.6129   9.4013066096e+01   3.5129522866e+01    0.4337368    0.3274778  30.65  0.002024169    1.503    0.335
        54 -10.1598     78.0943    113.0219   1.1471939616e+02   4.4073664448e+01    0.5101827    0.3149682 -74.68  0.001792286    2.323    0.570
        55  -7.6717    167.3946    114.1758   9.1324134092e+01   2.5728505013e+01    0.2250456    0.1427248 -54.49 0.0004958002    1.675    0.403
        56  -9.2972     14.3336    111.5797   1.3379272042e+02   5.1499626296e+01    0.3108255    0.1849435  83.02  0.001600661    2.263    0.558
        57  -8.2756    158.5429    111.9308   9.2751460324e+01   2.8248532859e+01    0.2351597    0.1530948 -43.58 0.0004364836    1.527    0.345
        58 -10.5807     62.9895     95.8845   1.1517895858e+02   5.0091196672e+01    0.7573913    0.4781488 -88.12  0.001635577    3.478    0.712
        59 -10.1674     65.7855    110.8812   1.1794872848e+02   4.6358513749e+01    0.6658592    0.4256828  87.48  0.001234755    2.810    0.644
        60  -9.9474     59.5651    109.7146   1.1959562498e+02   4.7453208860e+01    0.4227752    0.2948402  62.95  0.001279206    1.953    0.488
        61  -9.8313     64.9912    103.2774   1.1638725954e+02   4.8190116433e+01    0.5014482    0.3460126 -61.47  0.002588619    1.469    0.319
        62  -9.0639     35.7894    110.6103   1.2713125234e+02   4.9924067015e+01    0.1605792    0.1182746  42.51 0.0004173105    1.605    0.377
        63  -8.3449    192.8125    107.4100   8.4363955888e+01   2.1160050254e+01    0.2062141     0.142745  42.95 0.0001618807    1.590    0.371
        64 -10.9832     44.8423    102.5819   1.2261796225e+02   5.0816171455e+01    0.7418209    0.4366304  77.53  0.002858424    3.900    0.744
        65  -8.7058     40.0836    107.2586   1.2512510460e+02   5.0261593709e+01    0.1776713    0.1586915 -55.50 0.0005401737    1.058    0.055
        66 -10.7874     20.8889    101.3672   1.2998907398e+02   5.3306098938e+01    0.8632884    0.4543971  80.72  0.003256879    4.506    0.778
        67  -8.8139    166.0556    104.1868   8.9051148021e+01   2.8085650802e+01     0.328766     0.213858 -48.49 0.0005573258    1.541    0.351
        68  -9.5330    149.4912    103.3154   9.2609740224e+01   3.2122441813e+01    0.3922081    0.2789573 -63.52   0.00092809    1.650    0.394
        69  -7.8257     13.8180    105.3326   1.3290214744e+02   5.2940814845e+01    0.1491828    0.1086497  -9.77 0.0005208055    1.693    0.409
        70  -9.4484      6.5902    103.8106   1.3484936218e+02   5.3751071593e+01    0.3167517    0.2009163  67.56  0.001341412    2.166    0.538
        71  -9.5236     81.4254    100.5988   1.1059047487e+02   4.6340189775e+01    0.3910879    0.2713378 -59.16 0.0009996735    1.521    0.343
        72  -9.0802    158.9135    101.0744   8.9825443668e+01   3.0387965234e+01    0.3992705    0.2069217 -54.13 0.0005135758    2.244    0.554
        73  -9.6166    246.1965    100.7708   7.4018187457e+01   1.0636073986e+01    0.2377135    0.1312657 -70.21 0.0009490944    2.762    0.638
        74  -9.4480     94.4009     97.3415   1.0578066009e+02   4.4841911622e+01     0.330461    0.2482676 -57.03 0.0006719833    1.411    0.291
        75  -8.4464     95.4655     91.0639   1.0371032947e+02   4.5963752034e+01    0.4369059    0.2578426 -12.98  0.001544485    3.374    0.704
        76 -10.2263    243.0217     92.4251   7.2660516804e+01   1.2732309665e+01    0.5459846    0.1827927 -31.82  0.001581628    4.908    0.796
        77 -10.0186    139.4198     93.1857   9.2289211452e+01   3.6463229955e+01    0.5613778     0.388513  86.69  0.001498445    2.250    0.556
        78 -10.4648     34.3255     91.1845   1.2348364058e+02   5.4389086803e+01    0.6409707    0.2609957 -60.18  0.002835304    2.261    0.558
        79 -10.6581     36.8834     81.0941   1.2017253987e+02   5.6271770177e+01     1.012973    0.4695065 -14.06  0.003292451    5.567    0.820
        80 -10.6109     20.8216     84.1813   1.2648416561e+02   5.7032018995e+01    0.8748472    0.1226425 -52.13  0.003039138    3.774    0.735
        81 -10.6749     25.7643     78.1010   1.2334286564e+02   5.7899576953e+01    0.6382601    0.4447627  79.15  0.002055206    2.519    0.603
        82  -9.4110    157.4933     91.4859   8.7573304742e+01   3.2601508831e+01    0.2834157    0.2150351 -52.47 0.0009488571    1.355    0.262
        83 -10.8021     48.5408     83.4145   1.1673995097e+02   5.4543657897e+01     1.182947     0.466658 -51.96  0.003661294    2.223    0.550
        84  -9.1820     58.5889     77.6107   1.1169190452e+02   5.4479313000e+01    0.2973932    0.2576335  76.21  0.001771271    1.633    0.387
        85 -10.9401     54.8107     70.8759   1.1103368037e+02   5.6281603170e+01    0.7286556    0.5362967  74.30  0.001150335    2.613    0.617
        86  -9.8363     54.5201     63.6255   1.0892007692e+02   5.7672795452e+01    0.3941072    0.2539719   0.67  0.002069474    1.884    0.469
        87 -10.1727    149.3845     88.4646   8.8591501281e+01   3.5083493727e+01    0.5365538    0.3702716  84.66  0.001779816    2.100    0.524
        88 -10.8335    150.2880     81.8947   8.6552753105e+01   3.6094844531e+01    0.7203324    0.3251739 -46.35  0.002157794    2.336    0.572
        89  -8.8254    113.2483     88.6897   9.7884346594e+01   4.3010669628e+01    0.3077414    0.2002754 -33.89 0.0008230396    1.615    0.381
        90 -10.1121     85.3356     86.6716   1.0554948820e+02   4.8636305138e+01    0.4104953    0.3250321 -86.42 0.0008717433    1.858    0.462
        91  -9.5512     87.7347     78.6383   1.0243780713e+02   4.9812097812e+01    0.7837062     0.363834  28.52   0.00276192    2.852    0.649
        92  -9.0513    163.6482     87.1997   8.5069081618e+01   3.1946660997e+01    0.2405768    0.1840775 -60.88 0.0007212194    1.410    0.291
        93 -10.2436      4.3282     89.9863   1.3318343152e+02   5.6890706836e+01    0.5177724    0.2824444 -80.57  0.002005906    2.161    0.537
        94  -9.4594    140.7774     84.3470   8.9472288202e+01   3.7853311339e+01    0.4836599    0.2419997 -47.97  0.001891115    2.143    0.533
        95  -9.9816    140.0465     75.9832   8.7247207277e+01   3.9543851329e+01    0.7275017     0.313505 -46.58  0.002032772    2.533    0.605
        96  -8.9521     65.5859     85.3772   1.1153087621e+02   5.1957493749e+01    0.4897586    0.2513333   6.05  0.001507269    5.309    0.812
        97  -8.7102    178.1428     84.8145   8.1480178256e+01   2.8902176664e+01    0.2207245    0.1945121 -82.62  0.000319918    1.140    0.123
        98 -10.7615    127.7666    102.4440   9.7812804588e+01   3.7152012172e+01    0.7328236    0.5812754 -61.00  0.002557074    1.374    0.272
        99  -9.8308    109.9388     63.9555   9.1318268280e+01   4.8210895768e+01    0.7484339    0.3529906 -39.10  0.002615559    2.171    0.539
       100  -9.0083    110.7977     58.2314   8.9259677178e+01   4.8959830456e+01    0.3619206    0.2218535  28.75  0.001387416    1.895    0.472
       101 -10.3415    103.8651     82.7248   9.8807967168e+01   4.6048691881e+01    0.5018702    0.2798331 -50.48 0.0009287961    1.958    0.489
       102  -9.7120    105.0653     72.2992   9.5302741986e+01   4.7755675169e+01    0.7119586    0.3413163 -25.64  0.002399907    3.125    0.680
       103  -8.5886    164.6605     94.3983   8.6779467230e+01   3.0343329468e+01    0.2732379    0.1780164 -52.87  0.000755563    1.616    0.381
       104 -10.6982    162.5214     71.6760   8.1070378675e+01   3.4969636789e+01    0.6571965    0.3299817 -47.78  0.001754939    2.130    0.530
       105 -10.1323    157.8733     83.0830   8.5194055732e+01   3.4082105333e+01     0.578786     0.226908 -35.83  0.001406815    2.804    0.643
       106 -10.5489    157.0479     75.7437   8.3341539958e+01   3.5586996840e+01    0.6047636    0.3634008 -44.22  0.001823575    1.706    0.414
       107  -9.6333    156.9162     68.7028   8.1401085608e+01   3.6814266833e+01    0.4234225    0.2768361 -21.79  0.001889675    1.970    0.492
       108  -8.8533    157.4474     63.2417   7.9756684003e+01   3.7572487839e+01    0.2623234    0.2412647 -63.60 0.0007797917    1.119    0.106
       109  -7.7345     63.6343     82.2814   1.1131332347e+02   5.2861692755e+01    0.1270212    0.1064902  73.31  0.000515236    1.685    0.406
       110  -9.6225    166.1624     79.4393   8.2445308746e+01   3.2750614581e+01    0.3994089    0.2065572 -38.42  0.001217684    1.989    0.497
       111  -8.7667    119.0296     80.5538   9.3918218609e+01   4.3376653423e+01     0.271448    0.1997502 -57.38 0.0006621353    1.581    0.368
       112  -9.0406     74.1920     80.2683   1.0724359156e+02   5.1720284788e+01    0.3004451    0.2190496 -62.06 0.0008120444    1.696    0.410
       113  -9.6375      5.3972     78.9633   1.3069676737e+02   5.9144507942e+01    0.5681388    0.2065856 -29.48  0.002405309    3.608    0.723
       114  -8.5574     68.8182     78.5795   1.0851876726e+02   5.2862992893e+01    0.2581663    0.1517986 -34.86 0.0007031122    1.665    0.399
       115  -8.6867    184.4561     78.0221   7.8529288369e+01   2.8580386351e+01    0.2613328    0.2017089  44.10 0.0005860144    1.420    0.296
       116  -9.5543    127.3662     75.3719   9.0191344978e+01   4.2517779695e+01    0.3602872    0.2681232 -69.62 0.0009470809    1.792    0.442
       117 -10.0533    234.2583     75.2330   7.0095055493e+01   1.7488772967e+01    0.2604336    0.2225183  73.02 0.0002764046    1.214    0.176
       118 -10.4245    238.8511     71.4065   6.8668477905e+01   1.7111753055e+01    0.3112246    0.2897601 -18.56  0.001182342    1.412    0.292
       119  -8.4284    120.0739     76.1250   9.2317904253e+01   4.3968868719e+01    0.2262817    0.1906941  17.51 0.0006645994    1.286    0.222
       120 -10.0296     81.7063     72.6146   1.0250300819e+02   5.1980292835e+01    0.3976814    0.2944379 -64.18  0.001238627    1.854    0.460
       121  -9.5398     84.2005     64.5039   9.9141701149e+01   5.3014318061e+01    0.7143049    0.3763759  22.41   0.00291656    2.701    0.630
       122  -8.6773     75.7294     74.5793   1.0504189052e+02   5.2583728222e+01    0.4265822    0.1754854  28.86  0.001588166    3.145    0.682
       123  -9.2541    115.1718     73.2379   9.2764594742e+01   4.5525394583e+01    0.3614112    0.2478855 -49.04 0.0006240141    1.592    0.372
       124  -9.3436    120.4257     66.5387   8.9309110978e+01   4.5564581615e+01    0.5203546    0.3470396  35.37  0.001750677    1.558    0.358
       125  -7.9729    122.3811     60.8676   8.7050007999e+01   4.6066215463e+01    0.2289625    0.1623641   3.10 0.0006684316    1.920    0.479
       126  -9.4695    169.4280     71.7045   7.9699697391e+01   3.3295439706e+01    0.3397244    0.1463217 -36.08  0.001035267    2.458    0.593
       127  -9.6639    191.6618    248.3342   1.1363211385e+02  -5.7746673106e+00     0.191016    0.1527785  64.78  0.001046059    1.707    0.414
       128 -10.8008     16.2171     66.5501   1.2394841225e+02   6.0948865442e+01     1.226616    0.1896423 -54.75  0.004316884    4.080    0.755
       129  -9.2449    129.9890     96.8586   9.5697021224e+01   3.7826090236e+01    0.3590784     0.206924  29.45  0.001371712    2.350    0.575
       130 -12.0045    245.9788    238.2962   1.0174555184e+02  -1.2602380769e+01    0.2352624     0.202624  -1.02  0.000302658    1.142    0.124
       131  -9.1714    188.2824    233.9659   1.1196428754e+02  -2.8909963749e+00    0.1792549    0.1676387  -8.30 0.0006752686    1.130    0.115
       132 -10.1749      5.1519     42.0199   1.2157763082e+02   6.6198024136e+01    0.4961806    0.2683468 -63.36    0.0026255    2.379    0.580
       133 -10.1871      8.4788     46.9949   1.2166090970e+02   6.5117047642e+01    0.6526563    0.1860494  28.92   0.00301108    3.877    0.742
       134 -10.0013     14.7520     44.5909   1.1832942793e+02   6.5097060966e+01    0.4349794    0.2246381 -15.13  0.001230296    2.183    0.542
       135 -10.0427      6.9482     32.5100   1.1776416592e+02   6.7668651191e+01    0.3361399    0.1887064   6.73  0.001072187    1.838    0.456
       136 -10.2724      7.2103     28.4261   1.1623845210e+02   6.8297454902e+01    0.2890579    0.2814756  50.19  0.001088388    1.727    0.421
       137  -9.6795    147.0583     69.4484   8.3742552429e+01   3.9034412721e+01    0.4059668    0.2633033 -59.07  0.001036457    1.905    0.475
       138  -9.5541    129.2217     68.8909   8.7784261244e+01   4.3232346171e+01    0.8998868    0.2711735  40.65  0.002523994    4.426    0.774
       139  -9.0781    130.8490     64.6955   8.6117864127e+01   4.3564766673e+01    0.3679532    0.2108333 -35.07  0.001113928    1.841    0.457
       140  -9.8167     94.7377     68.3933   9.7121529893e+01   5.0437753411e+01    0.3767966    0.2583733 -47.40 0.0008634476    1.578    0.366
       141 -10.7082     31.7069     64.8708   1.1768361087e+02   5.9990060200e+01    0.8511222     0.319599 -29.77  0.003121665    4.031    0.752
       142  -8.1102     23.4366     69.0178   1.2189672635e+02   5.9913557418e+01    0.1772787   0.09907781 -52.62 0.0003845653    1.509    0.337
       143  -9.5649    138.1988     65.2749   8.4541568648e+01   4.1791862969e+01    0.5822414    0.2560564 -30.46  0.001577552    2.730    0.634
       144  -9.5712    236.2352     64.3835   6.7478028767e+01   1.8789667940e+01    0.2343138    0.1607087  82.48 0.0008951958    1.480    0.324
       145  -9.3434    164.2083     61.3055   7.7876169116e+01   3.6245685262e+01     0.307546    0.1806677 -17.24  0.001148548    2.655    0.623
       146  -9.3368     96.8000     59.2130   9.3549130267e+01   5.1603141659e+01     0.677434     0.377761  -4.00   0.00230148    4.153    0.759
       147  -8.7269     87.6240     58.5751   9.6125093368e+01   5.3411581633e+01    0.2877379    0.2173325 -53.30 0.0009806043    1.645    0.392
       148  -8.5975     89.4593     53.1526   9.3743996792e+01   5.3943954862e+01    0.3943615    0.2298093  23.46   0.00181958    2.090    0.522
       149 -10.1854     85.1429     48.0960   9.3349221121e+01   5.5497850282e+01    0.3606007    0.2968005 -81.36 0.0009452878    1.986    0.496
       150 -10.3498     63.1662     60.8414   1.0496985432e+02   5.6990168408e+01    0.7026846    0.2324841  35.72  0.002278255    3.136    0.681
       151 -10.0565     73.0548     59.0608   1.0099870860e+02   5.5800636753e+01    0.5335457    0.2405564 -46.35 0.0009369834    2.386    0.581
       152  -9.3731     77.0355     50.5597   9.6798130732e+01   5.6531752641e+01    0.6626199    0.2133359  39.18  0.002525007    3.089    0.676
       153  -9.2651     80.0145     46.4886   9.4413021092e+01   5.6641767689e+01    0.3186344    0.2015496 -19.57 0.0009788946    1.704    0.413
       154  -9.2369     10.2350     60.8821   1.2476977510e+02   6.2448917225e+01     0.259513    0.1926593  55.42  0.001671861    2.135    0.532
       155  -7.8193    152.5231     60.5313   8.0001369963e+01   3.9178666124e+01    0.1452871    0.1340013  82.33   6.0519e-05    1.080    0.074
       156  -9.0266    146.3288     58.9930   8.0868563532e+01   4.0888249210e+01    0.2603272    0.1989592  77.29 0.0004940169    1.460    0.315
       157  -9.5434    147.4915     54.0293   7.9171656168e+01   4.1361351639e+01    0.4433496     0.207285 -24.77  0.001644348    2.920    0.657
       158  -9.4567    129.9689     57.9897   8.4288233369e+01   4.4828340849e+01    0.2427762    0.2084162 -58.39 0.0006438658    1.317    0.241
       159  -9.3901    156.0026     57.0048   7.8286401658e+01   3.8885929143e+01    0.3994843    0.2571324  84.03  0.001753907    2.076    0.518
       160  -9.0729    152.2194     54.2360   7.8257711256e+01   4.0205701353e+01    0.2788454    0.2272977 -64.63 0.0008365726    1.357    0.263
       161  -9.6384    138.9641     56.6653   8.1800198464e+01   4.2969153366e+01    0.4759765    0.2271456 -43.73 0.0006119855    2.277    0.561
       162  -9.3990    118.2590     55.3629   8.6373077444e+01   4.7820454182e+01     0.327497    0.2610886 -58.69  0.001248592    1.534    0.348
       163 -10.1546     50.0968     54.0535   1.0744259556e+02   5.9926452949e+01     0.625621    0.3052032 -53.42  0.002497067    2.654    0.623
       164  -9.5470     55.8929     43.2407   1.0155702661e+02   6.0907663455e+01    0.6145371    0.3246386  -3.81   0.00250623    3.466    0.711
       165  -9.7073    173.8317     52.2562   7.3661349618e+01   3.5272044173e+01    0.5094054    0.2977828 -67.19  0.002161003    2.313    0.568
       166 -10.0731    168.5966     49.8074   7.3916659308e+01   3.6896089544e+01    0.6714473    0.3122134 -34.11  0.002821111    2.321    0.569
       167  -8.3355     94.8492     54.6800   9.2630105307e+01   5.2697628344e+01    0.1969684    0.1660227  -7.78  0.001147622    1.174    0.148
       168  -9.6941    162.6675     54.0121   7.6152666518e+01   3.7724872594e+01    0.2908247    0.2338961 -56.79 0.0008151578    1.312    0.238
       169  -8.8675    111.7063     47.4185   8.5506707243e+01   5.0386204862e+01    0.2693288    0.2363827  33.21 0.0006446095    1.045    0.043
       170  -8.8095    105.3796     53.2456   8.9127863875e+01   5.0844577288e+01    0.2831106    0.2053236 -57.53 0.0007710032    1.846    0.458
       171  -8.5301    105.8300     48.7818   8.7528717763e+01   5.1413181167e+01    0.3120092    0.1457274  33.99  0.001246619    2.543    0.607
       172  -8.4366     44.1473     54.0928   1.0968362317e+02   6.0641656407e+01    0.1915176    0.1376266 -18.69     0.000279    1.270    0.213
       173  -9.3336    149.8938     48.6773   7.7120827683e+01   4.1560641747e+01    0.3467989     0.190679 -43.61  0.001061983    1.961    0.490
       174  -9.1151    142.0456     48.9516   7.8821415518e+01   4.3376869381e+01    0.3300574    0.1881741 -40.36 0.0007243583    1.874    0.466
       175  -9.3647    139.3264     40.0646   7.6724697856e+01   4.5209974855e+01    0.4189369    0.2536304 -47.97  0.001506107    1.916    0.478
       176  -8.3700    157.4124     49.1965   7.5799699957e+01   3.9687414125e+01    0.1906359    0.1268166 -49.02 0.0005086749    1.628    0.386
       177  -9.5511    130.1528     47.2198   8.0919790250e+01   4.6365073463e+01    0.5173664    0.2114252 -31.08    0.0012335    2.726    0.633
       178  -9.0785    132.8880     37.2737   7.7227608475e+01   4.7052161083e+01    0.5031338    0.1957759 -30.17  0.001520525    2.862    0.651
       179 -10.5425    134.0977     30.8249   7.4983133792e+01   4.7550806592e+01    0.3112603    0.2411683  17.78            0    1.510    0.338
       180  -8.9083    121.0806     46.8444   8.2949954043e+01   4.8445556281e+01    0.2214461    0.1923302 -34.93 0.0005287515    1.244    0.196
       181  -8.2504    162.4990     46.4674   7.4090639025e+01   3.8841164515e+01    0.1405866    0.1272321  74.14 0.0001237138    1.013    0.013
       182 -10.8823     37.0179     39.4148   1.0742820365e+02   6.3869793712e+01    0.6605653    0.4041215 -44.83  0.001349389    1.695    0.410
       183  -9.6852     30.2671     42.4157   1.1121158962e+02   6.4105772717e+01    0.5220255    0.2444656  42.89  0.002488706    3.402    0.706
       184  -8.5817     53.3997     39.2184   1.0101587308e+02   6.1856890588e+01    0.1720609    0.1614694  82.88 0.0009637329    1.737    0.424
       185  -9.1208     49.9531     36.4119   1.0127112335e+02   6.2734535096e+01    0.2641632    0.2149697  -9.07  0.001285786    1.036    0.035
       186 -11.6911     50.9138    225.6774   1.3903113722e+02   2.1270426651e+01     1.322683    0.5605802  60.29  0.006051557    2.408    0.585
       187  -8.3915     42.2010     27.8703   1.0101072812e+02   6.4939615915e+01    0.1861982    0.1165536  -2.31 0.0002377736    1.633    0.388
       188  -8.1472    209.8925     44.8912   6.6432169261e+01   2.7665655880e+01    0.1887702    0.1711131  65.76  0.000496922    1.230    0.187
       189  -9.9883     68.7539     42.5837   9.6758382514e+01   5.9086910394e+01    0.4283103    0.3589468 -31.16  0.001838133    1.274    0.215
       190  -8.5976    191.0966     41.8987   6.8270493753e+01   3.2542083199e+01    0.2001868    0.1810198  65.00 0.0005251006    1.162    0.140
       191 -10.1690    151.6475     41.0168   7.4561559987e+01   4.2179477086e+01    0.6397869    0.2587098  59.97  0.002030122    2.246    0.555
       192  -9.2849    110.2243     33.6331   8.1301599518e+01   5.2508047330e+01    0.3558048    0.2150112 -35.87  0.001168471    1.817    0.450
       193  -9.3053    104.8053     40.9984   8.5195871972e+01   5.2703131075e+01    0.3565491    0.2177098 -45.57  0.001086792    1.983    0.496
       194  -8.2009    106.0263     36.4735   8.3336746475e+01   5.3036904453e+01    0.2669281    0.1623057  36.61  0.001337012    1.579    0.367
       195 -10.5235     89.1716     38.0904   8.8607331728e+01   5.6163519467e+01    0.7322434    0.2798826  39.27  0.003023155    2.559    0.609
       196  -8.5859    218.9870     37.5548   6.3662706663e+01   2.6564309149e+01    0.2000656    0.1903515 -21.87 0.0006090411    1.409    0.290
       197  -8.7313    144.0625     36.5959   7.4732242194e+01   4.4539418008e+01    0.2419617    0.1786188 -53.21 0.0006842199    1.546    0.353
       198  -8.7120    118.8605     34.8192   7.9598255032e+01   5.0502869529e+01    0.2629843    0.1778278 -34.10 0.0008559022    1.619    0.382
       199  -9.3370    100.8833     32.8025   8.3436067976e+01   5.4544025914e+01     0.413886    0.1918485 -27.01   0.00150418    2.381    0.580
       200  -8.6816    153.5812     34.7417   7.2403196582e+01   4.2511494125e+01    0.1819284     0.123849 -46.03 0.0005272123    1.609    0.378
       201  -9.3521     73.1283     35.2620   9.2609941274e+01   5.9394857711e+01    0.4012737    0.1538041  42.29   0.00162629    2.454    0.592
       202 -10.0473     76.1799     32.1050   9.0444422294e+01   5.9284776227e+01    0.3467868    0.2811476  61.89  0.001144329    1.707    0.414
       203  -9.2773     60.2272     33.8434   9.6514129291e+01   6.1638330132e+01    0.2956609    0.1995618 -43.99  0.000910411    1.826    0.452
       204  -9.3248    191.0682     29.1881   6.5149966177e+01   3.4182170092e+01    0.5364457    0.2537183 -78.21  0.001922488    3.668    0.727
       205  -7.6793    148.3046     29.6324   7.1886731362e+01   4.4372903291e+01    0.1381393   0.09770515 -70.90 0.0007035146    1.746    0.427
       206  -9.2807    227.5918     26.5604   6.0368636152e+01   2.6047027444e+01    0.2788326    0.2092457 -35.15  0.001235961    1.565    0.361
       207  -9.5945    172.5505     26.2565   6.6984325043e+01   3.8967287734e+01    0.4404619    0.2619742 -80.65  0.001642923    2.101    0.524
       208 -10.0260    158.6572    216.4796   1.1514838543e+02   5.5757957736e+00    0.2439247    0.2317972  41.31 0.0002280535    1.036    0.034
       209  -8.9931     64.2382     26.4031   9.2246408735e+01   6.1981045133e+01    0.4534284    0.2035928  36.42  0.002265618    2.064    0.516
       210  -8.1659     11.8561    207.1224   1.4502436121e+02   2.9781810643e+01    0.1867201    0.1241153  75.45 0.0008288063    1.219    0.180
       211  -8.0112    153.3043     27.3159   7.0337516017e+01   4.3452435076e+01    0.1352686   0.09382648  36.54 0.0007025057    1.623    0.384
       212  -8.8780     91.4499     26.4545   8.3770074033e+01   5.7157404125e+01    0.2951157    0.1929025 -51.34 0.0008552951    2.261    0.558
       213  -8.5457     91.9091     21.2237   8.1742127185e+01   5.7640241320e+01    0.3126972    0.1575193  23.85  0.001393532    2.626    0.619
       214  -9.3512     73.4080     25.7835   8.8950358678e+01   6.0536906523e+01    0.4061163    0.2480095  37.61   0.00233563    1.463    0.317
       215  -9.6430     79.6636     23.9183   8.6280359814e+01   5.9649688592e+01    0.6749471     0.237646  35.89  0.002699523    3.064    0.674
       216  -9.1309     84.7099     21.9632   8.4043265837e+01   5.8938127314e+01    0.2435358    0.1955203  30.11 0.0008245524    1.058    0.055
       217  -8.2597    144.4793     25.9839   7.1516422068e+01   4.5685672130e+01    0.1822261    0.1321302 -31.21  0.000711552    1.558    0.358
       218  -8.7739    128.1707     25.6617   7.4596265380e+01   4.9482438813e+01    0.2101466     0.172233 -45.95 0.0005551066    1.409    0.290
       219  -8.5502    178.1192     30.2180   6.7196997421e+01   3.7161451939e+01    0.2539771    0.1513706 -64.04  0.001219344    1.957    0.489
       220  -8.9938    103.0064     21.4187   7.8916270967e+01   5.5389445416e+01     0.267607    0.1732403 -33.91 0.0006814476    1.745    0.427
       221  -9.5890    119.1526     21.6008   7.5211981573e+01   5.1924108027e+01    0.2526478    0.2066566  71.03 0.0006531085    1.291    0.226
       222  -8.2559    111.6784     21.5841   7.6887611748e+01   5.3548263932e+01    0.2114901    0.1174492 -26.39  0.001083665    2.004    0.501
       223  -8.5493     22.2318    203.6842   1.4272529369e+02   2.9480389156e+01     0.220008     0.148507 -46.04  0.001186646    2.085    0.520
       224  -8.1163    160.0050    201.9955   1.1231373075e+02   8.2381271684e+00    0.1760221    0.1581013  42.65 0.0003295415    1.052    0.049
       225 -10.0175    192.3149    194.7767   1.0402621414e+02   3.4926255294e+00    0.9574235    0.4711293 -63.72  0.002718261    5.516    0.819
       226  -7.9893    230.3042    167.6421   9.1010149327e+01   1.4819678283e+00    0.1399234     0.109999 -70.70 0.0007039498    1.721    0.419
       227  -9.2107     40.9705     20.7432   9.8641623387e+01   6.6027733073e+01    0.1946998    0.1435379 -20.86 0.0004088724    1.236    0.191
       228  -9.3470    176.2716    166.5166   1.0165033702e+02   1.2487026484e+01    0.3271909    0.1872925 -59.28  0.001068237    2.179    0.541
       229  -8.8878    250.2638    160.1214   8.5971495211e+01  -7.4381325991e-01     0.197981    0.1647807 -20.60  0.000445553    1.157    0.136
       230  -9.1350    107.0162    159.0375   1.1671070990e+02   2.8163148270e+01    0.2171262    0.2038464 -81.91            0    1.006    0.006
       231  -9.1133    132.7960     17.1665   7.1034016004e+01   4.9307600322e+01    0.1904449    0.1669587  89.11 0.0007326098    1.239    0.193
       232  -8.6706    250.6696    155.2910   8.4905732933e+01   4.0977785285e-02    0.2349294    0.1118211 -42.11 0.0003166082    1.854    0.461
       233  -7.8322    172.8343    154.1902   9.9699967517e+01   1.5885086784e+01    0.2061055    0.1810353 -10.13 0.0002527476    1.306    0.234
       234  -7.9458    250.6160    150.4799   8.3914330746e+01   9.0713148830e-01    0.1372433     0.116729 -34.02 -2.205245e-05    1.038    0.036
       235  -9.0045    189.7242     15.6064   6.2041415229e+01   3.6060246864e+01    0.2702985    0.1943918  88.95 0.0008628225    1.242    0.195
       236 -10.2899    219.4220    148.8655   8.8978348920e+01   7.1547124832e+00    0.2538428    0.2392395 -60.61 0.0003065751    1.101    0.092
       237  -8.2297    103.9978     15.5197   7.6615477687e+01   5.5770267780e+01    0.2679447    0.1256126  21.48  0.001037448    3.637    0.725
       238  -9.1049    133.5901    146.3220   1.0723376732e+02   2.6038149474e+01     0.687898    0.1833186 -54.53  0.001677501    4.935    0.797
       239  -8.5539    236.4918    146.4635   8.5414515098e+01   4.2524116562e+00    0.1415328     0.127753 -33.30 0.0002654838    1.031    0.030
       240  -9.7061     66.7945    144.1126   1.2451080920e+02   3.8295587674e+01    0.4216172    0.2954504  67.44  0.002103991    1.683    0.406
       241  -8.3054    105.3786    143.9633   1.1402822638e+02   3.2113583628e+01    0.2075877    0.1752382 -55.26 0.0003129442    1.138    0.122
       242  -9.0418    135.9115    131.4924   1.0317701018e+02   2.8991651664e+01    0.7363526    0.1738596 -48.96  0.001887728    4.318    0.768
       243  -8.3472    132.3111    131.6301   1.0412724886e+02   2.9721909565e+01    0.3676842    0.2187747  80.93  0.001080425    4.157    0.759
       244  -7.8725    141.6748     12.3362   6.7995705819e+01   4.7725738070e+01    0.1293818   0.09185233 -73.87 0.0007051373    1.719    0.418
       245  -8.2916    112.2823    134.0916   1.0997389533e+02   3.3183176310e+01    0.3033052    0.1978149  69.69  0.001217316    2.190    0.543
       246  -9.5027    238.1866    130.7217   8.1725916969e+01   6.8452823700e+00    0.2443193    0.1999318 -41.18 0.0002601511    1.102    0.093
       247  -9.6932     98.4093    128.5770   1.1249931564e+02   3.7057844359e+01    0.5765239    0.3663985  82.63  0.002155173    2.857    0.650
       248  -7.9112    223.9917    130.1747   8.3998299021e+01   9.8285525393e+00    0.2355434    0.1675873 -89.62   0.00106707    2.027    0.507
       249  -8.3135    161.4863    129.7654   9.6553246154e+01   2.3750353232e+01    0.3103584    0.2355341 -73.43  0.001384537    1.594    0.373
       250 -10.0334     71.0078    125.8878   1.1972357231e+02   4.2110471812e+01    0.5411624    0.3655023 -72.58  0.001540463    1.626    0.385
       251  -9.1672     66.5012    128.4660   1.2156591871e+02   4.2127988218e+01    0.3008115    0.2385862  74.98  0.001283314    1.475    0.322
       252 -10.0445     58.3014    124.7669   1.2319634390e+02   4.4096633019e+01    0.5814524    0.3508267  81.68  0.002389783    2.834    0.647
       253 -10.0980    117.0965    125.5648   1.0664991096e+02   3.4239804294e+01    0.5435978    0.3792676 -86.11  0.001367098    2.133    0.531
       254  -9.3737    117.6240    119.6810   1.0504927164e+02   3.5484381222e+01    0.3016286    0.2176883   6.85  0.000893938    2.081    0.519
       255  -7.3234    171.2946    126.7180   9.3587188524e+01   2.2184668079e+01    0.1554175    0.1231497 -85.16  0.000216437    1.537    0.349
       256  -9.5032     27.4913    123.2426   1.3187140321e+02   4.7765966334e+01    0.5104085    0.2750172  74.52   0.00218133    3.113    0.679
       257  -9.6013    135.2705    122.0804   1.0101458832e+02   3.1261683069e+01    0.4518883    0.2943707 -51.77   0.00171234    1.544    0.352
       258  -9.8950    130.1588    118.4487   1.0140960748e+02   3.3168113578e+01    0.4406206    0.3019249 -67.00  0.001105329    1.802    0.445
       259  -9.2914     41.3297    121.8290   1.2760517621e+02   4.6759766472e+01    0.4455123    0.2143238 -75.44  0.001837352    2.590    0.614
       260 -10.0106    140.6488    118.6566   9.8787400378e+01   3.0849939002e+01    0.5102587    0.3395079 -66.55  0.001413673    1.909    0.476
       261 -10.0317    108.5062    114.6260   1.0627723714e+02   3.8423697123e+01    0.5338039    0.3503601 -75.45  0.001624263    2.296    0.564
