#   1 NUMBER                 Running object number                                     
#   2 MAG_AUTO               Kron-like elliptical aperture magnitude                    [mag]
#   3 X_IMAGE                Object position along x                                    [pixel]
#   4 Y_IMAGE                Object position along y                                    [pixel]
#   5 X_WORLD                Barycenter position along world x axis                     [deg]
#   6 Y_WORLD                Barycenter position along world y axis                     [deg]
#   7 A_WORLD                Profile RMS along major axis (world units)                 [deg]
#   8 B_WORLD                Profile RMS along minor axis (world units)                 [deg]
#   9 THETA_WORLD            Position angle (CCW/world-x)                               [deg]
#  10 FWHM_WORLD             FWHM assuming a gaussian core                              [deg]
#  11 ELONGATION             A_IMAGE/B_IMAGE                                           
#  12 ELLIPTICITY            1 - B_IMAGE/A_IMAGE                                       
         1 -10.6732      4.6132     35.3292   1.0592977282e+02   6.8243094720e+01    0.9288101    0.2302793 -52.79  0.003314534    2.568    0.611
         2 -10.4202    142.1373     13.1996   4.8951941882e+01   4.8057748184e+01     0.846171     0.302839  55.81  0.001036533    2.303    0.566
         3  -9.5557    134.5435      9.9206   4.9182655792e+01   5.0252102790e+01    0.3461221    0.2518422 -15.30  0.000732145    1.551    0.355
         4  -9.4285    137.9881      7.9860   4.7896373636e+01   4.9583999521e+01    0.3091691    0.2018655  19.81  0.001309876    1.879    0.468
         5 -10.1589    133.0308     19.5301   5.2860600405e+01   4.9648075036e+01    0.3848264    0.2714545  39.71 0.0003539115    1.385    0.278
         6 -10.2690     16.1374     18.3807   9.3924811122e+01   7.0540663380e+01    0.4468834    0.2138366 -47.83  0.001235439    1.874    0.466
         7 -10.5278     22.9514     17.0480   8.9784417623e+01   7.0144877028e+01    0.5279865    0.2591301  35.05    0.0029026    2.457    0.593
         8  -9.9695    211.5361     19.6068   4.1398426101e+01   2.9993536203e+01    0.3478208    0.2561151 -26.27  0.001427601    1.534    0.348
         9  -9.6482    236.7755     12.2058   3.7315821023e+01   2.4964494324e+01    0.4476652    0.2849814  68.92  0.002459321    1.557    0.358
        10 -10.0322     40.2950     15.0432   8.0330675793e+01   6.8467789776e+01    0.4026258    0.2920427 -42.72  0.001694015    1.678    0.404
        11  -8.3007     42.4724     10.4267   7.7065337120e+01   6.8803139147e+01    0.2022089    0.1286594 -27.82 0.0004685257    1.432    0.302
        12 -10.1753     51.0046     18.3278   7.7125512645e+01   6.6516412535e+01    0.3077817     0.262174  -1.60  0.002080511    1.100    0.091
        13 -10.2723     46.7655     17.5657   7.8605767767e+01   6.7233247319e+01     0.342676    0.2546693  15.61  0.001341325    1.229    0.186
        14  -8.8181    156.3914     15.9002   4.7460899135e+01   4.4203600447e+01    0.4344274    0.3590607  52.90   0.00249236    1.147    0.128
        15  -9.6521     63.8659     17.2473   7.1425382174e+01   6.4622263554e+01    0.4033952    0.2778466   2.20   0.00174565    1.446    0.308
        16  -8.6045     66.8533     11.8529   6.7785565231e+01   6.4761802294e+01    0.2233436    0.1950747  13.33 0.0007320522    1.109    0.098
        17 -10.2943     88.5736     16.3593   6.2617553987e+01   6.0089975632e+01    0.5745862    0.2582562  47.91  0.002146204    1.992    0.498
        18  -9.8579     92.2783     12.3063   5.9793923256e+01   5.9760253400e+01    0.3266972    0.1912706  34.87 0.0009125977    1.608    0.378
        19  -9.1632    109.7898     15.6815   5.6577330858e+01   5.5562886017e+01    0.3152858    0.2530549   6.69 0.0002681019    1.291    0.226
        20  -8.9254    113.2933     12.3626   5.4448486187e+01   5.5097344868e+01    0.2857229    0.1993858  43.00 0.0006863395    1.280    0.219
        21 -11.9483    101.4042     13.8242   5.7947118369e+01   5.7635806990e+01    0.3747304    0.3534588 -25.22 0.0002773661    1.213    0.176
        22 -11.3105    100.3109      9.7253   5.6539695107e+01   5.8288675802e+01     1.022514    0.5930073 -68.64  0.001903074    4.345    0.770
        23  -9.0609    205.4313      8.5489   3.9235816614e+01   3.2692001241e+01    0.2485151     0.189766 -70.96  0.001215295    1.195    0.163
        24  -9.8194    204.5184     12.3536   4.0292247333e+01   3.2508771017e+01    0.3489282    0.2577401 -69.31 0.0007387403    1.268    0.211
        25 -10.3116    209.5687     11.5885   3.9592706329e+01   3.1368298000e+01    0.3400374    0.2500283 -61.24 0.0002987522    1.257    0.204
        26  -9.6980    193.4181     12.7306   4.1583671405e+01   3.5198943830e+01     0.400221      0.21358  51.97  0.001890212    1.947    0.487
        27  -8.5379      1.6005      2.2247   9.4819762008e+01   7.4221076908e+01    0.2190428    0.1420125 -39.02  0.001037906    1.296    0.228
        28  -9.3694     17.2792      9.2898   8.9172758893e+01   7.1885777351e+01     0.368805     0.169278 -29.78  0.001670876    1.904    0.475
        29  -9.6995     13.1543      9.1131   9.1371672830e+01   7.2278341216e+01    0.2715026    0.2426908  16.79  0.001436216    1.528    0.345
        30  -9.3670      6.4844     12.5159   9.6669512847e+01   7.2246163488e+01    0.2935911    0.1755592 -36.45  0.001952314    1.263    0.208
        31 -10.3164      6.6450      7.6426   9.4391457691e+01   7.3021630915e+01    0.5217499    0.2496352 -46.94  0.003087669    1.851    0.460
        32  -9.8519    183.3471     10.2332   4.2066325953e+01   3.7972823292e+01    0.5388577    0.3157701 -76.99  0.002053167    1.928    0.481
        33  -8.2702    229.1600     12.1333   3.7931954150e+01   2.6698523936e+01    0.2276625    0.1370889  67.43 0.0009010895    1.619    0.382
        34  -8.8163     84.5351      6.7992   5.9621554978e+01   6.1918345631e+01    0.3207334    0.2463287 -28.89  0.001948292    1.447    0.309
        35  -9.3386     80.9568     11.8293   6.2977272985e+01   6.2120653114e+01    0.3319371    0.1753505  44.64  0.001053579    1.689    0.408
        36  -9.0449     74.3407     11.3693   6.4931575093e+01   6.3446394945e+01     0.402758    0.1866021  40.31  0.001931331    1.951    0.488
        37  -8.9745     60.1049     11.2187   7.0021832872e+01   6.6000174662e+01    0.3221113    0.2614326  78.55  0.001291421    2.326    0.570
        38  -8.3341    150.1807     10.7708   4.6799540330e+01   4.6284625328e+01    0.1935109    0.1640817  81.26 0.0004363514    1.140    0.123
        39 -10.0245     25.4332      9.6437   8.4992464035e+01   7.1015610832e+01    0.4159963    0.2834204 -40.42  0.002016681    1.568    0.362
        40  -8.0053     23.7440      2.9836   8.2458015889e+01   7.2126542217e+01    0.1511562   0.09633132 -38.49 0.0007053647    1.662    0.398
        41  -8.0643     48.1892      9.8111   7.4218010511e+01   6.8059199070e+01    0.1701177    0.1546666  -5.73  0.001199513    1.316    0.240
        42  -8.8201    224.5637      7.5085   3.7250016742e+01   2.8265188850e+01    0.2427347    0.2099977  17.75  0.001529919    1.624    0.384
        43  -9.3682    223.2524      4.6347   3.6690756693e+01   2.8874033106e+01    0.4609102    0.2237806 -20.74  0.002126703    2.699    0.630
        44  -7.8072    128.5243      9.4866   5.0159038156e+01   5.1760714101e+01    0.1349716    0.1210786  54.51 8.823687e-05    1.023    0.023
        45  -9.3089    250.2637      7.7090   3.5322687901e+01   2.2517649406e+01    0.1975981    0.1562026 -43.72 0.0008028241    1.253    0.202
        46 -11.5829     65.7766      5.4602   6.5104807164e+01   6.5655904071e+01     1.024379    0.3127104  46.92  0.004249251    2.887    0.654
        47 -10.1376     32.4729      6.4644   7.9798700377e+01   7.0637967726e+01    0.2623315     0.232573   6.81 0.0005773506    1.355    0.262
        48  -9.0857    233.1343      6.0393   3.6223574093e+01   2.6464333892e+01    0.2993024    0.2491045  48.71  0.001553969    1.533    0.348
        49  -9.6397    234.7064      1.5716   3.5112527818e+01   2.6585430824e+01     0.209812    0.1412043 -89.48 0.0004200536    1.322    0.244
        50 -10.1009    243.6132      4.2263   3.5051005241e+01   2.4335244506e+01    0.4985709    0.1921415 -58.39   0.00222332    2.520    0.603
        51  -8.3385    195.8959      5.6304   3.9440177674e+01   3.5318739309e+01    0.2485103    0.1528143 -59.80  0.001236849    1.623    0.384
        52 -11.3959    186.1093      3.5636   3.9917521996e+01   3.7940039927e+01    0.4004999    0.2907114  69.16  0.001451616    1.237    0.192
        53  -8.5444    146.0310      5.5912   4.5759498784e+01   4.7804314764e+01    0.3833877    0.1671968  62.59 0.0008498625    1.930    0.482
        54  -8.6649    150.9284      1.6413   4.3738399413e+01   4.6925106294e+01    0.2828994    0.1625132  41.34  0.001383348    1.828    0.453
        55  -9.5570    112.9402      4.3442   5.1401785881e+01   5.5920616367e+01    0.2926221    0.2392526 -33.87 0.0007666233    1.395    0.283
        56  -8.7431    108.0152      5.9376   5.3125690475e+01   5.6914169244e+01    0.1898648     0.171065  41.39 0.0003562368    1.052    0.049
        57  -8.2321    168.9411      4.9709   4.2327579491e+01   4.2107094192e+01    0.2040084    0.1752018  74.31 0.0006925495    1.031    0.030
        58  -8.0766    121.1155      4.3496   4.9718148413e+01   5.3998941190e+01    0.2073007    0.1303971  46.00 0.0006474092    1.407    0.289
        59  -8.9083     15.0053      3.3677   8.7474711746e+01   7.2968044892e+01    0.2023345      0.15848   7.73 0.0009503894    1.279    0.218
        60  -8.0044    218.0349      3.2890   3.6807710968e+01   3.0230213661e+01    0.1785359     0.143385 -80.30 0.0004962307    1.055    0.052
        61  -8.0222    210.5124      2.7324   3.7320794455e+01   3.2066496870e+01     0.168221    0.1050328 -48.98 0.0003883292    1.501    0.334
        62  -8.4637    202.9859      2.5098   3.7947915883e+01   3.3897784972e+01     0.191479    0.1631979 -54.99  0.001030703    1.164    0.141
        63  -8.2609    248.3827      1.8999   3.4231592470e+01   2.3554640201e+01    0.1587784    0.1234385 -53.42 0.0002947065    1.146    0.128
        64  -7.7054     82.2684      2.3685   5.8282465762e+01   6.2792117335e+01    0.1341323   0.08138008  21.93 0.0006994045    1.663    0.399
        65  -8.7322     34.0134      1.6672   7.6497370462e+01   7.1048536359e+01    0.1584345    0.1173528  16.41 0.0003185926    1.195    0.163
        66  -9.2824     87.3747     83.0710   8.7591381566e+01   4.8986781246e+01    0.3651818     0.274083 -66.29  0.001280778    1.594    0.373
        67  -8.1382    110.6576    249.8104   1.1126900856e+02   8.7553316846e+00    0.1978468    0.1467828 -88.04  0.001298983    1.567    0.362
        68  -8.9083     11.6123     82.9932   1.1405902003e+02   5.7707540270e+01    0.3161528    0.1452887 -51.49  0.001526412    1.712    0.416
        69  -9.8924    199.8313     76.0305   5.7817241310e+01   2.4802183032e+01     0.620145    0.3429557  46.04  0.002596463    1.984    0.496
        70 -10.6082    195.8017     81.9653   6.0108278343e+01   2.4761563230e+01    0.3805108    0.3616759 -80.80  0.002087704    1.051    0.049
        71 -10.3095    188.7463     82.1907   6.1458521076e+01   2.6435817820e+01    0.3472906     0.271093  44.50 0.0002974066    1.355    0.262
        72  -9.3101    168.8685     81.4304   6.5196174386e+01   3.1451287498e+01    0.2891113    0.2328387  81.80  0.001016066    1.434    0.303
        73  -8.0214    135.5007     82.5261   7.3339097924e+01   3.9250646750e+01    0.1533503    0.1522418 -13.74 0.0001248677    1.009    0.009
        74  -9.0313    126.2735     81.5608   7.5489358898e+01   4.1534546031e+01    0.3672761    0.2647546  15.15  0.001595576    1.854    0.461
        75  -8.2115    146.0827     82.7310   7.0748064668e+01   3.6732698094e+01    0.2111481    0.2070788   3.52 0.0003751664    1.032    0.031
        76  -8.1957     81.2589     79.3967   8.8514168331e+01   5.0817209324e+01    0.1973848    0.1355283  47.45 0.0009510148    1.660    0.398
        77  -8.6802    156.4366     78.0178   6.6913364602e+01   3.5127534613e+01    0.3152528    0.2101511  36.99  0.001227182    1.674    0.403
        78  -8.6048     76.1150     78.2202   8.9902257843e+01   5.1901734425e+01    0.2227723    0.1816708 -16.58  0.001168083    1.299    0.230
        79  -9.3307     31.8175     77.0455   1.0553672280e+02   5.7582886890e+01    0.3380557    0.1889991   6.32   0.00132332    2.407    0.585
        80  -9.5671     19.3679     74.2842   1.0955342873e+02   5.9179812245e+01    0.4900796    0.3449907  44.72  0.002977972    1.804    0.446
        81  -8.9430     10.4069     75.8091   1.1317785461e+02   5.9404395806e+01    0.3231687    0.1785221 -22.23  0.001676033    2.197    0.545
        82  -7.9928    232.4210     74.1934   5.2383140424e+01   1.7500519090e+01    0.2093301    0.1145866 -45.88 0.0007537543    1.672    0.402
        83  -8.2264    189.0445     73.3400   5.8970464105e+01   2.7894512896e+01    0.2088041    0.1918797  71.83 0.0004515574    1.094    0.086
        84  -9.3899    148.7371     72.3756   6.6975627063e+01   3.8034740917e+01    0.3272364    0.2584327  31.61 0.0002448943    1.386    0.278
        85  -7.6640    152.4537     71.4919   6.5848250665e+01   3.7287311325e+01    0.1516452    0.1507162  37.71 0.0008087806    1.010    0.010
        86  -9.5397     58.6126     71.1388   9.4000967380e+01   5.5960070277e+01    0.4382095    0.3611405  19.41  0.002073563    1.316    0.240
        87  -8.9058    243.3875     71.4917   5.0305893274e+01   1.5523133851e+01     0.307025    0.2285559  29.59 0.0009834758    1.857    0.461
        88  -9.2394    211.3065     70.1346   5.4415921785e+01   2.3014797180e+01    0.3347878    0.2832403 -81.27  0.001287445    1.226    0.184
        89  -8.3631    123.9406     70.3354   7.2589515001e+01   4.4234970476e+01    0.2224652    0.2090955 -78.34 0.0004326173    1.188    0.158
        90 -10.5375    128.6599     71.0724   7.1560984147e+01   4.3025493831e+01    0.2754594    0.2683458  43.57 0.0002863197    1.042    0.040
        91  -9.4152    135.1830     69.1471   6.9258507534e+01   4.1864908836e+01     0.656008    0.2205095  51.48  0.001459819    2.961    0.662
        92  -9.9085    113.5475     70.4167   7.5532047745e+01   4.6500343036e+01    0.4258471    0.3883991 -80.41  0.001644137    1.292    0.226
        93  -8.5712     57.1217     66.4545   9.3136581045e+01   5.7148850970e+01    0.2485239    0.2011165 -37.31 0.0007229799    1.082    0.075
        94  -9.6343     28.9743     71.5908   1.0530486893e+02   5.9044980274e+01    0.2274517    0.1559638 -56.61 0.0003180426    1.222    0.182
        95  -8.9998    160.5701     70.9983   6.3903006790e+01   3.5374452243e+01    0.2759075    0.2193445  80.08 0.0004861197    1.442    0.306
        96 -10.7761    100.3973     63.4500   7.7152744323e+01   5.0543379050e+01    0.7669008    0.4931137 -39.20  0.003611219    1.520    0.342
        97  -9.4248    201.7905     64.2846   5.4353608222e+01   2.6243525343e+01    0.3181884    0.2044802 -31.55 0.0009067247    1.588    0.370
        98  -8.8865    192.2859     69.3597   5.7301367128e+01   2.7759522107e+01    0.3183578     0.192135  52.91  0.001402306    1.676    0.403
        99  -8.8415     39.7563     66.3765   9.9774329488e+01   5.9184497305e+01    0.1804553    0.1283149  21.23 0.0009936662    1.589    0.371
       100  -8.5594     20.5759     68.8489   1.0788434619e+02   6.0302063977e+01    0.1802764     0.159606 -28.50 0.0002679042    1.174    0.148
       101  -8.0624    221.7822     67.8170   5.2287743240e+01   2.0919823460e+01    0.1917951    0.1537262 -69.93 0.0003492858    1.273    0.214
       102  -8.4850    168.6804     67.6914   6.1229640013e+01   3.3924405003e+01    0.3480517    0.1432734  62.26  0.001160123    2.793    0.642
       103  -8.8180    173.5145     66.5052   5.9926866845e+01   3.2912979740e+01    0.4007841     0.271026  11.88  0.001618899    2.369    0.578
       104  -8.9280    204.0861     68.9718   5.5238203469e+01   2.4935739588e+01    0.2157763    0.2124023 -73.56 0.0004624897    1.072    0.067
       105  -9.1307    144.1237     64.2686   6.5523272536e+01   4.0589439454e+01    0.2769303    0.2465755 -46.51  0.000735165    1.154    0.133
       106  -9.2885    148.7279     66.5782   6.5181556618e+01   3.9066332184e+01    0.4581555    0.2061804  40.35  0.001437869    2.627    0.619
       107  -8.6137      3.2959     66.7050   1.1410167310e+02   6.1794418341e+01    0.2194886    0.1276077 -78.73  0.001246441    1.746    0.427
       108 -10.4685     48.9076     65.5156   9.5976585416e+01   5.8365415434e+01    0.2847158    0.2537678   3.36 -0.0001674504    1.191    0.160
       109  -9.6573     16.0043     65.4357   1.0888382989e+02   6.1361520607e+01    0.5145599    0.2334863 -21.97  0.001413205    3.051    0.672
       110  -8.9969    233.4266     63.4099   4.9645457961e+01   1.8938470478e+01    0.4643779    0.3058507   8.55  0.001955789    2.933    0.659
       111  -8.8993    208.3822     64.8533   5.3485423633e+01   2.4554398285e+01    0.2357166    0.2233524  70.44 0.0004031351    1.103    0.094
       112  -8.4322    211.6380     63.3021   5.2595972449e+01   2.4014950367e+01    0.2485195    0.1637983 -80.69 0.0008413892    1.913    0.477
       113 -10.0165    121.8789     64.0738   7.1097910874e+01   4.5849491759e+01    0.2621893    0.2499713  67.30  0.001435502    1.134    0.118
       114  -7.7948     89.4874     65.4843   8.1340979991e+01   5.2245990894e+01    0.1450153    0.1330424 -13.68 4.484303e-05    1.018    0.018
       115  -8.9967      9.1984     63.3987   1.1111992703e+02   6.2213204214e+01    0.3064331    0.1634077 -86.29   0.00146135    2.746    0.636
       116  -9.0384    242.5062     60.7627   4.7906085488e+01   1.7325387480e+01    0.3649442    0.2342807 -11.25  0.001222741    2.399    0.583
       117  -7.7073    161.4821     62.5145   6.1145708927e+01   3.6594269901e+01     0.150276    0.1473298  62.45 0.0008101896    1.016    0.016
       118  -9.1998     81.9852     61.7141   8.2589827643e+01   5.4317320906e+01    0.4582577    0.2365522  22.06  0.001726686    2.969    0.663
       119  -9.4779     40.0777     61.2987   9.8182224994e+01   6.0229575456e+01     0.399855      0.24039  50.49  0.001948888    2.505    0.601
       120  -9.9307     25.4713     60.0574   1.0373853574e+02   6.1834438706e+01     0.448563    0.3812034 -82.45  0.002137798    1.455    0.313
       121  -9.2014     28.7953     53.9909   1.0063875356e+02   6.2823921922e+01      0.34973    0.1494876 -41.55 0.0009918169    1.981    0.495
       122  -9.5930    188.2232     60.2329   5.5461677108e+01   3.0239833118e+01    0.4020681    0.2329063  59.46   0.00175899    1.706    0.414
       123  -8.4500    134.6782     60.3234   6.6527084480e+01   4.3537856344e+01    0.2861122    0.2218091 -66.73  0.001358395    1.609    0.378
       124  -8.2763    133.4720     57.5088   6.5895596156e+01   4.4298689217e+01    0.2773956    0.1498919 -29.91 0.0007750681    1.992    0.498
       125  -8.4082    126.8450     64.5815   6.9933469481e+01   4.4628194836e+01    0.2908266    0.1894096  65.64 0.0008232641    1.915    0.478
       126  -7.8587    149.5158     59.1709   6.2672063544e+01   4.0125929108e+01    0.2335862    0.1723433  64.14 0.0003181047    1.405    0.288
       127  -8.8821    175.1918     58.6005   5.7296196143e+01   3.3774923048e+01    0.2550022    0.1879436  22.89  0.001168252    1.778    0.438
       128  -9.6784    156.9306     56.8640   6.0350914296e+01   3.8653180555e+01    0.5250904    0.3161181  74.88  0.001302679    2.146    0.534
       129  -8.4837      5.9760     58.1332   1.1125667642e+02   6.3516964069e+01    0.2497441    0.1450376 -14.20  0.001029046    2.003    0.501
       130  -9.5585    234.6663     56.2240   4.7766881347e+01   1.9726051025e+01    0.4278403     0.236895 -71.82  0.001825046    2.432    0.589
       131  -8.2551    224.1297     57.0774   4.9291142004e+01   2.2010292485e+01    0.2014652    0.1902792  25.73 0.0006882822    1.276    0.217
       132  -9.4354    192.7137     56.7134   5.3739290256e+01   2.9663600381e+01    0.4323661    0.2649901 -78.78 0.0003908589    2.301    0.565
       133  -9.2596    188.1556     51.8470   5.3115380659e+01   3.1538605065e+01    0.2966087    0.2335677 -86.90 0.0006633566    1.351    0.260
       134 -10.8522    193.2070     48.9353   5.1509680704e+01   3.0698555773e+01    0.5742182    0.3681394 -60.97   0.00240991    1.734    0.423
       135  -8.9162    197.5171     48.5187   5.0748475891e+01   2.9683783048e+01    0.2619462    0.2058909 -50.34 4.894499e-05    1.230    0.187
       136  -8.6963    141.3171     55.2104   6.3256684408e+01   4.2784578886e+01    0.3679298     0.261205  30.55  0.001701727    1.605    0.377
       137  -9.4382    113.3546     55.0598   7.0390353218e+01   4.9322426973e+01    0.3970343    0.2936086  30.76   0.00050905    1.405    0.288
       138  -9.6643    119.9064     50.6704   6.7047787632e+01   4.8581137535e+01    0.3525196    0.2559336  27.15 0.0005669185    1.508    0.337
       139  -9.5179    213.3725     49.0646   4.8677467678e+01   2.5724092609e+01    0.3687685    0.3067308 -88.17 0.0008510251    1.178    0.151
       140  -8.4412    207.0158     55.4962   5.1229821497e+01   2.6321100476e+01    0.2627876    0.1987417  47.77 0.0008283355    1.457    0.314
       141 -10.0258    205.5818     51.0060   5.0249990823e+01   2.7333912438e+01    0.4909634    0.3378963  24.11  0.001817924    2.195    0.544
       142  -8.1568    124.8118     54.8956   6.7216272988e+01   4.6765127787e+01    0.2158613    0.1590218  25.24  0.001021314    1.529    0.346
       143  -9.3147     41.7481     54.2832   9.5329996770e+01   6.1493061983e+01    0.3897076    0.1830878 -48.35  0.001580331    1.807    0.447
       144  -9.5632     42.1854     46.6968   9.2588334444e+01   6.2932883300e+01    0.5454531    0.3900333  82.04  0.002553724    3.313    0.698
       145  -8.3241    219.6427     54.4193   4.9212656564e+01   2.3453381432e+01    0.2545057    0.1366657  70.89 0.0006975362    2.018    0.504
       146 -10.3147      8.8599     52.7349   1.0877662239e+02   6.4503643855e+01    0.3624045    0.2768067  54.91  0.002378625    1.851    0.460
       147  -8.3358      2.6534     53.6865   1.1163212711e+02   6.4620616738e+01    0.2401117    0.0871539 -41.64  0.001100556    2.232    0.552
       148  -9.3887    171.2597     51.4988   5.5914245649e+01   3.5865191960e+01    0.6603233     0.354665 -84.34  0.002033689    4.133    0.758
       149  -9.0136     94.6349     51.6710   7.4814135836e+01   5.3807964334e+01    0.3149165    0.2649381  -6.22  0.000904689    1.183    0.154
       150  -8.7134     92.6648     48.3073   7.4206294160e+01   5.4766771842e+01    0.2323935    0.2144964 -51.43  0.000601278    1.274    0.215
       151  -9.0305    244.6304     50.1706   4.5211571025e+01   1.8386948629e+01    0.3669987    0.1926073  50.44  0.001722041    2.298    0.565
       152  -9.8922    183.8718     49.8884   5.3257508130e+01   3.2907829723e+01     0.503085    0.2408833  33.26  0.001569617    4.106    0.756
       153  -8.7184     84.7935     51.3533   7.7945008606e+01   5.5733208108e+01    0.2337929    0.1891539  46.29 0.0006641845    1.366    0.268
       154  -8.9630     80.5806     49.3657   7.8661325137e+01   5.6840976204e+01    0.3097686    0.2624677   6.26  0.001786135    1.139    0.122
       155  -9.0542     72.1243     50.7111   8.2186697904e+01   5.8039623623e+01    0.3835971    0.1973541 -50.71  0.001666021    2.272    0.560
       156  -9.8025    221.7598     48.8177   4.7538495840e+01   2.3764064466e+01      0.49808    0.2398115 -50.36  0.002137613    2.042    0.510
       157  -7.9057     67.5262     50.4976   8.3814730100e+01   5.8810567888e+01    0.1369111    0.1190549 -15.38 0.0004472655    1.013    0.013
       158  -8.0193    237.4199     48.7838   4.5680997992e+01   2.0173533713e+01    0.1808842     0.126078 -25.25  0.000945898    1.605    0.377
       159  -7.8020     61.5774     49.5146   8.5725991097e+01   5.9887947875e+01    0.1328218    0.1168182 -22.53 4.646226e-05    1.053    0.051
       160 -10.0142    174.1006     44.9353   5.3455253773e+01   3.6102738534e+01    0.3217582    0.2816699 -17.25 0.0007129632    1.277    0.217
       161  -8.6717     19.8566     46.9831   1.0240383671e+02   6.4970361403e+01      0.21646    0.1897402  63.98 0.0009912989    1.630    0.386
       162  -8.5773    237.9962     43.0504   4.4272595840e+01   2.0838043714e+01    0.2020919    0.1763879 -66.14 0.0005172745    1.022    0.022
       163  -9.1125    233.8461     44.8605   4.5151547697e+01   2.1524962857e+01    0.2650271    0.2467851 -51.65 0.0007630145    1.135    0.119
       164  -8.6084    232.3176     41.3159   4.4476771644e+01   2.2357473209e+01    0.2797868    0.1301944  70.28  0.001108836    2.241    0.554
       165  -8.3993    164.2602     46.1864   5.5593573021e+01   3.8426184694e+01    0.2653179    0.1821842 -81.20 0.0006159118    1.882    0.469
       166  -9.8024    137.3807     44.8749   6.0720582406e+01   4.5338359382e+01    0.5236416     0.374649  28.75  0.001878134    1.583    0.368
       167  -8.5749    119.8612     45.8728   6.5362920562e+01   4.9344434007e+01    0.2316314    0.1931464  20.95 0.0008835205    1.235    0.190
       168  -8.9777     62.9258     55.1976   8.7236127861e+01   5.8617075096e+01    0.3370786    0.2605668  81.47  0.001608926    2.329    0.571
       169 -10.3539     33.0590     43.0622   9.5266328504e+01   6.4595903876e+01    0.5658122    0.3829958  -4.80  0.001648185    1.582    0.368
       170  -8.7580      8.6170     44.3756   1.0668275135e+02   6.6233612942e+01    0.3806898    0.1074805 -44.69   0.00170259    2.533    0.605
       171  -8.8074    246.7995     44.4985   4.3688728913e+01   1.8701334899e+01    0.2207935    0.1905041 -35.08 0.0003058279    1.235    0.190
       172  -9.4584    248.9731     39.4804   4.2342934228e+01   1.8908396459e+01    0.4084342    0.2594971 -59.68  0.002237832    1.447    0.309
       173  -9.3746    223.8099     40.9266   4.5339419185e+01   2.4378440062e+01    0.4583731    0.1817942 -40.71  0.001901129    2.220    0.550
       174  -8.6663    225.2295     36.1366   4.4008308154e+01   2.4686254124e+01    0.2434625    0.2010239  49.02 0.0006258228    1.430    0.300
       175 -10.0239    153.8545     33.0453   5.3392421938e+01   4.2857502532e+01    0.3943112    0.2803088 -45.17 0.0004213164    1.495    0.331
       176  -8.2028    156.0168     28.9903   5.1697502119e+01   4.2816706802e+01    0.2266031    0.1639675 -74.40 0.0004920734    1.644    0.392
       177  -9.2059    155.9119     43.8115   5.6447066546e+01   4.0882004941e+01    0.4836659    0.2280746  62.20  0.001614407    2.101    0.524
       178  -9.0617    152.0110     40.2701   5.6080378569e+01   4.2362451176e+01    0.4933043    0.2534384 -25.68  0.002029362    2.187    0.543
       179  -8.2059     26.6545     38.7903   9.6656022117e+01   6.6010162308e+01     0.207904    0.1372958 -38.95            0    1.219    0.180
       180  -8.8468    213.8960    244.9288   9.1286367131e+01  -6.4467300624e+00    0.2609399    0.1307783  32.80   0.00143838    1.639    0.390
       181  -9.4685     25.3118     33.1029   9.5217701911e+01   6.7183582122e+01    0.2886307    0.2358613 -61.80  0.001148866    1.595    0.373
       182  -9.9339     21.2844     31.2774   9.6466712335e+01   6.7866296225e+01    0.4223116    0.3573662  28.10  0.002081613    1.509    0.337
       183 -10.1170     12.0940     30.0251   1.0052785013e+02   6.8795588743e+01    0.3941004    0.2027774  21.80  0.002303118    2.178    0.541
       184 -10.3968      8.6881     26.4054   1.0095957652e+02   6.9685165133e+01    0.3629611    0.2545672 -39.55   0.00110427    1.094    0.086
       185  -9.6445    188.1381     44.1356   5.0945964527e+01   3.2656380055e+01    0.3599466    0.2103972  71.02 0.0002521926    1.753    0.429
       186 -10.0663    185.4410     41.5002   5.0614168601e+01   3.3703447973e+01    0.4320292    0.2671297 -44.96 0.0009572845    1.610    0.379
       187  -8.7243     67.1772     42.2398   8.0824187207e+01   6.0329954135e+01    0.3098584     0.269857  21.38  0.001562605    1.172    0.147
       188  -9.7909     63.7727     38.3653   8.0599768545e+01   6.1519457419e+01    0.8370453    0.3822664  24.60   0.00335408    3.008    0.668
       189  -8.4522     56.2781     36.4265   8.2803076653e+01   6.2967056484e+01    0.2559242    0.1513632  30.85 0.0009724544    1.734    0.423
       190  -9.3599     59.6952     33.5889   8.0258930504e+01   6.2927595592e+01    0.4718215    0.2097514 -41.97  0.002145311    2.224    0.550
       191  -7.8784     95.4887     43.5455   7.1514887468e+01   5.4982126448e+01    0.1427862     0.126596   9.08 1.071803e-05    1.053    0.050
       192  -8.8656    163.4898     42.0218   5.4450786586e+01   3.9213201581e+01    0.2596791    0.1849417  46.65 0.0003377356    1.412    0.292
       193  -9.3320    128.0457     40.3844   6.1356489471e+01   4.8239267815e+01    0.3972873    0.3215702 -15.38  0.002104138    1.322    0.243
       194  -8.6684    119.9980     38.8495   6.2800401559e+01   5.0348880815e+01    0.2131431    0.1938725  42.53 0.0005728253    1.052    0.050
       195 -10.2688    124.4682     36.0218   6.0666633543e+01   4.9695381994e+01    0.3542334    0.3223515 -12.92 0.0009906542    1.135    0.119
       196  -7.9644     85.2431     42.5470   7.4465503104e+01   5.7139142320e+01    0.1896054     0.123044  29.96 0.0005088745    1.579    0.367
       197  -8.3629     78.0889     41.4837   7.6523110403e+01   5.8618542738e+01    0.2014936    0.1285604  37.91 0.0008420392    1.565    0.361
       198  -8.9162     19.8078     40.3456   1.0033936130e+02   6.6283400520e+01    0.2129797    0.1797562 -30.60 0.0007392025    1.097    0.088
       199  -7.9536    241.7837     40.6307   4.3316499745e+01   2.0323121942e+01    0.1784333    0.1150839  89.54 0.0008099799    1.655    0.396
       200  -9.4196    216.0592     39.0579   4.5788366640e+01   2.6467110896e+01    0.2786245     0.217137  66.67 0.0004403209    1.288    0.224
       201 -10.7521    211.7911     33.9783   4.5009404084e+01   2.8165063001e+01    0.4961355    0.3046748 -39.87   0.00136383    1.548    0.354
       202  -8.1734    106.6556     39.9439   6.6806121396e+01   5.3190323030e+01    0.1919032    0.1675419 -23.32 0.0003787825    1.159    0.137
       203  -9.1200     99.8640     38.1078   6.8090297356e+01   5.4912842705e+01     0.410197    0.2646852 -15.46  0.001967014    1.757    0.431
       204  -9.7825    102.6834     33.8111   6.5598502878e+01   5.4928719253e+01     0.252042    0.2202308  13.26 0.0002755121    1.082    0.076
       205  -7.8479     90.2143     40.6022   7.2065580500e+01   5.6494113890e+01    0.2329036    0.1595165   6.96  0.000615725    1.762    0.433
       206  -8.9185     91.8223     35.8450   6.9680872033e+01   5.6895981995e+01    0.2811406    0.2398532  37.51  0.001373139    1.156    0.135
       207  -8.0930     89.6273     32.7434   6.9137510475e+01   5.7782869718e+01    0.2215094    0.1762812  34.19  0.001256369    1.182    0.154
       208  -8.0697     14.7722     39.4142   1.0237609771e+02   6.6830859170e+01    0.2215964    0.1224958 -46.41  0.001301748    1.390    0.281
       209  -8.4673     12.6454     36.0207   1.0228967523e+02   6.7629741378e+01    0.1889149    0.1575136 -52.73 0.0007996978    1.267    0.211
       210  -9.6616    192.1988     36.7705   4.8292207137e+01   3.2637129443e+01    0.4033216    0.2187805  59.40  0.001475538    1.754    0.430
       211  -9.4457    112.6193     35.9578   6.3660567788e+01   5.2441662740e+01    0.6104057    0.2391152  47.75  0.002356955    2.348    0.574
       212  -8.3685    236.8133     36.0695   4.2767175554e+01   2.2038052421e+01    0.2041587    0.1503943 -62.40 0.0003570566    1.222    0.182
       213  -8.7927     33.2505     34.1258   9.1897316537e+01   6.6227188613e+01    0.2435252    0.1702063 -47.28 0.0007029455    1.415    0.294
       214  -9.6312     51.9604     37.2245   8.4905007405e+01   6.3436327519e+01    0.4034021    0.2092884 -34.75 0.0008891891    1.756    0.430
       215  -8.7108     63.7283     32.7331   7.8309587389e+01   6.2436495337e+01    0.1605893    0.1495951 -34.03 0.0006451146    1.319    0.242
       216  -9.0105     39.6135     32.5026   8.8359840023e+01   6.5808442280e+01    0.2500139    0.1746158 -17.43 0.0005833946    1.309    0.236
       217  -8.4917    134.0487     32.2542   5.7123099468e+01   4.7890597696e+01    0.2021897     0.180015  54.13 0.0005824604    1.059    0.055
       218  -9.7564    128.2828     31.2320   5.8049986020e+01   4.9417765731e+01    0.2671213    0.2239408  46.39 0.0002853611    1.105    0.095
       219  -9.2924    186.8294     28.9924   4.6873026433e+01   3.4983354853e+01    0.3228926    0.2284975 -29.21  0.001670051    1.520    0.342
       220  -8.5833     51.1878     24.2642   7.9758914485e+01   6.5631067462e+01    0.3021564    0.2721193 -70.56  0.001935726    1.827    0.453
       221  -8.1524     55.1135     31.1750   8.1110727534e+01   6.3994848950e+01    0.2048778    0.1886127  28.24 0.0005993381    1.339    0.253
       222  -8.7325     52.5105     28.4695   8.1042198313e+01   6.4797306522e+01     0.343334    0.1822172  23.15 0.0008949373    2.103    0.525
       223  -8.0575     47.1554     30.8094   8.4327447174e+01   6.5156321818e+01    0.1774952    0.1470607 -25.70  0.000540914    1.135    0.119
       224  -9.7338    224.5533     28.3588   4.2196202904e+01   2.5842767822e+01    0.4120981    0.2365696 -31.59  0.001314348    1.775    0.436
       225 -11.0139    218.8983     25.1589   4.2005443410e+01   2.7570552617e+01    0.3450253    0.2353635 -74.75 0.0006129916    1.440    0.305
       226  -8.5876     97.5929     29.7433   6.5479625846e+01   5.6566051930e+01     0.242695    0.2236202  62.66 0.0008192423    1.277    0.217
       227  -9.1664     84.4003     29.3040   6.9426311807e+01   5.9291000771e+01    0.2871502    0.2092064 -12.71 0.0006330224    1.377    0.274
       228  -8.5342    167.1519     28.1083   4.9543106845e+01   4.0091824019e+01    0.2681035    0.2107005  30.17  0.001412707    1.478    0.323
       229  -8.0784    170.4774     26.5323   4.8542966301e+01   3.9434004694e+01    0.1409943    0.1296502  76.90 5.347149e-05    1.007    0.007
       230  -9.8090    123.9651     27.0498   5.7528752893e+01   5.0971100275e+01    0.3388548    0.2066353 -21.84  0.001020422    1.795    0.443
       231  -8.9988    105.2964     26.7094   6.2087199300e+01   5.5298579827e+01    0.4170166    0.2300424  -5.65  0.001355033    2.604    0.616
       232  -9.3326     68.3297     26.9932   7.4103270852e+01   6.2540529855e+01    0.4322594    0.2635098   7.33  0.001558646    2.069    0.517
       233  -7.8126    201.8225     28.1285   4.4691973176e+01   3.1343619141e+01    0.1740899    0.1565572  46.20 0.0002933525    1.276    0.216
       234  -8.9509    174.9514     26.9865   4.7999685372e+01   3.8240300647e+01    0.4216385    0.1438052 -43.85  0.001496322    3.059    0.673
       235  -7.9399      1.9682     28.5873   1.0512956780e+02   6.9668399950e+01     0.141682    0.1015401   4.07  0.000430456    1.532    0.347
       236  -9.5527    114.6533     27.0145   5.9758062366e+01   5.3153175193e+01    0.2742962    0.1830843  49.99  0.000502228    1.375    0.273
       237  -8.0151     31.2074     27.3833   9.0157240550e+01   6.7613808399e+01    0.1535577     0.106083  33.91 0.0009418806    1.744    0.427
       238  -8.1721     29.8377     24.8290   8.9745686871e+01   6.8186012789e+01    0.3737103    0.1799892 -19.45  0.001418542    2.692    0.629
       239  -8.8955    234.5094    243.0591   8.7337464572e+01  -9.1688087330e+00    0.2735793    0.1436628  10.89  0.001415487    2.292    0.564
       240  -8.3156    143.7479     22.4455   5.1784810678e+01   4.6674990714e+01    0.2897336    0.2065301  71.88  0.001016884    1.397    0.284
       241  -8.3880    140.2517     18.7939   5.1199772302e+01   4.7947824046e+01    0.4185553    0.2572277 -73.33  0.001823356    2.396    0.583
       242  -9.9838    136.9222     25.3731   5.4119743150e+01   4.8031604301e+01    0.3712901    0.2642731 -66.54 0.0005809896    1.803    0.446
       243  -8.6504    177.9579    242.2438   9.7544243848e+01  -5.7923032014e-01    0.1850273    0.1657924  15.99 0.0003753623    1.141    0.123
       244  -8.9301    227.4159    241.2829   8.8300261615e+01  -7.9558484239e+00    0.2131865    0.1042644 -28.14  0.001154821    2.224    0.550
       245  -8.5232    194.8401    242.6252   9.4428841158e+01  -3.2726519998e+00    0.1771681   0.09495352  44.09 0.0005210224    1.754    0.430
       246  -9.9551    129.6797     19.2959   5.3462543701e+01   5.0489895857e+01    0.4088679    0.2785279  79.37  0.001303599    1.714    0.417
       247  -8.2352     89.8068     25.4193   6.6076216173e+01   5.8741670044e+01     0.265131    0.1577877  15.77  0.001206812    2.149    0.535
       248  -9.4510    239.0645     24.5879   3.9911192834e+01   2.2991709256e+01    0.2237541    0.1668912 -45.33 0.0003060697    1.226    0.185
       249  -9.5381    192.9227     23.6712   4.4597952164e+01   3.4094218706e+01     0.345765    0.2326804 -10.88  0.001702626    1.987    0.497
       250  -9.4537    189.2248     22.1897   4.4659405496e+01   3.5194285452e+01    0.2820825    0.1791802 -58.12  0.001350772    1.639    0.390
       251  -7.9149     77.4228     25.2237   7.0059980387e+01   6.1169784252e+01    0.2966399    0.1857579 -28.08  0.001571987    1.568    0.362
       252  -8.9296     80.0484     21.2401   6.7441123765e+01   6.1195607610e+01    0.4007421    0.2760477 -50.41  0.001708509    2.059    0.514
       253  -8.6567     39.3355     24.7461   8.5225974607e+01   6.7127485164e+01    0.2885572      0.13635  31.94  0.001478548    2.208    0.547
       254  -8.1725    178.8937     23.5741   4.6432772526e+01   3.7642219510e+01    0.2181543    0.1690181 -64.59 0.0006345203    1.320    0.243
       255  -8.8239    169.0086     23.1517   4.7749783132e+01   4.0204188687e+01    0.4079076    0.1834785  56.75  0.001543693    1.992    0.498
       256  -8.6466    153.0349     23.8672   5.0574324070e+01   4.4179034920e+01    0.3160108    0.2091702 -55.42  0.001100672    1.744    0.427
       257  -7.9252     95.9621     23.7008   6.3510978051e+01   5.7686568398e+01    0.1875936    0.1456741 -51.13  0.001022346    1.661    0.398
       258  -7.9087    246.0178     23.3057   3.9015519002e+01   2.1614363885e+01    0.1720019    0.1380692 -75.22 0.0002084018    1.090    0.082
       259  -7.9747    160.9523     21.9967   4.8652741379e+01   4.2385118607e+01    0.2777182     0.175357  45.60  0.001343485    1.609    0.378
       260  -8.2273    157.0133     22.5251   4.9464350866e+01   4.3325113784e+01    0.2073972    0.1289043  81.32 0.0006927476    1.778    0.438
       261  -7.9683    113.8083     22.1885   5.8125204131e+01   5.3924287794e+01    0.1899917    0.1400694  31.90 0.0002210671    1.320    0.243
       262  -8.7578    103.6363     21.1751   6.0337765877e+01   5.6334011647e+01    0.2620801    0.2114318  38.08 0.0009891774    1.115    0.103
       263  -9.3232    247.5215    239.4764   8.4518066394e+01  -1.0528059216e+01    0.2186386    0.1017027 -31.03  0.001218225    2.194    0.544
       264  -9.6802    171.7648    233.8897   9.7525050640e+01   1.6577479526e+00    0.3426719     0.270979  33.31  0.002188872    1.046    0.044
       265  -8.0679    152.6379    234.1587   1.0130490360e+02   4.7412349225e+00    0.1574316    0.1175124 -34.55 0.0008262232    1.663    0.399
       266  -8.2956     71.0533     20.2171   7.0111733204e+01   6.2989771569e+01     0.222553    0.1619213 -52.41 0.0009765224    2.048    0.512
       267  -9.6483    232.3019     20.3226   3.9546002873e+01   2.5033726662e+01    0.3733305    0.2798825 -60.99  0.002242737    1.163    0.140
       268  -8.3717    236.4017     15.8134   3.8157390928e+01   2.4635330869e+01    0.2689436     0.201736  42.01  0.001569797    1.811    0.448
       269  -7.5695    102.6511    229.3100   1.1063455845e+02   1.3560548098e+01    0.1337743   0.08031071  63.59 0.0007044874    1.712    0.416
       270  -8.8463     34.0036     12.6726   8.2171126920e+01   6.9598163974e+01    0.2945918     0.146868  28.91 0.0007872735    2.013    0.503
       271  -8.5263    220.1472    228.1153   8.7463554220e+01  -5.1999802614e+00    0.1994438    0.1434933  10.39  0.001242574    1.258    0.205
       272  -8.0038    239.5025    215.5268   8.1821919413e+01  -6.4323428799e+00     0.124009    0.0990844   6.67 0.0001572841    1.007    0.007
       273  -8.6281     30.3876     15.7859   8.5440777047e+01   6.9563515333e+01    0.2018242    0.1460904  -4.66 0.0005254751    1.199    0.166
       274  -7.5886      2.3120    212.3197   1.2851782425e+02   2.9269494344e+01   0.09625416   0.07428746 -63.68 0.0007036821    1.648    0.393
       275  -8.6564    239.5061    203.9329   7.9719558968e+01  -4.8531035241e+00    0.2016734    0.1472764  15.17 0.0003281426    1.216    0.178
       276  -8.3281      2.1718     19.9501   1.0203274439e+02   7.1238128579e+01     0.182094    0.1373417 -10.86 0.0008831269    1.270    0.213
       277  -9.2518    196.8550     18.5016   4.2731107409e+01   3.3712389879e+01    0.3587969    0.2142491 -65.54  0.001083586    1.799    0.444
       278  -8.2008     65.0083    203.5114   1.1560701051e+02   2.4141907877e+01    0.1813632   0.07863015  56.89 0.0005177708    2.306    0.566
       279  -8.5942    151.9792     18.7430   4.9094924643e+01   4.5016559461e+01    0.2161234    0.1837267  -1.53 0.0002119442    1.354    0.262
       280  -7.9401    152.2781     15.3307   4.7939881065e+01   4.5301204177e+01    0.1870502    0.1249921  77.26 0.0004852175    1.496    0.331
       281  -9.1543     28.8221    199.5231   1.2271884929e+02   2.9318300689e+01    0.2870723    0.1770317 -73.97  0.001784177    1.475    0.322
       282  -8.1689     33.7337    193.2008   1.2122478559e+02   3.0150978926e+01    0.1516648     0.127909 -68.63 0.0005827979    1.356    0.262
       283  -8.2385    169.4468     18.4137   4.6259803030e+01   4.0623687515e+01    0.2408872    0.1780381  58.90 0.0001409977    1.255    0.203
       284  -8.7033    172.9680     17.0000   4.5340583413e+01   3.9883226672e+01    0.3240215    0.1505389  60.61 0.0008314777    1.896    0.473
       285  -8.7727    121.7308     17.6745   5.4570633287e+01   5.2572598144e+01    0.2294324    0.1792543  53.60 0.0002419019    1.160    0.138
       286  -8.7898    177.0884    191.5962   8.9479142296e+01   7.8375273665e+00    0.2408303    0.2025432 -40.57 0.0003279805    1.287    0.223
       287  -7.7272    141.5119    189.5208   9.6815695545e+01   1.4822257414e+01    0.1418109    0.1294371  50.82 0.0001240871    1.025    0.025
       288  -7.4513    247.0000     16.9949   3.7553076828e+01   2.2157128818e+01    0.2018849   0.06444494 -31.71 0.0008090778    2.989    0.665
       289  -8.6567      7.3396    151.1453   1.2360947954e+02   4.2067670825e+01     0.168514    0.1547552 -74.99 0.0005222976    1.271    0.213
       290  -8.9121    113.7820     15.6062   5.5593387663e+01   5.4654221813e+01    0.2109138    0.2081096 -15.53 0.0002588388    1.151    0.131
       291  -7.8751    170.3803    134.2368   7.8837804021e+01   2.0552356604e+01    0.2111674    0.1450054 -51.44 0.0005119372    1.537    0.349
       292  -8.5096     13.4293    132.9356   1.2036862251e+02   4.5867141868e+01    0.1876746     0.150009  68.58  0.000618888    1.258    0.205
       293  -9.4672     66.8303    131.5389   1.0538273010e+02   4.0675928371e+01     0.438294    0.2878805   5.90  0.001980357    2.448    0.591
       294  -7.7798     39.4777    126.5665   1.1237356745e+02   4.5126119958e+01     0.132321    0.1122217 -79.81 0.0001660584    1.040    0.039
       295  -8.2719     29.9816    124.4875   1.1478304890e+02   4.6535997543e+01    0.2104285    0.1437211 -70.37  0.000563706    1.211    0.174
       296 -10.0642     69.2611    122.8328   1.0303482759e+02   4.2475173945e+01    0.2375668    0.2231017 -74.20 0.0002575312    1.045    0.043
       297  -7.8497    201.9583    121.7860   6.9189625213e+01   1.6030453082e+01    0.1973484    0.1229692  48.20   0.00051467    1.670    0.401
       298  -8.2552    126.8619     14.0400   5.2141184235e+01   5.1721078970e+01    0.1968135     0.176423 -63.75 0.0006230259    1.284    0.221
       299  -9.2410      6.6086    113.2345   1.2003584979e+02   5.0974656845e+01     0.314308    0.2278296 -88.15  0.001917918    1.223    0.182
       300  -9.2325     12.0461    114.9995   1.1867892765e+02   5.0210464412e+01    0.2197843    0.1935763 -63.81 0.0004216083    1.156    0.135
       301  -8.9158     15.4839    112.5109   1.1735022748e+02   5.0563768569e+01    0.2076908    0.1524284 -65.67 0.0006489997    1.105    0.095
       302  -8.2961     22.5843    113.7698   1.1541560109e+02   4.9735361040e+01    0.1802929     0.104718 -80.43 0.0006116037    1.592    0.372
       303  -7.9600    105.2133    111.6081   8.9914736998e+01   3.9298395104e+01    0.2049261    0.1474637  27.46 0.0005089009    1.602    0.376
       304  -7.5671     44.4154    105.4245   1.0724838198e+02   4.9742838094e+01    0.1335073    0.1147994 -65.69 0.0001394683    1.030    0.029
       305  -9.0970     19.2301    104.7892   1.1510985257e+02   5.2127580577e+01    0.1777123    0.1210821 -49.00 0.0005014819    1.362    0.266
       306  -8.7852    119.7354    102.8833   8.3490081101e+01   3.8419247144e+01    0.2935814    0.2516085  68.47 0.0006728448    1.312    0.238
       307  -8.8462     25.6333    103.1134   1.1282734582e+02   5.2035747992e+01    0.1908073    0.1699804  56.11 0.0004149151    1.298    0.230
       308  -9.8710      9.0076    101.0119   1.1774677243e+02   5.3694311095e+01    0.3513007    0.1456148  33.45  0.001595382    2.765    0.638
       309  -7.6952     55.9737     99.9823   1.0237130779e+02   4.9732850312e+01    0.1648474    0.1472579 -54.90 0.0003564158    1.016    0.016
       310  -7.9731    171.7267     11.6481   4.3933073449e+01   4.0757020037e+01    0.1899868    0.1179616  80.58 0.0009290809    1.570    0.363
       311  -7.4528     16.4906     99.4038   1.1514620953e+02   5.3591640025e+01    0.1247746    0.1000087 -61.99 0.0001498433    1.045    0.043
       312  -7.7769    231.2216     96.9646   5.8056109853e+01   1.4047874973e+01    0.1898434    0.1079303 -37.21            0    1.590    0.371
       313  -8.7060    203.7469     97.1611   6.2673539083e+01   2.0180520940e+01    0.2643003    0.1586349 -70.09  0.000956893    2.832    0.647
       314  -7.9716      3.2926     97.3483   1.1903489213e+02   5.4868067537e+01    0.1283503   0.06740216 -49.74 0.0005306655    1.669    0.401
       315  -9.4550     72.0390     95.1808   9.5951895822e+01   4.8708098702e+01    0.4129553    0.3186778  43.85  0.001721488    1.436    0.304
       316  -8.2256    212.5002     94.5356   6.0475552662e+01   1.8627217229e+01    0.2661452     0.174127 -56.03 0.0007745418    1.684    0.406
       317  -9.5928    208.8160     91.6499   6.0369481738e+01   1.9981748772e+01    0.3678013    0.2595959  52.88  0.001716364    1.487    0.328
       318  -8.0687    154.1227     94.8428   7.2337749950e+01   3.2434490337e+01    0.2129441    0.1871347  -2.83 0.0004023911    1.289    0.224
       319  -8.0432     38.4910     95.4819   1.0721158497e+02   5.2710337490e+01    0.1337983    0.1118863 -55.44  0.000201557    1.025    0.024
       320  -8.6699    165.4352     94.1673   6.9550520012e+01   2.9871566481e+01    0.2600317    0.1902278  57.77 0.0007608522    1.425    0.298
       321  -8.6215    174.6542     92.8809   6.7198864893e+01   2.7899130463e+01     0.267938    0.2113826  41.34 0.0006525127    1.328    0.247
       322  -8.1179    145.7427     93.0312   7.3849330541e+01   3.4768194378e+01    0.2106721    0.2007252 -26.54 0.0002435822    1.058    0.055
       323  -7.9695    249.3152     92.6849   5.4442155230e+01   1.0965470664e+01    0.1410117   0.09691514 -61.65 0.0003310242    1.645    0.392
       324  -8.9473     99.8253     91.1974   8.6033098989e+01   4.4956338122e+01    0.2504593    0.2296027 -45.34 0.0004891959    1.053    0.050
       325  -9.4822     19.4520     90.7848   1.1273885912e+02   5.5402225640e+01    0.3526621    0.2824482 -70.05  0.002176741    1.099    0.090
       326  -7.7430     61.3103     91.3326   9.8552416950e+01   5.1090484773e+01     0.146014   0.09828404 -29.67 0.0005152278    1.674    0.402
       327  -8.3672    136.4172     89.8074   7.5272521445e+01   3.7576681959e+01    0.2174265    0.1488038 -28.02 0.0004573062    1.640    0.390
       328  -8.9584     55.6710     89.3470   9.9982688297e+01   5.2265417484e+01    0.3038068    0.1947504  58.73  0.001436969    2.199    0.545
       329  -9.7635    188.8961     88.1274   6.3043917466e+01   2.5337285240e+01    0.2953584    0.2517503  63.03 0.0002768219    1.213    0.176
       330  -8.6490     33.9564     16.4802   8.4018434169e+01   6.9048479594e+01    0.2191591    0.1643356  22.11 0.0007180771    1.368    0.269
       331  -8.6490     27.3702     88.5321   1.0960558407e+02   5.5326369139e+01    0.2585423    0.1989827  84.54  0.001152221    1.509    0.337
       332  -9.1289      5.9727     87.6277   1.1676195200e+02   5.6965388253e+01    0.2772769    0.1619698 -33.22 0.0008569646    1.870    0.465
       333  -8.0008     40.4715     87.7368   1.0487589168e+02   5.4328230348e+01    0.1964695   0.09872287 -48.97 0.0009326284    1.687    0.407
       334  -8.4109    242.7233     86.5248   5.3911734777e+01   1.3310362023e+01    0.3088403    0.1703195 -22.02  0.001308412    2.286    0.563
       335  -8.7116     49.5147     84.0709   1.0082375291e+02   5.4206343814e+01    0.2555759    0.1100277 -52.34 0.0006264611    1.938    0.484
       336  -7.8222    102.5419     86.4282   8.3813847645e+01   4.5477834193e+01    0.1487549    0.1427786 -25.90 0.0001060193    1.007    0.007
       337 -10.2692     65.4347     83.4311   9.5073027201e+01   5.2337396501e+01    0.4647984     0.402027  -5.94  0.001707744    1.246    0.198
       338  -8.1433    230.5522     84.5065   5.5147332590e+01   1.6259876350e+01    0.2925762    0.1408726  57.48  0.001232008    2.245    0.555
