#   1 NUMBER                 Running object number                                     
#   2 MAG_AUTO               Kron-like elliptical aperture magnitude                    [mag]
#   3 X_IMAGE                Object position along x                                    [pixel]
#   4 Y_IMAGE                Object position along y                                    [pixel]
#   5 X_WORLD                Barycenter position along world x axis                     [deg]
#   6 Y_WORLD                Barycenter position along world y axis                     [deg]
#   7 A_WORLD                Profile RMS along major axis (world units)                 [deg]
#   8 B_WORLD                Profile RMS along minor axis (world units)                 [deg]
#   9 THETA_WORLD            Position angle (CCW/world-x)                               [deg]
#  10 FWHM_WORLD             FWHM assuming a gaussian core                              [deg]
#  11 ELONGATION             A_IMAGE/B_IMAGE                                           
#  12 ELLIPTICITY            1 - B_IMAGE/A_IMAGE                                       
         1 -14.3996     68.3447    144.4537   1.0300060232e+02   3.7550433029e+01     5.189227     2.646796  72.94  0.004747091    4.073    0.754
         2 -13.8089    228.0774     18.4522   3.5775805119e+01   2.6565709531e+01    0.9899831    0.9168926  40.99  0.002640952    1.463    0.316
         3 -13.7364    201.8470     41.2719   4.3941699640e+01   2.9762480587e+01     1.328292     1.044488  29.75  0.004268053    1.720    0.419
         4 -13.8891    210.3697     35.2380   4.1415897441e+01   2.8543146789e+01     1.719809     1.153916 -21.45   0.00798756    1.886    0.470
         5 -12.5773    217.9504     28.2966   3.8949479630e+01   2.7665404894e+01    0.5083976    0.4381438  39.20  0.001201022    1.522    0.343
         6 -10.4749    125.1964      5.2533   4.5088876016e+01   5.2614010381e+01    0.3192431    0.2073316 -87.79 0.0008592439    1.906    0.475
         7 -11.2980    248.4753      2.0244   3.0866329709e+01   2.4051678766e+01    0.4179351    0.1892395  81.61   0.00224774    2.067    0.516
         8  -9.8062      2.0000      3.0201   9.0903023234e+01   7.4313730329e+01     0.171598   0.05096589 -46.72 0.0008054058    2.963    0.663
         9  -9.8513    109.9681    201.4916   1.0126816292e+02   1.7602853531e+01    0.1999156    0.1797897 -73.76 4.197213e-05    1.179    0.152
        10 -13.8168      3.9136    180.4900   1.2360164057e+02   3.5683219031e+01     2.100066    0.5277721 -80.61   0.00796659    3.602    0.722
        11 -13.9557     85.5096    226.9208   1.0990513221e+02   1.6084820974e+01       1.5016    0.9629635  52.11  0.008514958    1.342    0.255
        12 -15.2340      8.6407    239.4116   1.2588146509e+02   2.2921935173e+01     1.953127     1.578697 -86.87   0.01540309    1.322    0.244
        13 -15.9881     35.8225    188.7288   1.1707544753e+02   3.0801488454e+01     9.378957     3.455134  83.03   0.02884329    5.339    0.813
        14 -12.0598     59.9411    178.4875   1.1022038421e+02   3.0334462089e+01    0.4308322    0.3308801 -23.51  0.001675661    1.900    0.474
        15 -11.9202     65.2930    173.0265   1.0817125357e+02   3.0935343523e+01    0.3137455    0.2782912 -36.24 0.0006334174    1.375    0.273
        16  -9.5975    150.3171    178.7956   8.7915534026e+01   1.5287773228e+01    0.3365948    0.2315072 -74.29  0.001170257    2.145    0.534
        17  -9.9510    144.1180    179.3631   8.9485380428e+01   1.6338171925e+01    0.2763109    0.2270376 -56.89  0.001218434    1.316    0.240
        18 -11.7578     75.2632    163.4325   1.0418649149e+02   3.1871900922e+01    0.3684734    0.3045876  50.42 0.0004673376    1.193    0.162
        19 -12.8889     81.9574    157.2842   1.0138737265e+02   3.2383043027e+01     1.116046    0.9545603  86.30  0.001572236    1.164    0.141
        20 -13.3054     17.2182    217.7058   1.2315909702e+02   2.6396989683e+01    0.6302331     0.391997  55.82  0.002086859    1.323    0.244
        21 -13.5008     62.4484    159.3713   1.0700465800e+02   3.4642976231e+01    0.5291165    0.3395268 -46.75  0.001901401    1.711    0.415
        22 -14.6240      9.2337    207.2694   1.2412485004e+02   2.9352498816e+01     1.058836    0.9821182 -22.19  0.003328772    1.642    0.391
        23 -10.4627    124.8484    153.7928   8.9221320813e+01   2.5769196382e+01     0.261447    0.2301219 -82.87  0.000388531    1.238    0.192
        24  -9.9638    134.3252    148.0226   8.5538574996e+01   2.5245939600e+01    0.7962711     0.154081 -51.94   0.00173706    6.354    0.843
        25  -9.4844    132.7316    140.5091   8.4273009086e+01   2.7298624642e+01    0.4444534    0.1806344 -56.32  0.001408661    3.031    0.670
        26  -9.3110    174.8767    149.1244   7.6037136183e+01   1.6633087240e+01    0.2328409    0.2121817  88.85 0.0006423565    1.294    0.227
        27  -9.7134    137.6664    170.6976   8.9382112850e+01   1.9452841633e+01    0.1520043     0.119104  -2.73  0.000471022    1.658    0.397
        28  -8.7310    137.4327    145.4969   8.4184218049e+01   2.5197123209e+01    0.1542813    0.1504252  81.63 0.0002407263    1.051    0.048
        29 -10.7566     31.4517    143.7999   1.1337586663e+02   4.2007027021e+01    0.4356085    0.2654881  15.99  0.002242499    2.135    0.532
        30 -10.9418     98.2656    141.6487   9.3921112342e+01   3.3567383447e+01    0.6539369    0.4186003 -15.98  0.002452759    2.861    0.650
        31 -12.3633     85.3104    141.2769   9.7541025386e+01   3.5815304855e+01    0.3182605    0.2682956 -48.29 0.0005659936    1.194    0.163
        32 -11.3580     75.5700    136.4748   9.9450569713e+01   3.8504985271e+01    0.3208332    0.2589876  58.77 0.0002643594    1.314    0.239
        33 -10.9201    107.4417    131.3367   8.9080346533e+01   3.4417501887e+01    0.5257236     0.342612  38.92  0.001755362    1.558    0.358
        34 -10.2467    209.8928    199.6811   7.9096812357e+01   5.8737890682e-01    0.2456234    0.1873929 -40.18 0.0008998601    1.431    0.301
        35 -11.0837     17.4669    130.3051   1.1567872470e+02   4.6505336618e+01    0.2260376    0.1933244  76.93 0.0007198892    1.175    0.149
        36 -10.1492    135.6929    128.5225   8.0674273490e+01   2.9431690740e+01    0.2916743    0.1432995 -47.32   0.00108028    2.037    0.509
        37 -11.1129     96.0637    127.4927   9.1509031476e+01   3.7406223295e+01    0.3315058    0.2760223 -15.85 0.0005789763    1.431    0.301
        38  -9.9719    115.6940    125.2732   8.5319475651e+01   3.4276491795e+01    0.3097984    0.2243967  -9.70  0.001299809    2.013    0.503
        39 -11.6704     66.9526    127.1056   1.0022859792e+02   4.2069643372e+01    0.4947042    0.3134707 -75.21  0.002263339    1.758    0.431
        40  -9.6956    106.0468    119.9383   8.6795232305e+01   3.7400513450e+01    0.2185846    0.2130745 -18.56            0    1.048    0.046
        41  -9.3398    168.0580    113.0597   6.8868118417e+01   2.5597974193e+01    0.2606429    0.1964315 -81.94  0.001135792    1.819    0.450
        42 -10.1397    205.2293    110.6221   6.0739940577e+01   1.7688281121e+01     0.317644    0.2552852  33.67  0.001082551    1.399    0.285
        43 -10.8538    245.1924    109.6148   5.4055707635e+01   9.6571718184e+00    0.1797271    0.1253152  40.53 0.0009557544    1.709    0.415
        44  -9.8530    134.5983    106.2089   7.5220240067e+01   3.4629843284e+01    0.2310226    0.1490827 -33.64 0.0009571689    1.696    0.410
        45  -8.5782    222.3184     99.3290   5.5157943063e+01   1.6008128855e+01    0.1405096    0.1115122   5.24 0.0003179839    1.684    0.406
        46  -8.8081    130.4701     96.4803   7.3623765827e+01   3.7617420614e+01    0.1540475    0.1532428  10.68 0.0003411064    1.008    0.008
        47 -11.3128     53.6500     92.5663   9.7079108548e+01   5.2167411884e+01    0.6074769    0.3552702 -77.62  0.002539875    2.570    0.611
        48 -10.1250     41.7471     92.0434   1.0125247580e+02   5.3634405903e+01    0.2097085    0.1921453  -3.73 0.0004841229    1.180    0.153
        49 -10.4637    249.8474     87.8633   4.8685384523e+01   1.2274535857e+01    0.1902768    0.1377161 -58.01 0.0005035136    1.333    0.250
        50 -11.0559    193.2192    195.2979   8.1619927908e+01   4.1748773385e+00    0.8178006    0.4334388 -63.55  0.002435753    5.978    0.833
        51  -9.2147    160.5287     82.4502   6.2265124807e+01   3.3345262286e+01    0.1513518    0.1487261  66.10 0.0001314072    1.016    0.016
        52 -11.1454      9.6277     75.2292   1.0981866163e+02   6.0042872040e+01    0.2067691    0.1716862 -29.92  0.001400289    1.198    0.165
        53  -8.3756    140.3452     68.6769   6.2824538417e+01   4.0685837346e+01    0.1570925    0.1195605 -80.04 0.0007050146    1.736    0.424
        54 -11.5504     13.3762     60.0297   1.0489920841e+02   6.3144178766e+01     0.294908    0.2230449 -77.91 0.0004571797    1.569    0.363
        55 -13.3206     31.8021    205.7105   1.1938045956e+02   2.7435563723e+01    0.6641789    0.4160664 -46.59  0.003706538    2.233    0.552
        56 -10.5043    170.6575    233.5482   9.2801446708e+01   1.4369784456e+00     0.220162    0.1938721  -7.32 0.0006788514    1.198    0.165
        57 -15.6111     57.5998    247.1867   1.1735064668e+02   1.5930932110e+01     9.660066     2.791005  27.97   0.01320961   10.597    0.906
        58  -8.6022    108.3496    191.6622   1.0018391123e+02   2.0020727874e+01    0.1535899    0.1026772  68.11 0.0007046033    1.789    0.441
        59 -10.8528     18.2405     55.3387   1.0152295182e+02   6.3800581990e+01    0.2007308    0.1541445  25.72  0.001292689    1.532    0.347
        60 -10.6267     41.5949     59.3438   9.2538148565e+01   6.0840915232e+01    0.3447316    0.2030715  43.04  0.001730444    2.187    0.543
        61 -10.6788      5.9195     50.1485   1.0572974748e+02   6.5632993405e+01    0.1606921    0.1536372 -54.02 0.0007181093    1.283    0.220
        62 -10.6407    134.7023     41.4966   5.5455194017e+01   4.6297450955e+01    0.3751074    0.2642267 -79.68 0.0008187172    1.978    0.494
        63  -9.0765    134.9807     33.7490   5.2832107592e+01   4.7249714759e+01     0.190507     0.167375  60.86 0.0002239361    1.057    0.054
        64  -9.8069    189.7077     15.4384   3.8853336916e+01   3.5818476548e+01     0.228169    0.1420485 -47.31 0.0007288648    1.587    0.370
        65  -9.0716     99.4939    181.0346   1.0069836148e+02   2.3902520960e+01    0.2038599    0.1394124 -60.33 0.0004714704    1.495    0.331
        66 -11.3807    183.5786    216.0291   8.7327030613e+01   2.2299770263e+00    0.2842907    0.1862703  35.01  0.001519302    1.363    0.266
