#   1 NUMBER                 Running object number                                     
#   2 MAG_AUTO               Kron-like elliptical aperture magnitude                    [mag]
#   3 X_IMAGE                Object position along x                                    [pixel]
#   4 Y_IMAGE                Object position along y                                    [pixel]
#   5 X_WORLD                Barycenter position along world x axis                     [deg]
#   6 Y_WORLD                Barycenter position along world y axis                     [deg]
#   7 A_WORLD                Profile RMS along major axis (world units)                 [deg]
#   8 B_WORLD                Profile RMS along minor axis (world units)                 [deg]
#   9 THETA_WORLD            Position angle (CCW/world-x)                               [deg]
#  10 FWHM_WORLD             FWHM assuming a gaussian core                              [deg]
#  11 ELONGATION             A_IMAGE/B_IMAGE                                           
#  12 ELLIPTICITY            1 - B_IMAGE/A_IMAGE                                       
         1 -13.1846     84.0258     23.5160   3.3007003111e+01   6.0831828764e+01    0.5399072    0.3178147 -54.28  0.001991253    2.553    0.608
         2 -12.0342     66.8997     15.7142   3.5356825778e+01   6.5512194001e+01    0.4329204    0.1838392 -29.42  0.001814811    2.383    0.580
         3 -11.1915     55.3668     11.1185   3.7703196226e+01   6.8359011516e+01     0.227034    0.1639365  28.40  0.001284072    1.298    0.230
         4 -12.1915     81.7488      8.8635   2.6551941730e+01   6.3142745727e+01     0.315775    0.2269303  48.50 0.0005715813    1.271    0.213
         5 -13.5535     91.1045      5.0307   2.1947816267e+01   6.1341906914e+01     0.418191    0.3522313 -78.70  0.001296739    1.472    0.320
         6 -11.0416     48.3233      7.9156   3.9132306280e+01   7.0059440638e+01     0.179628    0.1494219  -0.99 0.0005220175    1.054    0.051
         7 -10.8823    103.5489      7.4814   2.0022895799e+01   5.8060761586e+01    0.1404672    0.1264536  43.76  6.07957e-05    1.008    0.008
         8 -11.0787    106.6869      4.0330   1.7778887895e+01   5.7588024559e+01    0.1849804    0.1738279  25.08  0.000391205    1.084    0.077
         9 -12.1819      5.2983      3.4502   6.3898800632e+01   7.6324869705e+01    0.2064005    0.1594946 -32.61 0.0005004806    1.065    0.061
        10 -11.3165    101.1638      2.1896   1.8149102663e+01   5.9135380947e+01    0.2176144    0.1695601  45.20  0.001206579    1.153    0.133
        11 -12.1188     49.7906      1.9633   3.4798443837e+01   7.0541490616e+01    0.2057344    0.1728727  32.09 0.0003969673    1.162    0.139
        12 -11.8958     89.6040    239.3428   7.9841868050e+01   1.5264922405e+01    0.3001225    0.1952834 -68.52  0.001482751    1.900    0.474
        13 -12.3132    246.9825    248.5474   5.2301368549e+01  -7.2291994808e+00    0.3495074    0.1556345  25.63  0.001576379    1.764    0.433
        14 -12.3681    236.9066    249.2668   5.4003590482e+01  -6.1067819161e+00    0.2456546    0.1658839  17.65 0.0009461887    1.068    0.063
        15 -10.3958    179.5321    250.5198   6.3966477088e+01   1.1827651249e+00    0.1144709   0.08385711  25.70 0.0001470689    1.006    0.006
        16 -12.1939    139.4830    248.4683   7.1112573168e+01   7.0218239604e+00    0.2282988    0.2114891 -18.13 0.0009336996    1.373    0.272
        17 -11.9571    134.9390    245.9413   7.1696679000e+01   8.0128823686e+00    0.2601187    0.1295019  32.94  0.001051318    1.605    0.377
        18 -11.6228    124.8955    249.6753   7.3999926300e+01   8.8837149105e+00    0.1619717    0.1458866  11.96 0.0004870004    1.307    0.235
        19 -13.7360    102.4820    234.0596   7.6804245472e+01   1.4380691113e+01    0.4254097    0.3383412  66.12   0.00229383    1.309    0.236
        20 -14.6185    117.2095    238.2099   7.4302863798e+01   1.1660025407e+01    0.6650123    0.4959362  24.26  0.003498892    1.346    0.257
        21 -14.1113    111.7638    234.5234   7.4997762506e+01   1.3007019358e+01    0.6499188    0.2944506  27.47  0.003089835    2.426    0.588
        22 -12.5184    100.4858    226.9469   7.6499867697e+01   1.5840420983e+01    0.2432431    0.1705623 -76.65  0.001027239    1.785    0.440
        23 -13.7519    113.7272    218.8620   7.2879318689e+01   1.5307695529e+01    0.3528813    0.3125644 -77.46  0.002444794    1.359    0.264
        24 -13.7551    109.8985    214.4060   7.3167963990e+01   1.6647516163e+01    0.4552881    0.3200791 -25.74  0.002553824    2.170    0.539
        25 -13.8768    117.9248    226.6648   7.2905760556e+01   1.3388658066e+01    0.5733656    0.2483947  52.93  0.002159162    2.659    0.624
        26 -12.7325    113.1052    227.8127   7.4014534386e+01   1.3900146435e+01    0.2856784    0.1987843  47.52 0.0009177857    1.209    0.173
        27 -14.1517    105.7556    227.1948   7.5447437231e+01   1.5054607104e+01     0.718135    0.2625166  47.42  0.003246021    2.416    0.586
        28 -12.4655     85.1689    250.5972   8.1614233841e+01   1.4052591681e+01    0.2400864    0.1068253  40.02 0.0006121613    1.630    0.386
        29 -12.3857     85.5253    246.1125   8.1194093358e+01   1.4710300227e+01    0.2191741     0.173306  82.77 0.0009580948    1.424    0.298
        30 -13.4748     29.9263    171.4332   8.7259501360e+01   3.5751483183e+01     1.028306    0.3218223  36.41  0.003137131    2.626    0.619
        31 -14.0780     27.7969    186.3465   8.8824991536e+01   3.2733184528e+01     1.132727    0.7994182  81.15  0.007040014    1.236    0.191
        32 -13.6539     72.4547    231.8698   8.2620637382e+01   1.8745352593e+01    0.8010299    0.5252092  84.22  0.005178661    1.708    0.415
        33 -14.7463     11.0875    187.0371   9.2609765511e+01   3.4150969427e+01    0.7977887    0.7433007  17.29   0.00613904    1.462    0.316
        34 -13.8853     39.7659    245.2726   8.9756034658e+01   2.0309929249e+01    0.6759496    0.3117782 -71.04    0.0041878    2.450    0.592
        35 -14.8958     38.5722    226.1600   8.8967064599e+01   2.3767494870e+01      1.40015    0.9579283  14.47  0.008861712    2.160    0.537
        36 -13.5317     32.6335    235.2043   9.0586536578e+01   2.2793536688e+01    0.3913376    0.2395927 -60.49  0.002626066    2.132    0.531
        37 -13.7805     26.9215    234.8584   9.1643904248e+01   2.3447293482e+01    0.5762748    0.2224827 -87.37  0.003123047    2.796    0.642
        38 -14.5604      3.9982    208.4457   9.4990367439e+01   3.0479544177e+01    0.8056841      0.39228 -69.00  0.004911244    2.188    0.543
        39 -14.5362     26.2876    248.1770   9.2328198222e+01   2.1246916613e+01    0.6191347    0.2534884  36.43  0.003755457    1.909    0.476
        40 -14.7516     19.9142    214.1975   9.2055508010e+01   2.7919813872e+01    0.9783164    0.4211071  78.72  0.005312692    2.279    0.561
        41 -16.9231     16.0035    235.7950   9.3703325083e+01   2.4367851236e+01     1.708789     1.013274 -82.99   0.01220287    1.716    0.417
        42 -16.1609      4.7055    226.9391   9.5476304882e+01   2.6982133669e+01     1.661988    0.3716564 -79.14  0.007514486    4.177    0.761
        43 -12.6163     55.7274    250.4181   8.7097435788e+01   1.7672062826e+01    0.3798181   0.09873834  40.71  0.001858698    2.446    0.591
        44 -11.9319     91.6476    234.8159   7.9038517993e+01   1.5735882397e+01    0.3803445    0.2025797  78.85  0.001872574    3.085    0.676
        45 -10.6709     82.4912    241.5047   8.1410050479e+01   1.5842376518e+01    0.1133048   0.08937366  43.43 -4.661955e-05    1.100    0.091
        46 -11.4644    240.0525    239.6355   5.2093802834e+01  -5.5481823753e+00    0.1543186    0.1187578   6.03 0.0004011636    1.186    0.157
        47 -11.6095    148.9913    238.8400   6.8187598149e+01   7.0056563331e+00    0.3133796     0.156026  24.02  0.001154838    2.186    0.543
        48 -12.0925     52.5923    237.3501   8.6900610436e+01   2.0210780783e+01    0.2043199    0.1695572 -60.57  0.001548312    1.621    0.383
        49 -10.5996    190.4312    237.4156   6.0257837875e+01   1.2480887656e+00    0.1161045   0.08703807  22.99 0.0001315965    1.019    0.019
        50 -13.2435    114.8632    248.0710   7.5749631417e+01   1.0497159649e+01    0.4639251    0.2490495 -54.43  0.002814841    2.431    0.589
        51 -11.0000     78.8013    237.4363   8.1804747825e+01   1.6988753596e+01    0.1691066   0.08765836  39.41 0.0006329546    1.483    0.326
        52 -11.6098     53.4711    232.4930   8.6422980019e+01   2.0951555105e+01    0.4532136    0.1164345 -58.20  0.001901897    4.781    0.791
        53 -11.7778     63.6386    235.3278   8.4622255520e+01   1.9244971114e+01    0.2991432    0.1205756  53.07  0.001143912    2.106    0.525
        54 -12.4367     61.6221    232.1577   8.4795436902e+01   2.0039206592e+01    0.4270926    0.2987232  -9.19  0.002390108    3.004    0.667
        55 -12.2478     59.3008    230.2657   8.5122731499e+01   2.0651832420e+01     0.401425    0.2043025  44.00  0.001205323    1.482    0.325
        56 -10.4712    211.2879    235.6975   5.6316953700e+01  -1.4256303375e+00   0.09712046   0.08211759  37.46 0.0003140387    1.563    0.360
        57 -10.6531    180.8328    232.3781   6.1313637056e+01   3.2494346845e+00    0.1697708   0.08851124  28.32 0.0005449609    1.609    0.378
        58 -12.5085    127.5204    227.0586   7.1003284878e+01   1.1914781297e+01    0.1945524    0.1844757  60.96  0.001008743    1.235    0.190
        59 -12.7779    130.1466    231.1466   7.0957124228e+01   1.0888390076e+01    0.3520681    0.1490599  51.23  0.001438717    2.712    0.631
        60 -12.8054    220.0468    230.3017   5.4005008220e+01  -1.9973260891e+00    0.2805758    0.1635811  34.27  0.001148257    1.490    0.329
        61 -11.5173    193.8171    229.6099   5.8529755342e+01   1.7294083068e+00    0.2066663    0.1829423  22.54  0.001527952    1.293    0.227
        62 -11.5772    178.0580    228.3706   6.1268415209e+01   4.1809470119e+00    0.1762713    0.1405314   6.32 0.0003335145    1.205    0.170
        63 -11.5563    149.2642    229.5652   6.6976043127e+01   8.2959610315e+00    0.2365482   0.09277057  39.98  0.001027139    2.024    0.506
        64 -11.0390     83.8681    229.5125   8.0128501755e+01   1.7671488671e+01    0.1750187   0.09421889  37.88 0.0006217764    1.489    0.328
        65 -13.7037     34.3624    242.6009   9.0619967849e+01   2.1339243559e+01    0.3498388    0.2561111 -76.84  0.002687206    1.590    0.371
        66 -12.6638    231.7512    226.7350   5.1484613567e+01  -3.1559841000e+00    0.2782695    0.1973919 -17.01  0.001987019    1.379    0.275
        67 -12.1257     91.3208    226.0991   7.8295567319e+01   1.7256063713e+01     0.253753     0.204595 -85.14  0.001073683    1.431    0.301
        68 -12.1386     96.0343    225.4681   7.7265304204e+01   1.6714534812e+01    0.2124209    0.1524012  72.39  0.000993327    1.549    0.355
        69 -10.9152    222.4608    225.5194   5.2858699397e+01  -1.7833263515e+00    0.1156927   0.08657641  13.41 0.0001024387    1.019    0.019
        70 -11.0419    212.8484    223.0220   5.4132951869e+01  -1.6774683407e-01    0.2722269    0.1348446  -9.79  0.001258107    3.139    0.681
        71 -12.6042    159.6787    222.2539   6.3948824795e+01   7.7969047840e+00    0.3341291    0.1847718  36.28 0.0005954545    1.455    0.313
        72 -13.6072    125.2792    221.4063   7.0782797441e+01   1.3160049461e+01    0.3803531    0.2647544  36.30 0.0007147464    1.167    0.143
        73 -13.6792    125.6820    213.2265   6.9678065523e+01   1.4464864719e+01    0.4639896    0.2097899  37.25  0.001391489    1.817    0.450
        74 -11.9788    247.3490    221.3652   4.8098453632e+01  -4.5890680731e+00    0.1648029    0.1592693  49.43  0.001113261    2.084    0.520
        75 -15.4311     74.5913    167.5812   7.5610556478e+01   3.1230102276e+01     1.994676    0.7133375 -69.46  0.007351798    3.351    0.702
        76 -15.0294     69.3075    184.6555   7.8949479096e+01   2.8242171833e+01     1.228536    0.9707181  67.04  0.007610398    1.150    0.131
        77 -14.9433     91.5698    182.2461   7.3323312082e+01   2.5580913546e+01     1.036955     0.761804  84.47    0.0057782    1.547    0.354
        78 -13.0013    100.3322    184.4267   7.1526794018e+01   2.3790538259e+01    0.3440827    0.2962493 -49.19  0.001081396    1.346    0.257
        79 -13.3628     81.4807    195.2611   7.7263377806e+01   2.4385285059e+01    0.7838032    0.3749716  68.30   0.00209485    3.286    0.696
        80 -13.5691     58.8178    213.1562   8.3953275193e+01   2.3848613591e+01     0.661928    0.3289616  50.64  0.002892936    1.644    0.392
        81 -12.1121     61.9767    204.7726   8.2580280207e+01   2.5080422106e+01    0.8240004    0.3750142 -87.08  0.003774962    2.942    0.660
        82 -13.2906     69.4244    207.3232   8.1176555337e+01   2.3632093454e+01    0.4854996    0.3513742  14.49  0.002866562    1.877    0.467
        83 -13.9058     77.4235    202.1061   7.8907372541e+01   2.3586429473e+01    0.4427554    0.3346848 -53.47  0.002115528    1.609    0.378
        84 -13.9936     77.3977    218.9988   8.0526960527e+01   2.0392283454e+01    0.4093352    0.2738834  63.91  0.001403807    1.423    0.297
        85 -13.8713     78.5340    212.5386   7.9689019423e+01   2.1435396719e+01    0.6919044    0.2381635  37.53  0.002462742    2.309    0.567
        86 -14.4071     94.9129    194.5522   7.4099891765e+01   2.2585800815e+01      1.05549    0.5131404  46.01  0.005078389    1.787    0.440
        87 -11.9599    237.8739    221.1268   4.9588932637e+01  -3.3464694404e+00    0.1651736    0.1331387  13.77  0.001060572    1.236    0.191
        88 -11.5423    223.1240    220.3531   5.1933568381e+01  -1.2813037091e+00    0.2365892    0.1492482 -20.46  0.001134369    1.572    0.364
        89 -11.2289    225.5149    216.5266   5.0911787649e+01  -1.1658566844e+00    0.1933187    0.1408492  20.80 0.0005632203    1.121    0.108
        90 -11.9146    189.4647    220.2959   5.7945140835e+01   3.5624234702e+00    0.2491013    0.1585773  10.07 0.0005919914    1.663    0.399
        91 -11.1642    194.7175    220.4349   5.6993022634e+01   2.7652394466e+00    0.2192166   0.09702089  39.23  0.000638706    1.954    0.488
        92 -12.3886    173.0439    219.0226   6.0875468886e+01   6.2192473289e+00      0.24379    0.2176986  21.30 0.0009737088    1.166    0.143
        93 -13.7508    141.0924    210.6206   6.6095092099e+01   1.2496946168e+01    0.6584947    0.3572543 -67.35  0.001854278    3.441    0.709
        94 -13.2752     97.4339    249.1671   7.9174019862e+01   1.2679217307e+01    0.4359641    0.2375393  41.70  0.002380221    1.351    0.260
        95 -13.6282    120.3202    214.9426   7.1024896046e+01   1.4990690177e+01    0.3804871    0.2948242 -46.07  0.002415012    1.582    0.368
        96 -13.2766    118.5721    211.1384   7.0922544165e+01   1.5914837262e+01      0.40577    0.2582543  15.82  0.002080319    2.106    0.525
        97 -12.8421    123.1667    206.5528   6.9345150432e+01   1.6010752595e+01    0.4000844    0.1956863 -42.71  0.001890252    2.639    0.621
        98 -12.9246    118.0861    206.9704   7.0497592786e+01   1.6725672050e+01    0.2896781    0.2312163  34.60 0.0003559286    1.109    0.098
        99 -12.4761    115.6885    203.3267   7.0548536273e+01   1.7753828584e+01    0.2026324    0.1610378  52.30 0.0005075206    1.166    0.143
       100 -13.0054     89.8682    202.3318   7.6151670982e+01   2.1804449101e+01    0.4037496    0.2841825 -53.18  0.001307047    1.694    0.410
       101 -10.4546     36.8921    214.8889   8.8649995998e+01   2.6045113784e+01    0.1601139   0.09826106  58.07 0.0009259214    1.294    0.227
       102 -11.8223    155.8230    213.9806   6.3547340991e+01   9.6388043588e+00    0.1993469    0.1560534  10.07  0.001190464    1.324    0.244
       103 -12.3497    247.8210    212.8572   4.6635328727e+01  -3.7408210887e+00    0.2279948    0.1351111  30.05 0.0006753325    1.494    0.331
       104 -12.6108    107.8417    207.1525   7.2746641779e+01   1.8254867945e+01    0.2950714    0.2106092 -26.25  0.001354599    2.087    0.521
       105 -12.5336     97.5514    212.4888   7.5592298411e+01   1.8796820916e+01    0.3416824    0.2466068 -68.65 0.0004890698    1.630    0.387
       106 -12.0169    103.3756    206.3930   7.3631697565e+01   1.9062688611e+01    0.4614877    0.2614439  17.37   0.00207116    2.744    0.636
       107 -12.0183    145.5734    215.7536   6.5880607993e+01   1.0965176374e+01    0.5314112    0.2903625 -25.78  0.002442164    3.092    0.677
       108 -11.8230     27.0500    209.0045   9.0341914470e+01   2.8209724930e+01    0.4664053    0.1735924  55.49  0.002173411    2.209    0.547
       109 -13.1651     36.4119    203.0488   8.8011750690e+01   2.8404219807e+01    0.3906921    0.2540493 -42.29  0.001644579    2.414    0.586
       110 -10.7679     35.5154    198.6328   8.7915507382e+01   2.9388588111e+01    0.1773021    0.1281495  78.34 0.0006157072    1.221    0.181
       111 -11.0473    210.3061    211.6854   5.2778236649e+01   1.5909232094e+00     0.103574   0.09345618  46.81 0.0003518947    1.624    0.384
       112 -10.6815     47.1108    210.3788   8.6226035752e+01   2.5771244293e+01    0.1786486    0.1134775 -89.83 0.0007467229    1.581    0.367
       113 -11.4326    181.0438    207.8362   5.7611523659e+01   6.5790073175e+00    0.2454292    0.1553215  20.83   0.00136772    1.512    0.338
       114 -12.3057     54.9864    206.3190   8.4233923050e+01   2.5635768423e+01      0.24945    0.1701548 -67.65 0.0008532259    1.621    0.383
       115 -11.4869    160.3163    206.6447   6.1548885209e+01   1.0066708922e+01    0.1966004    0.1630964 -66.08  0.001213717    1.703    0.413
       116 -11.0932     81.8673    205.6719   7.8285254474e+01   2.2285734925e+01    0.1873901    0.1447269  19.08  0.001014032    1.565    0.361
       117 -12.8263     42.9416    205.7070   8.6787744892e+01   2.7158419855e+01    0.2422565    0.1826726  43.50  0.000604035    1.206    0.171
       118 -11.1931    166.4246    204.4740   5.9974644578e+01   9.4196481612e+00    0.2552596    0.1256152 -42.78  0.001250317    2.359    0.576
       119 -12.5450    145.4930    201.9163   6.3912902603e+01   1.3240241695e+01    0.4024434    0.2385912 -55.26  0.002086157    2.157    0.536
       120 -13.6861    140.3747    196.3194   6.4164798306e+01   1.5043083792e+01    0.4500216    0.3558537  51.02  0.001565743    1.272    0.214
       121 -12.0788    239.2266    202.2372   4.6228521048e+01  -1.3907009061e+00    0.2843718    0.1638884 -24.09  0.001669315    1.633    0.388
       122 -11.6566    225.0193    204.2639   4.8960392138e+01   3.7502634724e-01     0.170928    0.1288423  18.44 0.0004063249    1.097    0.089
       123 -11.7641    127.8966    203.8470   6.7958202086e+01   1.5742926943e+01    0.1735082    0.1395124  58.70 0.0002419266    1.312    0.238
       124 -11.1567     49.3599    203.0734   8.5205595134e+01   2.6945584436e+01     0.235559    0.1599646 -59.63  0.001461367    1.742    0.426
       125 -10.8489    189.0889    202.3186   5.5162945241e+01   6.1002568323e+00    0.1726977    0.1320781  28.02  0.000170813    1.110    0.099
       126 -11.0358     30.1359    202.1151   8.9299357165e+01   2.9252431171e+01    0.1614781     0.101272  61.73 0.0004145528    1.299    0.230
       127 -13.0268     20.9675    198.2768   9.1042665218e+01   3.0938148262e+01    0.5676505    0.2613792  75.42  0.003047877    2.074    0.518
       128 -11.4221    212.3615    199.8891   5.0432643771e+01   2.8092809891e+00    0.1950935    0.1535487  31.98 0.0008610564    1.278    0.218
       129 -14.3789    123.4692    197.2306   6.8005326581e+01   1.7639957113e+01    0.6458657    0.3571026  36.93   0.00325315    1.556    0.357
       130 -11.9566    225.1610    198.2780   4.7904165202e+01   1.1002510659e+00    0.2631206    0.1491793 -45.24  0.001375428    2.590    0.614
       131 -13.5322     87.6743    213.7998   7.7851330674e+01   1.9953429519e+01    0.5044589    0.4143046 -82.34  0.002802394    1.365    0.267
       132 -10.9666     40.9738    198.2695   8.6691020893e+01   2.8867929701e+01    0.1564946     0.123442  53.51 0.0002588372    1.085    0.079
       133 -11.2188     29.5733    197.9188   8.9165721921e+01   3.0155570254e+01    0.2235439    0.1691875   2.79  0.001412392    2.046    0.511
       134 -12.6326    113.9751    197.0359   7.0095343011e+01   1.9186011753e+01     0.198985    0.1704572  46.03 0.0004404143    1.023    0.023
       135 -13.1000     11.1976    195.4247   9.2983910897e+01   3.2418934736e+01    0.8106738    0.3881074  79.61    0.0046158    1.876    0.467
       136 -11.5636    153.0239    195.8212   6.1378441645e+01   1.3024284622e+01    0.2123694    0.1357407  55.82 0.0006508663    1.921    0.480
       137 -11.7541     49.7385    195.5454   8.4526912623e+01   2.8423627147e+01    0.2350721    0.1715143  65.45 0.0007379968    1.174    0.148
       138 -12.7906    244.0346    192.0280   4.3655842968e+01  -8.5171060928e-01     0.306625    0.2317457   0.70  0.002104748    1.037    0.035
       139 -12.7106    247.4259    186.0881   4.2042954489e+01  -6.1678399459e-01    0.4752616    0.2419358  -0.48  0.002231253    2.737    0.635
       140 -13.0291    190.4247    193.6411   5.3433047287e+01   7.1483297661e+00    0.4329205    0.2979846  40.63  0.001289688    1.410    0.291
       141 -12.5637    229.3868    207.2058   4.8714373518e+01  -6.0476185081e-01    0.3390571    0.1901245 -38.68  0.001401923    2.163    0.538
       142 -12.1607    217.3950    193.5099   4.8420205162e+01   2.8837814377e+00    0.2110932    0.1888444  10.72 0.0001674253    1.247    0.198
       143 -11.3850    212.7079    193.0059   4.9166926038e+01   3.6756325172e+00    0.1714141    0.1400875  -5.06 0.0003054224    1.120    0.107
       144 -11.8542    179.0359    191.4969   5.5298901218e+01   9.3598843937e+00    0.3153335    0.2359676 -86.33  0.001451219    2.896    0.655
       145 -14.0147    134.6503    187.7280   6.4095966741e+01   1.7546023972e+01    0.6705644    0.3542183 -31.18  0.002382632    2.955    0.662
       146 -13.9373    122.1828    187.0483   6.6813050357e+01   1.9758846832e+01      0.53688    0.3341609  25.20  0.001714117    1.762    0.433
       147 -14.2343    119.2387    180.9671   6.6567617791e+01   2.1430822903e+01     0.936742    0.4077033  57.00   0.00279413    3.828    0.739
       148 -13.7191     56.4171    176.1179   8.1171797506e+01   3.1745908199e+01    0.5109574    0.3798318 -60.63  0.002360125    1.471    0.320
       149 -13.9524     65.4482    161.6917   7.7223584381e+01   3.3817496925e+01    0.6238805    0.3850367 -79.75  0.003167666    1.713    0.416
       150 -12.7074     58.3928    157.8924   7.8617670843e+01   3.5611436195e+01    0.3505042    0.2045701  41.13 0.0007356896    1.589    0.371
       151 -12.9485     61.5539    169.1966   7.9135241950e+01   3.2631216973e+01    0.5551384    0.3494413 -87.63   0.00291195    1.693    0.409
       152 -13.1753     57.1814    162.8205   7.9525632784e+01   3.4630772918e+01    0.4461558    0.2786632  87.87  0.002300551    1.711    0.415
       153 -12.5530     51.7442    189.4862   8.3556648988e+01   2.9443471493e+01    0.3471391     0.232359  20.23  0.001966793    1.868    0.465
       154 -13.1011     52.4084    184.6123   8.2964367893e+01   3.0395474407e+01    0.6931964    0.2388445  40.21  0.003073428    2.346    0.574
       155 -12.4547     63.0131    156.9821   7.7266883115e+01   3.5224138794e+01    0.2942732    0.1930977  82.19 0.0003270738    1.665    0.400
       156 -14.1900     65.8574    153.9105   7.6091442740e+01   3.5557947750e+01    0.5158737    0.4062963 -80.61 0.0005450362    1.243    0.195
       157 -11.8792    162.9277    193.1054   5.8858813774e+01   1.1813467293e+01     0.232641    0.1661872  35.02 0.0006224897    1.209    0.173
       158 -12.8605    110.6864    188.0979   6.9612656343e+01   2.1424149441e+01    0.2645403    0.2005828  51.22  0.001073109    1.210    0.173
       159 -10.9615    167.8986    195.5370   5.8235821826e+01   1.0585171924e+01    0.1995795    0.1126108  37.35 0.0003400335    1.531    0.347
       160 -10.2861     43.2838    187.3378   8.5336553782e+01   3.0877119680e+01    0.1110389   0.09157382 -43.93 0.0006174146    1.627    0.385
       161 -11.4314      2.6131    186.4411   9.4434001619e+01   3.4985642742e+01    0.1535797    0.1469402 -70.95 0.0003192855    1.408    0.290
       162 -11.0738    209.0031    186.0051   4.8578064013e+01   5.2294875851e+00    0.1531021    0.1262103   8.91 0.0009710322    1.009    0.009
       163 -10.4333    157.3230    185.3488   5.8735600200e+01   1.4080362513e+01    0.1397126   0.09965124   3.51 0.0007049124    1.745    0.427
       164 -11.3154    151.3356    183.1748   5.9658219466e+01   1.5503215019e+01    0.2638961     0.167487  19.58  0.001266326    1.850    0.459
       165 -12.2741    167.0273    178.0253   5.5378331566e+01   1.3635779526e+01    0.2472866    0.1916601 -36.82 0.0003093213    1.405    0.288
       166 -11.8474      5.0236    181.3761   9.3685492131e+01   3.5847333298e+01    0.1922162    0.1663629 -30.05 0.0008245446    1.693    0.409
       167 -13.6414    106.5126    176.7302   6.8947711099e+01   2.4384812530e+01    0.4349612    0.3008362 -71.00  0.002274062    1.700    0.412
       168 -12.2592    198.7403    179.8046   4.9344914786e+01   7.8267780165e+00    0.2178194    0.1928599  16.95 0.0003108747    1.113    0.102
       169 -12.2198    153.6786    178.4229   5.8320890648e+01   1.5939649753e+01    0.3367529     0.201468  11.91 0.0008052583    2.658    0.624
       170 -12.0640    192.1560    177.9242   5.0259117965e+01   9.2385295042e+00    0.1882988    0.1762156  33.82 0.0005698826    1.261    0.207
       171 -12.8257    136.6508    176.1423   6.1742717819e+01   1.9377947433e+01    0.3128162    0.2381333  81.51  0.001604072    1.859    0.462
       172 -11.0121    250.6528    176.2657   3.9721133785e+01   1.1814600750e-01    0.1592612   0.09339681 -18.29 0.0003192009    1.531    0.347
       173 -12.3345    149.2400    176.1506   5.8898742919e+01   1.7142372506e+01    0.2499533    0.1752052  27.72   0.00129655    1.386    0.279
       174 -12.8853     12.7912    175.0084   9.1592380926e+01   3.6558372772e+01    0.3092543    0.2035281 -57.23  0.001921749    1.783    0.439
       175 -11.5709      2.7640    171.8701   9.3760613926e+01   3.8053906660e+01    0.2100662    0.1353678  49.80 0.0006089229    1.343    0.256
       176 -13.1711    126.5078    173.4559   6.3647948652e+01   2.1678554956e+01     0.366461    0.2397409 -56.07   0.00140142    1.734    0.423
       177 -14.1933    124.8767    167.6912   6.3052872072e+01   2.3122536713e+01    0.5614878    0.4953123  47.98  0.003250093    1.064    0.060
       178 -13.2656    100.7589    172.2008   6.9673019324e+01   2.6261217042e+01    0.3526691    0.2496913 -51.47  0.001878575    1.563    0.360
       179 -11.8958      5.5480    175.9514   9.3313950684e+01   3.6957156103e+01    0.4338939    0.1042079  42.27  0.001591016    2.886    0.654
       180 -13.8572     68.1370    246.4249   8.4527178054e+01   1.6843161930e+01    0.8038625    0.4692028  83.77  0.005119876    2.026    0.506
       181 -11.1752    244.4653    172.4347   3.9967156824e+01   1.5086759158e+00    0.1215509   0.09892855  -1.87 4.912686e-05    1.051    0.049
       182 -11.4672    235.1688    171.6516   4.1320646463e+01   3.0328027063e+00    0.2256522    0.1404119  25.99  0.001202057    1.533    0.348
       183 -11.5292    197.1661    170.8184   4.7932654300e+01   9.4703426069e+00    0.1941283    0.1440119   7.18 0.0008356999    1.360    0.264
       184 -13.0612    152.4492    166.9203   5.6493346060e+01   1.8268441590e+01    0.5692511    0.2029299 -47.71  0.002073136    3.141    0.682
       185 -12.9133    131.5957    169.2021   6.1716028587e+01   2.1625973486e+01     0.361988     0.290991  54.02  0.001986738    1.258    0.205
       186 -13.6177     91.3346    170.1121   7.1711710771e+01   2.8194398239e+01    0.4078189    0.3523512  66.11  0.002388712    1.100    0.091
       187 -11.2718     49.9324    169.0676   8.2067946250e+01   3.4097971757e+01      0.25237    0.1346305 -32.19 0.0004724597    4.160    0.760
       188 -12.0371     40.9694    168.0228   8.4228809408e+01   3.5355690956e+01    0.2853571    0.1698698 -85.64  0.001375749    1.630    0.386
       189 -11.0298     40.6810    174.3616   8.4868920662e+01   3.3973496189e+01    0.2787704    0.1568193 -40.63  0.001331219    2.791    0.642
       190 -11.1764     54.4903    167.0266   8.0693897262e+01   3.4008783949e+01    0.1848091    0.1203607 -76.18 0.0003412375    1.510    0.338
       191 -10.9464     15.9420    167.5301   9.0395203544e+01   3.7925673044e+01    0.1620921    0.1096053  34.08 0.0007116979    1.518    0.341
       192 -11.9481     10.5508    166.9993   9.1667756456e+01   3.8498916336e+01    0.2346869    0.1448855  42.35 0.0006055741    1.490    0.329
       193 -12.5284    110.7704    164.3385   6.5937844602e+01   2.6271988534e+01    0.2498465    0.2370817  51.20 0.0002996575    1.040    0.038
       194 -14.1611     49.3963    151.7309   8.0307122580e+01   3.8152639296e+01    0.5360014    0.3328347  45.36 0.0009005757    1.508    0.337
       195 -15.4473     37.8469    146.9917   8.2957236831e+01   4.0561226668e+01     1.579466    0.8458248 -56.80  0.007918604    1.893    0.472
       196 -13.2953      3.3412    105.6554   8.9209355489e+01   5.3365806245e+01     0.473112    0.2878192 -57.65  0.002720663    1.510    0.338
       197 -13.9349     36.8862    161.5415   8.4670518873e+01   3.7267726396e+01     0.770131    0.4526069  25.97  0.004118876    1.893    0.472
       198 -13.1259      3.8894    142.5468   9.1884802425e+01   4.4548627671e+01    0.6565497    0.2276788 -64.75  0.002653912    2.520    0.603
       199 -14.2762     17.9790    150.3619   8.8672977390e+01   4.1651464440e+01     0.797083    0.6448277 -52.45  0.005210514    1.445    0.308
       200 -13.7112      9.1084    146.7685   9.0768137365e+01   4.3194551205e+01    0.6364148    0.4611431  -9.53  0.003880242    2.020    0.505
       201 -12.7294     26.4303    134.7914   8.4917927859e+01   4.4600314446e+01    0.3254749    0.2036981  72.09 0.0009501019    1.572    0.364
       202 -13.1050     21.1592    115.1822   8.4370516483e+01   4.9830541593e+01    0.8183971    0.6462959  42.91  0.004273843    1.342    0.255
       203 -13.8785     12.3794    106.1068   8.6227718011e+01   5.2703509626e+01     1.087463    0.5810956 -89.30  0.005485645    1.793    0.442
       204 -13.6596      4.2040    119.5237   9.0144544266e+01   4.9968954137e+01    0.6141929     0.425777 -55.98  0.003458937    1.450    0.310
       205 -14.5011     13.5467    137.5177   8.8867411372e+01   4.5025232221e+01    0.8184881      0.51838 -88.21  0.003340071    1.366    0.268
       206 -14.0026     26.9113    153.0088   8.6516965324e+01   4.0235886630e+01    0.9983772     0.385837 -81.66  0.003633929    2.556    0.609
       207 -14.2786      5.1357    131.0857   9.0760053268e+01   4.7151537674e+01    0.7819197      0.52428 -80.19  0.004802011    1.255    0.203
       208 -15.1297     18.2414    126.5268   8.6511174495e+01   4.7293930117e+01     1.388547    0.6236075  44.65  0.006709833    2.180    0.541
       209 -14.6221     35.6025    132.0276   8.1892932536e+01   4.4392794581e+01    0.9128758    0.5281009  67.17  0.002361833    1.864    0.464
       210 -11.3145    205.9973    164.0592   4.4930689273e+01   8.9602551154e+00     0.206499    0.1759182   8.89 0.0004857866    1.023    0.022
       211 -13.7109     87.8346    163.8264   7.1683901787e+01   3.0112900747e+01    0.5050343    0.2687269 -55.36  0.002339022    1.974    0.493
       212 -13.8674     90.6519    161.6850   7.0633003345e+01   3.0151259417e+01    0.3996164    0.3645105  66.46  0.002127181    1.029    0.029
       213 -12.6041     47.3186    163.1803   8.2130977605e+01   3.5738385791e+01    0.3112898    0.2657725 -57.01  0.001611569    1.337    0.252
       214 -12.9752      4.9085    162.0625   9.2759997721e+01   4.0039263067e+01    0.3639923    0.3421254 -25.49  0.002101182    1.455    0.313
       215 -11.7398    242.8819    162.3541   3.8262519613e+01   3.0585342893e+00    0.1923978    0.1492521 -25.47 0.0003818892    1.244    0.196
       216 -12.8292    170.1184    160.1980   5.1306541386e+01   1.6184880142e+01     0.290256    0.2811212 -17.46  0.001749758    1.143    0.125
       217 -13.5281     81.5286    157.8474   7.2444410626e+01   3.2414520198e+01    0.4745973    0.2798792 -67.58  0.001547961    1.789    0.441
       218 -11.9484    159.0092    160.1104   5.3709168127e+01   1.8307803984e+01    0.2124609    0.1918066  24.01 0.0003400147    1.015    0.015
       219 -12.1088     96.9867    175.4571   7.1077991797e+01   2.6171157420e+01    0.2085414    0.1939371   4.80  0.001271613    1.270    0.213
       220 -11.2468    105.2159    158.5470   6.6364810700e+01   2.8464935362e+01    0.2876024    0.1753401  56.02 0.0007596083    1.781    0.439
       221 -11.9674    132.0799    157.1591   5.9392940443e+01   2.3965539088e+01     0.225884    0.1940233   7.44  0.001221085    1.301    0.231
       222 -11.4994    117.4967    157.5204   6.3063292773e+01   2.6548682055e+01    0.1432954    0.1335154  41.86 0.0002082121    1.023    0.023
       223 -11.1343    204.8985    156.1528   4.3523960342e+01   1.0377851852e+01    0.1849364    0.1768049  15.64 0.0002980347    1.206    0.171
       224 -12.4359    121.9369    155.9930   6.1670049073e+01   2.6073239328e+01    0.2159888    0.2016495  45.50 0.0002924473    1.008    0.008
       225 -12.3511    111.5565    155.6554   6.4233427614e+01   2.8000336664e+01     0.404598    0.2143389  63.56  0.001450924    3.138    0.681
       226 -11.9551    141.1981    154.0990   5.6605439996e+01   2.2866249727e+01    0.2659537    0.2119378 -73.54  0.001152091    1.609    0.379
       227 -12.0275      2.1474    153.3274   9.2972134980e+01   4.2200842763e+01    0.3416467    0.1731104  81.55  0.001870168    1.720    0.419
       228 -11.4028    212.3153    153.6754   4.1653522533e+01   9.4222726522e+00    0.1230501    0.1091135 -70.59 0.0004017101    1.666    0.400
       229 -12.5309     88.1073    152.8681   6.9913444025e+01   3.2538264355e+01    0.2645901     0.201569 -65.98 0.0007521007    1.352    0.261
       230 -11.7336     79.5082    151.5058   7.2023928524e+01   3.4172691976e+01    0.2004528    0.1330378 -79.36 0.0001575257    1.676    0.403
       231 -14.4132     84.7869    148.3030   7.0067816771e+01   3.4108214987e+01    0.6745664     0.373689 -61.82  0.002091509    1.851    0.460
       232 -12.9975     80.0581    147.1179   7.1178483418e+01   3.5110245196e+01    0.3055142    0.2457054 -43.29 0.0005325674    1.417    0.294
       233 -11.3717    232.4480    151.9298   3.7838858336e+01   6.1734550606e+00    0.1826198    0.1549668   4.49 0.0003487749    1.055    0.052
       234 -10.4286    249.5162    151.5295   3.5077833458e+01   3.4449752356e+00     0.126992    0.1008529  -5.41 0.0001602971    1.051    0.049
       235 -12.5265    170.3916    150.2229   4.9186466721e+01   1.7927395691e+01    0.3486076    0.2282071  52.52  0.001644349    1.694    0.410
       236 -12.5242    130.7757    150.5375   5.8422128991e+01   2.5577701783e+01    0.3862154    0.2227827  27.46   0.00128144    2.045    0.511
       237 -13.3752     22.0510    161.5764   8.8469645898e+01   3.8717869632e+01    0.4868076    0.3600599 -84.32  0.001391344    1.211    0.174
       238 -12.2078    147.5309    149.5033   5.4174687317e+01   2.2556642935e+01    0.3118573    0.2666006  85.94   0.00120771    1.485    0.327
       239 -12.8005    108.5588    148.7328   6.3744769586e+01   3.0046403451e+01    0.3888894    0.2817212 -61.13  0.000969676    1.478    0.324
       240 -13.3330    101.6318    142.3306   6.4392758844e+01   3.2700421325e+01    0.6818712    0.3626247  57.62  0.001780261    2.394    0.582
       241 -13.0125     95.0537    140.5151   6.5860114655e+01   3.4244901372e+01    0.3828006    0.2200989 -56.89  0.001469004    1.777    0.437
       242 -13.5014     97.8990    148.5598   6.6548528724e+01   3.1924235870e+01    0.4270809    0.3767135  73.68  0.001245246    1.143    0.125
       243 -11.2756    136.1798    149.1470   5.6816088788e+01   2.4833396740e+01    0.1957092    0.1703334  71.54 0.0003363956    1.308    0.235
       244 -11.8734    121.2136    146.7958   6.0084743032e+01   2.8169469905e+01    0.1994338    0.1736299   0.55 0.0005938422    1.335    0.251
       245 -11.2346    207.7532    146.2289   4.0903797853e+01   1.1409910217e+01    0.1897228    0.1453836   6.13 0.0003912994    1.330    0.248
       246 -10.5263    229.3433    145.7414   3.7058921117e+01   7.5874621735e+00    0.1147251    0.1055068 -74.19 0.0002782515    1.590    0.371
       247 -12.1795    168.4475    145.0837   4.8502714074e+01   1.9254012135e+01    0.3261932    0.1981714  45.36 -4.485087e-05    1.613    0.380
       248 -13.2574     16.5915    160.6540   8.9780856732e+01   3.9410412299e+01    0.4729761     0.263637  38.42  0.002001405    1.687    0.407
       249 -12.3587     77.4901    139.4911   7.0639603419e+01   3.7294500020e+01    0.2225948    0.1223684  45.80 0.0009894865    1.772    0.436
       250 -13.6640     57.0582    140.0249   7.6623587525e+01   4.0004682656e+01    0.4231956    0.2263614 -40.76  0.001813259    2.536    0.606
       251 -10.9748    230.5604    139.7249   3.5582407743e+01   8.2440968788e+00    0.1726906    0.1141672 -37.98 0.0008645063    1.507    0.337
       252 -12.1306    223.0427    139.6650   3.6808374819e+01   9.6002148113e+00    0.2570511    0.1731588 -26.13  0.000208902    1.371    0.271
       253 -10.9002    189.2357    139.8062   4.3017056206e+01   1.6037219023e+01    0.2297331    0.1641707 -80.86 0.0009602358    2.819    0.645
       254 -12.4438    179.5063    135.3689   4.3985907937e+01   1.8780256691e+01    0.3549327    0.2501862   9.24 0.0001103809    1.791    0.442
       255 -12.8779    118.1889    134.9618   5.8436046566e+01   3.1325514465e+01    0.4349373    0.3253887  74.63  0.001598409    1.714    0.416
       256 -13.0191    103.5036    134.0024   6.2233168389e+01   3.4271154414e+01    0.3775682     0.290775 -30.14  0.001076833    1.568    0.362
       257 -14.9030     82.0515    128.1203   6.7243412691e+01   3.9300101607e+01    0.7001524     0.560356 -87.67   0.00308033    1.348    0.258
       258 -14.7913     60.0210    125.9246   7.3548777302e+01   4.3048871377e+01    0.7001737    0.5481571  78.04  0.002779796    1.321    0.243
       259 -11.4126    127.8029    133.2000   5.5530120253e+01   2.9833187358e+01    0.2567973    0.1684617  82.91 0.0009540244    2.856    0.650
       260 -11.9473    236.8382    130.9453   3.2698183543e+01   8.3959110788e+00    0.1971548    0.1748242  10.14 0.0003144359    1.117    0.105
       261 -11.5296    201.7140    130.9818   3.8632375639e+01   1.5030194942e+01    0.1964868     0.170879 -21.68 0.0003525315    1.090    0.082
       262 -12.3175     51.4847    116.4672   7.4654781482e+01   4.6461629284e+01     0.895945    0.2775286  38.04   0.00327582    3.041    0.671
       263 -12.3812     49.4554    123.4971   7.6453717240e+01   4.4968962743e+01    0.2361874    0.1742393  59.79 6.510953e-05    1.384    0.277
       264 -13.9318     47.7499    129.4485   7.7874624973e+01   4.3706457534e+01    0.6977206    0.2388291  40.57  0.002726129    2.745    0.636
       265 -13.8718     44.0739    121.0832   7.7787753495e+01   4.6182163914e+01    0.6022145    0.4277388 -36.85  0.003185902    1.691    0.409
       266 -12.0217     35.9818    119.7314   8.0177654056e+01   4.7371626426e+01    0.2830026    0.2310755  34.44  0.001684611    1.327    0.246
       267 -10.3583    230.3143    130.6956   3.3662820808e+01   9.6047513438e+00    0.1245819    0.1031083 -58.85 0.0005786576    1.619    0.383
       268 -12.7763    206.5527    129.3896   3.7386961783e+01   1.4327636276e+01    0.2549897    0.2367802  -9.84 0.0003108309    1.055    0.052
       269 -14.7000     62.4286    133.3816   7.4039458308e+01   4.0910013972e+01    0.6802875     0.360139  30.87  0.003075777    1.985    0.496
       270 -11.1188    224.9722    128.7337   3.4087656248e+01   1.0881333736e+01    0.1786985    0.1616391   2.57 0.0003301635    1.065    0.061
       271 -11.5570    121.8652    128.2904   5.5987139523e+01   3.2079548614e+01    0.2572955     0.206677 -62.62  0.000723171    1.359    0.264
       272 -10.4410    130.5148    128.4358   5.3752213663e+01   3.0310985923e+01    0.1506678    0.1446408  37.36 7.927469e-05    1.009    0.009
       273 -13.5026     74.2391    126.2631   6.9242378883e+01   4.0957352266e+01    0.3972963    0.2076305 -63.95  0.001699884    1.933    0.483
       274 -10.8471    162.4562    127.4764   4.5820272952e+01   2.3812107426e+01    0.1506271    0.1410966  10.34 0.0001177559    1.043    0.041
       275 -11.7099    177.8588    125.2250   4.1957283237e+01   2.0951049871e+01    0.3556411    0.2225706  16.31  0.001429839    2.376    0.579
       276 -13.7001    104.0422    121.7565   5.9443947627e+01   3.6987394195e+01    0.5863777    0.3623126  36.02  0.002588682    1.649    0.394
       277 -12.6879     99.3036    118.0335   5.9977338311e+01   3.8726223017e+01     0.322089    0.2593076 -81.02 0.0007828854    1.424    0.298
       278 -11.3925    188.9445    121.6471   3.8868132658e+01   1.9232372865e+01    0.2328282       0.1929 -15.88 0.0002327452    1.212    0.175
       279 -11.0190    165.3300    121.9977   4.3859939643e+01   2.4241000304e+01    0.2082002    0.1925071 -34.42    0.0004408    1.098    0.090
       280 -12.9335     68.1769    122.0478   7.0323445766e+01   4.2873272707e+01    0.2562629      0.21242  37.53  0.001402088    1.245    0.197
       281 -11.3150    197.2204    120.9549   3.7125425896e+01   1.7612223057e+01    0.1916098    0.1125862 -35.42  0.000567254    1.639    0.390
       282 -13.1696     78.8342    120.1033   6.6627437973e+01   4.1737740046e+01    0.3783823    0.2471176 -85.62  0.001262192    2.010    0.503
       283 -10.8971    224.2340    120.2170   3.2285047382e+01   1.2302997387e+01    0.1729423    0.1538656 -49.31 0.0003949642    1.293    0.227
       284 -13.0995     73.3462    119.9440   6.8303001055e+01   4.2624445359e+01    0.2810576    0.2185057  27.84  0.001457557    1.401    0.286
       285 -11.5207    229.4908    119.1325   3.1210797310e+01   1.1461615003e+01    0.3059414    0.1630612  54.66  0.001423032    2.238    0.553
       286 -12.4829     63.9430    118.6348   7.1022958317e+01   4.4306112000e+01     0.241272    0.1807765 -53.39  0.000495878    1.315    0.239
       287 -12.2069     94.0215    117.4802   6.1425101479e+01   3.9810268658e+01    0.2988003    0.2019851 -40.55  0.001368677    1.617    0.381
       288 -11.3851    124.2037    114.3553   5.2034629208e+01   3.4654891448e+01     0.239184    0.2089346 -34.98  0.001216489    1.190    0.160
       289 -12.5627     82.7581    111.1509   6.3471618045e+01   4.3254500284e+01    0.4390202    0.1633732 -52.41  0.001558223    2.566    0.610
       290 -11.9226    104.8702    114.0850   5.7412325415e+01   3.8593895098e+01    0.2793902    0.2196122  42.59 0.0007450933    1.260    0.207
       291 -12.3203    109.9548    111.5228   5.5306651131e+01   3.8185759217e+01    0.3296679    0.2674976 -25.83 0.0006118978    1.415    0.293
       292 -13.6795     63.8328    113.7144   7.0116931692e+01   4.5529468484e+01    0.4649519    0.2933795  18.13  0.001588281    2.026    0.506
       293 -13.0556     61.6053    110.2425   7.0164228114e+01   4.6690799388e+01    0.3890114    0.2328384 -47.53  0.001428596    1.696    0.410
       294 -10.8924    171.7611    112.9347   4.0210832577e+01   2.4525452241e+01    0.1980368    0.1254225 -35.58  0.000869945    1.580    0.367
       295 -10.9936    242.0305    112.5068   2.7862127177e+01   1.0081882725e+01    0.1764798    0.1301377  48.03 0.0004370706    1.535    0.348
       296 -12.9178     90.9568    109.5402   6.0521058014e+01   4.2224951491e+01    0.4891529    0.3103757 -27.65  0.002008693    2.243    0.554
       297 -12.1427     52.8056    110.3242   7.3124062812e+01   4.7819583971e+01    0.3863631    0.2708432 -81.59   0.00197011    1.483    0.326
       298 -13.8302     31.3739    139.0437   8.3933265286e+01   4.3113512528e+01    0.7194128    0.3097256  14.23  0.001669064    3.642    0.725
       299 -12.1723    219.9770    109.3089   3.0427468127e+01   1.4801292548e+01    0.3682664    0.2259756  39.47  0.001576876    1.766    0.434
       300 -13.5622    120.8571    107.0525   5.1077653320e+01   3.6947111101e+01    0.4520977    0.3472629  31.90 0.0009062561    1.375    0.273
       301 -10.4964    105.2980    107.3085   5.5608191656e+01   4.0058875388e+01    0.1517615    0.1215966  -9.52 0.0002193311    1.594    0.373
       302 -11.6428     77.0205    106.9994   6.4374923746e+01   4.5189704300e+01    0.2225688    0.1695772  71.96            0    1.553    0.356
       303 -11.8563    210.2891    107.7103   3.1623551061e+01   1.7041702388e+01    0.2844495    0.2213701 -64.41 0.0008061441    1.657    0.396
       304 -11.2717    229.9975    103.0557   2.7425971380e+01   1.3736856011e+01    0.1998583     0.177278 -21.71 0.0003092182    1.003    0.003
       305 -12.5711    166.1262    100.5600   3.8183439139e+01   2.8091801545e+01    0.4590709    0.1784166 -47.87  0.001481991    3.040    0.671
       306 -12.4173     78.8391    101.4283   6.2462342530e+01   4.6230772953e+01    0.3243912      0.23709  58.46 0.0007108471    1.547    0.354
       307 -11.3064     55.3097    101.2685   7.0484155578e+01   4.9738669716e+01    0.2647205    0.1467561 -51.14  0.001201069    1.706    0.414
       308 -12.0652     58.6149     96.9842   6.8388391861e+01   5.0351693992e+01    0.4240283    0.2388431 -39.25  0.001843295    2.036    0.509
       309 -12.9074    208.2150     99.5942   2.9974529510e+01   1.8767962902e+01    0.2818407    0.2637257 -24.64 0.0004296515    1.022    0.021
       310 -11.7384     31.3984     99.5430   7.8677950288e+01   5.2816575426e+01    0.4515089      0.14846 -52.95  0.001748288    2.669    0.625
       311 -12.0257     24.4050     97.3422   8.0853042667e+01   5.3971260254e+01    0.5144399    0.3468068  36.93  0.002877027    1.609    0.378
       312 -13.9300     92.4118     98.4358   5.7275417620e+01   4.4554938418e+01    0.7806804    0.4997022  71.77  0.003052077    2.526    0.604
       313 -12.2214    161.8872     99.1438   3.8722823218e+01   2.9338977997e+01    0.2430593    0.2147779 -71.26  0.001234369    1.291    0.225
       314 -11.3410    178.7244     98.0262   3.4905441803e+01   2.5633095013e+01    0.2150671    0.1907266 -29.02  0.000401275    1.105    0.095
       315 -12.2156     75.0813     97.6677   6.2804324691e+01   4.7742076772e+01    0.2016331    0.1933067  27.60 0.0005214028    1.097    0.088
       316 -10.5096    188.6764     97.6992   3.2912192801e+01   2.3408890862e+01     0.151376    0.1138343  14.43 0.0003449492    1.632    0.387
       317 -12.9488     81.9952     96.9833   6.0299295766e+01   4.6754347385e+01    0.3551089    0.2630449  -4.22  0.001261277    1.893    0.472
       318 -12.8709     68.3311     95.0448   6.4494215231e+01   4.9426723323e+01    0.3945158    0.1851423  40.53  0.001599008    2.192    0.544
       319 -12.3639     78.8245     92.4458   6.0187631468e+01   4.8362254018e+01    0.2522629    0.1729186 -47.91 0.0008593161    1.414    0.293
       320 -12.4322     62.4877     92.4936   6.5952904116e+01   5.0903177034e+01    0.2524879    0.1378876 -70.52  0.000849542    2.196    0.545
       321 -11.5880    245.0008     91.2214   2.2633297980e+01   1.2501239544e+01    0.2119332    0.1622536 -29.79 0.0003088075    1.127    0.113
       322 -12.4165    207.0135     90.6185   2.7910700675e+01   2.0441983556e+01    0.4563473    0.1841986 -38.67  0.001758527    2.275    0.560
       323 -11.3184    184.9828     92.3307   3.2181515640e+01   2.5166412681e+01    0.2403981    0.1295879  78.18 0.0007049154    4.454    0.775
       324 -11.7159     98.0727     91.7693   5.3651388907e+01   4.4993794525e+01    0.3158539    0.2014767 -77.62  0.001177083    2.690    0.628
       325 -12.9422    230.3096     89.5910   2.4188916745e+01   1.5635678940e+01    0.2752766    0.2516953 -26.09 0.0004840208    1.026    0.025
       326 -11.4317    170.5124     91.5053   3.4791218942e+01   2.8706408871e+01    0.1507775     0.147876  -9.96 0.0008105424    1.003    0.003
       327 -13.1094     70.8087     90.0741   6.2362710578e+01   5.0231496932e+01    0.3172189    0.2471678  45.32  0.001634496    1.350    0.259
       328 -11.2146    220.2329     89.8404   2.5682884226e+01   1.7696475656e+01    0.2010281    0.1737111 -46.37 0.0003897737    1.152    0.132
       329 -11.8370     28.2260     90.3975   7.8289203836e+01   5.5362836856e+01    0.2958574   0.09331071  34.06  0.001151382    3.135    0.681
       330 -11.6633     11.1119     87.0776   8.4297885873e+01   5.7444170133e+01    0.2987178    0.1771462  20.77  0.001633873    1.958    0.489
       331 -11.6188      4.7859     87.2891   8.6729030707e+01   5.7749234411e+01    0.2706263     0.195218 -41.36   0.00114752    1.444    0.307
       332 -12.6204    149.4642     86.3570   3.7927362345e+01   3.4676540723e+01    0.5520055    0.1896604 -34.85  0.001693254    3.180    0.686
       333 -11.5215     51.5860     79.1306   6.6714588995e+01   5.5594948668e+01    0.2493073    0.2076872  73.99 0.0006733484    1.411    0.291
       334 -12.2903     54.3832     85.7589   6.7307765008e+01   5.3642586703e+01     0.838782    0.4481125  29.20  0.003754894    2.042    0.510
       335 -13.1780     65.5350     82.7194   6.2317121131e+01   5.2784762438e+01    0.3854191    0.2636788  64.26  0.001021594    1.968    0.492
       336 -11.6105    178.6518     86.9214   3.1910323099e+01   2.7572661300e+01    0.2113753     0.184973 -37.18 0.0003809073    1.118    0.105
       337 -11.8399    162.5277     86.9947   3.5195623480e+01   3.1419907661e+01     0.236351    0.1503997 -36.36 0.0006164597    1.563    0.360
       338 -11.3655    125.2256     85.6188   4.3826367089e+01   4.0515121153e+01    0.3835312    0.2600101 -14.63  0.001553572    2.108    0.526
       339 -10.7084     35.4621     86.4009   7.4745277914e+01   5.5670679674e+01    0.1329652    0.1197867 -59.59 0.0001193769    1.025    0.025
       340 -12.1828    171.1346     83.3639   3.2383835182e+01   2.9984456018e+01    0.2525645    0.2091215 -18.31 0.0005171865    1.287    0.223
       341 -12.6573    111.1010     83.7039   4.7267559480e+01   4.4056137600e+01    0.5197273    0.2573201  46.73  0.001384538    2.028    0.507
       342 -12.6900     77.4234     82.7062   5.7981872418e+01   5.0863374266e+01    0.4050444    0.3753597  63.25  0.001820526    1.164    0.141
       343 -12.2864     87.9301     79.5789   5.3387352399e+01   4.9669697943e+01    0.4178461     0.308666 -51.91  0.002023281    1.356    0.263
       344 -12.0464    182.2985     80.9966   2.9586206764e+01   2.7695712701e+01    0.2769509    0.1949121 -45.61 0.0004474262    1.427    0.299
       345 -11.8302    183.1274     77.1387   2.8359528465e+01   2.8126924823e+01    0.2647862    0.2079871 -19.65 0.0005371443    1.355    0.262
       346 -11.1126    206.5177     80.5069   2.5385194448e+01   2.2113816952e+01     0.142246    0.1338241 -25.88 0.0008102219    1.028    0.028
       347 -11.8360    153.8752     80.0795   3.5065046174e+01   3.4764933827e+01    0.2284244    0.2095349 -70.56 0.0003179907    1.171    0.146
       348 -11.9972     29.3465     79.6925   7.5804264414e+01   5.7886266109e+01    0.2519649    0.2011211  45.82  0.001336284    1.403    0.287
       349 -11.8966     23.0856     79.4802   7.8314449010e+01   5.8465386434e+01    0.3239363    0.1619265 -64.07  0.001564086    1.680    0.405
       350 -12.1070    112.1025     76.2918   4.4646770987e+01   4.5368006796e+01    0.4710956    0.2751023 -50.98  0.001061558    1.865    0.464
       351 -11.2830    115.9666     74.5027   4.2942179394e+01   4.4858126760e+01     0.236284    0.2153417 -35.58 0.0006373908    1.102    0.093
       352 -12.9113    215.0355     75.8514   2.2924429142e+01   2.0895327601e+01    0.3763869    0.2575142 -19.54 0.0009854573    1.550    0.355
       353 -10.9352      8.4703     78.4564   8.4091672572e+01   5.9694424282e+01    0.1267788    0.1053316 -66.60 0.0001490816    1.016    0.016
       354 -12.3442    169.5357     74.8686   3.0250578945e+01   3.1819851511e+01    0.3300393    0.2652288 -46.33 0.0005892182    1.252    0.201
       355 -12.3001    160.6419     75.2458   3.2159732631e+01   3.3953580018e+01    0.3787661    0.2472273 -60.15  0.001583287    1.937    0.484
       356 -12.2347     75.0771     75.4216   5.6657470284e+01   5.2919519468e+01    0.3194975    0.2141303 -46.91 0.0009000605    1.429    0.300
       357 -11.3522     85.9304     75.0807   5.2670545352e+01   5.1035337254e+01    0.2256217    0.2150942 -10.16 0.0005270174    1.051    0.049
       358 -12.9043     51.1858     71.8851   6.4910933675e+01   5.7354290126e+01    0.4930887     0.290198 -47.11 0.0007304272    1.563    0.360
       359 -11.4416     47.7449     67.4446   6.5072238702e+01   5.8826966760e+01    0.3084165    0.2173461  27.68   0.00106666    1.536    0.349
       360 -12.3033      3.5147     73.0804   8.5337869331e+01   6.1244343239e+01    0.3154592    0.1656569 -64.69  0.001615227    1.510    0.338
       361 -11.5712      1.7480     68.1723   8.5363258280e+01   6.2497795917e+01    0.2347642    0.1506664  86.59  0.001334943    1.593    0.372
       362 -11.2535    105.5805     72.8952   4.5511027187e+01   4.7491428182e+01    0.2600551    0.2108924  31.12 0.0008207113    1.288    0.224
       363 -10.9072     68.3105     72.3631   5.8251415996e+01   5.4735753227e+01    0.1537485    0.1086165 -20.93 0.0007040034    1.750    0.429
       364 -10.7044     70.3230     76.6540   5.8793484678e+01   5.3436181793e+01    0.1485098    0.1153521  81.64  0.000704993    1.738    0.425
       365 -10.5711     11.4065     71.1612   8.1682776072e+01   6.1285949241e+01     0.171575    0.1081658 -81.75 0.0003644587    1.531    0.347
       366 -11.5300    180.9762     70.1105   2.6749335720e+01   2.9775626102e+01     0.324986    0.2042639  79.34  0.001351313    2.129    0.530
       367 -10.7829    246.8622     69.2017   1.7321848140e+01   1.5107141405e+01    0.1691187    0.1416388  -9.32 0.0005607461    1.286    0.222
       368 -11.0268    101.0519     69.7902   4.5895512277e+01   4.9097545453e+01    0.2004768    0.1218986  46.28 0.0003378892    1.654    0.395
       369 -11.2730     94.1227     68.8096   4.7819754475e+01   5.0749258749e+01    0.2196929      0.20543 -89.62 0.0006437998    1.208    0.172
       370 -11.9847     60.2092     67.3671   5.9880144139e+01   5.7122774158e+01    0.2502433    0.1842643 -49.07 0.0003037422    1.271    0.213
       371 -11.2514    203.1081     66.6332   2.2228541190e+01   2.4973949558e+01    0.1913278    0.1803436  58.92 0.0003953356    1.119    0.107
       372 -11.1981     88.9319     67.0656   4.8986283300e+01   5.2157684405e+01    0.2216667    0.2015731 -79.98 0.0004440525    1.275    0.216
       373 -12.0485    199.1416     65.5992   2.2536026793e+01   2.6063478355e+01    0.2460989    0.1842028 -43.91 0.0004694411    1.275    0.216
       374 -12.5507    187.9074     78.2767   2.7833378492e+01   2.6796533958e+01    0.2942947     0.259715  -3.13 0.0004079691    1.227    0.185
       375 -12.1249      7.6972     65.8077   8.2360919619e+01   6.2774272000e+01    0.2597905    0.1055889 -56.53 0.0007476224    1.904    0.475
       376 -12.1274    178.6210     64.1974   2.5449027745e+01   3.1281720352e+01    0.2588853    0.2543564  60.79 0.0003049512    1.040    0.039
       377 -12.1841    110.0669     64.1435   4.1187349141e+01   4.8214784425e+01    0.2885028    0.2506395 -38.41 0.0003723702    1.159    0.137
       378 -12.0786    108.8030     59.8220   4.0039335955e+01   4.9313862133e+01    0.3034354    0.2552019  72.95  0.001089143    1.384    0.277
       379 -12.6236    105.7439     56.1271   3.9619430825e+01   5.0690561230e+01     0.300504    0.2649565 -42.58  0.000362718    1.167    0.143
       380 -12.6871     43.2604     61.5511   6.5267119225e+01   6.0730738030e+01    0.4712927    0.3034444  56.49  0.002253994    2.161    0.537
       381 -11.7393     13.7244     61.8361   7.8851681705e+01   6.3365598030e+01    0.2225588    0.1280193 -50.20  0.001196609    1.469    0.319
       382 -10.7357    233.5099     59.3890   1.6467624061e+01   1.9146596819e+01    0.1293036    0.1186342 -41.14 -0.0001148232    1.043    0.041
       383 -12.9075     32.2163     57.0473   6.8975217820e+01   6.2974947873e+01    0.7414979    0.2449322  43.58  0.002526198    4.403    0.773
       384 -13.6303     30.6083     50.1215   6.7643441848e+01   6.4696083986e+01    0.3865409    0.3500536 -61.97  0.002468019    1.169    0.144
       385 -12.4991     98.3558     60.1158   4.3387486346e+01   5.1588047843e+01     0.329044    0.1819142 -29.02 0.0005966776    2.127    0.530
       386 -11.9170    192.9139     57.1860   2.1135453862e+01   2.8788191026e+01    0.2300483     0.192973 -67.69 0.0009842427    1.237    0.191
       387 -11.2449    159.9655     57.4627   2.6824717941e+01   3.7046959310e+01    0.2094237    0.1328214 -87.35 0.0005599653    2.364    0.577
       388 -12.1940     52.0347     55.1750   5.9299314983e+01   6.1000454023e+01    0.4772933    0.3295638  88.34  0.002097557    2.675    0.626
       389 -10.5273    217.5346     55.4885   1.7356993563e+01   2.3191082028e+01    0.1368651    0.1257549 -44.67 9.202261e-05    1.019    0.019
       390 -10.8748    164.3182     57.2935   2.5942716483e+01   3.5959256389e+01    0.1539041      0.11544  26.71 0.0007012343    1.605    0.377
       391 -11.1209    126.5022     53.9961   3.3085907544e+01   4.6103435557e+01    0.2313531    0.1506442 -35.73 0.0007462534    1.560    0.359
       392 -10.7156     63.3074     61.6567   5.6754906358e+01   5.7905972573e+01    0.1406431    0.1141702  86.23 0.0007043231    1.692    0.409
       393 -12.3695    142.0471     52.4871   2.8893558061e+01   4.2422749302e+01    0.2692552    0.2219294 -32.54  0.001347499    1.241    0.194
       394 -10.8729    115.5285     53.5565   3.5836121107e+01   4.8855360015e+01    0.1509887    0.1461448  31.13 9.329858e-05    1.005    0.005
       395 -12.7455     37.4192     51.8389   6.4887833368e+01   6.3589546110e+01     0.276554    0.2558066 -59.72  0.001088045    1.161    0.139
       396 -10.6803    222.9583     49.9857   1.5313737257e+01   2.2687055157e+01    0.1584278    0.1460147 -59.28  0.000365332    1.045    0.043
       397 -11.7586     19.0307     48.6442   7.3031297165e+01   6.6048527746e+01    0.2198822    0.1652517 -69.06  0.000835997    1.325    0.245
       398 -14.3234     36.7750     40.6106   6.1204838837e+01   6.6069146073e+01    0.4926307    0.4333897 -64.36  0.001516178    1.322    0.243
       399 -11.6991    142.8252     45.4959   2.6330019319e+01   4.3287423114e+01    0.2956826    0.2056883  -2.76 0.0008748886    1.896    0.472
       400 -11.3399    226.9702     43.6342   1.3282727392e+01   2.2593639583e+01    0.1790441    0.1605634 -80.18 0.0004158299    1.128    0.113
       401 -13.8800    135.7887     38.8933   2.5490275076e+01   4.6063360936e+01    0.4472204    0.3845722 -50.93  0.001849565    1.227    0.185
       402 -11.3203    130.9752     40.7818   2.7240458370e+01   4.7035649738e+01     0.229261    0.2176107  48.58 0.0004357318    1.016    0.016
       403 -10.5512    159.3198     43.3285   2.2409151846e+01   3.9299263352e+01      0.15618    0.1124088  28.44 0.0005445658    1.686    0.407
       404 -11.4561    118.7889     40.6597   3.0131407314e+01   5.0138056475e+01    0.3334164    0.2327831   7.93  0.001473066    1.899    0.473
       405 -11.6572    103.2739     39.9933   3.4133464726e+01   5.4002073380e+01     0.209312    0.1968931 -12.69  0.001157542    1.070    0.066
       406 -12.4721     25.6446     37.1770   6.5796455189e+01   6.7986676576e+01    0.2239277    0.1685194   0.27 0.0007822984    1.406    0.289
       407 -11.9918     53.3201     38.0674   5.2087667033e+01   6.4297326756e+01    0.2406416    0.2161659 -29.05 0.0004038191    1.084    0.078
       408 -10.5820      4.4419     39.5812   7.8370264943e+01   6.9000948039e+01    0.1227942   0.09809393 -48.77 9.371045e-05    1.021    0.020
       409 -12.3369    230.4823     34.6403   1.0710313769e+01   2.2902914441e+01     0.226271    0.2177145 -45.74 0.0002644006    1.135    0.119
       410 -11.4150    101.7927     34.6452   3.2372344331e+01   5.5168758607e+01    0.3016945    0.1654714  40.10  0.001269013    1.868    0.465
       411 -12.9940    106.8103     32.2297   2.9944799929e+01   5.4316329688e+01    0.3335798     0.292767  -2.20 0.0005000317    1.184    0.155
       412 -12.7690     43.8415     33.7943   5.4806756392e+01   6.6515868750e+01     0.310182    0.2396886  37.63 0.0004368083    1.444    0.308
       413 -12.8429     31.8218     32.1696   6.0426775371e+01   6.8361962538e+01    0.4073401     0.282254 -44.90  0.002338363    1.293    0.227
       414 -12.2199    159.3551     31.0809   1.8381648930e+01   4.0900310948e+01    0.2605312    0.2202298  66.12 0.0002930179    1.132    0.117
       415 -11.8924    134.9876     30.8240   2.2711572434e+01   4.7357184103e+01     0.429554    0.2152337 -26.74  0.001745218    2.111    0.526
       416 -13.0041     78.2850     30.8550   3.8437707839e+01   6.0983397719e+01    0.3069955    0.2647444 -52.98  0.000851481    1.386    0.278
       417 -10.7643     65.5469     32.4945   4.4198306997e+01   6.3216890516e+01    0.1370462    0.1276794  -6.44 7.381488e-05    1.066    0.062
       418 -11.0870      8.7231     31.9860   7.3694636101e+01   7.0428520553e+01     0.170112    0.1319555 -48.56 0.0002513312    1.064    0.060
       419 -12.0058    208.2339     29.6083   1.1597241980e+01   2.8635118611e+01    0.3001709    0.1871515 -60.84  0.001144241    1.638    0.389
       420 -11.0968     18.8625     30.1845   6.7015204247e+01   7.0062946634e+01    0.1847796    0.1219964 -31.94 0.0009009389    1.364    0.267
       421 -12.9978     46.3359     26.2009   5.0035237103e+01   6.7545569778e+01    0.3089752      0.27393  34.18 0.0007532392    1.282    0.220
       422 -10.9439    221.0269     25.3069   9.2406450297e+00   2.6116549287e+01    0.1782947    0.1573828 -77.50 0.0003830683    1.086    0.079
       423 -11.8025    162.2741    247.0583   6.6684114970e+01   4.0054517630e+00    0.2129843    0.1435339  24.11 0.0007291852    1.242    0.195
       424 -12.3976     68.0033     25.0123   3.9635782769e+01   6.3959286130e+01    0.2083438    0.1752347 -71.06  0.001134386    1.718    0.418
       425 -11.5572    166.2207     22.4129   1.4525501609e+01   4.0109066783e+01    0.2738241    0.1942411 -38.14  0.001007297    1.412    0.292
       426 -11.7894    238.1588     22.8880   7.2288797959e+00   2.2561456497e+01    0.2027968    0.1665666 -80.65 0.0004082049    1.192    0.161
       427 -11.2620     80.3009    246.2767   8.2205432175e+01   1.5352796410e+01     0.149878   0.09527127  53.97 0.0003418675    1.291    0.225
       428 -11.0217     92.0584     16.3447   2.7111938289e+01   5.9911501916e+01     0.196869    0.1706646  47.70 0.0004571981    1.095    0.087
       429 -10.7295     31.4824     16.0203   5.2914624125e+01   7.1403226112e+01    0.1802366    0.1116696 -39.32 0.0003743364    1.478    0.323
       430 -11.3604    100.1626     12.7962   2.3258524288e+01   5.8361241855e+01    0.1978877    0.1879516 -86.78  0.000406567    1.186    0.157
       431 -10.5953     44.5740    248.4349   8.9035866637e+01   1.9258908211e+01    0.1007086   0.08299359  48.58 0.0001112457    1.222    0.182
       432 -11.0522    130.5355    243.5094   7.2274734920e+01   8.9825502358e+00    0.1182625    0.0897619  37.91 1.873903e-05    1.018    0.018
       433 -12.7007    103.9702    242.0485   7.7276433424e+01   1.2901688270e+01    0.2959445    0.1462726  35.15 0.0003076893    1.618    0.382
       434 -11.0619     52.6410    243.3291   8.7253756120e+01   1.9192353869e+01    0.1124247   0.09479513 -89.64 0.0001458127    1.362    0.266
       435 -11.2926    135.0250    241.4599   7.1183037792e+01   8.6414021703e+00    0.1645151    0.1433106  33.87 0.0005203516    1.141    0.124
       436 -11.7092     60.4437    241.8861   8.5685030591e+01   1.8518645567e+01    0.1520091    0.1132572  52.49 0.0004113581    1.013    0.013
       437 -10.6699     47.4255    241.8336   8.8148385111e+01   2.0038438137e+01    0.1256348   0.09545409 -66.49 0.0009288631    1.677    0.404
       438 -10.6377    158.6170    240.8084   6.6597286917e+01   5.3470339097e+00    0.1291977    0.1145176 -66.39 0.0006947028    1.656    0.396
