#   1 NUMBER                 Running object number                                     
#   2 MAG_AUTO               Kron-like elliptical aperture magnitude                    [mag]
#   3 X_IMAGE                Object position along x                                    [pixel]
#   4 Y_IMAGE                Object position along y                                    [pixel]
#   5 X_WORLD                Barycenter position along world x axis                     [deg]
#   6 Y_WORLD                Barycenter position along world y axis                     [deg]
#   7 A_WORLD                Profile RMS along major axis (world units)                 [deg]
#   8 B_WORLD                Profile RMS along minor axis (world units)                 [deg]
#   9 THETA_WORLD            Position angle (CCW/world-x)                               [deg]
#  10 FWHM_WORLD             FWHM assuming a gaussian core                              [deg]
#  11 ELONGATION             A_IMAGE/B_IMAGE                                           
#  12 ELLIPTICITY            1 - B_IMAGE/A_IMAGE                                       
         1 -12.8333     57.3875    130.4541   1.0574980821e+02   4.2249878082e+01     2.478611    0.7840576 -73.36  0.005067977    9.384    0.893
         2 -13.0799    221.2619     25.8047   3.9639460586e+01   2.7317426377e+01    0.5700029    0.4928217  43.08  0.001503501    1.432    0.302
         3 -13.7808    214.3464     31.8816   4.1834754140e+01   2.8170455820e+01     1.141528    0.9022853 -36.32  0.004803128    1.294    0.227
         4 -13.7281    237.1514     10.4822   3.4778069692e+01   2.5536279883e+01    0.7546222    0.5927936 -64.47  0.002595759    1.062    0.059
         5 -10.5300      2.3210     14.5196   9.7353776838e+01   7.2205374993e+01     0.195856    0.0829557 -49.65 0.0009557381    1.971    0.493
         6 -10.3334      2.1534      3.7904   9.2607249523e+01   7.3941109643e+01     0.279928   0.05315817 -46.02   0.00112581    3.875    0.742
         7 -12.8873    153.5245    228.4537   9.8014403963e+01   5.6436349609e+00    0.8250048    0.2606167  35.92  0.003123384    2.872    0.652
         8 -15.1563     88.5023    246.0164   1.1318708222e+02   1.2439837990e+01     5.768751     2.521426  32.39   0.02785432    2.377    0.579
         9 -13.4711     30.5622    247.5619   1.2392728212e+02   1.9347528716e+01    0.9121064    0.8077624  40.68  0.006165355    1.481    0.325
        10 -12.6008     44.3282    217.0638   1.1932666803e+02   2.3707149544e+01    0.5182491    0.2447448 -87.12  0.002623671    2.242    0.554
        11 -10.2902     94.3678    221.2871   1.0943747251e+02   1.6252394565e+01    0.2404466    0.1888136  63.69 0.0008104002    1.168    0.144
        12 -12.1426     41.0785    235.8072   1.2132191813e+02   2.0366141785e+01    0.3087481    0.2134096  63.80 0.0005727337    1.138    0.121
        13 -10.6412    192.7016    193.0424   8.3894975960e+01   5.1389501567e+00    0.4620191    0.3019705 -54.77  0.002229989    2.063    0.515
        14 -11.8126     56.0625    181.4680   1.1337422240e+02   3.0089727359e+01    0.3998553    0.2829812 -36.19  0.001578038    1.966    0.491
        15 -11.7437     61.9642    175.5446   1.1125158243e+02   3.0728817135e+01    0.3004147    0.2401341 -45.06 0.0006517645    1.471    0.320
        16 -12.7307     54.2179    240.8846   1.1924480478e+02   1.7855060315e+01    0.4884193    0.3524165  34.45  0.001899191    1.521    0.343
        17 -11.1876     72.6042    165.4252   1.0721850730e+02   3.1713444798e+01    0.2590963    0.2303712 -68.85 0.0002899692    1.099    0.090
        18 -13.3552     59.1876    161.8380   1.1014173280e+02   3.4338378895e+01    0.5225883    0.3035671 -45.05  0.001644406    1.996    0.499
        19  -9.1700    157.4129    160.2571   8.5013712735e+01   1.8154985067e+01    0.2008144    0.1451933 -57.21 0.0004831035    1.567    0.362
        20 -11.3895     32.9840    156.9027   1.1620587353e+02   3.8431228455e+01    0.3162982    0.2099572  64.99  0.001574104    1.523    0.344
        21 -12.1309     22.5775    155.9261   1.1870759316e+02   3.9621814348e+01     0.388364    0.2007953 -81.30  0.001992275    1.713    0.416
        22 -15.7551      7.4112    238.9290   1.2745697269e+02   2.3293874285e+01     12.21426      1.15469 -77.57   0.03528786    9.251    0.892
        23  -9.9761    133.9063    145.2928   8.7494818711e+01   2.6115223725e+01    0.7619805   0.09829126 -50.71  0.001295487   10.397    0.904
        24 -12.2042     16.9024    216.9603   1.2464036379e+02   2.6642491257e+01    0.3550073     0.318601  74.07  0.001578755    1.282    0.220
        25  -9.0034    137.5667    145.7615   8.6671608678e+01   2.5284018915e+01    0.2087756     0.148238 -61.22 0.0006324376    1.590    0.371
        26 -10.5603     95.2557    144.2576   9.7550082522e+01   3.3409092475e+01     0.329463    0.2987114 -83.06 0.0009957146    1.106    0.096
        27  -9.5438     98.7319    140.8492   9.5905805900e+01   3.3652745315e+01    0.3401035    0.2439397 -10.54  0.001065308    2.083    0.520
        28 -11.8847     83.3000    142.7842   1.0057476140e+02   3.5661024777e+01    0.3089585    0.2567446 -51.48 0.0004453571    1.176    0.150
        29 -10.7607     28.7906    142.8812   1.1565948367e+02   4.2200490914e+01    0.2027941     0.154402 -58.14  0.001228571    1.246    0.198
        30 -14.3334     10.6564    207.6237   1.2528436934e+02   2.9141456701e+01     1.190477     0.837419 -87.85  0.003558563    1.185    0.156
        31 -10.5217     75.3628    136.2762   1.0159092968e+02   3.8430864931e+01    0.3278339    0.1896434  65.17 0.0008186809    2.530    0.605
        32  -9.6892    159.1546    135.2262   7.8929058795e+01   2.3143853975e+01    0.2745784    0.2011033 -72.55  0.000756938    1.907    0.476
        33 -10.6986    106.7978    131.7432   9.1698721470e+01   3.4428452714e+01    0.3913906    0.3497949 -82.72  0.001309303    1.202    0.168
        34 -10.6503     94.6198    128.5366   9.4444733083e+01   3.7322657606e+01    0.2963371    0.2526695  -8.26 0.0009071198    1.385    0.278
        35 -11.2831     66.9666    128.4280   1.0254532327e+02   4.1528302042e+01    0.3323929    0.2173251  64.86  0.001537484    1.962    0.490
        36  -9.5798     47.3299    129.6572   1.0857008410e+02   4.3604223151e+01    0.1424949   0.09677313  73.06 0.0007051065    1.748    0.428
        37  -9.6476    114.9704    125.5125   8.7966317122e+01   3.4381496096e+01    0.2158404     0.138867  11.96 0.0008097728    2.504    0.601
        38  -9.5349    105.3439    120.2161   8.9414005261e+01   3.7427760455e+01    0.2276055    0.2025871  14.95  0.000437189    1.222    0.182
        39  -9.5412    168.1548    113.2448   7.1314009740e+01   2.5756833920e+01    0.2943771      0.20409 -67.77  0.001213231    2.014    0.503
        40  -9.8709    205.0686    110.4764   6.3056310124e+01   1.8003530996e+01    0.3455733    0.2339174  32.99  0.001304108    1.738    0.425
        41 -12.9713     79.4099    158.3878   1.0436255080e+02   3.2440766171e+01     1.669437    0.7982377  59.49  0.001456277    3.052    0.672
        42 -13.1049     68.1741    144.1610   1.0503561022e+02   3.7487654519e+01    0.8709181     0.591804  81.43  0.002443044    1.781    0.439
        43  -9.3983     24.8808     82.6928   1.0718088248e+02   5.6956990947e+01    0.1648153    0.1509171 -45.97   0.00041433    1.120    0.107
        44 -12.9928     26.4476    209.8412   1.2234628235e+02   2.7153507055e+01    0.4564227    0.3455997 -58.16 0.0007948837    1.602    0.376
        45 -10.4716     13.2932     60.2093   1.0658417953e+02   6.2742503866e+01    0.2227947    0.1637102 -54.94 0.0005859265    1.144    0.126
        46  -9.7150     29.6565     53.1036   9.7577878728e+01   6.2996618018e+01    0.1825693    0.1642005  10.91 0.0004950184    1.283    0.221
        47 -12.1045    198.6972     46.5590   4.7546590642e+01   2.9960499003e+01    0.8242508    0.6588464  33.82  0.004467991    1.518    0.341
        48 -13.2437    207.5918     36.5750   4.3793085478e+01   2.9163214857e+01    0.7014493    0.5568374  21.24  0.003130717    1.716    0.417
        49 -11.6748     61.8868    235.4526   1.1737115130e+02   1.7928968027e+01    0.4340862    0.2173615  70.08  0.001681963    2.210    0.548
        50 -10.0577     95.1941     42.0566   6.8234783240e+01   5.5180029939e+01    0.3126253    0.1761496 -40.03  0.001393681    1.891    0.471
        51 -10.9462    133.6216     40.5891   5.7416122497e+01   4.6790636742e+01    0.5500857    0.3165159 -73.57   0.00181954    4.145    0.759
        52 -11.6930     37.7914    230.6006   1.2158160518e+02   2.1742323079e+01    0.2322069    0.2177396 -83.94 0.0003157339    1.386    0.279
        53  -9.0528    132.1902     31.4147   5.4583601178e+01   4.8322671396e+01    0.1899669    0.1315254  72.52 0.0005604527    1.611    0.379
        54 -15.2821     36.8037    198.9549   1.1939879259e+02   2.8383745909e+01     2.902641      1.53531  65.82     0.012067    1.834    0.455
        55  -9.9815    189.4974     15.0930   4.0376262344e+01   3.6023064804e+01    0.1880235    0.1282893 -31.61  0.001007887    1.563    0.360
        56 -10.7773     37.1347    223.3950   1.2120886866e+02   2.3238582721e+01    0.2256317    0.1459152  72.65 0.0005933177    1.310    0.237
