#   1 NUMBER                 Running object number                                     
#   2 MAG_AUTO               Kron-like elliptical aperture magnitude                    [mag]
#   3 X_IMAGE                Object position along x                                    [pixel]
#   4 Y_IMAGE                Object position along y                                    [pixel]
#   5 X_WORLD                Barycenter position along world x axis                     [deg]
#   6 Y_WORLD                Barycenter position along world y axis                     [deg]
#   7 A_WORLD                Profile RMS along major axis (world units)                 [deg]
#   8 B_WORLD                Profile RMS along minor axis (world units)                 [deg]
#   9 THETA_WORLD            Position angle (CCW/world-x)                               [deg]
#  10 FWHM_WORLD             FWHM assuming a gaussian core                              [deg]
#  11 ELONGATION             A_IMAGE/B_IMAGE                                           
#  12 ELLIPTICITY            1 - B_IMAGE/A_IMAGE                                       
         1 -11.8554    203.9079     40.0898   2.3885697800e+01   2.8656997932e+01     1.304419    0.8035064  28.71  0.003205507    2.058    0.514
         2 -10.7677    232.1989     14.3605   1.3067303654e+01   2.4417081982e+01    0.8546534     0.702431  17.37  0.004774909    1.445    0.308
         3 -10.4721    227.2208     10.3459   1.2499382243e+01   2.6088896045e+01     0.838003    0.4862835  19.39  0.003546174    2.630    0.620
         4  -8.8069    188.9025     12.5807   1.7655521633e+01   3.5832748214e+01    0.2484037     0.232645  -1.04 0.0004500188    1.127    0.113
         5  -9.3687    119.9843      9.6645   2.8855705611e+01   5.3592812233e+01    0.4501154    0.3643799  24.55  0.002545108    1.132    0.117
         6 -10.2480    112.9871    238.9644   8.3335347863e+01   1.3764224690e+01    0.2366102    0.2198818  13.57 0.0004864788    1.655    0.396
         7  -7.2191    155.7898    249.9599   7.7608977428e+01   5.7895480407e+00    0.1094515   0.09005027 -52.20   0.00038276    1.638    0.389
         8  -8.9404     74.7293    249.6626   9.0135634926e+01   1.7444731976e+01    0.2287122    0.1974725 -88.95  0.001373437    1.441    0.306
         9  -8.1385     79.5167    244.0281   8.9011455746e+01   1.7656739942e+01    0.2766652    0.1345551  76.41  0.001639861    2.404    0.584
        10  -9.3733     71.9728    242.5659   9.0052295824e+01   1.8845558124e+01    0.3546357     0.189426 -71.35  0.002263373    2.017    0.504
        11  -7.6863     75.7677    244.0063   8.9579890482e+01   1.8145180871e+01      0.16252    0.1230613  88.85 0.0006520059    1.303    0.233
        12 -17.0067      6.9501    243.0376   9.9409381626e+01   2.5958113325e+01     2.923877     2.384157 -74.58   0.01931132    1.789    0.441
        13  -9.1248    136.9669    227.2001   7.8135747529e+01   1.1805302685e+01    0.1907837    0.1593515  51.49 0.0002328827    1.100    0.091
        14  -7.8995    185.0230    222.7813   6.9360805644e+01   4.4358310811e+00    0.1621271    0.1327196  36.14  0.000593298    1.061    0.057
        15  -8.2178    167.4483    221.4573   7.2193048421e+01   7.5960016804e+00    0.1196701   0.09511475  43.31 1.759037e-05    1.029    0.028
        16  -9.3315    154.0532    217.4857   7.3989818842e+01   1.0417434596e+01    0.5056192    0.1673384  50.01  0.002154698    2.691    0.628
        17 -10.8057    121.3173    213.2122   7.9216484976e+01   1.6427107887e+01    0.6875665    0.2396903  41.36  0.003108421    2.602    0.616
        18  -9.6515    108.2553    211.9555   8.1374976170e+01   1.8651173904e+01    0.3320915     0.137408  46.54  0.001713085    1.987    0.497
        19  -9.2373    134.4428    209.9338   7.6483137601e+01   1.4833599335e+01    0.2462648    0.1398939  57.26  0.001187827    1.641    0.391
        20 -10.0218    123.9475    206.5978   7.7952060422e+01   1.7081632664e+01    0.4287421    0.2332788  41.33  0.001262459    1.685    0.406
        21  -7.8228     87.0756    206.5402   8.4535238612e+01   2.2659113775e+01    0.1623272     0.129147  86.15 5.736219e-05    1.157    0.136
        22  -9.0435     73.1442    205.3622   8.6862193434e+01   2.4756475677e+01    0.2842045    0.1754635  87.31 0.0007495771    1.572    0.364
        23  -8.3540     70.3637    202.2964   8.7067203906e+01   2.5661235727e+01    0.1676253    0.1625963  49.30 0.0007563689    1.529    0.346
        24  -7.1512    160.2812    206.7227   7.1399318214e+01   1.0936648310e+01    0.1165309   0.08639011  67.40 0.0001743255    1.505    0.336
        25  -7.6904     79.9869    205.4547   8.5674912616e+01   2.3826032465e+01    0.1604105   0.09070083  49.61 0.0003565416    1.498    0.332
        26 -15.0683      2.3380    226.7901   9.9411801865e+01   2.8914242612e+01     2.528098    0.1884347 -74.19  0.009786965    7.137    0.860
        27  -9.2824    133.6096    231.2008   7.9153582532e+01   1.1757794786e+01    0.2075331     0.161722   0.06 0.0008777432    2.338    0.572
        28  -8.6645    133.4888    202.4808   7.5687512367e+01   1.6192052548e+01    0.2320178   0.09304689  52.38  0.001037801    2.335    0.572
        29  -8.1289     90.1633    202.0871   8.3528843201e+01   2.2998945305e+01    0.1653708    0.1465817  70.96 0.0009305296    1.191    0.160
        30  -7.8282     65.9575    199.1377   8.7554892110e+01   2.6792442949e+01    0.1781672    0.1139302  69.61  0.001065144    1.332    0.249
        31  -9.2744    140.7136    227.9782   7.7591580806e+01   1.1094599305e+01    0.2692807    0.1959115 -78.64  0.001677229    1.757    0.431
        32  -7.6375    192.4009    194.2377   6.3616292592e+01   6.9683610569e+00    0.1616253    0.1227785 -51.78 0.0009506816    1.697    0.411
        33  -8.5110     98.3395    191.7439   8.0866905864e+01   2.3649629028e+01    0.2486157    0.1581967  76.07 0.0009168919    1.680    0.405
        34  -8.5216     70.7423    189.3006   8.5748053045e+01   2.7978489331e+01    0.3217226    0.1320349 -64.08  0.001374256    2.369    0.578
        35 -11.0340    124.0092    226.7451   8.0276859634e+01   1.3906822455e+01    0.6087384    0.3381317 -76.62  0.003387146    2.645    0.622
        36  -8.0873     81.7801    182.5575   8.2940447030e+01   2.7756463604e+01    0.2072303    0.1085957  39.11 0.0008634796    1.991    0.498
        37  -9.7070    148.4388    175.2407   6.8745519408e+01   1.8199724085e+01    0.2330909    0.2029902  45.80 0.0002941174    1.068    0.064
        38  -8.6623     89.3097    175.1612   8.0573600978e+01   2.8100914566e+01    0.1986443    0.1583052  42.12  0.001285289    1.376    0.273
        39  -8.4636    154.0409    172.9521   6.7241614607e+01   1.7554585258e+01    0.2030535    0.1801508  51.95 0.0003913116    1.014    0.014
        40  -8.6043    185.9668    229.0817   7.0084068508e+01   3.4880701517e+00    0.2845033    0.1662242 -39.30  0.001727261    2.192    0.544
        41  -9.6001    114.0777    226.4848   8.1921291932e+01   1.5461106577e+01    0.1918661    0.1817503 -43.56 0.0007891644    1.530    0.346
        42 -12.3397     58.1770    131.2839   8.1305113250e+01   4.1328356703e+01       1.5437    0.7948178  64.10  0.007410895    2.491    0.599
        43 -10.5920     76.3387    164.0784   8.1791672303e+01   3.2128085943e+01     0.553986    0.4620608  32.62  0.002055909    1.525    0.344
        44 -11.2671     73.0095    150.9100   8.0750623256e+01   3.5279314897e+01    0.6386701    0.3504898 -61.62  0.001013905    1.686    0.407
        45 -11.6121     69.8791    144.9058   8.0598122770e+01   3.6954021733e+01    0.7243229    0.4415103  64.63  0.003251168    1.758    0.431
        46  -8.8613     43.8542    158.4137   8.7795961376e+01   3.7255633206e+01    0.3568464    0.1518748  56.68  0.001463094    2.423    0.587
        47  -8.8439     55.2997    168.9887   8.6606646914e+01   3.3827441142e+01    0.2782375     0.201641  85.75  0.001603569    1.161    0.139
        48  -9.7188     51.6584    163.7211   8.6776225670e+01   3.5307823308e+01     0.449547    0.1931143  60.19  0.002203525    2.557    0.609
        49  -9.4690     30.7548    167.2675   9.1206036281e+01   3.6843430936e+01     0.279019    0.1879274 -57.34  0.001367004    1.722    0.419
        50  -8.9417     91.9031    166.0899   7.8844669567e+01   2.9499099291e+01    0.1933949    0.1644041  76.09   0.00126829    1.020    0.020
        51  -7.1916    179.3124    165.3354   6.0845820624e+01   1.3932551318e+01    0.1402946    0.1039588  12.53  0.000265223    1.685    0.407
        52  -7.6774     35.7880    163.3778   8.9889421407e+01   3.7106423510e+01    0.1306482    0.1059599  30.68 0.0009477025    1.692    0.409
        53  -9.3218     31.6048    157.8459   9.0204776898e+01   3.8636980657e+01    0.2616599    0.2005128  25.97   0.00186465    1.858    0.462
        54  -8.6175     63.3369    156.7823   8.3584620695e+01   3.5315836255e+01    0.3085087    0.1364679  71.56  0.001165898    4.069    0.754
        55  -7.8375     37.8346    154.4340   8.8616161882e+01   3.8702781394e+01    0.2028016    0.1323622 -61.14 0.0006595905    1.525    0.344
        56  -9.4930     36.0439    150.3690   8.8570837549e+01   3.9718749575e+01    0.3281722    0.1879056  57.01  0.001555507    1.697    0.411
        57  -9.4404     28.4020    152.6833   9.0368041827e+01   3.9992211826e+01    0.3751775    0.1560636 -75.45  0.002027505    2.012    0.503
        58  -8.3352     98.8667    151.6813   7.5214623541e+01   3.1344630580e+01    0.3157241    0.1797463 -88.77  0.001351105    2.765    0.638
        59  -9.5360     90.4221    150.7634   7.6922050063e+01   3.2835286263e+01     0.388653    0.3209602  22.06  0.001603592    1.630    0.387
        60  -9.8150     54.7086    150.5771   8.4655844355e+01   3.7644858183e+01    0.4630984    0.2336037  67.93  0.002310465    2.375    0.579
        61  -8.0566    111.5183    150.3854   7.2223432877e+01   2.9538690841e+01    0.2595578    0.1478451  67.42  0.001136812    2.381    0.580
        62  -8.5046    233.9707    148.0877   4.7073552944e+01   5.4638271997e+00    0.2065979    0.1830142  19.76  0.000422228    1.055    0.052
        63  -8.8705    133.8120    145.9776   6.6518549487e+01   2.6424728874e+01    0.4555628     0.124681 -56.43  0.001118867    6.718    0.851
        64  -8.7307     41.6749    146.9083   8.7013140998e+01   3.9856093148e+01    0.2258986    0.1803492 -55.52   0.00127633    1.447    0.309
        65 -10.0104     12.7646    144.2373   9.2798016094e+01   4.3083344518e+01    0.3906687     0.203955  49.48  0.001797297    1.912    0.477
        66  -9.8597      4.7356    140.9690   9.4168075127e+01   4.4366196488e+01    0.6642751    0.2501304  81.43  0.003132904    3.138    0.681
        67  -8.0840      1.9158    151.9431   9.5539657395e+01   4.2382848389e+01    0.1638214    0.1142182  86.00  0.001011724    1.050    0.047
        68  -7.8054    100.1408    141.1725   7.3168789750e+01   3.3323498853e+01    0.1810887    0.1780941 -34.22 0.0005255752    1.226    0.184
        69  -8.3341    104.6817    136.5078   7.1284971256e+01   3.3559540560e+01    0.3585373    0.2404852 -24.98  0.001645829    2.520    0.603
        70  -9.8969     91.7704    136.3541   7.4254514998e+01   3.5658704246e+01    0.2568974    0.2194548 -69.16 0.0002508531    1.096    0.087
        71  -7.3632     43.6443    137.6956   8.5501692864e+01   4.1585350277e+01    0.1122617   0.08316452 -43.90 0.0007040265    1.715    0.417
        72  -8.1359     16.6626    137.0249   9.1336609143e+01   4.4246048211e+01    0.1599822    0.1085373 -83.74 0.0003832947    1.127    0.113
        73  -9.0901     50.2404    134.6616   8.3618932353e+01   4.1516640920e+01    0.2150121    0.1223453  56.41   0.00056767    1.856    0.461
        74  -9.8547      2.6412    129.8081   9.3687924258e+01   4.6790459262e+01    0.4794875    0.2055237 -73.94  0.002845682    1.726    0.421
        75  -9.0174     25.2565    133.1254   8.9071404028e+01   4.4329594273e+01    0.2955243    0.1277358  43.64   0.00164179    2.397    0.583
        76  -9.0532    159.5594    129.5130   5.7386413838e+01   2.4444119636e+01    0.3859626    0.2688921 -21.00  0.001246564    1.850    0.459
        77 -10.1761     44.3569    127.7289   8.4049675871e+01   4.3640930942e+01    0.3865785    0.1994406 -67.90 0.0008346922    1.616    0.381
        78  -9.3118     28.9548    128.2441   8.7689934182e+01   4.5031630150e+01    0.2930245    0.1730304  73.14  0.001749759    1.771    0.435
        79  -8.2320      9.1328    128.8339   9.2194134796e+01   4.6528917137e+01    0.1669447    0.1160185  81.70 0.0005432912    1.228    0.186
        80  -7.7358    112.5082    128.5192   6.7899002643e+01   3.3899492611e+01    0.1356827    0.1307083 -75.36 0.0008096317    1.059    0.055
        81 -10.9642     68.8249    123.4432   7.7511281894e+01   4.1704067934e+01    0.5481688    0.3763791  77.32  0.003056055    1.659    0.397
        82  -8.5538     99.7874    124.4483   7.0127196728e+01   3.6930951337e+01    0.2330838    0.2152837  -4.89 0.0007047286    1.343    0.255
        83 -10.1545     84.4771    156.3400   7.9038275328e+01   3.2560486004e+01    0.5398492    0.5116619 -45.35    0.0014698    1.352    0.260
        84  -9.1952     79.0460    121.8528   7.4714762634e+01   4.0663078590e+01     0.218352    0.1899645  -1.25  0.001325412    1.564    0.361
        85  -9.1753     31.7995    121.4066   8.6187431352e+01   4.6234010077e+01    0.1928115     0.142767 -52.02  0.001296426    1.437    0.304
        86  -7.2630    108.9367    117.9915   6.6545270308e+01   3.6756648941e+01    0.1624691    0.1550542 -85.80 0.0004588654    1.025    0.024
        87 -10.1695     46.1996    115.5398   8.1838238946e+01   4.6090157515e+01    0.3686463    0.1968608  51.12  0.001985379    2.110    0.526
        88  -7.6906    137.4403    115.4840   5.9097696887e+01   3.1843566848e+01    0.1432845    0.1420155 -51.96 0.0001543293    1.021    0.021
        89 -10.2683     72.2455    168.5637   8.3179238148e+01   3.1780382256e+01    0.6226909    0.3974864  78.45   0.00143739    1.579    0.367
        90  -7.5920     76.5420    113.5161   7.3773224107e+01   4.2834447260e+01    0.1313537    0.1154687 -71.56 5.960359e-05    1.008    0.008
        91 -10.1921     65.3319    112.1260   7.6392807527e+01   4.4627199103e+01    0.2202989    0.1911649 -65.41 0.0002996439    1.055    0.052
        92  -9.4082     52.6283    111.5450   7.9561931590e+01   4.6266172472e+01     0.250063    0.1365311 -66.96 0.0008215479    1.590    0.371
        93 -10.4127     43.4716    109.3947   8.1565444212e+01   4.7713384712e+01    0.3577442    0.2325971  34.80  0.002036031    1.828    0.453
        94  -8.5144     35.5784    100.2569   8.2161108549e+01   5.0470709368e+01    0.1784492   0.08758496 -57.48 0.0009551164    1.643    0.391
        95  -8.1833    125.5946    107.7478   6.0063702926e+01   3.5806482520e+01    0.2592044    0.1847221  69.80  0.001205614    1.796    0.443
        96  -8.3342    115.7361     97.9710   6.0078589050e+01   3.9740057474e+01    0.2094435    0.1711716 -47.90 0.0003676749    1.170    0.145
        97  -8.0759     31.9554     98.0074   8.2770226121e+01   5.1285457976e+01     0.141326     0.114795 -70.33 0.0003416939    1.025    0.024
        98  -7.2607    141.5903     74.5555   4.6912450034e+01   3.8955396356e+01    0.1504612    0.1438746 -14.05 7.861738e-05    1.012    0.012
        99  -7.2864    103.2501     72.9582   5.6467347723e+01   4.7172223998e+01    0.1761568    0.1146981 -44.08 0.0002911496    1.431    0.301
       100  -8.3935    134.9381     71.9352   4.7734045228e+01   4.0930395700e+01    0.2163902    0.2076488  -5.39            0    1.013    0.013
       101  -8.2205    208.4121     70.0906   3.1890013378e+01   2.3245567181e+01    0.2373499    0.1969814  41.01  0.000300755    1.219    0.179
       102  -7.5516    221.1861     66.7308   2.8872930275e+01   2.0546726507e+01    0.1936906    0.1653285  11.89  0.000386195    1.256    0.204
       103  -8.9294    104.9943     60.5213   5.2045895183e+01   4.9239239343e+01    0.2621674    0.1937355 -35.46   0.00135219    1.260    0.207
       104  -7.7971    143.9953     60.0060   4.1719689595e+01   4.0965524776e+01    0.2344971    0.1876277 -71.07 0.0008805689    1.626    0.385
       105 -10.0920    183.9972     56.1948   3.2110717666e+01   3.1594160966e+01    0.3648986    0.3597723 -53.09 0.0008813075    1.059    0.056
       106  -7.2451    173.6805     57.3628   3.4447232865e+01   3.4066518794e+01    0.1636175    0.1185245 -63.96 0.0004474508    1.774    0.436
       107 -10.8202    194.9473     48.3548   2.7787567800e+01   2.9883596123e+01    0.9212456    0.5266542 -48.93  0.003403017    1.982    0.495
       108  -8.7213    146.0152    248.2457   7.8979059855e+01   7.5164449790e+00    0.1593029    0.1336129  57.68 0.0003035986    1.152    0.132
       109  -8.6035    221.3747     40.0325   2.1385740760e+01   2.4151460666e+01    0.2671742     0.194039 -67.21 0.0009849633    1.586    0.369
       110  -8.1854    152.9426     35.2746   3.1327436234e+01   4.2549536024e+01    0.2365948    0.2059178 -13.49 0.0004281014    1.150    0.131
       111  -7.8512    241.9846    226.5351   6.0491831234e+01  -5.4320244629e+00    0.1698679   0.09001555  40.59  0.000472095    1.519    0.342
       112  -7.7128    174.1517    247.4301   7.4385717351e+01   3.2097684867e+00    0.1521238   0.08136544  51.19 0.0003781923    1.568    0.362
       113  -8.0510     90.4911    247.2781   8.7584335268e+01   1.5725062767e+01    0.1938409   0.08831111  58.99  0.001186346    1.830    0.454
