#   1 NUMBER                 Running object number                                     
#   2 MAG_AUTO               Kron-like elliptical aperture magnitude                    [mag]
#   3 X_IMAGE                Object position along x                                    [pixel]
#   4 Y_IMAGE                Object position along y                                    [pixel]
#   5 X_WORLD                Barycenter position along world x axis                     [deg]
#   6 Y_WORLD                Barycenter position along world y axis                     [deg]
#   7 A_WORLD                Profile RMS along major axis (world units)                 [deg]
#   8 B_WORLD                Profile RMS along minor axis (world units)                 [deg]
#   9 THETA_WORLD            Position angle (CCW/world-x)                               [deg]
#  10 FWHM_WORLD             FWHM assuming a gaussian core                              [deg]
#  11 ELONGATION             A_IMAGE/B_IMAGE                                           
#  12 ELLIPTICITY            1 - B_IMAGE/A_IMAGE                                       
         1 -14.1010    225.8035     33.5786   3.4231761583e+01   2.5889272587e+01     1.492415      1.02913  39.58  0.008466723    2.281    0.562
         2 -11.8279    248.5431     25.2495   3.0701501156e+01   2.2407239863e+01      0.51529    0.3867736 -22.66  0.003395648    1.904    0.475
         3 -12.8059    248.9906     12.2994   2.8258238171e+01   2.3832003830e+01    0.6092245    0.2847654 -40.49  0.002940187    1.873    0.466
         4 -12.1037      2.4184      6.4811   8.3768218225e+01   7.3715783795e+01    0.9235983    0.2219278 -41.87  0.004048694    3.487    0.713
         5  -9.3795     97.8815      6.1716   4.4893179956e+01   5.7957917852e+01    0.1801587    0.1596257  86.47 0.0005819469    1.307    0.235
         6  -9.5127     12.6646     19.3235   8.3766344801e+01   7.0911947549e+01   0.09799602   0.09188322  32.67 0.0007050845    1.712    0.416
         7 -14.4463     99.3681    228.3410   1.0144957588e+02   1.2473551126e+01     6.109063     1.279589  44.38   0.01786951    4.619    0.784
         8 -14.7506     54.6337    246.1470   1.1297390194e+02   1.4894994808e+01     7.931465     1.969462  27.09   0.02022064    8.489    0.882
         9 -15.5213     31.1015    187.6197   1.1299088971e+02   3.0775885062e+01     9.829932     3.627601  85.18    0.0279671    5.646    0.823
        10 -10.5625    120.2988    221.4645   9.5729081360e+01   1.0706467978e+01      0.26674    0.2493484  35.44 0.0008200547    1.023    0.023
        11  -9.6665    191.3830    191.8881   7.4651769533e+01   4.8915154130e+00    0.4500931    0.2357047 -63.66  0.001307221    5.737    0.826
        12  -9.2594     51.7559    186.8588   1.0774645190e+02   2.8632961774e+01    0.2679025    0.1739644  83.39   0.00132022    1.651    0.394
        13 -11.7412     48.6009    178.3040   1.0751361504e+02   3.1146248586e+01    0.4376554    0.3059351 -31.18  0.001839101    1.908    0.476
        14 -11.6568     55.4741    172.3926   1.0490676255e+02   3.1804028896e+01    0.3286062    0.2680772 -37.73 0.0009467261    1.410    0.291
        15 -10.5934     99.7394    170.8128   9.2610400480e+01   2.5713288448e+01    0.5189499    0.1630239  43.82  0.001601902    3.320    0.699
        16  -8.8558    110.5954    167.7176   8.9114062127e+01   2.4623124099e+01      0.20245    0.1475362 -67.31 0.0004979316    1.503    0.335
        17 -12.6386     53.1960    116.8431   9.6027281950e+01   4.6375211542e+01     1.711496     0.458698 -65.71  0.003709108    6.266    0.840
        18 -12.8907     75.5347    155.9475   9.6678777388e+01   3.3296124770e+01     1.400988    0.8366709  64.08  0.001357737    2.291    0.563
        19 -13.5564     68.0573    144.1633   9.6729407552e+01   3.7415578719e+01     1.972057     1.070461  73.71   0.00263999    3.834    0.739
        20 -12.0440     33.7074    157.3310   1.0890012192e+02   3.8122807395e+01    0.4599456    0.2884754 -65.71  0.002349815    1.391    0.281
        21  -8.9344    133.7684    143.7591   7.7847087472e+01   2.6064178324e+01    0.2588668     0.128743 -58.32 0.0008937579    2.452    0.592
        22  -9.9294     92.0202    142.9860   8.9322370597e+01   3.4011996559e+01    0.3161013    0.2777528 -32.85 0.0007375056    1.180    0.153
        23  -9.6864     95.5919    139.4025   8.7496253790e+01   3.4306494677e+01    0.3453757     0.247738 -21.94  0.001259205    1.779    0.438
        24 -12.0235     79.4854    140.9144   9.2633954967e+01   3.6564929541e+01    0.3309306    0.2857855 -43.48 0.0004656994    1.141    0.123
        25 -11.0293     67.3409    162.7706   1.0018245937e+02   3.2708096211e+01    0.2841452     0.263457 -51.23 0.0004220579    1.111    0.100
        26 -14.2265     13.2013    206.0023   1.1866275801e+02   2.8174487631e+01     1.133212    0.9077716  17.15  0.004327399    1.641    0.390
        27 -10.5637    105.8723    131.0975   8.2575947413e+01   3.4518830288e+01    0.3917945    0.3415678  -2.56 0.0009265202    1.282    0.220
        28 -10.7061     66.0728    125.6691   9.3645421745e+01   4.2441913341e+01    0.3381753    0.2218966 -65.09  0.001550319    1.535    0.349
        29 -13.2566     53.1500    158.8086   1.0359191140e+02   3.5577050961e+01    0.5599328    0.3968979 -38.32   0.00170342    1.603    0.376
        30 -10.3417     92.4645    127.4064   8.5707547659e+01   3.7843491854e+01    0.3423968    0.2547326 -28.45 0.0008367996    1.513    0.339
        31  -9.3209    113.9090    125.2093   7.8820333802e+01   3.4402998920e+01    0.2658312    0.1881166   3.61  0.001081403    2.048    0.512
        32 -14.5541     24.7464    197.4704   1.1540767090e+02   2.9050625329e+01     2.968901     1.229442  52.87  0.008492114    2.378    0.580
        33 -12.4430     22.3152    119.8342   1.0700527206e+02   4.8753170690e+01    0.4614321    0.3554143  61.90  0.002537704    1.510    0.338
        34  -9.4297    103.9287    119.7398   8.0363308918e+01   3.7628792611e+01    0.2197548    0.2031209  -6.62 0.0003621352    1.126    0.112
        35  -9.6471    205.0346    110.7270   5.4347952694e+01   1.8139869107e+01     0.322646    0.2481189  33.78  0.001675723    1.567    0.362
        36 -10.1648    163.5492     84.1051   5.5435361651e+01   3.2202714187e+01    0.2482834    0.2071564  31.38 0.0007993749    1.372    0.271
        37  -8.9790     75.7219     82.3159   7.9114208741e+01   5.1193490406e+01    0.1363996      0.11813  89.90 0.0002239397    1.571    0.363
        38  -9.8833     61.7041     71.7166   8.0944914098e+01   5.5629512124e+01    0.2436818    0.1939479 -13.45 0.0006372593    1.232    0.189
        39 -11.0684     13.3390     61.0042   9.8181528086e+01   6.3207411711e+01    0.4538134    0.1808278 -56.35  0.001251029    2.109    0.526
        40 -10.6644      1.6522     61.9652   1.0373804947e+02   6.3699835788e+01    0.2883925   0.09574655 -62.42  0.001247694    2.528    0.604
        41 -11.0430      5.7645     58.5881   1.0101625322e+02   6.4196051816e+01    0.2058344    0.1704179  59.29  0.001328841    1.743    0.426
        42 -14.6322      2.7752    245.4080   1.2298790082e+02   2.0709077859e+01     10.44828    0.7382531 -77.26   0.02579284   11.062    0.910
        43 -12.6399    205.4592     50.1033   4.0059386151e+01   2.8037449207e+01    0.7964493    0.4745234 -64.20  0.004030994    1.754    0.430
        44 -11.2344     14.4113     44.9056   9.2790945416e+01   6.6354508761e+01    0.2840729    0.2423412  39.72 0.0008457481    1.628    0.386
        45 -11.0824      2.7966     38.5723   9.6640857437e+01   6.8359210680e+01     0.272615    0.2447957  62.39  0.001932913    1.737    0.424
        46 -11.1994    120.5706     28.6634   4.7842684331e+01   5.0625518623e+01    0.6095116    0.3489584 -73.71  0.002366234    3.484    0.713
        47 -10.1346     22.5142    222.4738   1.1781949044e+02   2.3562599812e+01    0.2256138    0.1012828 -71.82 0.0006428658    2.046    0.511
        48  -8.7720     26.9222    233.5198   1.1766875025e+02   2.0718702571e+01    0.1649216    0.1032498  40.72 0.0003131532    1.472    0.321
        49 -10.0582     21.4810    242.9519   1.1934408215e+02   1.9339778603e+01    0.2506225    0.1931019 -42.15  0.001079443    1.938    0.484
        50 -10.1515    189.4982     15.1991   3.3678992791e+01   3.5922047500e+01    0.2259191    0.1560547  78.46 0.0008073218    1.271    0.213
        51  -9.2773     27.0130    240.6286   1.1812006668e+02   1.9226177922e+01    0.2445708    0.1000277  32.93  0.001215366    2.334    0.572
