#   1 NUMBER                 Running object number                                     
#   2 MAG_AUTO               Kron-like elliptical aperture magnitude                    [mag]
#   3 X_IMAGE                Object position along x                                    [pixel]
#   4 Y_IMAGE                Object position along y                                    [pixel]
#   5 X_WORLD                Barycenter position along world x axis                     [deg]
#   6 Y_WORLD                Barycenter position along world y axis                     [deg]
#   7 A_WORLD                Profile RMS along major axis (world units)                 [deg]
#   8 B_WORLD                Profile RMS along minor axis (world units)                 [deg]
#   9 THETA_WORLD            Position angle (CCW/world-x)                               [deg]
#  10 FWHM_WORLD             FWHM assuming a gaussian core                              [deg]
#  11 ELONGATION             A_IMAGE/B_IMAGE                                           
#  12 ELLIPTICITY            1 - B_IMAGE/A_IMAGE                                       
         1 -12.9001    248.2624    134.2975   7.3572342005e+01   4.3126894520e+00     1.378043    0.5980752 -23.94   0.00537333    2.598    0.615
         2 -13.2215    206.5148     33.8343   5.3865131140e+01   2.9317170770e+01     1.348923     1.309892  44.13  0.006520033    1.069    0.064
         3 -12.9993      3.0032     19.9878   1.0733556907e+02   6.9357864178e+01     1.052478    0.2850091 -58.64  0.004811829    2.963    0.663
         4 -12.7943      5.4116      6.0442   1.0121579929e+02   7.1641334181e+01    0.7967668    0.4207797 -48.09  0.005270204    1.445    0.308
         5 -13.6105    223.6245     16.3533   4.6750864299e+01   2.6992173301e+01     1.078567    0.8993527  36.48  0.002568145    1.364    0.267
         6 -11.0781    181.6282    243.7178   1.0481385794e+02   1.7105859940e+00    0.3334528     0.123939  55.33  0.001374659    3.547    0.718
         7  -9.8781    204.7985    250.4025   1.0193848030e+02  -2.7752156500e+00    0.1682048   0.07850724  37.63 0.0006625677    1.681    0.405
         8 -11.0429    175.8495    250.2001   1.0654343323e+02   1.8648621701e+00    0.4019372   0.09325995  41.99  0.001585575    3.488    0.713
         9 -11.7465    142.1126    248.2294   1.1173761628e+02   7.4604093905e+00    0.4599627    0.2645988  72.09  0.002656315    2.342    0.573
        10 -13.1014    120.8313    238.1200   1.1414512138e+02   1.2177098622e+01    0.8104635     0.518083  61.20  0.002910626    1.299    0.230
        11 -11.6007    132.1388    248.9949   1.1340702020e+02   8.8968900075e+00    0.7782651    0.1575303  49.26  0.002976262    3.929    0.745
        12 -11.3150    123.4116    248.8728   1.1477811510e+02   1.0236924928e+01     0.376444     0.306354  44.84  0.002936757    1.323    0.244
        13 -11.1726    117.2930    249.8145   1.1582873994e+02   1.1016537511e+01    0.4496399    0.2819703  55.91  0.002584965    1.183    0.154
        14 -11.0870    110.3877    247.5850   1.1671071167e+02   1.2349429247e+01    0.4371732    0.2396632  42.51  0.002808342    1.643    0.392
        15 -11.2121    100.0355    247.9632   1.1835830531e+02   1.3782480313e+01    0.3867805    0.2798555  59.63  0.002623598    1.042    0.041
        16 -10.6721     97.2375    239.3100   1.1806318472e+02   1.5479119388e+01    0.2521594    0.1608955  65.42  0.001041013    1.265    0.209
        17 -12.8424    103.0923    238.2931   1.1703677150e+02   1.4793649236e+01    0.8232489    0.5906482 -55.01  0.004544689    1.899    0.473
        18 -10.8634    102.4913    231.0555   1.1646776444e+02   1.6007001382e+01    0.2395199    0.1838839  82.54 0.0009949597    1.225    0.183
        19 -10.2007     98.4518    231.4511   1.1716790005e+02   1.6532080451e+01    0.1961905    0.1633548  52.74  0.001501538    1.304    0.233
        20 -11.5077     90.3130    223.6796   1.1780246153e+02   1.8959061505e+01    0.4527786     0.325481 -63.40  0.003225099    1.655    0.396
        21 -11.7400     87.6013    248.3957   1.2030585903e+02   1.5444582050e+01    0.5051824    0.2581833  55.45   0.00156379    1.441    0.306
        22 -10.2956     81.5751    247.6790   1.2116887235e+02   1.6363636568e+01    0.3479066    0.1486043 -81.52  0.001774085    3.079    0.675
        23 -12.0579     88.7851    238.9343   1.1937153864e+02   1.6722762379e+01    0.6733102    0.3406199  79.00  0.003873979    2.370    0.578
        24 -11.0135     82.6186    239.9945   1.2042429686e+02   1.7400556920e+01    0.3803719    0.1769464  63.48  0.000966735    1.915    0.478
        25 -10.7057     84.1707    230.0845   1.1937403869e+02   1.8764942563e+01    0.1996324    0.1901816 -83.55  0.001214526    1.563    0.360
        26 -12.6367     63.0185    246.4083   1.2386584752e+02   1.8950138273e+01     1.356449    0.4117511  38.86  0.006335038    3.933    0.746
        27 -14.5437     24.1726    220.0453   1.2813096179e+02   2.7689620756e+01    0.9648405      0.82955  45.79   0.00845214    1.717    0.418
        28 -14.0441      8.6494    210.9732   1.3002750628e+02   3.0776679979e+01      2.13847    0.8381041 -85.16   0.01351152    2.077    0.518
        29 -12.3444     38.2900    206.4170   1.2506630309e+02   2.8567547642e+01    0.6867794    0.4084864  60.53  0.004913643    1.328    0.247
        30 -12.0910     32.3823    230.6485   1.2747369235e+02   2.5043593113e+01    0.5874522    0.5451515 -10.74   0.00451875    2.346    0.574
        31 -12.0638    135.3120    235.6995   1.1150683186e+02   1.0279074416e+01    0.3576843    0.2644985 -55.16  0.002528669    1.721    0.419
        32 -11.6137     74.0868    237.0657   1.2153075090e+02   1.8996873963e+01    0.4296912    0.1802136 -60.39  0.002531625    2.804    0.643
        33  -9.8913     69.9282    236.5897   1.2214228215e+02   1.9613421189e+01    0.1762125    0.1265346 -35.53  0.001055851    3.642    0.725
        34  -9.0697     48.6383    237.4006   1.2544068253e+02   2.2107256008e+01    0.2063387   0.04083912  51.77 0.0009474237    3.417    0.707
        35  -9.5627     53.6913    240.9669   1.2490634749e+02   2.0939191135e+01    0.1503816    0.1310936  52.09  0.001291705    1.626    0.385
        36  -9.5411     55.0274    235.6465   1.2436681912e+02   2.1627589595e+01    0.2137042    0.1151557  61.61  0.001500419    1.378    0.274
        37 -10.6323    113.5340    230.6399   1.1459842232e+02   1.4424859398e+01    0.2232615    0.1511376 -69.87  0.001521268    1.680    0.405
        38 -10.0823    153.7924    229.9784   1.0773817351e+02   8.1038479481e+00    0.1900236    0.1363495  49.51  0.000342645    1.090    0.083
        39  -9.8408    123.0525    229.6622   1.1290409143e+02   1.3110782657e+01    0.1649397    0.1199982  55.80 0.0005731122    1.064    0.060
        40 -10.0599     56.5586    228.3280   1.2363970181e+02   2.2639686284e+01    0.1974452    0.1361195  83.20 0.0001873221    1.187    0.157
        41 -10.9316     79.3028    225.5674   1.1978694509e+02   2.0170797499e+01      0.29743    0.1674912 -78.22  0.001587758    1.812    0.448
        42  -9.3514     65.2403    223.6687   1.2192041431e+02   2.2336790352e+01    0.2626626    0.1109368 -53.68  0.001355985    3.618    0.724
        43 -14.7435     15.0294    242.2702   1.3051903962e+02   2.4985919173e+01     2.339977     0.850866  48.32   0.01593291    2.047    0.511
        44 -10.4566     99.0818    223.7049   1.1633477019e+02   1.7691338258e+01    0.1958541    0.1715601  18.10  0.001404704    1.873    0.466
        45 -10.5845     71.0925    219.0382   1.2059570155e+02   2.2368101111e+01    0.3787296     0.182842  68.70  0.002166696    2.024    0.506
        46 -10.1768     60.2650    220.2002   1.2246278367e+02   2.3553871498e+01    0.1671299    0.1352426  68.71 0.0003668868    1.216    0.178
        47  -9.6070    246.0000    219.9654   9.0779229571e+01  -6.1613955986e+00    0.1691608   0.06374411 -30.58 0.0003573956    3.005    0.667
        48  -9.8413    244.3291    240.6674   9.4302723201e+01  -7.9673368231e+00    0.0975671   0.08268445  55.83 0.0007051865    1.719    0.418
        49 -10.2868    107.9540    217.1248   1.1415001763e+02   1.7454568285e+01    0.3964836    0.1684053  60.72  0.001313658    2.584    0.613
        50 -10.2294     50.8825    218.6089   1.2386260972e+02   2.4970602163e+01     0.291886    0.1432198  69.88  0.001035525    1.786    0.440
        51 -10.2151     46.8252    214.6193   1.2423811058e+02   2.6141910190e+01    0.3101286    0.1038513  56.35  0.001629515    2.494    0.599
        52  -9.2282    116.1615    216.3834   1.1263771719e+02   1.6307313320e+01    0.1963321    0.1634364  27.75   0.00102505    1.649    0.394
        53  -9.9929     88.0932    211.9865   1.1707738478e+02   2.1264754352e+01    0.2719014    0.1379046 -62.41   0.00109107    2.113    0.527
        54  -9.8170     58.5325    212.5046   1.2215777892e+02   2.5107948124e+01    0.2156404    0.1533951  54.39  0.000930194    1.288    0.223
        55 -10.2576     55.8968    208.9520   1.2232095365e+02   2.6063460996e+01     0.372044    0.1368028 -71.31  0.001986026    2.585    0.613
        56  -9.9184    110.9626    211.4883   1.1300630091e+02   1.7941303002e+01    0.1957465    0.1392661  82.83   0.00031254    1.410    0.291
        57  -9.4492     99.2752    209.9647   1.1491155734e+02   1.9986425438e+01    0.2592373    0.1113382  62.66 0.0008260887    2.705    0.630
        58  -8.3677     74.2641    208.6384   1.1916022195e+02   2.3767445257e+01    0.1173586    0.0674058  74.51 0.0006985264    1.639    0.390
        59  -9.5641    246.9921    206.6660   8.8361052062e+01  -4.8802236086e+00    0.2113958   0.06863457  30.80  0.000705085    4.445    0.775
        60  -9.0830    113.9769    204.2770   1.1162872553e+02   1.8710875402e+01    0.1999568      0.13605 -86.71  0.000582388    1.617    0.382
        61 -10.7886     63.0575    208.7337   1.2109173695e+02   2.5211568259e+01    0.3764469    0.3106543   8.19  0.002508449    2.492    0.599
        62  -9.2534    106.7408    203.3427   1.1283793966e+02   2.0012834229e+01     0.188336    0.1328524 -75.09 0.0005911034    1.473    0.321
        63  -8.7426     72.5158    203.4388   1.1898896806e+02   2.4938534086e+01    0.1157786   0.08600629  72.09 9.211609e-05    1.042    0.040
        64 -10.1036     44.3141    200.0426   1.2359807036e+02   2.9050894703e+01    0.2788882    0.2336944  64.85  0.002219478    1.310    0.237
        65  -8.7350     96.7937    199.3734   1.1420470545e+02   2.2243750575e+01    0.1502046    0.1020251  41.99 0.0002529883    1.524    0.344
        66  -9.1574     57.6534    192.3332   1.2062308835e+02   2.8911478382e+01    0.2477507    0.1443435  88.91  0.001541885    1.563    0.360
        67  -9.6027     53.1192    198.1350   1.2192642222e+02   2.8373077405e+01    0.1761133    0.1589759  37.30  0.001364936    1.656    0.396
        68 -11.8583     51.2252    192.1245   1.2175701166e+02   2.9727234888e+01    0.3860149    0.2139284 -76.48  0.001454619    1.601    0.375
        69  -9.6986     31.0549    194.0672   1.2542769498e+02   3.1609636538e+01    0.2336622    0.1207545  75.72 0.0009650954    1.652    0.395
        70  -9.7094     25.9902    192.5047   1.2618337704e+02   3.2421964672e+01    0.2023214    0.1348975  79.36  0.001383867    1.096    0.087
        71  -9.0703     21.8349    193.1793   1.2692937371e+02   3.2710703058e+01    0.1534499    0.1120228 -86.02 0.0003540323    1.213    0.176
        72 -10.1562     19.0910    188.5876   1.2710039115e+02   3.3834298700e+01    0.2780806    0.1166857 -82.97  0.001304043    1.972    0.493
        73  -8.4136     38.6296    192.3160   1.2399411388e+02   3.1126759656e+01    0.1196541   0.05953803  68.62   8.8684e-05    1.785    0.440
        74  -9.6185    249.9772    194.0249   8.5601378013e+01  -3.9334250371e+00    0.2047028    0.1279244  14.22  0.001133372    1.665    0.400
        75  -9.1316    191.5226    191.4966   9.5360972117e+01   7.0512330591e+00    0.1314615    0.1128769  37.87 1.872256e-05    1.005    0.005
        76  -9.1309     40.9590    188.4807   1.2328578299e+02   3.1597469477e+01    0.1626123   0.09003066  48.37  0.001047068    1.665    0.399
        77 -10.6430     10.0469    187.0400   1.2853409849e+02   3.4962663277e+01    0.2500314    0.1214586  84.68  0.001600503    1.635    0.388
        78 -10.2066     70.7419    187.0470   1.1771020347e+02   2.8250501239e+01    0.2308333     0.146177  45.92            0    1.542    0.352
        79 -11.7432     58.2802    184.9214   1.1982492453e+02   3.0257437222e+01    0.2246601    0.1851745  86.44 0.0004565741    1.140    0.123
        80  -9.1881     29.4625    184.3601   1.2500996011e+02   3.3610291664e+01    0.2700738    0.1478481 -59.50  0.001608334    2.072    0.517
        81  -8.5148     65.6516    181.7506   1.1812546092e+02   2.9947926734e+01   0.09543753   0.09278366 -37.10 0.0002444796    1.585    0.369
        82  -9.7276     36.9758    180.1174   1.2332885031e+02   3.3646133961e+01    0.1868957    0.1259965 -86.46 0.0003884817    1.184    0.156
        83  -8.7014     27.1475    179.4887   1.2506209860e+02   3.4783560203e+01     0.164582    0.1186196 -73.53 0.0007893115    1.359    0.264
        84  -9.2504     81.0463    178.5438   1.1479777903e+02   2.8503833132e+01      0.17642    0.1553743 -66.42 0.0006033193    1.350    0.259
        85  -8.7455    111.2494    177.8089   1.0870954746e+02   2.4032863175e+01    0.1908196   0.09408356  35.81 0.0008560896    2.417    0.586
        86  -8.8443     61.6908    177.7350   1.1846905481e+02   3.1245577571e+01   0.09758853   0.08921097 -55.32            0    1.535    0.348
        87 -12.1009    248.6163    172.1648   8.1621424459e+01  -9.8973231288e-01    0.6392455    0.3780982 -27.43  0.003395457    1.703    0.413
        88 -11.6086    245.1573    162.3337   8.0195825045e+01   9.6211829295e-01     0.322804    0.2352493 -27.17  0.001832274    1.375    0.273
        89 -11.3142    249.2387    161.0973   7.9253857567e+01   3.5808292825e-01    0.3917675    0.2462558 -33.23  0.002076712    1.625    0.385
        90 -10.7315     70.0704    172.9608   1.1631522175e+02   3.1121070716e+01    0.2234439    0.1876866  83.98 0.0004039425    1.083    0.076
        91 -10.9022     54.2575    171.8623   1.1930773287e+02   3.3332696993e+01    0.3300662    0.1885435  57.18  0.001233084    1.595    0.373
        92 -11.2260      2.3701    172.2052   1.2897802506e+02   3.8430497896e+01    0.3851042     0.171424  79.89   0.00236179    1.894    0.472
        93 -11.7725     11.2499    154.1903   1.2611945161e+02   4.1257233235e+01    0.3050674    0.2116432 -46.67  0.002142373    2.046    0.511
        94 -11.9664      8.5387    164.8663   1.2740322692e+02   3.9350733699e+01    0.5632884    0.3532105 -30.98  0.003247943    3.804    0.737
        95 -11.3310     11.7102    171.2056   1.2725418676e+02   3.7837847178e+01    0.3890994       0.1803  71.74  0.002121095    1.926    0.481
        96 -11.4542     12.1660    167.1507   1.2689390861e+02   3.8592675310e+01    0.3278944     0.168927  36.48  0.002146482    2.236    0.553
        97  -9.6334     17.9422    172.1653   1.2619217989e+02   3.7092924121e+01    0.1734677    0.1071666  73.40  0.001154633    1.298    0.229
        98  -9.5510     91.6472    168.5814   1.1140832085e+02   2.8956979327e+01    0.2091518     0.170327  56.55 0.0004740102    1.186    0.157
        99 -10.8185     39.4317    167.7410   1.2179155324e+02   3.5843115277e+01    0.2177308    0.1853581  43.67 0.0002353318    1.500    0.333
       100  -9.9137     27.1758    171.6286   1.2445243518e+02   3.6321798178e+01     0.223201    0.1646571 -60.46 0.0005860121    1.615    0.381
       101 -11.9008     78.3124    165.0178   1.1368705315e+02   3.1621258083e+01    0.4918056    0.4133624  66.37  0.001761218    1.131    0.116
       102 -11.0537     82.1192    157.5274   1.1188703523e+02   3.2641168831e+01     0.357787    0.2555362  52.77  0.002149301    1.354    0.262
       103  -9.3396     25.2729    167.6619   1.2449244976e+02   3.7295572864e+01    0.1144457    0.0626012  75.44 0.0002288704    1.606    0.377
       104 -10.0592     68.0915    166.1393   1.1592145860e+02   3.2770644179e+01     0.182882     0.144608  84.51 0.0004584233    1.038    0.037
       105  -8.8677     37.1714    162.5859   1.2175361033e+02   3.7129863561e+01    0.1240808     0.109203  36.67 0.0005357179    1.566    0.361
       106 -10.0862     23.9832    161.9913   1.2427600801e+02   3.8557081081e+01     0.164598    0.1238638  86.66 0.0004749667    1.031    0.030
       107  -8.9784     66.8110    161.3612   1.1561158906e+02   3.3925355549e+01    0.1425672    0.1126246  38.37 0.0002085935    1.533    0.348
       108  -8.7572     43.0805    161.1504   1.2043715292e+02   3.6794426333e+01    0.1580459    0.1056512  75.91 0.0003318526    1.299    0.230
       109 -10.5538     25.8576    154.8379   1.2329090514e+02   3.9839415817e+01    0.1875653    0.1355299  65.21 0.0004730913    1.273    0.214
       110  -8.3030    228.4650    155.4653   8.1639501563e+01   5.2100308575e+00    0.1361845    0.1257008  17.01 0.0001545725    1.063    0.060
       111 -10.3148     32.2416    153.5759   1.2188360487e+02   3.9486216949e+01    0.2096776    0.1573184 -89.23 0.0003755376    1.016    0.016
       112 -11.2977    249.6192    150.9552   7.7038516500e+01   1.6730129318e+00    0.4065815    0.2535594 -29.48  0.002100875    1.563    0.360
       113 -13.0253    248.4312    101.7425   6.5836343739e+01   9.1148818594e+00      1.27618    0.7145463 -22.35  0.005600996    1.859    0.462
       114 -12.0868    247.8608    142.5299   7.5487034031e+01   3.2057427613e+00    0.5629699    0.4972297  -5.15  0.003365705    1.043    0.041
       115 -10.8633    184.9886    248.3127   1.0484439735e+02   6.2177150396e-01    0.2264427    0.1422457  26.52  0.001331008    1.760    0.432
       116  -8.8602     54.6141    151.0817   1.1693597884e+02   3.7594278219e+01    0.1998642   0.06208099 -50.12 7.306669e-05    4.608    0.783
       117 -10.8162     23.8251    150.3171   1.2329233423e+02   4.0959855021e+01    0.2638549    0.1331155  70.52  0.001488319    1.975    0.494
       118  -8.5474     47.6876    150.3506   1.1832672272e+02   3.8542364681e+01     0.126694   0.07425224  76.05 0.0007045777    1.723    0.419
       119 -10.3277     80.8365    148.4372   1.1086057006e+02   3.4751717934e+01    0.2281207    0.1929673 -88.62 0.0006015117    1.012    0.012
       120 -11.7769     68.4066    143.7858   1.1295756681e+02   3.7448116615e+01    0.6084227    0.3803283  81.73  0.002192138    1.746    0.427
       121 -12.2155      9.1792    143.7143   1.2570119144e+02   4.3559248064e+01    0.3874187    0.1997333 -76.12  0.002483227    1.462    0.316
       122 -12.1770      3.6050    144.1124   1.2685710519e+02   4.3901079331e+01    0.4752009    0.2626042  77.54  0.003150755    1.550    0.355
       123 -11.5485      5.4985    141.5047   1.2627162416e+02   4.4293420609e+01    0.3028564    0.1618811  61.69  0.001969879    1.789    0.441
       124  -8.9340    235.8343    146.1715   7.8332571507e+01   5.0975524968e+00    0.1926753    0.1504091  10.43 0.0004990236    1.299    0.230
       125  -9.0664     96.4792    145.9659   1.0697755778e+02   3.2931927169e+01    0.1902407    0.1215274 -62.53 0.0003581773    1.489    0.328
       126  -8.8256    133.3929    141.2075   9.7797734865e+01   2.7453402119e+01    0.2017464    0.1315049 -62.43 0.0009538764    1.670    0.401
       127  -9.4664     44.7256    139.9696   1.1774456974e+02   4.1080677045e+01    0.1717087    0.1278183 -81.55 0.0004406906    1.082    0.076
       128 -10.8983     16.3228    139.4330   1.2384840184e+02   4.3874427003e+01    0.2290249    0.1100204 -78.49  0.001346328    1.626    0.385
       129  -9.6869    106.4813    135.6935   1.0287338109e+02   3.3500818143e+01    0.3466153    0.2553775 -10.06  0.001205924    2.474    0.596
       130 -11.9137     13.0624    127.7139   1.2343399100e+02   4.6595706895e+01    0.3812176    0.1768243  78.95  0.002007757    2.377    0.579
       131 -11.7959      8.5086    132.3547   1.2486711483e+02   4.5963354547e+01    0.2604003    0.1758961  86.02  0.001420625    1.186    0.157
       132 -12.0208      2.1397    123.6328   1.2547055397e+02   4.8231427202e+01    0.7349268    0.1917256 -80.97  0.002935908    3.770    0.735
       133 -11.9505      6.3485    120.0715   1.2419102489e+02   4.8694821651e+01     0.373584    0.2478443  68.58  0.002636784    1.480    0.324
       134  -8.6751     93.0711    133.2424   1.0557082250e+02   3.6217155558e+01     0.156353    0.1120027  42.81 0.0003690453    1.490    0.329
       135 -10.0243    249.7883    117.7770   6.9490382585e+01   6.4265999877e+00    0.2802484    0.2325144  25.77 0.0008736232    1.210    0.173
       136  -9.3716     44.1718    130.1151   1.1661910652e+02   4.3272742918e+01    0.1658878    0.1182325  85.25 0.0004840851    1.290    0.225
       137  -9.0519     58.7929    127.7726   1.1283396878e+02   4.2146363177e+01     0.169346    0.1252089  85.67  0.000419224    1.300    0.231
       138 -11.1927      3.2631    133.4861   1.2608114539e+02   4.6106923478e+01    0.3316428    0.1643883  67.37  0.001198702    2.002    0.500
       139 -11.3639    239.0900    120.9117   7.1980770501e+01   8.2374838029e+00    0.5891245    0.2657467 -18.88  0.002018984    3.245    0.692
       140 -11.1632    243.4177    120.1816   7.1090081581e+01   7.4190199291e+00    0.3922287    0.1827798 -43.88  0.001561842    2.380    0.580
       141 -12.1192     16.0093    120.5171   1.2201411654e+02   4.7899162528e+01    0.4102581    0.1747259 -84.14  0.002089199    2.221    0.550
       142  -9.8727     30.4893    119.0138   1.1840568030e+02   4.7021249430e+01    0.1675422    0.0681517 -51.87 0.0008090088    2.426    0.588
       143 -10.5284    232.0089    116.4930   7.2116677112e+01   1.0476638497e+01    0.2264122    0.1935296 -23.28 0.0006815715    1.124    0.110
       144 -12.6169     14.4713    100.8718   1.2003620200e+02   5.2227354479e+01     0.404293    0.3227429 -13.02  0.002944674    1.808    0.447
       145 -12.3426      8.6009    113.1622   1.2295508886e+02   5.0003547419e+01    0.3813756     0.183986 -72.04  0.001673325    1.528    0.345
       146 -11.9147      2.2665    111.0148   1.2423292543e+02   5.0871858018e+01    0.5439219    0.1498859 -71.75  0.002571101    2.543    0.607
       147 -12.5068      3.0463     96.7257   1.2246380374e+02   5.3847257538e+01    0.4925002    0.2706807 -70.22  0.003201003    1.316    0.240
       148 -11.9229    247.7890    112.8487   6.8633217802e+01   7.5870933526e+00    0.6030954    0.4424683  42.83   0.00315229    1.398    0.285
       149  -9.6975     29.6060    108.2070   1.1715712003e+02   4.9454432922e+01    0.1704483   0.08332286 -60.24 0.0003409301    1.626    0.385
       150 -10.7279     18.9721    106.2952   1.1959545992e+02   5.0730589482e+01    0.1544386    0.1303485 -75.75 0.0005588381    1.128    0.114
       151  -8.2889     71.7185    100.3059   1.0457139416e+02   4.6605532588e+01    0.1289145   0.09588271  88.58 0.0003110134    1.557    0.358
       152 -10.8867     92.8333    149.7590   1.0840358714e+02   3.2691745779e+01    0.2639146    0.2527146  71.97 0.0008345229    1.206    0.171
       153 -12.4811      3.5401     76.7848   1.1965831626e+02   5.8034264432e+01    0.5347378     0.223145 -53.43  0.003065189    1.862    0.463
       154  -9.7053    161.3957     79.8046   7.6067892682e+01   3.3692983602e+01    0.2174771    0.1485328 -24.78 0.0007087503    1.618    0.382
       155 -11.2962    169.9526    247.9600   1.0722666536e+02   3.0810472883e+00    0.4288068    0.2372673  19.09  0.001841199    4.559    0.781
       156 -12.3001    151.1670    246.6947   1.1011648590e+02   6.2412674601e+00    0.5324813    0.2615874  39.43  0.003065307    1.803    0.445
       157 -11.2186    197.7137    245.5938   1.0244386956e+02  -1.1170142189e+00    0.2526374    0.1571551  32.62  0.001338179    1.396    0.284
