#   1 NUMBER                 Running object number                                     
#   2 MAG_AUTO               Kron-like elliptical aperture magnitude                    [mag]
#   3 X_IMAGE                Object position along x                                    [pixel]
#   4 Y_IMAGE                Object position along y                                    [pixel]
#   5 X_WORLD                Barycenter position along world x axis                     [deg]
#   6 Y_WORLD                Barycenter position along world y axis                     [deg]
#   7 A_WORLD                Profile RMS along major axis (world units)                 [deg]
#   8 B_WORLD                Profile RMS along minor axis (world units)                 [deg]
#   9 THETA_WORLD            Position angle (CCW/world-x)                               [deg]
#  10 FWHM_WORLD             FWHM assuming a gaussian core                              [deg]
#  11 ELONGATION             A_IMAGE/B_IMAGE                                           
#  12 ELLIPTICITY            1 - B_IMAGE/A_IMAGE                                       
         1 -10.6248     50.8830     22.4037   7.9052964836e+01   6.5951027649e+01     0.433519    0.1929031  44.02  0.002014346    2.674    0.626
         2  -9.9019     40.7925     12.7412   7.8982836862e+01   6.8722204869e+01    0.2134567     0.152031 -23.03  0.001373844    1.229    0.186
         3  -9.1413     91.6687      9.3473   5.8692860810e+01   6.0189298636e+01    0.1247175    0.1015214 -64.92 0.0007049328    1.764    0.433
         4  -9.7742     56.7492      9.7569   7.0630719233e+01   6.6728523063e+01    0.1797037   0.09976323  53.26 0.0008940998    2.436    0.589
         5  -9.8362     71.7160      6.4668   6.3523363115e+01   6.4461284302e+01    0.2314652    0.1189195  55.19  0.001133842    2.148    0.534
         6  -9.7284     35.0329      5.8594   7.8229143157e+01   7.0392348511e+01    0.1618389    0.1403911  57.01   0.00108074    2.072    0.517
         7 -11.5675    183.3731      3.7469   4.0266938828e+01   3.8603658075e+01    0.2564535    0.1488429  87.02  0.001258619    1.697    0.411
         8 -11.1066    170.0141      2.7054   4.1528387570e+01   4.2044513759e+01     0.199292    0.1619248  74.38  0.001164854    1.079    0.073
         9 -10.7969    161.0591      2.4883   4.2604754958e+01   4.4313453230e+01    0.2119623    0.1178522  70.21 0.0008172413    1.581    0.367
        10  -9.8290    139.5016      2.4853   4.5760811056e+01   4.9693125181e+01    0.1342894      0.11747  60.93 4.304681e-05    1.002    0.002
        11  -9.9253    124.0002    205.9442   1.0324050652e+02   1.4614049638e+01    0.1931065     0.167313  58.41            0    1.053    0.051
        12 -10.0542    150.2116    199.8049   9.6635040161e+01   1.1223527581e+01    0.2301272    0.1448345  73.49 0.0009480428    2.793    0.642
        13 -11.8025    178.5616    198.8309   9.0483462188e+01   6.2740900800e+00    0.4500886    0.2532245  48.97  0.002094431    1.847    0.459
        14 -11.2750    173.1684    196.0180   9.1102580942e+01   7.7563217940e+00    0.3024544    0.2379564  56.26  0.001123656    1.417    0.294
        15  -9.9675    174.0093    191.9746   9.0195056115e+01   8.3381069310e+00     0.237379     0.205184 -37.79 0.0005246716    1.246    0.197
        16  -9.8872     89.1008    199.2596   1.0994389839e+02   2.1616075944e+01    0.2649419    0.1527094  56.56  0.001325351    1.664    0.399
        17 -10.5220    126.2780    197.7158   1.0152351840e+02   1.5873101135e+01    0.3099401    0.2211136  30.45  0.001621826    1.484    0.326
        18  -9.6947    112.6631    198.2968   1.0461945847e+02   1.8068636758e+01    0.1427384    0.0955047  66.83 0.0006491485    1.653    0.395
        19  -9.7412     44.4734    194.4783   1.1907982094e+02   2.8662572931e+01    0.1266447   0.09751206  75.17 0.0001320412    1.059    0.056
        20 -10.5574    139.2627    190.1143   9.7417793592e+01   1.5111758965e+01    0.2852298    0.1712067  61.64  0.001242311    2.114    0.527
        21 -10.0740    130.1906    189.3689   9.9329266441e+01   1.6899633502e+01    0.2122888    0.1172853  49.46 0.0008455917    1.744    0.427
        22 -10.6588    156.9473    187.9775   9.3133973776e+01   1.2273524337e+01    0.2983476    0.1999757  46.53  0.001475136    1.415    0.293
        23 -11.9334     97.0311    187.7500   1.0664051317e+02   2.2875940192e+01    0.5989708    0.2167464  45.87  0.002321291    2.555    0.609
        24 -10.1544    120.7749    186.4552   1.0099678352e+02   1.9179045437e+01    0.2622717    0.1717202 -70.54  0.001259272    1.790    0.441
        25 -10.4743    110.3604    186.8060   1.0344137989e+02   2.0894620904e+01    0.3476459    0.1790911  60.88  0.001394684    2.505    0.601
        26 -10.0183    184.7808    185.3755   8.6704535846e+01   7.5343286387e+00    0.2072537    0.1237638  32.47 0.0009553894    1.658    0.397
        27 -10.4499     12.8407    184.6350   1.2491299365e+02   3.4089607976e+01    0.2300599    0.1966098  53.28  0.001293139    1.323    0.244
        28 -10.7758    197.7865    182.7640   8.3538223824e+01   5.5732085015e+00    0.2141536     0.169808  87.80   0.00106142    2.093    0.522
        29  -9.7831    212.4786    182.5440   8.0602677930e+01   2.9265153601e+00    0.1383589    0.1212361   5.85 0.0008085644    1.019    0.019
        30  -9.6188     44.8321    182.6299   1.1788455634e+02   3.1247465494e+01    0.1813538   0.09540116  48.57 0.0009457545    1.761    0.432
        31 -10.7335    148.9291    181.3806   9.3717324071e+01   1.5098965610e+01    0.3428107     0.130464  41.33  0.001252932    2.454    0.592
        32  -9.7600     60.5310    177.5085   1.1375547321e+02   3.0487661896e+01     0.317666    0.1308751  57.91  0.001256789    2.885    0.653
        33 -10.7841     78.1310    176.5203   1.0949141930e+02   2.8293443204e+01    0.4942562    0.1633902  50.98  0.001713655    3.416    0.707
        34  -9.9646     56.4466    188.2144   1.1587740946e+02   2.8586425875e+01    0.3252275   0.09544737  57.70 0.0008891461    6.258    0.840
        35 -10.1541    204.3933    175.7810   8.0821874624e+01   5.5639234057e+00    0.2024374    0.1265954 -26.27 0.0009506097    1.722    0.419
        36 -10.3486    161.4508    176.4910   8.9999089717e+01   1.3689837020e+01    0.2842598    0.1270921  51.32  0.001040973    2.550    0.608
        37 -10.1431    107.0171    176.1796   1.0255633923e+02   2.3807887734e+01    0.2514047    0.1479043  62.42  0.001092259    2.022    0.505
        38  -9.9391    135.7705    172.6022   9.5122949699e+01   1.9429855856e+01    0.2176633    0.1283859  50.98 0.0009486434    1.715    0.417
        39  -9.5247     45.3615    172.6713   1.1673784271e+02   3.3459930560e+01    0.1412256    0.0803685  67.75 0.0007040725    1.796    0.443
        40 -10.8232    123.2872    170.7990   9.7750213475e+01   2.2144009196e+01    0.4251487    0.2035077  52.90  0.001639834    2.336    0.572
        41 -10.0576     55.4694    170.1542   1.1407112050e+02   3.2834713679e+01    0.2665485    0.1346564  65.15   0.00118195    2.316    0.568
        42  -9.8934    207.8144    170.3967   7.9041341417e+01   5.8636765131e+00    0.2058471    0.1249426  30.61 0.0009499643    1.720    0.419
        43 -10.7829    140.6119    166.1465   9.2756810650e+01   1.9900810035e+01       0.4028    0.2429444  65.65  0.001589481    2.417    0.586
        44 -10.2461    100.7365    167.0829   1.0258574777e+02   2.6942045509e+01     0.382618    0.1485747  51.58  0.001328434    3.003    0.667
        45 -10.1609     79.9888    164.1222   1.0726078767e+02   3.0913477735e+01     0.435148    0.2195955  79.98  0.001435907    4.007    0.750
        46  -9.8074     38.3945    165.1898   1.1757342799e+02   3.5973989323e+01    0.1824775    0.1034252 -86.62 0.0008379491    1.656    0.396
        47  -9.5331     47.8263    164.2426   1.1520484080e+02   3.5141838406e+01    0.2370404    0.1100841  67.54 0.0009597833    2.839    0.648
        48  -9.6101     70.3117    163.6530   1.0960192152e+02   3.2414357897e+01    0.1465732   0.09461096  73.35 0.0007045976    1.712    0.416
        49  -9.8208    178.3405    161.6609   8.3273991209e+01   1.3288779643e+01    0.1502106    0.1202311  87.28 0.0007050061    1.767    0.434
        50 -10.2112     93.5096    161.1207   1.0338986208e+02   2.9524945820e+01    0.3049847    0.1678124  54.93  0.001315224    1.978    0.494
        51  -9.6496      9.3643    161.6786   1.2399071839e+02   3.9500195645e+01    0.1295465   0.06890807  66.71 0.0007040078    1.784    0.439
        52  -9.6531     23.7493    159.9899   1.2051821034e+02   3.8648371375e+01    0.2376713   0.08429455  60.21 0.0009001192    3.648    0.726
        53 -10.5205    107.6762    159.0548   9.9456737785e+01   2.7620945504e+01    0.7074453    0.2012943  48.03  0.002059738    4.051    0.753
        54 -10.2150    168.2825    158.1383   8.4733678877e+01   1.6049220316e+01    0.2944895    0.1985612  68.61  0.001232326    2.161    0.537
        55  -9.7147    158.6339    157.3097   8.6745383653e+01   1.8197905213e+01    0.1562187    0.1200111  79.32 0.0001613977    1.756    0.431
        56 -10.5338     50.5877    155.8421   1.1348503771e+02   3.6813803005e+01    0.4275696    0.1723408  57.88  0.001605167    3.305    0.697
        57 -10.0774    218.8974    156.0999   7.3873335808e+01   6.2553454877e+00    0.2000827    0.1921902 -50.47 0.0004159669    1.226    0.184
        58 -10.3307     83.1625    155.7646   1.0513748868e+02   3.2426091275e+01    0.4432963    0.2014508  57.20  0.001628702    2.929    0.659
        59 -10.2089    120.2690    156.1441   9.5745275618e+01   2.6017943683e+01    0.3038691       0.1858  64.68  0.001236635    2.166    0.538
        60 -10.3224     69.0384    154.6486   1.0860419944e+02   3.4743376537e+01    0.4173396    0.1909975  53.42   0.00170361    2.487    0.598
        61 -10.6680    134.7044    153.9218   9.1721594418e+01   2.3754724552e+01    0.4966794    0.2336525  54.41  0.001759996    2.627    0.619
        62  -9.5642     91.9626    152.1600   1.0224002352e+02   3.1905955754e+01    0.2512502    0.1523538  64.09  0.001080614    2.033    0.508
        63 -10.1922    191.7356    151.4225   7.8197487697e+01   1.2542202340e+01    0.2913182    0.1435792  49.31  0.001143898    2.154    0.536
        64  -9.9404     99.5037    151.5144   1.0016063188e+02   3.0808875814e+01    0.2737495    0.1222561  48.84  0.001035121    2.378    0.579
        65 -10.0398     29.3195    150.3653   1.1817906962e+02   4.0386813500e+01    0.3638871    0.1624507  72.14  0.001488951    3.033    0.670
        66 -10.5622     40.1665    148.2640   1.1517712971e+02   3.9799019072e+01    0.4416327    0.1974462  58.19  0.001879136    2.713    0.631
        67 -11.3688    108.5809    146.2419   9.6777113437e+01   3.0473967667e+01    0.7292477    0.3552794  62.48  0.002291028    3.775    0.735
        68  -9.7154     79.2208    147.8053   1.0483430887e+02   3.4939266546e+01    0.2468676    0.1372506  71.80 0.0009454884    2.761    0.638
        69 -11.1304     56.9642    146.6049   1.1055811694e+02   3.8270889834e+01    0.5678847    0.2630879  60.49  0.002217951    2.966    0.663
        70 -11.9449    150.4380    146.1881   8.6245314373e+01   2.2277431112e+01    0.5966915     0.357134  63.94  0.002280483    2.389    0.581
        71 -10.2923    166.1664    144.7629   8.2253153321e+01   1.9265116040e+01    0.2611565    0.1755286  88.04 0.0009567241    2.854    0.650
        72  -9.9169     13.5112    146.5270   1.2171094965e+02   4.2664959854e+01    0.2019242   0.08933011  42.68   0.00102986    2.309    0.567
        73 -11.1809    126.8391    144.2482   9.1646176779e+01   2.7501834142e+01     0.585905    0.3362304  68.22  0.002040263    3.017    0.669
        74 -10.3007     88.7336    144.6534   1.0173276458e+02   3.4233026550e+01    0.3990552    0.2179326  57.95  0.001552784    2.249    0.555
        75 -10.3570    196.9580    143.8093   7.5403141123e+01   1.2915674740e+01    0.2424346    0.2014956   1.72   0.00123575    1.318    0.241
        76  -9.6652      2.8253    142.2029   1.2394415760e+02   4.4452005188e+01    0.2192283   0.08725411  65.03 0.0009662535    2.974    0.664
        77  -9.4889    215.3262    140.6765   7.1106442386e+01   9.7015132682e+00    0.1435775    0.1162163 -73.14 0.0007048542    1.689    0.408
        78 -10.7738     24.4759    139.1047   1.1815085404e+02   4.3509504034e+01    0.4828699    0.1956493  59.60  0.001962057    3.276    0.695
        79 -10.1718     39.2580    136.1626   1.1382428080e+02   4.2816574833e+01     0.255217    0.1422279  59.75  0.001093162    2.062    0.515
        80 -10.9407    114.4114    134.6259   9.2789564113e+01   3.2144771762e+01    0.4999087    0.2380742  57.03  0.001683164    3.009    0.668
        81 -10.4706    181.1521    134.6842   7.6572636094e+01   1.8098277322e+01    0.3164321     0.140214  53.47   0.00109541    2.620    0.618
        82 -11.1545     84.6433    132.5205   1.0052862045e+02   3.7829221318e+01    0.5736217    0.2833017  55.86  0.002004124    2.685    0.628
        83 -10.9537    144.6097    132.7299   8.4564337945e+01   2.6472828676e+01    0.3984078    0.2359929  60.69  0.001534752    2.180    0.541
        84 -11.2221    133.8396    132.8598   8.7302433507e+01   2.8702548907e+01    0.4167296    0.2568244  58.72  0.001692232    1.947    0.486
        85 -10.7770    170.5204    130.8595   7.7992015149e+01   2.1223161400e+01    0.3258972     0.208206  62.83  0.001299573    1.994    0.499
        86 -11.4724    154.3483    130.4759   8.1653171845e+01   2.4866699754e+01    0.4658494    0.3196329  75.80  0.001867158    2.201    0.546
        87 -11.0760    100.6223    129.2169   9.5361351062e+01   3.5959391885e+01    0.6328677    0.3750578  66.83  0.002422216    2.584    0.613
        88 -10.4124     13.5768    130.1341   1.2002616933e+02   4.6518875937e+01    0.3392919    0.1773288  67.31  0.001719517    2.176    0.541
        89  -9.5989    194.9414    131.0000   7.2809092438e+01   1.5810246785e+01    0.2509045   0.08671444  48.03 0.0008074758    2.977    0.664
        90 -10.6169     74.0300    130.1504   1.0307328184e+02   4.0009230076e+01     0.348896    0.1557905  54.74  0.001245395    3.146    0.682
        91  -9.4990      2.3454    130.6656   1.2303832409e+02   4.7159135093e+01    0.1264375   0.07285214  69.36 0.0007049512    1.767    0.434
        92 -10.8699    120.4779    126.9574   8.9412177827e+01   3.2766568883e+01    0.7363496    0.3361037  59.06  0.002182261    3.891    0.743
        93 -11.1066     60.5518    125.2640   1.0605283723e+02   4.3039171858e+01    0.6380401    0.3513399  70.96  0.002514733    2.928    0.659
        94 -11.4086     45.1715    124.0069   1.1032631819e+02   4.5154890740e+01    0.8072401    0.4047585  68.17  0.003136783    3.261    0.693
        95 -11.3569    181.5813    125.7829   7.4321354179e+01   1.9794125375e+01    0.4897351      0.25246  63.76  0.001632143    3.120    0.679
        96 -11.5387     29.1543    122.9653   1.1480528394e+02   4.6977003320e+01    0.8613111    0.3702022  70.65  0.002841349    4.887    0.795
        97 -11.8016    143.4021    120.1383   8.1773335511e+01   2.9522766560e+01    0.6165432    0.3855276  60.15  0.002087306    1.940    0.485
        98 -10.2639     71.8829    120.7943   1.0185009296e+02   4.2604208768e+01    0.3736963    0.2286938  61.62  0.001651734    2.129    0.530
        99 -10.6443    132.4637    119.8990   8.4514380107e+01   3.1929798436e+01    0.4761822    0.2494085  58.34  0.001687403    2.551    0.608
       100 -10.7277      3.9674    118.1026   1.2133643090e+02   4.9993147936e+01    0.4051013    0.1856834  67.60  0.001888478    2.775    0.640
       101 -10.2742    187.2158    117.3837   7.1041596726e+01   2.0186893674e+01    0.2174354     0.149042  60.50 0.0007232673    1.661    0.398
       102 -11.0017    110.6904    115.7956   8.9399982816e+01   3.7281233471e+01    0.5504311    0.3573596  76.41  0.002100295    2.596    0.615
       103 -11.3199     95.0819    113.9520   9.3445739964e+01   4.0580261624e+01    0.7175695    0.3126761  46.20   0.00266071    2.515    0.602
       104 -10.9550     80.1333    113.7046   9.7850665488e+01   4.3098602941e+01      0.57871    0.3663099  72.20  0.002393168    2.462    0.594
       105 -10.6977    124.1240    113.5058   8.5104757449e+01   3.5122204826e+01     0.489105    0.2514272  49.05  0.001875533    2.061    0.515
       106 -10.6417    160.4357    113.0392   7.5807624392e+01   2.7222138496e+01    0.2756703     0.218629  78.13  0.001256957    1.563    0.360
       107  -9.8924    175.5114    112.5076   7.2271936177e+01   2.3847108195e+01     0.156121    0.1516066 -60.80 0.0003505212    1.046    0.044
       108 -10.9194     67.4421    111.5685   1.0126060224e+02   4.5466487292e+01    0.4032001    0.2535683  60.54  0.001838183    2.080    0.519
       109 -10.7725     14.6344    110.8565   1.1738018686e+02   5.1015056811e+01    0.4020427    0.2223302  72.81  0.002027796    2.230    0.552
       110  -9.9627    134.2870    110.3126   8.1560427833e+01   3.3679201778e+01    0.3269989    0.1920315  65.27  0.001176741    2.552    0.608
       111 -11.7095     46.5533    103.3178   1.0614517864e+02   5.0019936254e+01    0.8121166    0.4219802  67.67  0.002964401    3.883    0.742
       112 -11.1940    141.2330    105.7689   7.8546305531e+01   3.3134442972e+01      0.49597    0.2768322  61.71  0.001803145    2.422    0.587
       113 -11.6346     23.6011    103.0295   1.1345886512e+02   5.2216190242e+01    0.7961771    0.3807255  66.79  0.003156022    3.684    0.729
       114 -11.3838    151.2782    104.6514   7.5745299261e+01   3.1085414560e+01    0.3516245    0.2697263 -86.61   0.00154101    1.762    0.432
       115 -11.3814    130.8772    103.4342   8.0603580171e+01   3.5929460545e+01    0.5657749    0.2686126  53.78  0.001998077    2.461    0.594
       116 -10.5413      7.8152    103.8398   1.1849936341e+02   5.3104277145e+01    0.3035977    0.1485786  46.74  0.001569633    2.466    0.594
       117 -11.6801    112.0540    100.7457   8.5081366470e+01   4.0459669195e+01     1.057661     0.496323  59.28  0.003218505    3.840    0.740
       118 -10.4524     83.3461    100.7704   9.3750804901e+01   4.5661429417e+01    0.4330426    0.2410209  55.60   0.00173971    2.462    0.594
       119 -11.3593     65.3225     97.2294   9.8663498173e+01   4.9178352659e+01    0.6662864    0.3774535  59.43  0.002728874    2.762    0.638
       120 -10.5818     96.4761     97.8367   8.8908307899e+01   4.4085813593e+01    0.5493246    0.2524032  46.99  0.002075383    2.427    0.588
       121 -10.0495    165.9499     95.2233   6.9730210597e+01   2.9541513948e+01    0.2189727    0.1299438  52.40 0.0008868434    1.714    0.416
       122  -9.3761    178.6690     94.6675   6.6851570438e+01   2.6591896397e+01    0.1612697    0.1239209  11.75 0.0007052095    1.724    0.420
       123 -11.1100    140.9589     93.4543   7.5168580842e+01   3.5788720345e+01    0.5586619    0.2819706  57.73   0.00200727    2.391    0.582
       124 -11.2290    127.0797     92.3200   7.8483752763e+01   3.9143617681e+01    0.7158905    0.3431522  55.67  0.002521325    2.567    0.610
       125 -10.7600      7.3608     92.8394   1.1709497643e+02   5.5689805865e+01    0.4967979    0.1789477  33.97  0.002334254    3.188    0.686
       126 -11.2711     35.5685     90.6416   1.0720549974e+02   5.4123669526e+01     0.458217    0.2956669  81.16  0.001917004    2.205    0.547
       127 -11.2012     88.7506     88.1404   8.8621940420e+01   4.7635146954e+01    0.7343438    0.3660787  56.29  0.002587934    3.245    0.692
       128 -11.1028     50.2410     85.9778   1.0103937575e+02   5.3686607311e+01    0.6289287    0.3455208  60.93  0.002495804    3.398    0.706
       129 -11.0924    107.6261     85.1543   8.1901290998e+01   4.4748537808e+01    0.7012313    0.3669632  57.63  0.002566638    2.697    0.629
       130  -9.9128    160.2107     84.3600   6.7927021067e+01   3.3022084371e+01    0.2279096    0.1485165  63.04 0.0009535771    1.713    0.416
       131 -10.7337    142.4314     84.0934   7.2053140585e+01   3.7329540826e+01    0.4342923     0.229835  65.92  0.001470921    2.891    0.654
       132 -10.9240     25.5662     81.4480   1.0879822202e+02   5.7101852574e+01    0.5225679     0.312613  65.00  0.002552105    2.613    0.617
       133 -10.5520     13.0146     82.5174   1.1348166413e+02   5.7731415493e+01    0.4149602    0.1283442  38.03  0.001705509    3.983    0.749
       134 -10.0323      9.1882     81.3776   1.1462697800e+02   5.8215675974e+01    0.2120548    0.1591321  54.99  0.001360775    1.665    0.399
       135 -10.4176     75.4367     81.4734   9.1089725645e+01   5.1298898462e+01    0.3076322    0.2197931  82.83  0.001373501    2.374    0.579
       136 -10.0477    151.7207     81.4465   6.9018969527e+01   3.5629726987e+01    0.3064345     0.155264  56.97  0.001141007    2.126    0.530
       137  -9.9636    121.2230     81.9917   7.7012184234e+01   4.2559635024e+01    0.2887233    0.2061415  62.71   0.00129124    1.683    0.406
       138  -9.3602    169.6722     78.6789   6.4235760131e+01   3.1753828792e+01    0.1593951    0.1222973  17.14 0.0007048075    1.688    0.407
       139 -10.6749    129.8492     76.8336   7.3067270083e+01   4.1658857044e+01    0.5496596     0.315973  67.42   0.00199989    2.676    0.626
       140  -9.8060    159.2027     77.3901   6.6108072690e+01   3.4565938889e+01    0.2246541    0.1495095  64.93  0.000957516    1.676    0.403
       141 -10.1597    142.3244     76.2913   6.9715779873e+01   3.8854071806e+01    0.4307307    0.1857227  54.09   0.00151159    2.422    0.587
       142 -10.8480     84.2566     74.2557   8.5933294960e+01   5.1402757400e+01    0.5964439     0.363131  62.70  0.002381843    2.837    0.648
       143 -10.0018     43.6886     73.8124   1.0030353853e+02   5.7153916595e+01    0.2368478    0.1614202  57.21   0.00122326    2.106    0.525
       144  -9.7044    116.7971     73.6051   7.5630574513e+01   4.5186189619e+01    0.2174257    0.1446386  57.86 0.0009512536    1.731    0.422
       145 -10.0909    107.5474     72.9173   7.8110683235e+01   4.7270910486e+01    0.3724936    0.2415921  60.83  0.001605307    2.004    0.501
       146 -10.3089     96.2144     72.4942   8.1470992279e+01   4.9598250895e+01    0.3465919    0.2607728 -74.55  0.001614473    1.938    0.484
       147  -9.9807      7.6257     73.2440   1.1371702471e+02   6.0132005039e+01    0.2747987    0.1308704  41.28  0.001401941    2.771    0.639
       148 -10.1170    164.1910     72.4049   6.3550622256e+01   3.4229251778e+01    0.2207078    0.1485932  68.51 0.0009509628    1.680    0.405
       149 -10.7003     52.5024     70.9353   9.6207063364e+01   5.6777667647e+01    0.4301608    0.3146328  89.03  0.002054343    2.180    0.541
       150 -10.9096     17.4962     70.6276   1.0946914785e+02   6.0121952311e+01    0.3030106    0.2151577  60.80  0.001712646    1.939    0.484
       151 -10.3695    139.9819     67.4391   6.7522724750e+01   4.1032962858e+01    0.3153089    0.2064405  73.81  0.001289944    2.096    0.523
       152  -9.9388    123.2628     67.3249   7.1794352083e+01   4.4946534211e+01    0.2944186    0.1890368  72.27  0.001031193    2.392    0.582
       153 -10.4927     38.7062     65.4618   9.9928073060e+01   5.9487008077e+01    0.3994223    0.2315401  56.34   0.00179774    3.066    0.674
       154 -10.9412    148.1599     69.0884   6.6094434114e+01   3.8764077842e+01    0.4462595    0.2190789  60.26  0.001646121    2.293    0.564
       155 -10.1731    111.7613     65.0010   7.4258157765e+01   4.7902592299e+01    0.3543735    0.2139927  65.63  0.001396069    2.489    0.598
       156 -10.0497    101.4953     61.4876   7.6140095761e+01   5.0687507776e+01    0.3183861    0.2317068 -82.70  0.001376287    2.426    0.588
       157 -10.8497     75.0238     60.5971   8.4645657326e+01   5.5705434437e+01    0.5175315    0.2754638  50.76  0.002195876    2.529    0.605
       158 -10.2933     26.6438     60.2676   1.0331690930e+02   6.1694727679e+01    0.3863969    0.1516957  38.99  0.001686051    3.353    0.702
       159 -10.2245    132.2218     59.0096   6.6705615663e+01   4.4343282082e+01    0.3662173    0.2176852  71.37  0.001412921    2.458    0.593
       160 -11.1547      8.8880     58.1125   1.1005759496e+02   6.3367144608e+01    0.3843594    0.2456673  48.98  0.002262548    2.230    0.552
       161 -10.3890    121.5867     57.5067   6.8963695089e+01   4.7066204751e+01    0.4016861    0.2713311  64.35  0.001750579    1.772    0.436
       162 -10.1483    140.9884     57.1885   6.3979720713e+01   4.2543139553e+01    0.2539642    0.1795467 -89.67  0.001088553    2.044    0.511
       163 -10.3886     45.3007     56.4073   9.4569339787e+01   6.0667510094e+01     0.334831    0.2392213  67.00  0.001694636    2.518    0.603
       164 -10.2542     64.0113     55.5496   8.6946927170e+01   5.8390594266e+01     0.364446     0.266565  61.81  0.001741536    2.152    0.535
       165 -10.4391     55.0904     55.0577   9.0219291609e+01   5.9730525151e+01    0.3933274    0.2852941 -82.16  0.001903246    2.576    0.612
       166  -9.7053    107.7081     54.9897   7.1996008656e+01   5.0555226845e+01    0.2917874    0.1935792  76.74  0.001173461    2.699    0.630
       167 -10.7087     32.8872     52.6867   9.8514618673e+01   6.2718042268e+01    0.4500885    0.2559098  48.25  0.002211838    2.759    0.638
       168 -10.4574     94.1676     52.0919   7.5117305359e+01   5.3827159013e+01    0.4313459    0.2936953  65.76  0.001966639    2.190    0.543
       169 -10.2323     21.9389     53.3320   1.0335378227e+02   6.3519507323e+01    0.3286807    0.1483343  29.82  0.001666187    2.563    0.610
       170  -9.9348    123.9903     47.0001   6.4691493053e+01   4.8216384264e+01    0.2329907    0.1829238 -74.94  0.001135495    1.713    0.416
       171 -10.0862     83.4045     47.6915   7.7056838872e+01   5.6623139275e+01    0.3575427    0.1239593  48.70  0.001234782    3.444    0.710
       172 -10.6114     18.5510     45.7775   1.0262112547e+02   6.5308211110e+01    0.3957389    0.1869979  28.34  0.002104528    2.450    0.592
       173 -10.5188     46.0720     45.1811   9.0407367789e+01   6.2764176408e+01    0.3243614    0.1713193  40.64  0.001600082    2.324    0.570
       174 -10.1686     59.2846     43.6547   8.4436065262e+01   6.1284593348e+01    0.2585674    0.2259877 -83.45  0.001526232    1.784    0.439
       175 -10.7335      6.2086     42.8621   1.0735709447e+02   6.6671111656e+01    0.3470983    0.2500264  87.79  0.002149182    2.076    0.518
       176  -9.9970    107.3540     42.5056   6.7565683060e+01   5.2654443870e+01    0.2976664    0.2143393  63.68  0.001469122    1.659    0.397
       177 -10.4179     70.6673     42.6002   7.9653490009e+01   5.9702989015e+01    0.4151801    0.2439159  57.04  0.001813083    2.818    0.645
       178 -10.1274     37.6729     41.1383   9.2543905314e+01   6.4480478095e+01    0.2525599    0.1713886  41.46  0.001244685    1.928    0.481
       179 -10.0983     96.7286     39.2169   6.9469820205e+01   5.5398767773e+01    0.3234156    0.1993136  65.28  0.001411165    2.390    0.582
       180  -9.7861     82.5282     38.0189   7.3606917561e+01   5.8364185902e+01    0.2764461    0.1775667  63.22  0.001254808    2.471    0.595
       181 -10.4683     27.2188     36.7346   9.5661155111e+01   6.6343321742e+01    0.2349282    0.2043042  75.29  0.001541031    1.867    0.464
       182 -10.0656    113.6356     36.1555   6.3463747623e+01   5.2184657063e+01    0.2716286    0.1981588  83.24  0.001291112    1.988    0.497
       183  -9.0354    105.3532     35.6730   6.5554206651e+01   5.4090705114e+01     0.139029    0.1122677 -74.88 0.0007047027    1.768    0.434
       184  -9.8573    120.9020     34.0823   6.0835587916e+01   5.0795360574e+01    0.3076592    0.1829167  58.75  0.001415066    1.680    0.405
       185 -10.4308     62.4131     33.5248   7.9154380790e+01   6.2519050038e+01    0.3667819    0.2279916  55.04  0.001769868    2.527    0.604
       186 -10.4429     50.9367     33.6515   8.3888098123e+01   6.4179785751e+01    0.2795762    0.2160242  60.14  0.001570629    2.192    0.544
       187 -10.3885     74.4088     32.4563   7.4189762867e+01   6.0684996117e+01    0.4045722    0.2150384  57.04  0.001700933    2.971    0.663
       188 -10.4333     14.1722     31.3340   9.9961015192e+01   6.8408305247e+01    0.3040888     0.248532  61.23  0.001976557    2.025    0.506
       189  -9.7229    103.2306     30.4238   6.4119739835e+01   5.5270569242e+01    0.2724233    0.1220355  48.95  0.001143411    2.059    0.514
       190  -9.1545     42.6605     30.3095   8.6095204724e+01   6.5812917354e+01    0.1079549    0.1017461 -89.54 0.0007044278    1.688    0.408
       191 -10.3093     83.1022     28.7852   6.9640907174e+01   5.9612683128e+01    0.3651905    0.2484506  75.15  0.001636363    2.892    0.654
       192 -10.2485      4.9744     28.6051   1.0361341385e+02   6.9503137159e+01    0.2429814    0.1699516  44.12   0.00157219    2.188    0.543
       193 -10.2422     93.5265     27.8933   6.5951556969e+01   5.7658819909e+01     0.314178    0.2318349  79.40  0.001563681    2.153    0.535
       194  -9.2997    146.6754     26.3258   5.2534698818e+01   4.5493518684e+01    0.1462794    0.1057457 -69.03 0.0007048876    1.691    0.409
       195  -9.3172    245.9968    247.4904   8.6068144176e+01  -1.1230222119e+01    0.1654222    0.0749277  18.46 0.0008098842    2.499    0.600
       196  -9.7186     20.9503     22.1794   9.3037843978e+01   6.9489368734e+01    0.1634189    0.1343382  52.22  0.001077628    2.049    0.512
       197  -9.1625     12.4795     21.5227   9.7145594152e+01   7.0292941989e+01    0.1156549   0.08802941 -28.77 0.0003209915    1.024    0.024
       198 -10.3897     75.5885     20.2043   6.8502713971e+01   6.2166085301e+01    0.4234743    0.1899994  55.52   0.00175952    2.925    0.658
       199 -10.2541     64.8617     21.6826   7.3069903891e+01   6.3868941926e+01    0.3068332    0.2220501  60.49  0.001671068    2.127    0.530
       200  -9.9389     89.6925     18.1399   6.3043660854e+01   5.9656770182e+01    0.3021462     0.172008  59.79  0.001443678    2.031    0.508
       201 -10.0334     31.5902     16.9092   8.5372364541e+01   6.9257784515e+01    0.2113572    0.1526252  42.92  0.001316027    1.996    0.499
       202  -9.8552     98.4632     16.1127   5.9675848268e+01   5.8033982261e+01    0.2607197    0.1822677  76.52  0.001320749    1.995    0.499
       203  -9.3308      8.3076     15.6568   9.6990588826e+01   7.1595857969e+01   0.09408472   0.08834297 -74.56 0.0004471604    1.692    0.409
       204  -9.4186     17.9529     14.4727   9.1239842218e+01   7.1020555626e+01    0.1348363   0.09327207  45.39  0.000808642    2.457    0.593
       205  -9.5343    237.6853    239.6863   8.6242886654e+01  -9.2106255500e+00    0.1211565   0.07332493   7.66 0.0004779713    1.640    0.390
       206  -9.4337     84.9762     11.4890   6.1579340836e+01   6.1354223626e+01    0.1725598    0.1172398  81.54  0.000810331    2.675    0.626
       207  -9.2828     48.3406     10.6639   7.4577190955e+01   6.7929379751e+01    0.1060379   0.09868035 -58.53 0.0004018176    1.759    0.431
       208  -9.4507     73.9942    229.2483   1.1625950126e+02   1.7727390855e+01      0.16104   0.08728399  42.22 0.0008908361    1.602    0.376
       209 -10.1921    161.7020    225.4424   9.8263051844e+01   4.6667190194e+00    0.3403764     0.205981  15.71  0.001591775    2.403    0.584
       210 -10.3328     98.9633    226.2029   1.1102800563e+02   1.4701351275e+01     0.287576    0.1565983  34.35  0.001475868    1.862    0.463
       211  -8.8110    171.2600    225.6521   9.6393092194e+01   3.0318069216e+00    0.1185432    0.0976801  70.75 0.0003749908    1.602    0.376
       212 -10.8164    126.0973    220.6636   1.0482996315e+02   1.1449632966e+01    0.2231632    0.1725521  85.70 0.0006440773    1.520    0.342
       213  -9.3477     75.0086    220.0000   1.1518923455e+02   1.9389148553e+01    0.1948258   0.06159268  37.68  0.000569011    2.867    0.651
       214  -9.7375    131.4863    214.4844   1.0286533141e+02   1.1704323725e+01    0.1326341    0.1161167  45.19 7.806252e-05    1.040    0.038
