#   1 NUMBER                 Running object number                                     
#   2 MAG_AUTO               Kron-like elliptical aperture magnitude                    [mag]
#   3 X_IMAGE                Object position along x                                    [pixel]
#   4 Y_IMAGE                Object position along y                                    [pixel]
#   5 X_WORLD                Barycenter position along world x axis                     [deg]
#   6 Y_WORLD                Barycenter position along world y axis                     [deg]
#   7 A_WORLD                Profile RMS along major axis (world units)                 [deg]
#   8 B_WORLD                Profile RMS along minor axis (world units)                 [deg]
#   9 THETA_WORLD            Position angle (CCW/world-x)                               [deg]
#  10 FWHM_WORLD             FWHM assuming a gaussian core                              [deg]
#  11 ELONGATION             A_IMAGE/B_IMAGE                                           
#  12 ELLIPTICITY            1 - B_IMAGE/A_IMAGE                                       
         1  -7.9045    177.1629     11.3471   4.6591928592e+01   3.9290333430e+01    0.2112663    0.1889837  -0.21 0.0004626073    1.296    0.228
         2  -9.1478    136.1475      9.3940   5.2241405078e+01   5.0025576187e+01    0.3336384    0.2083414 -30.50 6.460192e-05    1.704    0.413
         3  -8.4415    169.0851     10.9456   4.7547514023e+01   4.1432872773e+01    0.2001453    0.1848083  70.58 -0.001320134    1.025    0.025
         4  -6.9947    155.7174      7.3036   4.8285980571e+01   4.5245012684e+01    0.1379686    0.1002889 -64.33  0.000189168    1.555    0.357
         5  -8.3103    234.3923    241.2285   9.1760109249e+01  -8.3370284837e+00    0.1352514    0.1042716 -32.67 0.0006913797    1.656    0.396
         6  -7.1088    239.2949    233.6160   8.9714586703e+01  -8.2145191321e+00   0.09746445    0.0936333  66.78 0.0007017452    1.764    0.433
         7  -7.8529    246.0443    228.7934   8.7783848285e+01  -8.6682530867e+00    0.1546087   0.07785495  37.20 0.0005800167    1.718    0.418
         8  -7.9374    124.9237    227.7315   1.0972457318e+02   1.1302783373e+01    0.2237811    0.1354406  55.03 0.0006394579    1.461    0.315
         9  -7.5111     49.6662    227.9920   1.2362529239e+02   2.2137508354e+01    0.1644574   0.06360202 -52.78 0.0007050938    4.442    0.775
        10  -8.2906    233.9270    216.7548   8.7790697982e+01  -5.3935016389e+00    0.1887034    0.1504419  -1.39 0.0004065757    1.147    0.128
        11  -7.2797      7.3740    212.1952   1.3000945258e+02   2.9742536232e+01    0.1510354   0.07285838  84.69 0.0007136974    1.655    0.396
        12  -9.3312    231.9110    198.6883   8.4885397826e+01  -2.6984514546e+00    0.3216953    0.2819881  77.28  0.001973684    1.873    0.466
        13  -9.0784    220.4191    193.7167   8.6015479729e+01  -1.3483937703e-02    0.3070303    0.2120204  43.50  0.001148384    1.444    0.307
        14  -9.1526    221.2940    188.7809   8.4911769195e+01   5.5855015081e-01    0.2990708     0.230448 -11.55 0.0001734899    1.288    0.224
        15  -8.4982    221.5490    184.1721   8.3966206297e+01   1.2034771927e+00    0.2397427    0.1783907  35.69 0.0002422343    1.259    0.206
        16  -7.1559    144.5116    194.4639   1.0113665094e+02   1.3886979733e+01    0.1368537    0.1213753  50.50 0.0002377109    1.005    0.005
        17 -10.0004    250.5779    191.1091   8.0224919282e+01  -4.7615280749e+00    0.2107622    0.1414561 -32.52 0.0002718519    1.527    0.345
        18  -8.0011    246.4553    190.4244   8.0789290263e+01  -3.9985410451e+00    0.2033755    0.1089505  39.04 0.0004814079    1.785    0.440
        19  -6.8769    231.2912    184.3264   8.2236710589e+01  -5.6186132860e-01    0.1359739   0.09222345   5.80 0.0002079551    1.618    0.382
        20 -10.2193    189.4293    180.4902   8.9396868141e+01   7.8577165639e+00    0.2478971    0.2399007  21.88  0.000175017    1.097    0.088
        21  -8.5902    141.9785    181.4070   9.9486432560e+01   1.6880831765e+01    0.2307231    0.2021669 -58.36 0.0002484382    1.230    0.187
        22  -8.3310      1.7997    181.9700   1.2939127399e+02   3.6269459600e+01    0.1558369    0.1163319 -79.51 0.0004604138    1.271    0.213
        23  -7.9061    248.0432    179.0638   7.8281036397e+01  -2.7076800328e+00    0.1957584    0.1647325  -2.78  0.000529122    1.032    0.031
        24  -9.3162     74.9077    178.7683   1.1390716077e+02   2.8750127114e+01    0.2139903     0.177544 -81.52 0.0002745244    1.128    0.114
        25  -7.6989      1.3501    172.8629   1.2893314963e+02   3.8211472001e+01    0.1553372   0.07608134 -71.95 0.0003974247    1.683    0.406
        26  -8.9196    209.9859    164.0814   8.2020051217e+01   6.6139451459e+00    0.2114214    0.1924772 -11.46  0.001223887    1.067    0.063
        27  -8.8088     74.9910    163.1772   1.1180461920e+02   3.2227318659e+01    0.2077263    0.1688926 -81.51 0.0002785176    1.105    0.095
        28  -7.4244    195.6340    162.3078   8.4448189681e+01   9.8137573775e+00     0.203345    0.1686426  89.56 0.0006178714    1.692    0.409
        29  -7.4757    119.5665    161.9295   1.0107066101e+02   2.5156459944e+01    0.2029095    0.1384955 -56.16 0.0004042431    1.492    0.330
        30  -7.7199    137.9301    158.7662   9.6193564262e+01   2.2332429761e+01    0.2088411    0.1951788  -3.12 0.0007674847    1.241    0.194
        31  -7.3960    142.9550    154.2760   9.4126287122e+01   2.2284068869e+01    0.2062148    0.1845617  49.99 0.0004291885    1.078    0.073
        32  -7.9080    237.1662    152.8564   7.4641957968e+01   3.1415044531e+00     0.194256     0.149883  -1.67 0.0005047241    1.315    0.240
        33  -7.0275      8.3354    153.3174   1.2608364692e+02   4.1887063430e+01    0.1119618   0.07447484 -54.48 0.0004937893    1.697    0.411
        34  -7.0916    159.7025    148.6332   8.9102693150e+01   1.9987635464e+01    0.1546315    0.1202395  -2.60 0.0007031484    1.726    0.421
        35  -6.7913    146.6501    146.7386   9.1673103006e+01   2.3131973632e+01    0.1492757    0.1195036  11.46 0.0003897505    1.609    0.378
        36  -7.0953    230.6950    143.6563   7.3719898890e+01   5.8816645872e+00     0.148098    0.1049136   4.07 0.0005859848    1.688    0.407
        37  -7.0847     96.2213    141.6351   1.0300512901e+02   3.3909311657e+01    0.1441909    0.1038647 -87.17 0.0003272297    1.576    0.365
        38  -6.9782    228.4793    139.4952   7.3161332829e+01   7.0155278962e+00    0.1432521    0.1310011 -11.09 8.838257e-05    1.008    0.008
        39  -7.8606    167.0723    137.1569   8.4839947991e+01   2.0743805759e+01    0.2299904    0.2002233   8.50 0.0003124688    1.299    0.230
        40  -8.0815      2.4469    134.4888   1.2585367996e+02   4.6534240948e+01    0.1175464    0.0873403 -82.25 0.0001661601    1.029    0.028
        41  -8.3777      4.2352    131.0086   1.2510297350e+02   4.7197855780e+01    0.1672674    0.1158418 -80.64  0.001113048    1.088    0.081
        42  -8.7707    154.8739    113.6939   8.1796675535e+01   2.8364653404e+01    0.2622887    0.2438067 -34.67 0.0002944031    1.085    0.078
        43  -7.3394    241.4774    111.4854   6.4417519507e+01   8.9356755789e+00    0.1435439    0.1290225 -20.07 -9.031883e-05    1.045    0.043
        44  -9.7869    211.1352    109.8346   6.9097003741e+01   1.5911259225e+01    0.2788982    0.2585994 -25.48  0.000302329    1.035    0.034
        45  -7.5508    117.3900    109.9902   9.0297774006e+01   3.7326494866e+01    0.2125246    0.1859865 -50.60  0.001090604    1.104    0.094
        46  -8.3834    216.0269    106.1519   6.7294058371e+01   1.5433763784e+01    0.2631679     0.232901  21.90 0.0004448132    1.218    0.179
        47  -7.4586    214.4703     99.4445   6.5847861698e+01   1.6959189477e+01    0.1496703    0.1426255 -22.51 8.681929e-05    1.036    0.034
        48  -8.7755     99.1656     90.4904   9.0161235957e+01   4.5215322227e+01    0.3873001     0.274284  75.91  0.001700695    2.121    0.529
        49  -7.7339    156.8593     87.6463   7.4070303772e+01   3.3164248397e+01    0.2557316    0.2119416 -25.17 0.0004881043    1.273    0.214
        50  -7.7614      8.5352     83.0641   1.1786761963e+02   5.7846454515e+01    0.1760396   0.09292542 -68.41 5.000176e-05    1.465    0.317
        51  -8.6356    131.9301     74.6615   7.6157365654e+01   4.1610842011e+01     0.398058    0.2471876  24.86 0.0007754361    2.297    0.565
        52 -10.3145    114.5673     69.8295   7.9281348535e+01   4.6411229020e+01    0.2636558    0.2567221  11.97 0.0002428721    1.040    0.038
        53  -7.2205    244.6579     68.3266   5.3460956812e+01   1.5018080267e+01    0.1512273   0.09712021 -61.93 0.0007051172    1.737    0.424
        54  -7.8701    126.0906     67.8240   7.5462198198e+01   4.4239893747e+01    0.2269747     0.200596 -69.40 0.0004775445    1.296    0.228
        55  -7.2967     78.5220     67.5420   8.9690013028e+01   5.3708146551e+01    0.1407048     0.127505 -32.14 0.0002222951    1.014    0.014
        56  -9.0802    210.5166     61.7373   5.6440564955e+01   2.4133202079e+01    0.4182273    0.2646704 -29.29  0.001146368    1.603    0.376
        57  -7.3740    185.0097     52.7323   5.7934833341e+01   3.2017721150e+01    0.1988851    0.1871335  84.49 0.0002735238    1.041    0.039
        58  -7.2022    171.5410     49.4633   5.9306030157e+01   3.6010467409e+01    0.1507523    0.1444782 -82.88 0.0008078316    1.036    0.035
        59  -7.6769    159.2023     41.0526   5.8915452992e+01   4.0427402730e+01     0.196406    0.1936331 -50.16 0.0003708265    1.045    0.043
        60  -7.1412    121.7694     35.0146   6.4926835967e+01   5.0576638091e+01    0.1858853    0.1185606 -28.11 0.0003352712    1.595    0.373
        61  -7.4376    138.6261     21.2497   5.6083511071e+01   4.8183234027e+01    0.1800238    0.1350666  -4.05  0.000401967    1.501    0.334
        62  -7.5211     86.3311    247.5331   1.1876105197e+02   1.3834783927e+01    0.1448906    0.0931983  40.16 0.0009315534    1.518    0.341
        63  -6.5418    154.6835    243.6843   1.0617617000e+02   3.9368250415e+00    0.1153011    0.0850696  18.67 0.0007037544    1.649    0.394
        64 -10.1234    122.6720    242.1149   1.1179521830e+02   9.2946923351e+00    0.2093827    0.1775581  54.35 0.0002737683    1.100    0.091
