#   1 NUMBER                 Running object number                                     
#   2 MAG_AUTO               Kron-like elliptical aperture magnitude                    [mag]
#   3 X_IMAGE                Object position along x                                    [pixel]
#   4 Y_IMAGE                Object position along y                                    [pixel]
#   5 X_WORLD                Barycenter position along world x axis                     [deg]
#   6 Y_WORLD                Barycenter position along world y axis                     [deg]
#   7 A_WORLD                Profile RMS along major axis (world units)                 [deg]
#   8 B_WORLD                Profile RMS along minor axis (world units)                 [deg]
#   9 THETA_WORLD            Position angle (CCW/world-x)                               [deg]
#  10 FWHM_WORLD             FWHM assuming a gaussian core                              [deg]
#  11 ELONGATION             A_IMAGE/B_IMAGE                                           
#  12 ELLIPTICITY            1 - B_IMAGE/A_IMAGE                                       
         1 -11.3143     30.6327     20.0241   4.5071674069e+01   7.4197529430e+01    0.8631153    0.4662961 -46.29  0.004141129    1.939    0.484
         2 -11.9118     51.2876     19.7852   3.2125692401e+01   7.0268622276e+01     1.071757    0.6419539  86.44  0.003686157    4.263    0.765
         3 -12.1766     50.6503     34.9163   4.0922115969e+01   6.7812486983e+01    0.7339162    0.6048278  35.80  0.003066198    1.188    0.158
         4  99.0000     42.4556     24.2103   3.9709385809e+01   7.1346090748e+01     1.672301     1.040061 -39.06  0.008306436    1.702    0.412
         5 -14.1280      9.8650     44.3261   7.2303494061e+01   7.1262812646e+01     2.881578      1.85788  66.91   0.01430388    1.930    0.482
         6 -13.4655     14.2831     34.7970   6.5737598081e+01   7.3198628271e+01    0.9623225    0.6326227 -75.97  0.002051879    1.734    0.423
         7 -13.6291     63.5140     33.6023   3.3987684540e+01   6.5345933783e+01     1.271035    0.9125344 -43.15  0.001917574    1.473    0.321
         8 -13.5738     76.8889     21.7708   2.2801881417e+01   6.3992182216e+01     1.837353     1.061594  76.98  0.007911819    2.040    0.510
         9 -13.0297     39.3621     56.0746   5.6489322623e+01   6.5182430340e+01     2.161764    0.9090095 -52.14   0.00734606    2.292    0.564
        10 -10.3520     92.2724     34.2573   2.4008305433e+01   5.8311727621e+01    0.8245126     0.572359 -48.21  0.004001697    1.497    0.332
        11 -12.4584    174.7393     41.1949   1.1341654506e+01   3.6264251790e+01     1.396164     1.060451  57.97  0.005209493    1.512    0.339
        12 -12.7779    203.1525     35.3284   7.0092764462e+00   3.0639176337e+01     1.393461    0.2590346 -47.05  0.004578067    3.811    0.738
        13 -13.1040    208.9207     46.4691   9.2145074723e+00   2.7985401353e+01     1.567068     0.827491 -72.05  0.005579216    2.133    0.531
        14 -12.0883    189.2150     31.6637   7.2779586838e+00   3.4165881942e+01    0.7118952    0.4788582  31.24  0.001229041    2.593    0.614
        15 -12.1503     25.8362     41.1013   5.9412278224e+01   7.0518390825e+01     1.515939    0.6182325 -54.02  0.006191187    2.299    0.565
        16 -11.8372    210.8661     21.4206   3.0766529218e+00   3.0686361655e+01    0.5406179    0.4600319  15.33   0.00303851    1.828    0.453
        17 -12.7576    226.4417     22.7851   2.4606086254e+00   2.7392121566e+01    0.4416227    0.3503202  75.34  0.001551777    1.501    0.334
        18 -10.9223    103.3281     26.7460   1.7924740088e+01   5.6518335552e+01    0.5267529    0.3590118 -53.83  0.001633282    1.510    0.338
        19 -12.5926    221.5758      8.6919   3.5954552854e+02   2.9897804066e+01    0.6784304     0.197228 -50.29  0.001966255    2.353    0.575
        20 -10.8139    230.6799      1.6603   3.5762478800e+02   2.8836278265e+01    0.4377043    0.1461004 -82.51  0.002003529    3.201    0.688
        21 -12.5583    244.1503     22.4881   1.4650046753e+00   2.4119079627e+01    0.5533664    0.3359866  86.62  0.002770698    1.782    0.439
        22 -13.9023    244.5093      8.5316   3.5856530502e+02   2.5558771594e+01     1.091035    0.4071712 -70.71  0.005579952    2.621    0.619
        23 -12.5706    228.9718     10.1988   3.5955063087e+02   2.8285102554e+01    0.5509689    0.2594829 -70.42  0.001989805    1.920    0.479
        24  -8.7318     19.9357     19.1539   5.3250889037e+01   7.5948914607e+01    0.4135225    0.1958971 -48.63  0.001917473    2.087    0.521
        25 -10.5658    120.7461     16.2871   1.0383052543e+01   5.3166446416e+01    0.7218468     0.324222 -63.56  0.002564999    2.716    0.632
        26 -11.0836    108.8045      9.8683   9.6764953484e+00   5.7033442990e+01    0.5190262    0.2441249 -21.60  0.002157432    2.518    0.603
        27 -10.7887    111.2379      4.3456   6.9802032349e+00   5.6910386063e+01    0.8301355    0.2997668 -83.76  0.002513557    4.250    0.765
        28 -10.3485    118.9634      6.9907   7.0002997436e+00   5.4603740374e+01    0.2117694    0.1778882 -87.04  0.001222803    1.016    0.016
        29 -12.0385    125.1902     14.6547   9.1040393989e+00   5.2164181701e+01    0.4412629    0.2186704 -34.90 0.0007665597    1.987    0.497
        30  -9.2134    125.2095      9.8854   7.3009608193e+00   5.2658341477e+01    0.3775963    0.2654513  46.26  0.001520928    1.673    0.402
        31 -10.9982    116.2936      9.6744   8.4417197894e+00   5.5053045709e+01    0.3419914    0.2290206 -69.37  0.001054719    1.444    0.308
        32 -13.3439    215.0069     59.1434   1.1624143847e+01   2.5041134054e+01      1.25924    0.8033919 -14.36  0.006379394    2.348    0.574
        33  -9.8879    203.3414     16.6177   2.3854543716e+00   3.2825301412e+01    0.4276438    0.1870237 -82.42  0.001995915    2.418    0.587
        34  -9.6191    187.2980     14.0818   2.7864716780e+00   3.6673198576e+01    0.2397894    0.1152527 -23.13  0.001099018    2.441    0.590
        35 -10.1676     52.8063     13.3646   2.7354440129e+01   7.0847004275e+01    0.3222443    0.2236089 -78.71   0.00153608    2.168    0.539
        36 -11.1032    150.0217     13.3478   5.6798563245e+00   4.5818069897e+01    0.2889315    0.1873721 -68.23 0.0006649822    1.380    0.275
        37 -10.5054    146.7685     12.3762   5.6943731957e+00   4.6755962495e+01    0.1873908     0.121124 -40.21 0.0009688138    1.474    0.322
        38 -10.6443     88.2643     12.0516   1.4713177573e+01   6.2252750786e+01    0.2077284    0.1921972  81.80  0.000810408    1.050    0.048
        39 -12.8806    173.0547      5.9583   1.5284150413e+00   4.0871236607e+01    0.4257715    0.2993641 -16.07  0.001865093    1.822    0.451
        40 -11.2205     57.4728      4.4198   1.9504644800e+01   7.0813919831e+01    0.4522102    0.3842902 -45.10  0.002710922    1.308    0.235
        41 -11.7799     65.0706      7.1333   1.8527762603e+01   6.8684154429e+01    0.7590352    0.4271706  85.24  0.003287002    2.308    0.567
        42 -11.2848     71.9312      4.4405   1.4825088337e+01   6.7237044759e+01     0.740001    0.2972371 -47.35  0.002854966    3.014    0.668
        43 -11.2442     67.0375      1.7436   1.4611551629e+01   6.8721764604e+01    0.4780372    0.2102394  64.21  0.001723933    1.934    0.483
        44 -12.0486     78.6832      9.9293   1.6035621486e+01   6.4962451795e+01    0.3103103    0.2216446  67.53 0.0003304203    1.247    0.198
        45 -10.9377     82.4242      8.4159   1.4272162742e+01   6.4153624079e+01    0.3772086    0.1746496  51.55  0.001257297    2.027    0.507
        46 -11.0194     26.2747      9.8527   4.1389879589e+01   7.6664502020e+01    0.2671205    0.2052316   1.72  0.001057976    1.459    0.315
        47 -10.2072    101.7328      9.7265   1.0831668548e+01   5.8934142687e+01     0.238612    0.1920811  55.96 0.0005480893    1.255    0.204
        48 -11.4321    193.8843      7.8174   7.4123565964e-01   3.5851894758e+01    0.2470023    0.2199531  72.68 0.0009956098    1.391    0.281
        49 -11.3806     47.3931      8.1413   2.6453840043e+01   7.2724836582e+01    0.2941323    0.2926125  54.76  0.001024885    1.107    0.097
        50 -10.0148    215.9145      8.1705   3.5968760136e+02   3.1097401393e+01    0.1791555    0.1161041 -57.97  0.000311189    1.158    0.136
        51 -11.5176    114.9250     12.7505   9.8895271164e+00   5.5102191551e+01    0.2851549    0.2109289 -87.18 0.0003886372    1.230    0.187
        52 -11.2047      3.9340      5.6506   6.1558005585e+01   8.0349501267e+01    0.3593442    0.2052374  -8.91  0.001024531    2.027    0.507
        53  -9.3201    210.7221      6.2811   3.5949032594e+02   3.2368587638e+01    0.1271268   0.06486405 -56.98 0.0004209726    1.506    0.336
        54 -10.1668     76.8495      4.8921   1.3770925512e+01   6.5937931944e+01    0.1954907    0.1649738  43.88 0.0003928069    1.225    0.184
        55  -9.1971    188.0345      4.0072   8.1760101891e-02   3.7562161397e+01    0.1904999     0.104588 -57.47  0.001027898    1.451    0.311
        56  -9.5957    183.5590      3.6157   2.2944711738e-01   3.8629641538e+01     0.271593     0.214834 -84.83 0.0007896665    1.177    0.150
        57 -11.0090    217.9166      2.2501   3.5823996178e+02   3.1297483561e+01    0.2705152    0.1922873  86.39  0.001365185    1.449    0.310
        58  -9.6540    213.4601      2.4664   3.5847340078e+02   3.2188416466e+01    0.1714932    0.1346075 -87.15 0.0006076827    1.299    0.230
        59 -11.6163     85.2989      1.7267   1.0145559671e+01   6.4026245133e+01    0.3681644    0.1934431  56.83 0.0009867318    1.702    0.413
        60 -10.7692     46.4442      2.1738   2.2573544906e+01   7.3623557148e+01    0.3059054    0.1965088  43.12  0.001561639    1.452    0.311
        61  -9.3249    133.2307      2.6321   3.7153803528e+00   5.1234527760e+01    0.1433834   0.08258169 -55.46 0.0003114514    1.594    0.373
        62 -14.0575     37.9124     80.2454   6.4445425156e+01   5.9235283117e+01      1.89003      1.07634 -41.48  0.006728262    1.994    0.499
        63 -11.3179     86.5915     29.1597   2.3379601997e+01   6.0516666839e+01    0.4389579    0.2065185  53.04  0.001218199    1.965    0.491
        64 -10.7159     36.5123    248.9859   8.2715891706e+01   1.7503395537e+01    0.1571136    0.1118195 -89.24   0.00104743    1.636    0.389
        65 -13.4586     54.9084     71.4275   5.3585842706e+01   5.8964049906e+01     1.470726    0.9064051 -74.03  0.004936204    2.031    0.508
        66 -12.5147     51.0134     45.0492   4.5559445612e+01   6.5719592326e+01     1.049942    0.4959431  29.98  0.001993131    2.749    0.636
        67 -10.5520    180.9859    243.9630   5.1864582726e+01   1.8888281882e+00    0.1565849    0.1244669  40.22  0.001139038    1.697    0.411
        68 -10.1306    110.3949    241.2070   6.5654360913e+01   1.0519574258e+01    0.1421745    0.1169215  88.33 0.0009463445    1.679    0.405
        69  -9.6215    218.5217    239.5301   4.4911584137e+01  -1.4100174458e+00    0.1033059   0.07566312  -0.66 0.0001913216    1.029    0.028
        70 -12.6351      4.0513     56.9211   7.9162343036e+01   6.8398787433e+01    0.8448301    0.5548018 -37.64  0.004413713    1.512    0.339
        71  -9.9690     16.0224    238.4922   8.6938512032e+01   2.1472828162e+01    0.1769467   0.09420534  29.08  0.000430812    1.519    0.342
        72  -9.9059    236.7114    145.9924   2.7144139101e+01   8.7890763572e+00    0.1609818    0.1208816 -28.72 0.0003911559    1.058    0.055
        73 -12.9202     58.5950     62.2302   4.8689846715e+01   6.0508118149e+01     1.441931    0.8505348 -78.41  0.005225386    2.916    0.657
        74 -13.1519     62.0298     44.5803   3.9891207466e+01   6.3630288354e+01    0.8939981    0.5863319 -86.34  0.001980788    2.753    0.637
        75  -9.4495    184.9457    134.9763   3.2953697422e+01   1.8537921468e+01    0.1601755    0.1433529 -31.84 0.0004024642    1.015    0.014
        76 -11.5980     72.9621    119.0720   5.8461594554e+01   4.3467834063e+01    0.2488924    0.2247152  80.53   0.00126878    1.071    0.066
        77 -14.1462     77.1228     58.8794   3.9443555885e+01   5.7456022533e+01     1.111158    0.5502496  54.83  0.003121395    2.131    0.531
        78 -10.7555    181.3027    118.9046   3.0117956696e+01   2.2065160307e+01    0.2547957    0.2117253 -76.30 0.0006166525    1.425    0.298
        79 -12.6918     45.9822     54.3774   5.2147038919e+01   6.4546818963e+01    0.7559798    0.5121479   6.48  0.003304168    2.125    0.529
        80 -11.9774     75.9886     52.0928   3.7192396230e+01   5.9099752865e+01    0.2998246    0.2630032 -77.76 0.0003111562    1.202    0.168
        81 -12.7732     80.3454     48.0826   3.3877897410e+01   5.8876614309e+01    0.9507391    0.5144328  57.60  0.003899092    1.859    0.462
        82 -12.8862     79.1878     41.3084   3.1373766422e+01   6.0385001126e+01     1.249522     0.390266  48.27  0.004006747    3.083    0.676
        83  -9.9610      3.1862     95.9914   8.4233247696e+01   5.7913930210e+01     0.191719    0.1673004 -89.02            0    1.040    0.038
        84 -11.6898     54.5024     93.7362   5.9996577150e+01   5.3270322731e+01    0.3516217    0.2692567  85.69  0.001558535    1.431    0.301
        85 -12.3186     49.4364     94.9202   6.2485982733e+01   5.3714227505e+01    0.5628042    0.2591961  41.25   0.00189995    2.094    0.522
        86 -11.9134     46.4994     91.4700   6.3007500264e+01   5.5067302626e+01    0.3889236    0.3433854  20.93  0.001837352    1.222    0.181
        87 -10.3058    250.3045     93.9393   1.5594164842e+01   1.4105162923e+01    0.1775737    0.1188193 -44.27 0.0005410841    1.179    0.152
        88 -12.5400     90.6913     53.6696   3.2549304974e+01   5.5358144584e+01     1.347392    0.4828905 -44.56   0.00452177    2.855    0.650
        89 -11.4749    215.5370     91.6884   1.8925237343e+01   2.0194536879e+01       0.3286    0.2080521 -20.75  0.001713431    1.932    0.482
        90 -11.2645    212.2207     89.2262   1.8788292636e+01   2.1175980940e+01    0.2479775    0.1307886 -54.12 0.0007362535    1.931    0.482
        91 -10.1033    244.5188     97.9080   1.6960669307e+01   1.4445749211e+01    0.2825047   0.09893487 -30.91  0.001215646    2.759    0.637
        92 -10.5084    226.6194     92.0660   1.7699128034e+01   1.8186842996e+01    0.2129359    0.1619894 -83.57 0.0007207106    1.630    0.387
        93 -11.2067    179.9350     78.3033   2.0589238605e+01   2.9414244948e+01    0.4652578     0.254486 -44.45  0.002172318    1.612    0.379
        94 -10.2939    172.9314     90.7096   2.4865048376e+01   2.8803733333e+01    0.2837848    0.2101744  58.50  0.001044286    1.453    0.312
        95 -10.3235    168.1451     90.3446   2.5603282849e+01   2.9903919135e+01    0.2993291    0.2423401 -84.65  0.001599444    1.342    0.255
        96 -10.2240     79.4684     91.0743   4.9219226575e+01   4.9512517519e+01    0.2478141    0.2144857  34.39  0.001217462    1.229    0.186
        97  -9.6110     86.4072     89.7642   4.6326051664e+01   4.8424082002e+01     0.264008    0.2047902  16.47  0.001168032    1.736    0.424
        98 -11.2582     51.8201     86.9174   5.9479961720e+01   5.5498093535e+01    0.3911644    0.2302213 -36.51  0.000711993    2.201    0.546
        99 -12.0311     48.1094     85.1763   6.0737450216e+01   5.6519027382e+01    0.6848878    0.3077081  25.74  0.001914855    2.513    0.602
       100 -10.7905      6.9728     88.9241   8.1736407846e+01   5.9665517789e+01    0.2980575    0.1496057  66.61  0.001243085    2.142    0.533
       101 -11.2435    220.8013     79.6222   1.5652964666e+01   2.1030773115e+01    0.2323465     0.184778 -41.28 0.0005070624    1.076    0.071
       102 -11.8529    110.5995     87.1430   3.7796240486e+01   4.3707814024e+01    0.4822814    0.2847388  46.52    0.0018579    1.705    0.413
       103 -12.3503    114.6670     80.8263   3.4737977373e+01   4.4120851910e+01    0.6835197    0.5576743 -31.61  0.002287613    1.432    0.302
       104 -10.7107    113.0250     75.2820   3.3451974352e+01   4.5665250289e+01    0.3071834    0.2314429 -38.40 0.0007042849    1.443    0.307
       105 -10.9307    105.5022     86.4191   3.9082594091e+01   4.5032052643e+01    0.4458463    0.2843491 -69.52   0.00178208    1.991    0.498
       106 -12.4048    223.5664     87.0670   1.6972761796e+01   1.9448811715e+01    0.5756517    0.3514113  66.16  0.003276848    2.030    0.507
       107 -10.3963    248.1375     87.2025   1.4466424920e+01   1.5347721546e+01    0.1778144    0.1256037 -50.30 0.0004630593    1.220    0.181
       108 -10.9702    247.7988     83.6015   1.3776971393e+01   1.5885583244e+01    0.3259557    0.2075883 -74.07  0.001968433    2.079    0.519
       109 -10.4433    245.2115     80.5954   1.3408689473e+01   1.6702694573e+01    0.2058374    0.1395404 -51.26 0.0004783446    1.257    0.204
       110 -12.2035    235.6541     85.7375   1.5394305694e+01   1.7564250905e+01    0.5666777    0.3001405  82.30  0.002521823    3.321    0.699
       111 -12.3905    207.2444     78.9346   1.7056190231e+01   2.3687310562e+01    0.3715293    0.2700183  65.34  0.001019408    1.579    0.367
       112 -11.7637    175.7617     85.8552   2.3165637566e+01   2.9041950145e+01    0.5574738    0.3179847  38.25  0.001239938    2.513    0.602
       113 -11.8832    161.2879     84.7929   2.5386204065e+01   3.2426057709e+01    0.6319212    0.4865598  40.16  0.002511928    1.565    0.361
       114 -11.4798    147.6517     84.4956   2.7952330165e+01   3.5604772564e+01    0.4728573    0.3907516 -82.88   0.00143115    1.251    0.201
       115 -11.7848    147.2892     79.2789   2.6559042997e+01   3.6669805121e+01    0.3256018    0.2654367 -64.57 0.0002766375    1.182    0.154
       116 -10.5709    182.0922    115.1810   2.9140628775e+01   2.2580386558e+01    0.4476471    0.2742546  80.70  0.001796872    3.214    0.689
       117 -11.4454    218.9873     82.9442   1.6588733528e+01   2.0875671097e+01    0.2173309    0.1903124 -35.99 0.0004309154    1.154    0.133
       118 -11.8291    238.1593     80.8533   1.4128482799e+01   1.7824890340e+01    0.2269023    0.2009525   1.19  0.001609587    1.482    0.325
       119 -12.0017    168.9999     80.5670   2.2914574408e+01   3.1441671662e+01    0.4876638    0.3590367 -60.68 0.0008466616    1.321    0.243
       120 -10.8063    168.7879     76.3765   2.1838235469e+01   3.2209660774e+01    0.3268294    0.2243318  68.04 0.0008846116    1.550    0.355
       121 -11.8890     96.3427     70.0597   3.6696180608e+01   5.0710988059e+01    0.5948364    0.4475349 -19.91  0.002629567    1.886    0.470
       122 -11.1403     99.8616     81.0964   3.9188356132e+01   4.7501505601e+01    0.4311068    0.3349389  89.08  0.001983478    1.481    0.325
       123 -10.6176     99.7037     76.6459   3.7818873572e+01   4.8516547158e+01    0.2864107    0.2284796 -29.85 0.0004863655    1.521    0.343
       124 -10.8117     96.1198     75.5486   3.8607187593e+01   4.9580430480e+01    0.3572772    0.2711358  56.29 0.0007482288    1.285    0.222
       125 -13.7141    232.0272     74.4626   1.3375910584e+01   1.9756442791e+01     1.571842    0.9438819 -32.44  0.009130015    1.477    0.323
       126 -10.1287    203.0755    115.8340   2.5897289461e+01   1.8607399833e+01    0.3141233    0.1824074  74.32  0.001348657    3.282    0.695
       127 -13.0779    186.5908     59.8310   1.4919848642e+01   3.0868328950e+01     1.666799     0.589952  58.69  0.001178012    2.959    0.662
       128 -11.4247    247.3999     42.3206   5.3859222361e+00   2.1243145438e+01    0.8496863    0.1220732 -45.13   0.00302369    3.672    0.728
       129 -13.7282    194.6797     67.8707   1.5947064443e+01   2.7911607218e+01     1.473516    0.8363247  65.52  0.005250255    1.943    0.485
       130 -10.7798    163.2835    114.9759   3.2588850111e+01   2.6328500888e+01    0.2102973    0.1788425 -46.90  0.000619286    1.106    0.096
       131 -11.7560    137.1294    112.6654   3.7745055023e+01   3.2246992745e+01    0.4831314    0.2487602  46.12  0.001944087    1.980    0.495
       132 -12.7372    220.7607     38.5947   6.4026597962e+00   2.6616233269e+01    0.8138523    0.3305141 -59.62 0.0003284212    2.442    0.590
       133 -11.9765    233.1694     37.5359   5.2950420764e+00   2.4371776027e+01    0.5517846    0.4682159  58.15   0.00131289    1.602    0.376
       134 -12.3872    208.7116     66.9320   1.4088063804e+01   2.5179791132e+01    0.6096141    0.3236491 -43.11    0.0020092    1.528    0.345
       135 -11.3674    186.5567     37.3951   9.0409654663e+00   3.4033061641e+01    0.4537977    0.2647593  77.99 0.0004475458    1.748    0.428
       136  -9.9327    210.4278    112.0772   2.4024102996e+01   1.7928738681e+01    0.2201921    0.1633243  76.69 0.0007474505    1.837    0.456
       137 -12.3468    208.8165     58.1196   1.1998751338e+01   2.6415888995e+01    0.5058911    0.3799826 -81.42  0.002220531    1.364    0.267
       138 -13.1415    196.1152     48.2013   1.0870145984e+01   3.0454657589e+01    0.6812298    0.5490642 -80.70 0.0007986358    1.190    0.159
       139 -13.7028    242.2843     60.5392   9.5295844445e+00   1.9844490020e+01     1.287652    0.5246018 -45.53  0.003089047    1.833    0.454
       140 -12.2662    237.9065     50.9749   7.8524801176e+00   2.1837329653e+01    0.4336092    0.2180155 -50.77  0.001607426    1.574    0.365
       141 -12.8085    231.9689     46.7788   7.3929089960e+00   2.3447252581e+01    0.7465121    0.3677493  51.41  0.003836365    2.925    0.658
       142 -10.6108     82.1162     78.7062   4.4503709468e+01   5.1956629033e+01    0.3765435    0.2516721  28.61  0.001004082    1.877    0.467
       143 -12.5601     73.2336     74.3297   4.6511711155e+01   5.4824862983e+01    0.8145134     0.563558  50.16  0.002377416    1.424    0.298
       144  -9.8490    173.1205    112.3571   3.0093228649e+01   2.4845043240e+01    0.2699917    0.1252143  42.01  0.001086355    2.537    0.606
       145 -10.2887    155.6587     76.8080   2.4243846747e+01   3.5154935404e+01    0.2779126    0.2055367  71.83 0.0008539446    1.411    0.291
       146 -10.7830    103.9833     75.6651   3.6182801813e+01   4.7730789169e+01    0.2648318    0.2232838 -36.86 0.0005351552    1.325    0.245
       147 -12.2846    217.2845     75.1424   1.5038501414e+01   2.2331916843e+01    0.3089786    0.2727518 -33.31 0.0009153653    1.208    0.172
       148 -11.5438    154.8258     65.1529   2.1073142640e+01   3.7377257876e+01    0.9926299    0.4040024 -41.26  0.003809048    2.247    0.555
       149 -12.2359    145.1888     67.5227   2.3544739386e+01   3.9303777185e+01    0.7576662    0.5976822  37.33  0.002826499    1.602    0.376
       150 -10.7678    140.5666     71.8769   2.5777346028e+01   3.9645499969e+01    0.5146618    0.3071138  89.29  0.001969703    2.507    0.601
       151 -11.5767    134.5585     71.6049   2.6980224583e+01   4.1158227192e+01    0.6233966     0.433079 -78.33  0.002791095    1.710    0.415
       152 -10.8685     86.7383     74.4532   4.1435602362e+01   5.1934326375e+01    0.4509949    0.2347637 -43.31  0.001732233    2.060    0.515
       153 -12.8581    104.6543     65.6693   3.2632356271e+01   4.9633292372e+01    0.6603121    0.5281817  41.52 0.0005038567    1.378    0.274
       154 -11.3028    124.0248     69.0129   2.8598016495e+01   4.4231849981e+01    0.5604985    0.3420879 -77.12  0.001497999    2.417    0.586
       155 -13.6763    117.2802     61.5070   2.7779161466e+01   4.7317738925e+01    0.7996572    0.7073603 -45.08  0.001469624    1.193    0.162
       156 -11.4464     91.2416     66.1664   3.7020891502e+01   5.2719648878e+01     0.371701    0.3183125  -3.68  0.001490223    1.563    0.360
       157  -9.7287     79.0321     66.5491   4.1550891801e+01   5.5384507614e+01    0.2391295    0.1490802  46.02   0.00101904    1.566    0.362
       158 -10.9020    245.0860     50.1710   7.1626012799e+00   2.0680122481e+01    0.4275507    0.2561119 -54.80  0.002710259    1.361    0.265
       159 -10.5428    137.1702     58.1327   2.2217301646e+01   4.2914335005e+01    0.3550459    0.2320497 -61.03  0.001106211    1.583    0.368
       160 -10.6541    140.9241     61.7341   2.2611341541e+01   4.1361189466e+01    0.2994204    0.2292295  69.27 0.0004211225    1.284    0.221
       161 -10.2089    136.6029     62.0667   2.3580356584e+01   4.2378665368e+01    0.2755528     0.238499  89.95 0.0004673346    1.088    0.081
       162 -10.9591    127.2959     58.7432   2.4487623008e+01   4.5297130386e+01    0.4195963    0.2775432  37.74   0.00156074    2.004    0.501
       163 -11.4746     98.2915     54.9352   3.0642312325e+01   5.3267541506e+01    0.7041563    0.4481106 -68.60  0.002903074    2.032    0.508
       164 -10.8792    101.9965     53.5038   2.9013124925e+01   5.2614628606e+01    0.3416518    0.3129771 -54.02 0.0008529141    1.132    0.117
       165 -10.5706    146.6786     57.3861   2.0190823374e+01   4.0663204869e+01    0.4276811    0.2823583  -5.06  0.001166699    2.939    0.660
       166 -11.3556    162.3048     56.6361   1.7389127826e+01   3.6963201250e+01    0.4296411    0.4088693 -70.25  0.001749052    1.148    0.129
       167 -10.3423    167.8026     51.7220   1.5186969663e+01   3.6400557476e+01    0.2677499    0.2227052  29.54 0.0008999172    1.676    0.403
       168 -11.3990    174.2186     56.2385   1.5569054482e+01   3.4210900862e+01    0.4284303    0.2925608  52.21  0.001146617    1.710    0.415
       169 -10.3412    116.6283     55.1659   2.5745495371e+01   4.8629093974e+01    0.2531841    0.2186582  56.17 0.0004519172    1.195    0.163
       170 -10.5085    137.8442     52.8402   2.0384308307e+01   4.3624008941e+01    0.3476875    0.1956704  73.78 0.0009294834    1.895    0.472
       171 -10.5157    142.7131     54.3053   1.9947386770e+01   4.2156978429e+01    0.3068701    0.2351966 -57.01 0.0008744525    1.222    0.181
       172 -11.3344    145.9977     52.0652   1.8660554329e+01   4.1691549830e+01    0.2755406    0.2349384  53.30 0.0003280552    1.325    0.245
       173  -9.9760    155.3718     54.5253   1.7852488937e+01   3.8977385765e+01    0.2783514    0.1370111  64.17 0.0006294198    2.031    0.508
       174 -11.4606    188.0691     43.2989   1.0443308590e+01   3.2902022826e+01    0.4271867    0.3435503  35.03 0.0003527266    1.786    0.440
       175 -11.0636     83.0225     72.9814   4.2286758746e+01   5.3079919031e+01    0.4029258    0.3348134  45.10   0.00111067    1.205    0.170
       176 -12.7951    231.9820     57.5939   9.7449503773e+00   2.2046704144e+01    0.9406391    0.7318529  78.92  0.003724258    1.491    0.329
       177 -11.9410    149.9623     42.0763   1.4884616953e+01   4.2206771174e+01    0.6198728    0.4137202  79.15  0.001814894    1.464    0.317
       178 -10.6434    146.4557     39.5388   1.4611546451e+01   4.3460380425e+01    0.2505659    0.2445743  32.63 0.0006193449    1.292    0.226
       179 -11.9449    161.1285     40.1624   1.2724143749e+01   3.9693053910e+01    0.7699718    0.3506836  52.39  0.002469914    2.558    0.609
       180 -12.2079    160.1839     35.9176   1.1573424737e+01   4.0508898239e+01     0.612323    0.2290878  62.39  0.001901369    2.565    0.610
       181 -11.0379    142.4150     46.5573   1.7527120177e+01   4.3453785924e+01    0.2616869     0.231501  76.55 -4.825509e-06    1.130    0.115
       182 -11.1105    145.0001     44.0120   1.6276838424e+01   4.3179916746e+01    0.2224536     0.209688 -79.53 0.0003307695    1.129    0.115
       183 -10.4942    133.4981     46.4742   1.9104617605e+01   4.5748793132e+01    0.4355635    0.2638504  70.55  0.001965099    1.617    0.381
       184 -10.5174    135.4810     43.4525   1.7721129479e+01   4.5701781886e+01    0.3488024    0.2572057  85.42  0.001258784    1.315    0.240
       185 -10.8906    133.0391     40.0000   1.6984893189e+01   4.6847726151e+01    0.4385611    0.2534955  61.15  0.001475598    1.664    0.399
       186  -9.6760     99.1816     46.6760   2.7187748542e+01   5.4534100055e+01    0.2815003    0.1113701 -40.39 0.0009950629    2.563    0.610
       187  -9.8086    120.8920     44.2773   2.0879892715e+01   4.9353823738e+01    0.3758674    0.2014691 -74.07  0.001328805    2.873    0.652
       188  -9.6773    104.7648     43.3462   2.4349809601e+01   5.3673784411e+01    0.2196702    0.1287938  53.77  0.000944028    1.645    0.392
       189  -9.8685    100.1470     41.8167   2.4974856097e+01   5.5105983167e+01     0.255676     0.172406  24.55  0.001055004    2.357    0.576
       190 -10.1334    240.9585     40.2688   5.3700543247e+00   2.2620981810e+01    0.2128706     0.134443 -36.19 0.0007631593    1.332    0.249
       191 -12.6034    220.6259     69.6434   1.3453060553e+01   2.2494145719e+01    0.4546562    0.2927732 -49.90  0.002672102    1.279    0.218
       192  -9.7845    114.0192     38.9701   2.0418269517e+01   5.1965481706e+01    0.2633737    0.1678958 -73.67  0.001139046    1.852    0.460
       193  -9.8157    122.9885     36.4049   1.7585748938e+01   4.9995845383e+01    0.3078437    0.1147535  57.54  0.001114065    2.480    0.597
       194 -10.6619    131.7316     33.7732   1.5048416314e+01   4.8075362403e+01    0.2943276    0.1901532 -52.22 0.0007667926    1.486    0.327
       195  -9.6402    152.1146     33.9368   1.2016325855e+01   4.2796826549e+01    0.1673894    0.1400537 -77.51 0.0004581642    1.040    0.039
       196 -10.6992    112.5487     32.8346   1.8366801300e+01   5.3251896285e+01     0.272006    0.2294803  49.88  0.000582051    1.292    0.226
       197 -10.7546     74.9613     33.5395   2.9332833948e+01   6.2710350750e+01    0.4052967    0.2504807  58.87  0.001491879    1.542    0.352
       198 -10.4965    171.9632     32.8137   9.2879626447e+00   3.8043969523e+01    0.4676584    0.1812912  79.83  0.001789912    2.903    0.656
       199 -10.2098    121.9470     32.8520   1.6474622592e+01   5.0773133945e+01    0.2246042    0.1957007 -54.10  0.000450612    1.150    0.130
       200  -9.2374    247.3280     32.6588   3.4012183008e+00   2.2398931556e+01    0.1274336   0.05815892 -54.94 0.0002884982    1.739    0.425
       201 -10.8187    163.5510     31.0767   9.7172553097e+00   4.0314671225e+01     0.363307    0.2004735 -67.63  0.000797486    1.833    0.454
       202  -9.6507    241.8936     30.1041   3.1738225180e+00   2.3658126246e+01    0.2207331    0.1583843 -59.18 0.0008486104    1.118    0.106
       203 -10.4337    237.9118     30.5305   3.4912264066e+00   2.4331089168e+01    0.2166145    0.1429249 -75.27  0.001002338    1.452    0.311
       204 -10.9380    227.1981     30.3228   4.0947561947e+00   2.6368801290e+01    0.3979253    0.2864949  55.31  0.002550786    1.893    0.472
       205 -10.1904    165.3122    110.9427   3.1233418554e+01   2.6686567339e+01    0.2010663    0.1722063 -41.57 0.0003806698    1.111    0.100
       206 -11.1190    215.8307     25.7785   3.7862262204e+00   2.9157545544e+01    0.5922598    0.3705637  32.04  0.002892894    3.323    0.699
       207 -10.8583    219.0556     29.1293   4.3513006645e+00   2.8110172721e+01    0.3733245    0.2769995  -3.37  0.002197867    2.139    0.533
       208 -10.5526     81.4671    110.9946   5.3654856233e+01   4.4069227125e+01    0.2490794    0.1553288 -58.88    0.0010395    1.616    0.381
       209 -10.6246    152.2470     29.5524   1.0615259808e+01   4.3338530887e+01    0.2238342     0.192874 -73.61 0.0001370928    1.025    0.024
       210  -9.7344    153.4869     25.5362   9.1942574122e+00   4.3529265438e+01    0.2191862     0.138041 -64.36 0.0005862812    1.476    0.322
       211 -11.1023    159.0665     26.0597   8.7126740208e+00   4.2060283033e+01    0.4049682    0.2321566 -28.42  0.001931579    1.879    0.468
       212  -9.4246    233.4128    109.1676   2.0451588191e+01   1.4576800491e+01    0.1601434   0.09108707 -43.84 0.0001866377    1.461    0.315
       213 -10.1068    102.2912     19.5666   1.5067815429e+01   5.7701709732e+01    0.1925294    0.1586395  47.92  0.001037304    1.310    0.237
       214 -11.4315    135.4786     26.6235   1.1947880952e+01   4.8039490787e+01    0.4300787    0.3213923 -69.22  0.001568785    1.237    0.191
       215  -9.7620    132.3194     23.3142   1.1248917553e+01   4.9279967651e+01    0.1405988    0.1056217  42.22 0.0002565967    1.652    0.395
       216  -9.5818    114.4864     28.3867   1.6217712275e+01   5.3351990785e+01      0.25836    0.1537458  58.55 0.0008602882    1.595    0.373
       217 -10.9180    112.6249     23.8338   1.4770654581e+01   5.4435112913e+01     0.384004    0.2970952  30.72  0.001643772    1.677    0.404
       218 -11.3361    196.8262    108.0861   2.5141985614e+01   2.1020608387e+01    0.4667448    0.3115121 -73.72  0.002292244    2.182    0.542
       219 -11.7213    160.9786    105.5060   3.0762767431e+01   2.8624601709e+01    0.3492069    0.2437719 -59.10 0.0004268757    1.509    0.337
       220 -11.1717    235.2067     23.9234   2.2268707307e+00   2.5592541422e+01    0.3884101    0.2745926  40.36  0.002400748    2.384    0.580
       221 -11.7562    144.5426    103.1418   3.3620302482e+01   3.2631140507e+01    0.4613968    0.3620277 -29.74  0.002278188    1.445    0.308
       222 -10.5157    209.8514    104.9656   2.2571367974e+01   1.9156755685e+01    0.3409545    0.2275869 -62.61  0.001845805    1.769    0.435
       223 -10.7874     17.1335    105.5388   7.8793529222e+01   5.4362686086e+01    0.3918504     0.242763   9.56  0.001805217    1.848    0.459
       224 -10.0069    147.0513     25.7610   1.0059566808e+01   4.5144005975e+01    0.2854898    0.1862243  36.88 0.0009789453    2.239    0.553
       225 -10.5498     20.8455     24.7009   5.5632374500e+01   7.4715217032e+01    0.3511381     0.295293 -75.11  0.002076813    1.445    0.308
       226  -9.6924    109.4757    104.5295   4.2997931657e+01   4.0009122844e+01    0.1576943    0.1508154  83.41 -4.435695e-06    1.019    0.019
       227 -12.1700    176.4833     23.4504   6.1954362608e+00   3.8127264733e+01    0.3313125    0.2751201  39.11  0.001953392    1.670    0.401
       228 -13.1600    121.8283     99.8434   3.8289256846e+01   3.8367153961e+01    0.6348056    0.5060187 -34.96    0.0017906    1.410    0.291
       229 -10.6822    130.3331     19.2087   1.0059357755e+01   5.0291400281e+01    0.4065899    0.1980132  82.35 0.0008858451    2.044    0.511
       230 -13.7683    130.5592     95.3222   3.4818107460e+01   3.7374964559e+01     1.042856    0.8856334  33.44  0.005250038    1.370    0.270
       231 -11.2399    123.5977     23.0639   1.2516193329e+01   5.1615829682e+01    0.3986566    0.3740249 -55.71  0.002346241    1.165    0.142
       232 -11.8535    131.9985     83.0569   3.0991760930e+01   3.9558847052e+01    0.4904345    0.2831038 -44.13 0.0003405624    1.701    0.412
       233 -12.4768    136.1256     80.2311   2.9214351154e+01   3.9135897271e+01    0.9395413     0.618866  89.86  0.001890516    2.064    0.515
       234 -12.0836    127.1124     89.5203   3.4048727896e+01   3.9382500630e+01    0.5514232    0.2904939  47.89   0.00175176    1.938    0.484
       235 -13.1811    124.2826     86.0473   3.3759531116e+01   4.0765872932e+01    0.8562179    0.6685337   9.61  0.002030708    1.979    0.495
       236 -11.4882    225.9220    100.5281   1.9566225563e+01   1.7059635399e+01    0.3854918    0.1642898 -42.55 0.0005346358    1.898    0.473
       237 -10.4579    183.0297    102.0030   2.5929632913e+01   2.4723301224e+01    0.2032856    0.1664095   0.92 0.0004015435    1.610    0.379
       238 -11.4249     97.7457     21.8918   1.7102496132e+01   5.8616189418e+01    0.2767975    0.2184841 -43.68 0.0006548276    1.323    0.244
       239 -11.5054    202.2079     20.7958   3.4897080686e+00   3.2596562357e+01     0.336187    0.2171835 -51.82  0.001023858    1.212    0.175
       240 -12.3211    110.4819     93.0508   3.9552389465e+01   4.2420271809e+01    0.5059556    0.3298783  80.76  0.001952906    2.259    0.557
       241  -9.7660    163.2088     20.7902   6.6780599482e+00   4.1662535861e+01    0.2020784    0.1496146 -70.08 0.0003924584    1.155    0.134
       242  -9.7422    191.3333     19.8535   4.0156133353e+00   3.5107349289e+01    0.1762001    0.1589151 -84.98 0.0003450904    1.234    0.189
       243  -9.7732    194.4375     18.2374   3.3765181458e+00   3.4595343148e+01     0.194511     0.149702 -74.22 0.0008531555    1.124    0.110
       244 -10.2422    136.5133     19.1556   9.1952984567e+00   4.8671480770e+01    0.2764956    0.1622972  61.87  0.001312447    1.662    0.398
       245  -9.3052    169.5112     18.5418   5.4213543138e+00   4.0376202788e+01    0.1378191     0.110957 -68.04 0.0001195293    1.011    0.011
       246  -9.8287    116.1784     16.7771   1.1304833361e+01   5.4328793861e+01    0.1942871    0.1571498  52.00 0.0004710637    1.345    0.256
       247 -10.9217    107.4158     17.0979   1.2984547992e+01   5.6628714852e+01    0.2441781      0.17998  84.15 0.0003517028    1.243    0.196
       248  -9.8462    172.4827     16.0666   4.4525810344e+00   3.9936453592e+01    0.1896177    0.1172302 -37.33 0.0005616085    1.504    0.335
       249 -10.9522     94.2080     15.9693   1.5216269395e+01   6.0258101703e+01    0.2933906     0.176116  60.57  0.001354264    1.497    0.332
       250 -11.6343    106.9649     96.2885   4.1504114815e+01   4.2465242222e+01    0.3149837    0.2762778  22.87 0.0007512946    1.367    0.269
       251 -12.3152    102.3065     96.4318   4.2963223855e+01   4.3450093929e+01    0.6779698    0.3711998 -48.16  0.002291764    1.852    0.460
       252  -9.3158    160.0831     13.8193   4.8643114139e+00   4.3225340396e+01    0.1651937    0.1455278  68.54 0.0002624617    1.300    0.231
       253 -12.3201     95.4870     90.2333   4.3368651436e+01   4.6383436849e+01    0.6853256    0.5162094  65.72  0.001262618    1.410    0.291
       254 -10.9980    215.9284    100.3094   2.0756454846e+01   1.8807784097e+01    0.2646933    0.1621835 -32.94  0.001371655    1.462    0.316
       255 -10.7862    141.2738     14.1029   6.8682375067e+00   4.7992644572e+01    0.1822152    0.1759649 -81.00 0.0004563335    1.215    0.177
       256 -10.1004    165.5023    101.4989   2.8898813570e+01   2.8426642001e+01    0.1445819    0.1328675 -57.65 -9.917512e-05    1.007    0.007
       257  -9.9416    179.3766     11.5116   2.6450552724e+00   3.8791846886e+01     0.170577    0.1025705 -75.44 0.0009038007    1.472    0.321
       258 -10.2479    160.2810     99.8179   2.9480169376e+01   2.9858704004e+01    0.3600077    0.1570684 -46.93  0.001387372    2.186    0.543
       259  -9.1833    133.2957     11.6604   6.9471838528e+00   5.0339151439e+01     0.152011   0.08779223 -61.62 0.0007030925    1.656    0.396
       260 -12.2976    152.0086     96.8748   3.0388022219e+01   3.2233250983e+01     0.731572    0.4254237 -65.89  0.002883093    2.376    0.579
       261 -10.5316    157.5584     95.4664   2.8901195098e+01   3.1278196163e+01    0.4722746    0.1464647  53.85  0.001523441    3.442    0.709
       262  -9.7353     95.5974    100.7675   4.6284369075e+01   4.3843626987e+01    0.2275468    0.1508346 -65.37 0.0009503003    1.653    0.395
       263 -12.1154     84.6642     97.6628   4.9157979044e+01   4.6839458560e+01    0.7580711      0.56014 -23.83  0.003084989    1.919    0.479
       264 -13.7343    186.6265     92.0165   2.2972456717e+01   2.5710278563e+01     1.406729    0.5614056  41.38  0.004913767    4.013    0.751
       265 -11.2100    199.6873     96.3685   2.2068485058e+01   2.2409452914e+01    0.4854741    0.2632368 -43.95  0.001442821    1.585    0.369
       266 -13.5288    190.8890     76.2204   1.8500732860e+01   2.7413238523e+01     0.933706    0.6716557  58.58  0.004534664    1.558    0.358
       267 -13.1059    195.8523     85.6559   2.0106327383e+01   2.4889826469e+01     0.826675    0.5095106  87.12  0.003767238    2.342    0.573
       268 -11.8487    183.4932     75.8899   1.9451184257e+01   2.9039324943e+01     0.411232    0.2252334 -33.61  0.001895493    1.803    0.445
       269 -11.6359    176.2459     70.3427   1.9073986816e+01   3.1533093406e+01    0.7646675    0.3953255 -61.24  0.003040974    2.304    0.566
       270 -12.9153    199.1489     80.5235   1.8444838236e+01   2.5041716821e+01    0.6442885    0.4448356  23.91  0.002253108    2.453    0.592
       271 -10.7354    161.4342     66.9639   2.0469467148e+01   3.5498649969e+01    0.5408531    0.2431225 -46.73 0.0006225414    2.052    0.513
       272 -11.7339    166.2601     65.0138   1.9148442326e+01   3.4686437298e+01    0.7240086    0.4748358  87.31  0.003454131    1.746    0.427
       273 -10.7590    170.2692     97.7137   2.7083457278e+01   2.8115317418e+01    0.3401314    0.2381557 -52.50  0.001715804    1.358    0.264
       274 -11.7155     57.0602     99.3251   6.0234743421e+01   5.1371912740e+01    0.3886318    0.1710076  38.08  0.001422466    2.154    0.536
       275 -10.5286     46.0620     99.0132   6.4861415125e+01   5.3075426336e+01    0.2315537    0.2127796  75.53            0    1.040    0.038
       276 -12.0961     11.8903     97.1929   8.0248983288e+01   5.7074579621e+01    0.5500848    0.2441847 -62.00  0.002260956    2.046    0.511
       277 -10.1004    205.4819     98.5568   2.1755977649e+01   2.0967293509e+01    0.1307138    0.1118836 -44.13 6.250897e-05    1.011    0.011
       278 -11.0865    141.1010     96.1097   3.2545034895e+01   3.4824539268e+01    0.4019623    0.3264104  64.77  0.001882889    1.262    0.207
       279 -14.3454     64.6228     85.0325   5.3369111176e+01   5.3844696874e+01     1.765727      1.37388  53.90  0.008476232    1.285    0.222
       280 -14.2730      9.9830     67.4019   7.7183479456e+01   6.5330673353e+01     3.032118     1.491941   5.21   0.01298473    2.323    0.570
