#   1 NUMBER                 Running object number                                     
#   2 MAG_AUTO               Kron-like elliptical aperture magnitude                    [mag]
#   3 X_IMAGE                Object position along x                                    [pixel]
#   4 Y_IMAGE                Object position along y                                    [pixel]
#   5 X_WORLD                Barycenter position along world x axis                     [deg]
#   6 Y_WORLD                Barycenter position along world y axis                     [deg]
#   7 A_WORLD                Profile RMS along major axis (world units)                 [deg]
#   8 B_WORLD                Profile RMS along minor axis (world units)                 [deg]
#   9 THETA_WORLD            Position angle (CCW/world-x)                               [deg]
#  10 FWHM_WORLD             FWHM assuming a gaussian core                              [deg]
#  11 ELONGATION             A_IMAGE/B_IMAGE                                           
#  12 ELLIPTICITY            1 - B_IMAGE/A_IMAGE                                       
         1 -12.0877    107.6448     28.6137   6.5971250145e+01   5.4873266285e+01     0.615837    0.3243963 -27.91 0.0001389548    1.897    0.473
         2 -12.1829      2.0326     25.0122   1.0991356225e+02   7.1176295754e+01    0.4049985    0.1551523 -71.64  0.001965449    2.041    0.510
         3 -11.9776      5.8262     17.0724   1.0550282854e+02   7.2759232041e+01    0.5226793    0.3075933 -77.57  0.002706741    1.624    0.384
         4 -11.8881     17.7415     23.6020   1.0086006225e+02   7.0493971091e+01    0.4410769    0.2670167  46.24  0.001907172    2.125    0.529
         5 -11.2914    182.1063     19.0227   4.7650086885e+01   3.6621437326e+01     0.375727    0.2975714  13.07 0.0007492927    1.366    0.268
         6 -11.5043     65.9865     14.5443   7.3042517876e+01   6.5916969133e+01     0.479675    0.3138412 -17.43  0.002359976    1.720    0.419
         7 -11.0561    175.9872     10.9800   4.5574493426e+01   3.9125391563e+01    0.2834831    0.2068723  58.91    0.0009148    1.369    0.270
         8 -11.5784    173.3852     13.8173   4.6942370292e+01   3.9553053673e+01    0.3708549    0.2334095 -19.10  0.001641536    1.564    0.361
         9 -10.9968    169.3395     14.0686   4.7583989106e+01   4.0638901110e+01    0.3191241    0.2377272  49.58 0.0002810998    1.351    0.260
        10 -11.1248    133.0460     12.8831   5.3063134830e+01   5.0656505211e+01     0.333018    0.2570558 -31.03 0.0003036605    1.265    0.210
        11 -10.1076    127.6502     14.5098   5.4862554032e+01   5.1885616604e+01    0.2539335     0.138943 -23.28 0.0006096051    1.781    0.438
        12 -11.0671    116.7767     15.0143   5.7493136930e+01   5.4616259648e+01    0.3099747     0.225846  32.74 0.0009393276    1.453    0.312
        13 -11.2325    209.9485     12.2513   4.2276962280e+01   2.9878774735e+01    0.4974291    0.2941979  -0.94  0.002165619    1.925    0.481
        14 -10.9491    200.7729     13.1110   4.3469462210e+01   3.2205656762e+01    0.4510692    0.2046489  27.78  0.001267454    3.381    0.704
        15 -11.2340    148.2903     12.6823   5.0238899769e+01   4.6567808097e+01    0.4971619    0.1868066  50.43   0.00172019    2.560    0.609
        16 -10.8969     75.0694     12.4457   6.8431837276e+01   6.4512465151e+01    0.3091949    0.2305066 -45.31  0.001568787    1.393    0.282
        17  -9.9857     73.5009      8.6745   6.6922675944e+01   6.5398950367e+01    0.2915033     0.196082  18.70  0.001418261    1.814    0.449
        18 -10.3405    218.6211     11.9560   4.1384449662e+01   2.7678907189e+01     0.267327    0.2149873  70.23 0.0005575999    1.324    0.245
        19  -9.7027     97.7429     12.0127   6.0928840497e+01   5.9640494528e+01    0.2103793    0.1744568 -22.64 0.0004254159    1.132    0.117
        20 -11.3647     14.2976     10.7229   9.7875526769e+01   7.3557778948e+01    0.3409832    0.2372572 -40.91  0.001345591    1.256    0.204
        21  -9.3117    229.3591     10.8364   4.0139245780e+01   2.5099491997e+01    0.1878164    0.1247581  -6.37 0.0001261272    1.545    0.353
        22  -9.3349     55.6127     11.2214   7.5631870403e+01   6.8300402435e+01    0.1982814    0.1126612 -30.46 0.0009518258    1.664    0.399
        23  -9.7311      8.0917     10.7347   1.0183386232e+02   7.4006663284e+01    0.2094175      0.15606  62.18  0.001338789    1.804    0.446
        24  -9.9096      5.0000      9.9740   1.0354962422e+02   7.4364324772e+01    0.2574304    0.1492438 -69.94  0.001502413    1.512    0.339
        25 -11.0141    164.8355      8.6355   4.6156968626e+01   4.2434082444e+01    0.5655938    0.2341632 -39.90  0.002049654    2.372    0.578
        26 -11.5235    165.7243      3.5536   4.4101192227e+01   4.2669067603e+01    0.3719445    0.3149447  -0.70 0.0002427408    1.209    0.173
        27 -11.5178    160.4487      3.0976   4.4600680084e+01   4.4175187593e+01    0.5104877    0.4077611  66.63  0.001968723    1.251    0.200
        28 -10.4418    128.1673      8.6365   5.2131765509e+01   5.2431404550e+01    0.3185812    0.2003283 -18.99  0.001145102    1.569    0.363
        29 -10.9176    185.2857      8.9201   4.3735379512e+01   3.6777293958e+01      0.25758     0.211788  62.71 0.0002228685    1.235    0.190
        30 -11.0424    146.1007      8.4813   4.8870075686e+01   4.7613411736e+01    0.2688523    0.2042567  22.41  0.001286961    1.408    0.290
        31 -10.7688     49.3577      7.7846   7.6565843536e+01   6.9910260461e+01    0.5651041     0.277925  25.02  0.002256174    3.404    0.706
        32  -8.9851     37.6924      9.7408   8.3630677629e+01   7.1262852524e+01    0.1239015   0.08906414 -18.00 0.0006920928    1.522    0.343
        33 -11.4710    193.2247      8.2381   4.2640851607e+01   3.4686987236e+01    0.4387911    0.2035949  89.30  0.001578502    2.811    0.644
        34 -12.1616    195.2254      3.5454   4.0863558581e+01   3.4570746098e+01    0.6751323    0.2770896  65.07   0.00246905    2.335    0.572
        35 -10.7582    115.7436      1.9989   5.1518798665e+01   5.6388051348e+01    0.2483742     0.203872  51.92 0.0003773116    1.208    0.172
        36 -10.4003    111.8800      4.8512   5.3760466257e+01   5.7072193909e+01    0.2301454    0.2138861 -13.44 0.0003782887    1.046    0.044
        37 -11.3547    107.7329      7.7566   5.6172378751e+01   5.7777049584e+01    0.5860981    0.2570064  59.59  0.001602694    2.286    0.563
        38 -10.6265    106.8006      3.9916   5.4502041328e+01   5.8443201985e+01    0.3389041    0.2198233  -0.33  0.001228293    1.698    0.411
        39 -11.3671    208.9710      4.8607   4.0035319780e+01   3.0806187505e+01     0.415219    0.2930534 -39.43  0.001457183    1.327    0.246
        40 -11.4097     87.3050      5.7571   6.0682352516e+01   6.2857466636e+01    0.3927352    0.2387559 -24.63  0.000233313    1.536    0.349
        41  -9.9805     90.7403      1.3567   5.7238300541e+01   6.2611250268e+01    0.2362712    0.1414709  65.07 0.0003986241    1.901    0.474
        42 -11.0622     61.7997      6.3776   7.0156367968e+01   6.8002569258e+01     0.279318      0.25273 -65.72 0.0007198934    1.401    0.286
        43 -11.3426     38.8582      3.7063   7.9471945878e+01   7.2196496820e+01    0.4650151    0.3235432 -63.13  0.002487063    2.062    0.515
        44 -10.1683     24.5989      6.8312   8.9555013317e+01   7.3393484957e+01    0.2337759    0.1692475 -64.75    0.0013032    1.553    0.356
        45 -10.9516     20.6528      6.7814   9.1978331006e+01   7.3807252657e+01    0.2743153    0.1885534 -41.86 0.0006756567    1.186    0.157
        46 -11.0404    133.6337      5.7267   4.9807681911e+01   5.1282531560e+01    0.3488101    0.2574831  41.88  0.001689291    1.353    0.261
        47 -10.5015     31.1694      4.0971   8.4055045757e+01   7.3153602352e+01    0.3484399    0.1924841 -59.16  0.001148023    2.320    0.569
        48 -10.2579    119.6069      7.7442   5.3466060277e+01   5.4770918837e+01    0.2120453    0.1304898 -32.16 0.0003589138    1.567    0.362
        49  -9.8328     46.5531      4.4860   7.5954189692e+01   7.0911034319e+01    0.1892347    0.1276318  35.78 0.0001265268    1.673    0.402
        50 -10.1469     49.5419      2.5220   7.3266839245e+01   7.0748613866e+01    0.2502314    0.1973279  28.89 0.0006225503    1.384    0.277
        51  -9.7084     13.3997      3.8235   9.5194046337e+01   7.5063067134e+01    0.1605035    0.1347413 -58.48  0.001107609    1.181    0.153
        52  -9.9495    248.8373      2.8634   3.6508585004e+01   2.1160937236e+01    0.1904499    0.1695792  -1.06 0.0003625679    1.168    0.144
        53 -10.4742    218.0727      2.4219   3.8527713765e+01   2.8665524078e+01    0.2690217    0.2216044 -18.14 0.0006443907    1.159    0.137
        54 -10.1920    142.1198      3.3314   4.7336793989e+01   4.9215589042e+01    0.2554329    0.1720941  44.20 0.0008045663    1.482    0.325
        55 -10.8961     74.0459      2.1112   6.2917111265e+01   6.6205039206e+01    0.2718327      0.22273  16.07 0.0007539551    1.220    0.180
        56  -9.7233    147.8559      1.3602   4.5634407007e+01   4.7822064507e+01    0.2203955    0.1254848  56.47 0.0003872834    1.678    0.404
        57 -11.4073    180.0641      2.0656   4.1888055052e+01   3.8832925548e+01    0.3623691    0.2112076  66.87 0.0009729856    1.692    0.409
        58 -10.4180    130.0684      1.8716   4.8708027148e+01   5.2624990075e+01    0.2649865    0.1848691  81.27   0.00122975    1.610    0.379
        59  -9.6414     43.2788      1.3075   7.5609558790e+01   7.1946058556e+01    0.1557791    0.1189875  46.48 0.0008512175    1.607    0.378
        60  -9.2781    149.5123    225.5373   1.0018772553e+02   1.3331429582e+01    0.1061147   0.07696061  42.09 0.0008093675    1.005    0.005
        61  -8.8484    233.7168    250.7314   9.0390284267e+01  -3.7986478389e-01   0.09377812   0.04971181  23.21  0.000168358    1.494    0.331
        62  -9.9737    187.0261    250.4660   9.7008832214e+01   5.6691931258e+00    0.1391126   0.08263475  37.81  0.001081581    1.140    0.123
        63 -11.3163    161.0817    248.9668   1.0072781783e+02   9.2412773803e+00    0.2711712     0.191309  23.77  0.001139796    1.453    0.312
        64 -11.3856    127.4539    248.3971   1.0582531604e+02   1.3699551470e+01    0.2280979    0.2116272  76.41  0.002226693    1.421    0.296
        65 -11.0950    115.7083    249.5153   1.0772836193e+02   1.5065230884e+01    0.2758391    0.1374416  50.21  0.001989184    1.479    0.324
        66  -9.9187    111.9978    246.3339   1.0806493310e+02   1.5901474844e+01    0.1334973    0.1239554  49.72 0.0003553523    1.392    0.281
        67 -11.7489     38.8508    249.1297   1.1949857987e+02   2.3873901867e+01    0.2243515    0.1672626  43.29  0.002111342    1.417    0.294
        68 -11.6321      5.0237    238.1180   1.2426804468e+02   2.8544051646e+01    0.3293713    0.1558473  52.53  0.001837214    1.303    0.232
        69 -12.2384     11.2570    226.3668   1.2303110171e+02   2.9679301013e+01     1.384194          nan  55.21  0.005259694    6.294    0.841
        70 -11.7778     10.0713    249.1003   1.2375743558e+02   2.6599467565e+01    0.3926324    0.1784146  49.95  0.002472917    1.342    0.255
        71 -11.7144     30.1883    245.2743   1.2066944994e+02   2.5243054623e+01    0.3938746    0.1922709  33.17  0.002565813    2.142    0.533
        72 -11.6960     24.1769    249.0247   1.2168428173e+02   2.5316877896e+01    0.5886269    0.1478561  46.30  0.003407995    2.127    0.530
        73 -12.2415     16.2851    244.4399   1.2273098515e+02   2.6667459560e+01    0.5027524     0.351231  21.27  0.004196929    2.405    0.584
        74 -11.7878     13.3479    235.8280   1.2295243317e+02   2.8128261025e+01    0.3373511    0.2026218  67.29  0.003009891    1.201    0.168
        75 -11.1378     11.0381    231.2748   1.2319205926e+02   2.8985118459e+01    0.2047252    0.1478349  52.22 0.0006378586    1.252    0.201
        76 -11.7365      3.4042    230.7136   1.2435837738e+02   2.9735547810e+01    0.2996368     0.160231 -86.47   0.00154174    1.844    0.458
        77 -11.5430      2.1178    224.7970   1.2443262812e+02   3.0709058089e+01    0.1874172    0.1215269  83.60 0.0004351668    1.407    0.289
        78  -9.5869    144.1838    222.1387   1.0070518286e+02   1.4486188388e+01    0.1391841   0.09916706  54.48 0.0004681916    1.306    0.234
        79 -11.9235     84.0263    220.7312   1.1072854678e+02   2.2733556353e+01     0.165532    0.1285825  61.06 0.0003430712    1.115    0.103
        80  -9.4249     78.4317    222.4447   1.1179860815e+02   2.3174218523e+01    0.1035037   0.07005671  56.06 8.496767e-05    1.077    0.072
        81 -10.6270    228.7185    220.1034   8.7193025961e+01   2.5940212744e+00    0.1737871    0.1219783  35.33 0.0003236753    1.227    0.185
        82 -10.7609    136.0001    218.9401   1.0173737077e+02   1.6038497973e+01    0.2551582    0.2180605  76.12   0.00210245    1.392    0.281
        83  -9.3621     54.4046    221.2167   1.1577671594e+02   2.6133615111e+01     0.123211   0.07371323  76.83 0.0004409679    1.548    0.354
        84 -10.2685     30.9794    250.6013   1.2072426665e+02   2.4456852226e+01    0.1268439   0.05705635  44.00 0.0009780219    1.500    0.333
        85  -9.5351     14.0483    219.4181   1.2239016553e+02   3.0463713430e+01    0.1042235   0.07843247   9.51 0.0008039239    2.610    0.617
        86 -11.6444     90.1569    217.0282   1.0939800550e+02   2.2492605612e+01    0.5803652    0.1312463  48.92  0.002560236    3.407    0.707
        87 -10.1691     39.3560    217.7856   1.1813708975e+02   2.8255593221e+01    0.1553872    0.1371482  67.12  0.001316907    1.400    0.286
        88 -10.3109     23.9756    217.5039   1.2069639697e+02   2.9829121753e+01    0.1728476   0.09006786  70.98 0.0006181406    1.515    0.340
        89  -9.4570    175.7744    217.3904   9.4991358805e+01   1.0462334971e+01    0.1542953   0.07641556  35.25 0.0004115761    1.616    0.381
        90 -10.9796     72.9815    216.1125   1.1229805605e+02   2.4750244193e+01    0.2010112    0.1591693 -87.44 0.0003583633    1.407    0.289
        91  -9.5804     17.5277    217.0300   1.2174679496e+02   3.0508061970e+01     0.122232   0.07515381  89.88 0.0007995925    1.547    0.354
        92  -9.4924     58.6715    215.9472   1.1475405798e+02   2.6442864888e+01    0.1325454   0.09469596  63.09  0.000295511    1.079    0.073
        93 -10.6446     31.7602    216.0512   1.1933963765e+02   2.9290916752e+01    0.2192802    0.1881932 -68.82  0.001727647    1.712    0.416
        94 -10.9776     28.5367    213.4989   1.1977956821e+02   3.0002924308e+01    0.1634957    0.1194971  48.15 0.0009274148    1.281    0.219
        95 -11.7298     24.1525    208.8071   1.2034217468e+02   3.1162904562e+01    0.4745913    0.1601762  44.70  0.001962025    1.970    0.492
        96 -11.5546     17.7097    207.7388   1.2140687514e+02   3.1938996066e+01    0.1884706     0.117194  64.61 0.0003506938    1.119    0.106
        97 -10.3538    111.6377    213.8612   1.0540444784e+02   2.0103493605e+01    0.1746069    0.1175128  40.37 0.0006568402    1.246    0.198
        98  -9.9467      1.3871    204.6843   1.2409460954e+02   3.3863790915e+01    0.1295158   0.06990048  81.94 0.0005508595    1.511    0.338
        99 -11.8911      8.5541    210.7309   1.2304728626e+02   3.2291886157e+01     0.298021    0.1724766 -86.83  0.002275619    1.649    0.394
       100 -10.9005      4.8195    206.4862   1.2355984388e+02   3.3285769318e+01    0.2601712    0.1260032  83.40  0.001927903    1.732    0.423
       101 -11.6784    127.7038    209.2528   1.0214754960e+02   1.8485042402e+01    0.4703981    0.3186747   2.12  0.002651757    3.195    0.687
       102 -11.0087     13.9098    212.4397   1.2220281002e+02   3.1547382758e+01    0.1664745    0.1135847  59.50 0.0003979839    1.061    0.058
       103 -10.0934    117.9698    211.9555   1.0412068294e+02   1.9492916190e+01    0.1646496    0.1230809  48.54 0.0004743083    1.007    0.007
       104  -8.9560     52.6622    212.7245   1.1560547761e+02   2.7605476199e+01     0.082806   0.07409406  31.30 0.0003992622    1.610    0.379
       105 -10.9816     68.2413    215.0840   1.1304926619e+02   2.5467002557e+01    0.1738359    0.1221249  54.53 0.0003540854    1.033    0.032
       106 -10.8707    155.0382    209.6882   9.7489894615e+01   1.4422469924e+01    0.1637908     0.152514  37.18   0.00023782    1.229    0.187
       107 -10.8088    144.5337    208.4068   9.9134504485e+01   1.6143307557e+01    0.2859714    0.1724794 -58.40  0.001393175    2.311    0.567
       108  -9.7186     39.3226    210.1802   1.1778486129e+02   2.9431220103e+01    0.1318871    0.1095612  89.87 0.0006854676    1.403    0.287
       109  -9.1428    104.3429    209.3129   1.0626210683e+02   2.1738562969e+01   0.09760201   0.07812124  19.85 0.0007046756    1.704    0.413
       110  -9.7154     97.2558    208.8063   1.0747280895e+02   2.2762324904e+01    0.1321158     0.109093  38.08 0.0006031583    1.322    0.244
       111  -9.7735     46.9674    218.2024   1.1687298505e+02   2.7391721506e+01    0.1348035    0.1047714  22.25  0.001069365    1.954    0.488
       112  -9.5631     57.6960    203.6797   1.1417270661e+02   2.8455220132e+01    0.1844666   0.07923827  44.10 0.0005122654    1.730    0.422
       113 -10.0201    196.9852    207.2275   9.0261045838e+01   8.3821574382e+00    0.1524295    0.1029742   9.90 0.0005349991    1.637    0.389
       114 -11.3883     34.8080    204.7076   1.1831223998e+02   3.0764043171e+01    0.2301943    0.1692069  80.38  0.000866644    1.243    0.195
       115 -11.1665     67.1748    207.1076   1.1270118628e+02   2.6809765707e+01    0.2214884    0.1515105 -81.81  0.001185795    1.576    0.366
       116  -9.4953     39.8967    204.8489   1.1741983464e+02   3.0216540211e+01    0.1405945   0.08205482  61.22  0.000456323    1.259    0.206
       117  -9.8472    142.0170    203.6090   9.9013134199e+01   1.7144205499e+01    0.1585656    0.1444232  12.52 0.0007310244    1.332    0.249
       118 -10.4123    121.3070    199.8385   1.0227441453e+02   2.0725361550e+01    0.2306774    0.1655766  84.95  0.001312384    1.762    0.432
       119 -11.3335     98.0499    200.4709   1.0657370180e+02   2.3903000541e+01    0.3605779    0.1709428  36.26  0.001469188    1.966    0.491
       120 -11.1527      5.5849    200.1719   1.2325779485e+02   3.4237669017e+01    0.1601991    0.1083376  61.19 0.0002682293    1.045    0.043
       121 -10.1693     31.9128    198.9843   1.1855728803e+02   3.1987928033e+01    0.1818202     0.126171 -87.82  0.001460714    1.412    0.292
       122  -9.1556    170.2874    199.6650   9.3627391869e+01   1.3322838770e+01    0.1041645   0.08035266  63.88 0.0004634674    1.628    0.386
       123 -11.0541     59.4522    208.0620   1.1413720979e+02   2.7562920888e+01    0.3656672    0.1655885  61.13  0.002280372    1.904    0.475
       124  -9.7909     13.0391    197.2574   1.2186038066e+02   3.4064364814e+01    0.1461207    0.1182296 -81.03 0.0008836508    1.515    0.340
       125  -9.5208    128.2409    196.9828   1.0069751297e+02   2.0116233094e+01    0.1453936    0.1219148  50.54            0    1.073    0.068
       126 -11.4277    108.5693    193.6583   1.0395051731e+02   2.3482315467e+01     0.454531    0.1580034 -63.98  0.002068783    4.061    0.754
       127 -10.2989     82.4559    195.5164   1.0901166450e+02   2.6746765014e+01    0.1813345    0.1442434  63.14 0.0005394967    1.070    0.065
       128 -10.6518     37.8243    195.2319   1.1729346886e+02   3.2007435668e+01    0.2314678    0.1517777 -61.67  0.001703211    1.995    0.499
       129 -10.3532     95.4627    194.8500   1.0651876555e+02   2.5125305357e+01    0.1889556     0.129545  41.84 0.0005090391    1.278    0.217
       130  -9.3841      6.7341    194.9447   1.2290447582e+02   3.5001145069e+01    0.1336943   0.08928555  61.19 0.0004969651    1.043    0.041
       131  -9.5204     44.3540    194.4167   1.1604256856e+02   3.1452993163e+01    0.1361859   0.07200506  49.45 0.0009178679    1.412    0.292
       132  -9.4454    100.0682    192.6659   1.0544029199e+02   2.4835010210e+01    0.1491701    0.1158066  51.07 0.0005544505    1.054    0.052
       133 -10.0331     52.7192    192.9824   1.1439379697e+02   3.0770605302e+01    0.2316678    0.1243643 -64.75 0.0005312107    2.143    0.533
       134  -9.2226     49.5447    192.4907   1.1495724160e+02   3.1208608963e+01    0.1642451   0.08189164  41.71 9.976621e-05    1.645    0.392
       135 -10.2867     58.9304    190.4007   1.1304370413e+02   3.0491533435e+01    0.1940347    0.1319504 -79.87 0.0005720562    1.523    0.343
       136 -11.4037     91.6414    189.0226   1.0667707460e+02   2.6578121127e+01    0.2222168    0.1774437  82.85 0.0004435146    1.259    0.206
       137  -9.6482    165.5219    188.1550   9.2862002708e+01   1.5522468767e+01    0.2223893    0.1638619 -77.91 0.0008723957    2.319    0.569
       138  -9.5959    120.3930    189.2103   1.0124226806e+02   2.2435221731e+01    0.1406144    0.1045003 -83.05  0.000940022    1.663    0.399
       139  -8.9913    149.0069    186.9703   9.5660118757e+01   1.8332969405e+01    0.1342583    0.1085635  42.96 0.0009335582    1.003    0.003
       140 -10.6187    105.1085    186.0984   1.0379164392e+02   2.5165539578e+01      0.20907    0.1657109  55.71 0.0007195368    1.016    0.016
       141  -9.4409     75.0000    185.9640   1.0960224006e+02   2.9279805725e+01    0.1613046   0.05944391 -67.89 0.0003875447    3.005    0.667
       142  -9.9351     43.8223    184.6121   1.1554754107e+02   3.3186466931e+01    0.3074858    0.1183582 -69.77  0.001744362    2.625    0.619
       143 -10.1200     35.7927    184.5986   1.1709237225e+02   3.4035672741e+01    0.1945696    0.1482558  30.94  0.001484097    1.648    0.393
       144  -9.9590    177.8566    184.1542   9.0112783897e+01   1.4025944678e+01    0.1653274    0.1372693  42.73  0.000375619    1.140    0.123
       145  -9.2195    130.1671    184.5622   9.8835927665e+01   2.1650590600e+01    0.1522788   0.09573879  36.60 0.0009169533    1.451    0.311
       146 -11.1087     15.7340    183.1319   1.2084247766e+02   3.6228488038e+01    0.2043281    0.1503428  65.84 0.0006064159    1.069    0.065
       147  -9.3632      2.7463    183.5939   1.2328700120e+02   3.7267270821e+01     0.124618   0.06596385  50.15  0.000349726    1.399    0.285
       148 -10.4681     56.0722    181.0110   1.1290633315e+02   3.2444425271e+01    0.1985041    0.1507409  46.92 0.0009704947    1.252    0.201
       149 -10.1316     85.0690    187.1301   1.0775856463e+02   2.7773319975e+01    0.2540492    0.1412338  31.51  0.001336637    2.048    0.512
       150  -8.9064    206.2802    179.7188   8.4609585499e+01   9.8734937003e+00    0.1001063   0.08811563  56.93            0    1.510    0.338
       151  -9.1607    182.4753    179.6093   8.8609292732e+01   1.3831660315e+01    0.1189263    0.0951611  36.60 0.0001421758    1.048    0.046
       152 -12.6640     32.0893    176.5708   1.1735871377e+02   3.5838494582e+01    0.2361831    0.2120773 -75.88 0.0006952509    1.477    0.323
       153  -9.6075      4.0673    178.9248   1.2289549732e+02   3.7976229742e+01    0.1513125   0.08968548  62.69 0.0003685595    1.186    0.157
       154 -10.2966     92.0423    177.6000   1.0543006210e+02   2.8429369127e+01    0.1847579    0.1543496 -72.43 0.0006989843    1.353    0.261
       155  -9.8193     85.6412    177.7067   1.0672201371e+02   2.9293062450e+01       0.1017   0.08883841   9.57 0.0007030357    1.696    0.410
       156 -12.1746     78.6699    173.9230   1.0774920264e+02   3.0891129052e+01    0.3402797    0.1969985  72.92 0.0001762366    1.847    0.459
       157  -8.9291     74.2859    177.3006   1.0896205581e+02   3.0866732135e+01   0.09281572   0.08897509  -9.15 0.0003222154    1.555    0.357
       158 -10.0144     46.3146    177.1057   1.1456184667e+02   3.4244447344e+01    0.1987431    0.1183487  50.22 0.0005771764    1.334    0.250
       159  -9.5664     24.0772    176.7961   1.1895034282e+02   3.6581315104e+01    0.1703501    0.0971974  64.20    0.0007926    1.326    0.246
       160  -9.5764    136.5738    176.1918   9.6503124777e+01   2.1909418089e+01    0.1459116    0.1144622 -33.62 0.0006986445    1.649    0.393
       161  -9.8058    108.6614    176.4540   1.0198879651e+02   2.6218790856e+01    0.2239391   0.09142621  45.65  0.001107203    2.008    0.502
       162  -9.2529     17.4467    174.8250   1.2015839804e+02   3.7552786125e+01     0.128444   0.08059619 -73.54 0.0007822893    1.669    0.401
       163  -9.1041    157.3040    173.6725   9.2215772092e+01   1.8858401967e+01    0.1165514     0.089066  70.00  0.000515022    1.648    0.393
       164  -9.3409     87.4095    172.8026   1.0585031127e+02   2.9906113937e+01    0.1496513    0.1035923 -55.64   0.00095797    1.745    0.427
       165 -10.0174     63.2240    170.9921   1.1064344251e+02   3.3388410735e+01    0.1842646    0.1310419  52.44 0.0003901235    1.168    0.144
       166  -9.6456     42.9783    170.6045   1.1478371758e+02   3.5793353872e+01    0.2432725    0.1706375   7.04  0.001207786    2.778    0.640
       167  -9.5348    121.5076    169.8893   9.8585919844e+01   2.5327772580e+01    0.1518828    0.1191321 -62.10 0.0003552019    1.471    0.320
       168  -9.3582     19.6718    169.6989   1.1947491484e+02   3.8287042279e+01   0.08840077   0.07718749 -59.53 0.0007031528    1.643    0.391
       169 -10.0394      2.7282    166.7806   1.2275181305e+02   4.0277835263e+01    0.2353312   0.09177484 -68.81  0.001377089    2.615    0.618
       170  -9.8528     53.7883    167.1268   1.1227565515e+02   3.5227837130e+01     0.180877    0.1503346  -4.01  0.001235935    2.083    0.520
       171 -10.6028     46.4578    166.2848   1.1374556215e+02   3.6216969396e+01    0.2601201    0.1329952  50.05 0.0005449003    1.578    0.366
       172  -9.3137     61.4726    166.3882   1.1059701728e+02   3.4451450331e+01    0.1114822   0.09048986  63.80 0.0001660848    1.066    0.062
       173 -10.8718     24.4720    163.1586   1.1814401889e+02   3.9063926383e+01    0.1901793    0.1415187  62.49 0.0003023682    1.086    0.079
       174 -10.5092     75.6108    162.0530   1.0716245170e+02   3.3460132818e+01    0.2085884    0.1773477 -77.41 0.0008187712    1.268    0.211
       175 -10.4370    140.3040    160.9870   9.3519199228e+01   2.3680771211e+01    0.2197168     0.154718  49.47 0.0004285288    1.249    0.200
       176  -8.9584    126.2411    161.6082   9.6451911142e+01   2.5943048913e+01    0.1204696    0.0888043  80.68 0.0006928511    1.660    0.397
       177 -11.0655     37.3253    159.5193   1.1518382569e+02   3.8484995508e+01    0.5537879    0.1303636  48.40  0.002462571    3.121    0.680
       178 -10.7788     29.9999    154.5627   1.1642864366e+02   4.0188169593e+01    0.3607553    0.1439423  50.23   0.00182119    2.010    0.503
       179  -9.1236      4.4800    159.4935   1.2213021123e+02   4.1499846950e+01    0.1069483   0.07355531  69.19 0.0001035304    1.039    0.038
       180  -9.5591     65.7185    158.3870   1.0892034790e+02   3.5436519650e+01    0.2184593   0.08907027  42.73  0.001109588    2.076    0.518
       181  -9.2265     68.9561    155.9840   1.0796004319e+02   3.5484888478e+01    0.1377456    0.1119774  68.95 0.0009484392    1.005    0.005
       182 -10.6215    112.8638    153.7490   9.8083468230e+01   2.9498321551e+01    0.2376187    0.1776144  55.57 0.0006234482    1.190    0.160
       183  -8.9893     72.3253    154.2689   1.0702716137e+02   3.5375844148e+01    0.1013263   0.09440526  -7.67 0.0003888259    1.572    0.364
       184  -9.4975     45.7705    151.7489   1.1271382921e+02   3.9097401453e+01    0.1543566    0.1014163  68.36 0.0002852041    1.279    0.218
       185  -9.4770      1.4575    152.5629   1.2249952222e+02   4.3061208593e+01    0.1053795   0.07543786  71.85 4.636338e-05    1.008    0.008
       186  -9.1273    207.2992    151.7249   7.9468250990e+01   1.2983354659e+01     0.108862    0.0994199  73.61 0.0002399075    1.533    0.348
       187  -9.6146     72.3604    150.8609   1.0663256696e+02   3.6034100047e+01    0.1873014    0.1265396  79.56 0.0008690659    1.447    0.309
       188  -9.3771     20.3050    150.3203   1.1829432028e+02   4.1935267329e+01   0.09694429   0.07721931 -58.78 0.0003483325    1.634    0.388
       189  -8.8062    163.3343    148.2670   8.6793582266e+01   2.1579365291e+01    0.1293756   0.09343121  20.74 0.0001828926    1.587    0.370
       190 -10.4866      5.5991    147.8412   1.2140965532e+02   4.3662142425e+01    0.2496913    0.1051939  54.40  0.001501521    1.844    0.458
       191 -10.8519     13.4302    143.3347   1.1943479530e+02   4.3926095269e+01    0.2551126    0.1594164  66.62  0.001266411    1.249    0.199
       192  -9.6898      4.7513    143.0111   1.2138101186e+02   4.4685844430e+01    0.1483938    0.1034982  81.23  0.000347727    1.096    0.087
       193  -8.7375     75.5209    142.5267   1.0489486360e+02   3.7259986419e+01    0.1224739    0.1043473  72.06 0.0001507995    1.021    0.021
       194  -9.2107     21.4358    142.4333   1.1754607496e+02   4.3414243433e+01    0.1111551   0.08470054  75.52 0.0001449979    1.015    0.015
       195 -11.4492     35.5584    139.2520   1.1399780422e+02   4.2713325900e+01    0.2702321    0.2084155  58.10  0.001328162    1.168    0.144
       196 -10.7286    236.1109    137.6372   7.2036021835e+01   9.4204489737e+00     0.201051    0.1613097 -22.31 0.0007254711    1.308    0.235
       197  -9.8738     49.8658    136.2612   1.1027571991e+02   4.1785323129e+01    0.2095179     0.133646 -49.31  0.001084689    2.032    0.508
       198 -12.2985     27.8519    132.0587   1.1525823311e+02   4.4968868983e+01    0.3316127    0.3007046  64.79   0.00253967    1.264    0.209
       199 -10.3070      8.9713    132.6011   1.1987477611e+02   4.6477041488e+01    0.3213371    0.1635986 -53.04   0.00183471    2.573    0.611
       200  -9.2991    104.8968    132.8605   9.6557179465e+01   3.4742074379e+01    0.1773446    0.1377828  70.80            0    1.291    0.225
       201 -10.9312     40.4473    131.8657   1.1213505261e+02   4.3748822553e+01     0.296783     0.228454  33.03  0.000805283    1.534    0.348
       202  -9.1230    101.6432    131.7414   9.7134085536e+01   3.5498257683e+01    0.1208009    0.1031024   8.29 0.0002604387    1.618    0.382
       203 -10.1232     17.9447    131.0498   1.1760817822e+02   4.6069487282e+01    0.1681856    0.1285753  78.01 0.0003199751    1.009    0.009
       204 -10.5360     78.0216    129.2567   1.0246582874e+02   3.9627724125e+01    0.3286112    0.1756096  50.15  0.001680924    1.757    0.431
       205 -10.2743     91.7322    126.3612   9.8622365524e+01   3.8174420151e+01    0.2222696    0.1861043 -88.67 0.0002285648    1.143    0.125
       206 -10.9157     20.6538    126.5598   1.1661079381e+02   4.6784598842e+01    0.2104305    0.2045187  79.63 0.0004997097    1.376    0.273
       207  -9.4601     30.1904    125.7589   1.1413225901e+02   4.6084985136e+01     0.142798    0.1208126 -72.48 0.0004011018    1.290    0.225
       208 -11.3689      4.5829    123.8642   1.2045862128e+02   4.8630964641e+01    0.3367014    0.2631507 -52.10  0.001381638    1.674    0.403
       209 -11.0902     22.1036    120.8593   1.1578510121e+02   4.7880899586e+01    0.4577688    0.2323397 -65.69  0.002352505    1.826    0.452
       210 -11.6853      1.4580    115.9744   1.2081506638e+02   5.0524885186e+01    0.2029116    0.1039029 -86.12   0.00123034    1.537    0.349
       211 -11.5358      9.2374    118.1942   1.1892938202e+02   4.9497527198e+01    0.3146609    0.1777655 -59.94  0.000650264    1.881    0.468
       212 -11.8001     18.8598    111.2676   1.1582935547e+02   5.0252250968e+01    0.8072358    0.3684711 -63.44  0.003708111    2.006    0.501
       213 -11.4729     69.2671    123.1304   1.0377075448e+02   4.2142352478e+01     0.215389    0.1869108  80.57 0.0002654927    1.021    0.020
       214 -10.2252      5.8389    114.9248   1.1960636169e+02   5.0449007356e+01    0.1902847    0.1496472 -65.33 0.0002556439    1.413    0.292
       215 -11.0612    237.4946    121.2202   6.8320290561e+01   1.1002623234e+01    0.2407968    0.1724269  40.21  0.001407891    1.354    0.262
       216 -10.2942     92.5169    119.2431   9.7191674791e+01   3.9527778473e+01    0.2792222    0.2362877  81.18  0.001095526    1.122    0.109
       217  -9.6505     45.5230    120.0207   1.0955304745e+02   4.5745000706e+01    0.1730523    0.1428362  60.99  0.001040751    1.158    0.136
       218  -9.4761     97.7590    118.9850   9.5824246551e+01   3.8728018327e+01    0.1747213    0.1595593 -89.05 0.0002805016    1.044    0.042
       219 -11.0217     55.2713    118.0387   1.0671400969e+02   4.5045824804e+01    0.2176936    0.1647865  48.19 0.0003675864    1.314    0.239
       220 -10.3532     49.3732    117.5022   1.0821815821e+02   4.5861423979e+01    0.2536831    0.1501889  75.48 0.0006604406    1.734    0.423
       221  -9.3949    123.2848    121.0409   9.0042830937e+01   3.3822318756e+01    0.1778619    0.1645284 -87.33 0.0002839971    1.090    0.082
       222  -9.4706    108.5120    115.0227   9.2373491094e+01   3.7700141503e+01    0.1916147    0.1315103 -55.86 0.0003728544    1.479    0.324
       223  -9.5155     34.4733    115.0842   1.1194689901e+02   4.7991245221e+01    0.2270224    0.1001611  55.45  0.001119659    2.225    0.551
       224  -9.7797     60.8934    114.1161   1.0464378667e+02   4.5206175509e+01     0.199496    0.1479789  78.84 0.0005344309    1.268    0.211
       225 -10.4696     47.9016    111.5020   1.0783079501e+02   4.7357584366e+01    0.1821828    0.1581668 -73.05 0.0004779446    1.186    0.157
       226  -9.4236     31.5385    111.4815   1.1235860326e+02   4.9075657447e+01    0.1207978   0.09699111  86.31 -1.430141e-05    1.010    0.010
       227  -9.2527     92.6492    109.2157   9.5262819320e+01   4.1625613835e+01     0.184756    0.1183567 -50.15 0.0006494307    1.614    0.381
       228  -8.9821     13.3193    109.6844   1.1721754869e+02   5.1041968866e+01    0.1233176   0.06656952  66.29  0.000299842    1.655    0.396
       229  -9.2284     84.5166    108.5150   9.7292647428e+01   4.3079587406e+01    0.1334304    0.1201767  87.30 3.108258e-05    1.004    0.004
       230  -9.3669     36.6843    108.6954   1.1060386024e+02   4.9190997389e+01    0.1149686   0.08628234 -48.28 0.0006685159    1.623    0.384
       231 -10.4108     63.9616    106.5487   1.0259900026e+02   4.6484491189e+01    0.3490939    0.2109561  74.63  0.001015859    1.939    0.484
       232  -9.3054     83.8371    123.8684   1.0017607742e+02   3.9904335155e+01    0.2476396    0.1264459 -44.24 0.0009643147    2.599    0.615
       233 -10.4945     47.5310    104.4731   1.0695201103e+02   4.8977267061e+01    0.2297773   0.08958817 -57.85 0.0009252411    2.355    0.575
       234 -11.1393      4.8404    110.5691   1.1959295441e+02   5.1463066225e+01    0.3212329    0.1727932 -58.17  0.001922162    1.988    0.497
       235 -10.2210     36.1046    103.9005   1.1017593816e+02   5.0329121683e+01    0.1827124    0.1361366  75.26  0.001158042    1.197    0.164
       236  -9.6296     29.3392    103.5019   1.1208784338e+02   5.1071591622e+01    0.2038991   0.09473272 -74.12 0.0006453476    1.813    0.448
       237  -9.5298    100.5463    103.4827   9.1985290477e+01   4.1501392474e+01    0.1366925    0.1278785 -89.80 7.723213e-05    1.014    0.014
       238  -8.9602     19.2551    102.2911   1.1488228757e+02   5.2220580471e+01    0.1091169   0.07720112 -59.00 0.0006875058    1.487    0.327
       239 -10.6923    141.8924    100.9455   8.1179322456e+01   3.3948449206e+01    0.2042489    0.2001955  48.05 0.0003315828    1.009    0.009
       240 -11.4740     41.7814     99.1737   1.0786725452e+02   5.0815477863e+01    0.2870664    0.2120807  35.14 0.0004071781    1.546    0.353
       241 -10.3222      8.8253     99.2975   1.1764677427e+02   5.3678417897e+01    0.2522897    0.1360487  60.17  0.000920549    1.710    0.415
       242  -9.0771      3.9175     98.2120   1.1899455463e+02   5.4248884374e+01    0.2008408     0.146011  58.59  0.001107876    1.303    0.232
       243 -10.6755    104.4491     92.1969   8.8321958494e+01   4.3181176682e+01    0.5057934    0.2459703 -48.48  0.002141221    2.020    0.505
       244 -10.8306     54.4637     95.0326   1.0339603048e+02   5.0304962630e+01    0.3848743     0.111211 -64.01  0.001433809    3.039    0.671
       245 -10.2711     23.0465     95.9408   1.1308284873e+02   5.3345731549e+01    0.1774939    0.1397906  86.93   0.00119538    1.034    0.032
       246 -11.5924     46.7686     94.3389   1.0561920899e+02   5.1373665259e+01    0.3648052    0.2092371  42.15  0.001326098    1.805    0.446
       247  -9.5080     58.3116     94.3322   1.0210766418e+02   4.9981596304e+01    0.1281246   0.09547538 -39.44 0.0002222916    1.676    0.403
       248 -10.3067      1.5181     92.8703   1.1930948788e+02   5.5593021519e+01    0.2810076    0.1152948  89.65  0.000985319    2.036    0.509
       249 -10.7738      2.8995     87.4929   1.1846199117e+02   5.6723042802e+01    0.2292214    0.1483523 -85.18 0.0004396824    1.190    0.160
       250 -10.9879     27.8779     87.1996   1.1046956954e+02   5.4936966135e+01    0.5173732    0.2771216 -53.26  0.002193202    1.886    0.470
       251 -12.1121     21.2949     87.8488   1.1266612349e+02   5.5347605644e+01    0.2311764     0.189757  75.10 0.0002864486    1.137    0.121
       252  -9.3809     17.4861     91.4697   1.1428821433e+02   5.4817148030e+01    0.1202362   0.09511472 -86.94 0.0001397695    1.022    0.022
       253 -10.5688      6.9871     89.9290   1.1739694186e+02   5.5914954785e+01    0.2500303    0.1473411 -84.88  0.001532982    1.333    0.250
       254  -9.7391    118.0778     90.1433   8.4197902596e+01   4.0970134615e+01    0.2065654    0.1915548  16.37 0.0003809845    1.223    0.182
       255 -10.1625     87.9211     88.6883   9.2101365599e+01   4.6864407883e+01    0.2420141    0.1797753 -48.39 0.0006111873    1.351    0.260
       256 -10.2056     11.0771     85.8790   1.1571614805e+02   5.6565897640e+01    0.3360387    0.1703147  80.32  0.001806676    1.851    0.460
       257  -9.6853    123.5016     86.9933   8.1974207647e+01   4.0492941347e+01    0.2191088    0.1412369 -46.70 0.0006023531    1.538    0.350
       258 -11.0696    155.1627     85.3251   7.4082994022e+01   3.3843646596e+01    0.2484031    0.2339283 -34.85 0.0002941822    1.065    0.061
       259  -9.1437    129.6753     85.7074   8.0080480762e+01   3.9442846422e+01    0.1458306    0.1170336   9.45  0.000224131    1.617    0.382
       260 -11.9753     50.1629     83.3229   1.0258862510e+02   5.3523007971e+01    0.3639119    0.2908773   7.81 0.0006573567    1.759    0.432
       261 -10.6434     73.3098     80.9129   9.4643208790e+01   5.0938486426e+01    0.4479271    0.2383256 -44.72  0.002021427    2.021    0.505
       262  -9.3349     95.0680     82.0034   8.8347709979e+01   4.7073611392e+01    0.1664153    0.1551762  64.31 0.0004793847    1.099    0.090
       263 -10.0939     20.1365     81.6875   1.1225883702e+02   5.6866325808e+01    0.2091807    0.1382117  87.92   0.00061058    1.317    0.241
       264  -9.7741     57.7045     81.2000   9.9700348385e+01   5.3074767764e+01    0.2201137    0.1621664  18.55  0.001205586    1.845    0.458
       265 -10.3610     44.2236     80.3289   1.0397342743e+02   5.4902193321e+01    0.2337772    0.2082545 -68.95 0.0007509642    1.122    0.109
       266  -9.3858     55.2611     78.3088   9.9881236313e+01   5.4056324079e+01    0.2065353    0.1612997 -51.05 0.0004813631    1.290    0.225
       267 -10.3859     52.8938     75.4824   1.0005831922e+02   5.5008114659e+01    0.2421686     0.186817  40.39 0.0007142164    1.450    0.310
       268 -10.4470     18.3930     75.4231   1.1200449476e+02   5.8459085144e+01    0.5077024    0.1863963 -65.13   0.00222538    2.102    0.524
       269 -10.0991     29.0311     75.4640   1.0829760122e+02   5.7567858012e+01    0.4291604    0.1365257 -66.99  0.001806136    2.468    0.595
       270 -10.9130     63.2620     75.5770   9.6600517148e+01   5.3617505677e+01    0.4080647    0.2287743  50.07  0.001967265    1.974    0.493
       271  -9.4179     93.0824     74.6725   8.6929874279e+01   4.9011536914e+01    0.1878989    0.1806353  78.05 0.0003768743    1.072    0.067
       272 -10.1186     69.6523     74.1573   9.4143725821e+01   5.3016789389e+01    0.2034204    0.1762509  78.48 0.0004439503    1.190    0.160
       273  -9.1213    169.1750     72.4060   6.7437716019e+01   3.2696121075e+01    0.1991104    0.1473192  71.91  0.000251487    1.608    0.378
       274  -9.1733    138.1305     72.4224   7.4156775653e+01   4.0073545757e+01    0.1938184    0.1454936  68.71 0.0004097081    1.537    0.350
       275 -10.6115     89.0533     71.9660   8.7380242291e+01   5.0320906354e+01    0.2659609    0.1951492 -58.82 0.0003160731    1.307    0.235
       276  -9.3706     95.0217     71.5260   8.5442538175e+01   4.9326941389e+01    0.2004766    0.1424094  46.17 0.0003951013    1.486    0.327
       277 -11.2617     43.0113     70.4194   1.0239766988e+02   5.7347640317e+01    0.3872276    0.2542405 -25.46  0.001046672    2.325    0.570
       278 -10.6256    204.9649     69.5406   6.0328182097e+01   2.4452355443e+01    0.2563665    0.1979614 -23.82 0.0001924503    1.223    0.183
       279  -9.2489    101.2471     70.3897   8.3265322849e+01   4.8378157256e+01    0.1458047    0.1113006 -21.11 0.0006944312    1.666    0.400
       280 -11.2786     79.7033     69.9819   8.9755008372e+01   5.2364661584e+01    0.2229736    0.2124439  67.65 0.0002932748    1.116    0.104
       281 -11.0367     52.4248     69.6965   9.8897595423e+01   5.6406066527e+01    0.2447452    0.2034295 -88.52  0.000390955    1.176    0.149
       282 -10.4921     20.1322     40.8056   1.0475593816e+02   6.6410628035e+01    0.4814239    0.3046639  39.38  0.002833614    1.875    0.467
       283 -10.1588      4.6803     32.3988   1.1023153944e+02   6.9356967251e+01     0.356979    0.2010742 -30.22  0.002023283    2.153    0.536
       284 -12.4859      5.0166     61.2665   1.1499040338e+02   6.2640538486e+01    0.9427022    0.5140496 -60.86  0.005539379    1.542    0.351
       285 -11.4922      5.5920     38.7807   1.1112242065e+02   6.7838309146e+01    0.5396453    0.3352703  40.65  0.002226765    1.922    0.480
       286 -11.7404      7.2866     51.2202   1.1260559284e+02   6.4854183128e+01     0.429417    0.2666427 -65.68  0.001727579    1.268    0.212
       287 -11.6495     17.1748     46.9747   1.0753838602e+02   6.5204081754e+01    0.5617245    0.2501353  23.78  0.002551667    2.758    0.637
       288 -12.7524     12.4352     43.9311   1.0900282876e+02   6.6237924126e+01    0.3465028     0.187703 -62.06 0.0003635167    1.430    0.301
       289  -9.3813     64.1903     69.5761   9.4789262850e+01   5.4855582327e+01    0.1717692    0.1353097  19.56 0.0009451829    1.644    0.392
       290 -10.6803     56.6439     66.8590   9.6710076843e+01   5.6516620908e+01    0.3272175    0.2256581  85.22  0.001075855    1.773    0.436
       291 -10.3784    105.8254     67.0343   8.0908417270e+01   4.8157744814e+01    0.2393349    0.2073848  50.20 0.0004526185    1.206    0.171
       292  -9.7118     75.1901     66.1864   9.0147377605e+01   5.3942770125e+01    0.1992974    0.1775646 -42.52 0.0003370662    1.157    0.136
       293 -10.2696     15.7046     65.4325   1.1151260433e+02   6.0991645067e+01    0.2683213    0.1700385  57.59  0.001593995    1.693    0.409
       294  -9.6439     49.2782     65.2959   9.8963362141e+01   5.7811997509e+01    0.1280541   0.09236748 -40.38 0.0002045992    1.533    0.348
       295 -10.4952     31.3664     64.6550   1.0546797785e+02   5.9887122543e+01    0.3138355    0.2035085  45.01  0.001809266    1.717    0.418
       296 -13.2118     24.1352     57.8580   1.0689951128e+02   6.2119719888e+01    0.4230969    0.2726638 -65.90 0.0006245159    1.249    0.200
       297  -9.3499    203.2770     63.6230   5.8887675486e+01   2.5646931947e+01    0.1552726    0.1063476 -52.10 0.0007005552    1.702    0.412
       298 -10.0385     16.9372     60.7258   1.1027706732e+02   6.2006034808e+01    0.3092522    0.1605481  69.09  0.001533059    2.330    0.571
       299  -9.9063     98.4794     60.9440   8.1105431782e+01   5.0873953942e+01    0.2125803    0.1371095 -45.52 1.078005e-05    1.460    0.315
       300  -9.7642     73.5055     61.4130   8.9301074732e+01   5.5268798117e+01    0.2275612    0.1969566  35.35 0.0006265453    1.312    0.238
       301 -10.0482     70.4668     59.9747   8.9912637158e+01   5.6069867717e+01    0.2349312    0.2121386 -70.22 0.0003937155    1.063    0.059
       302 -10.5233     31.7312     59.0695   1.0414797673e+02   6.1160365401e+01    0.2503662    0.1887241  57.50  0.001530837    1.478    0.323
       303  -9.2193    238.4495     58.5573   5.2705808693e+01   1.8035043604e+01    0.1396219    0.1232497 -11.05 0.0001101409    1.006    0.006
       304  -9.2419     45.1353     58.4020   9.8773568559e+01   5.9898547281e+01    0.1719705    0.1155337  51.18 0.0009324283    1.705    0.413
       305 -10.2309     53.3807     56.0924   9.4985486400e+01   5.9406024968e+01    0.3572063    0.2148202 -89.01  0.001545712    2.625    0.619
       306 -10.9819     94.1854     49.8171   7.8562603854e+01   5.3971647524e+01    0.4044479    0.3312478 -14.24  0.001089069    1.426    0.299
       307 -10.1403     33.2008     54.4186   1.0248467063e+02   6.2103124382e+01    0.2450548    0.1739149  71.66  0.001402997    1.632    0.387
       308 -10.2295    151.2547     53.2836   6.4976396353e+01   4.0205780856e+01    0.2456369     0.219829  16.32 0.0003145761    1.176    0.150
       309 -11.6122     42.0878     51.7659   9.8188289133e+01   6.1776047340e+01    0.4930921    0.2868623 -34.39  0.001792597    2.191    0.544
       310 -10.6977     47.6278     46.7137   9.4423191548e+01   6.2261041876e+01    0.3527327    0.2226517 -16.64  0.001292257    2.693    0.629
       311  -9.8335     28.9490     53.4549   1.0399204634e+02   6.2729663386e+01    0.1595687    0.1257028  33.43 0.0004575072    1.520    0.342
       312 -10.1289    122.7517     51.7193   7.1089239402e+01   4.7407393127e+01    0.2985695    0.2545107  57.47  0.001536916    1.231    0.188
       313 -10.7029     65.5938     49.3953   8.8261514844e+01   5.9148355429e+01     0.285081    0.2045351 -42.25 0.0007244509    1.320    0.242
       314 -10.2235    114.5274     47.2092   7.1614949843e+01   5.0111421166e+01    0.2685894    0.1958539 -35.95 0.0006807239    1.313    0.239
       315  -9.8609     31.6085     47.9651   1.0151439719e+02   6.3753225888e+01    0.1753847    0.1318843 -63.51 0.0005882838    1.091    0.084
       316 -12.8327     13.6026     36.6571   1.0680707795e+02   6.7842795247e+01    0.3991523    0.2273909 -72.73   0.00145574    1.465    0.317
       317  -9.0717    165.2864     46.2817   5.9805954455e+01   3.7678486142e+01      0.15449    0.1158333  23.14 0.0001806812    1.522    0.343
       318 -11.1732     61.9848     44.6732   8.7988300642e+01   6.0721362356e+01    0.3605608    0.2204423 -46.60 0.0005443331    1.453    0.312
       319 -10.3316     60.6776     52.0342   9.0981391793e+01   5.9308250172e+01     0.221032    0.2028133  24.29 0.0005017736    1.274    0.215
       320  -9.9166    199.9656     43.5396   5.3317487187e+01   2.9050942473e+01    0.2213962    0.1926359 -18.35 0.0003218786    1.089    0.082
       321  -9.1865    192.5089     44.4878   5.4693055376e+01   3.0845082384e+01    0.1508915    0.1433131 -12.80 0.0008105024    1.003    0.003
       322 -10.3846     69.4058     43.1277   8.4590624961e+01   5.9871904317e+01    0.4397457    0.2790993 -17.39  0.001870394    2.610    0.617
       323 -10.3675     32.5245     43.4422   9.9868228052e+01   6.4701856361e+01    0.4515439    0.3112158  11.14  0.001603146    1.970    0.492
       324  -9.6845     39.5884     40.1750   9.5738813815e+01   6.4687141142e+01    0.2133138     0.173622 -18.47 0.0001654503    1.477    0.323
       325  -9.5916     40.8532     35.9701   9.3736284669e+01   6.5472662682e+01    0.3879194    0.2175586 -77.90  0.001660286    2.767    0.639
       326 -11.9308    103.5167     39.3229   7.1663030135e+01   5.3994589667e+01     0.414725    0.2474426 -34.20 0.0004657075    1.609    0.379
       327  -9.1398    134.9854     53.0476   6.8533980657e+01   4.4267301664e+01    0.1741329    0.1716394 -21.17            0    1.016    0.016
       328 -10.0349     91.2438     40.8177   7.6056791530e+01   5.6311435309e+01    0.2403371    0.2033113  67.18  0.001284455    1.372    0.271
       329 -10.1218    117.7704     38.7974   6.7493499787e+01   5.0823239925e+01    0.3840115     0.163984  53.66   0.00103694    2.403    0.584
       330 -10.0680     82.2490     39.1056   7.8380935581e+01   5.8402778529e+01     0.213331    0.1979338   5.69 0.0004858423    1.169    0.145
       331 -10.2803     85.9666     37.1907   7.6324374636e+01   5.8052277101e+01     0.239145    0.1897345 -38.53 0.0004279519    1.159    0.137
       332  -9.9853    156.0395     36.9768   5.8246816024e+01   4.1427302129e+01    0.2283392    0.2209647   5.12 0.0003526428    1.024    0.024
       333 -10.9844     75.2965     33.6606   7.8597735732e+01   6.0751532676e+01     0.578676    0.3681606   4.03  0.002295275    3.057    0.673
       334 -12.2427    193.9693     35.1936   5.1497706687e+01   3.1613906165e+01    0.2861964    0.2763675 -36.41 0.0003770328    1.044    0.043
       335  -9.5205    198.3888     35.2725   5.0924453350e+01   3.0452646439e+01    0.2711591    0.1608884  42.45 0.0006252137    1.811    0.448
       336  -9.5747    175.7745     35.9889   5.4464502331e+01   3.6322391927e+01    0.2291353    0.1697019 -71.43  0.001042209    1.638    0.390
       337 -10.2601    131.9522     36.2581   6.3003193126e+01   4.7761566826e+01    0.2701221    0.1883907  62.75  0.000317658    1.534    0.348
       338  -9.4747    128.5300     35.5375   6.3517117596e+01   4.8730467504e+01    0.2843705    0.1624727 -52.06  0.001119576    2.094    0.522
       339  -9.0704     55.5449     29.5344   8.4688591035e+01   6.4862295121e+01    0.2301649    0.1175788 -46.51 0.0006705947    1.693    0.409
       340 -10.7477     55.0116     33.3089   8.6494729433e+01   6.4166432305e+01    0.2483947    0.1928805 -50.78 0.0003725225    1.136    0.120
       341 -10.0707     58.2904     35.3050   8.5926298584e+01   6.3263028595e+01    0.2156114    0.1902552  -1.22 0.0006181404    1.303    0.233
       342 -10.1613     60.5349     32.5616   8.3877187283e+01   6.3480062289e+01    0.2831178    0.1991147 -49.78  0.001037599    1.277    0.217
       343 -10.1846    118.6062     33.3534   6.5070648639e+01   5.1512731694e+01    0.3541363    0.2323415 -89.08  0.001012932    2.470    0.595
       344  -9.5876     47.7569     34.3940   9.0067090399e+01   6.4949517990e+01    0.1564589    0.1276048   8.83 0.0003523822    1.515    0.340
       345 -11.0099    142.5119     30.9680   5.8635844399e+01   4.5827397857e+01    0.3894251    0.2663524 -27.23  0.000793275    1.419    0.295
       346 -10.2157     87.9310     33.2346   7.3992169163e+01   5.8394622036e+01    0.3147119    0.1730717  51.69  0.001375384    2.015    0.504
       347 -10.0957    208.7014     35.6669   4.9724466733e+01   2.7757156745e+01    0.3643902    0.1939559  22.00  0.001349955    2.711    0.631
       348  -9.7054    233.1366     31.9544   4.5899681060e+01   2.2137011203e+01     0.211046    0.1715346 -43.55 0.0003460282    1.206    0.171
       349 -10.8563    138.4433    248.3277   1.0412475292e+02   1.2284875464e+01    0.2471876    0.1353334  35.65  0.001797389    1.464    0.317
       350 -10.5219    159.0064     30.3471   5.5265875789e+01   4.1535717122e+01    0.2896687    0.2192474 -24.67 0.0005608594    1.286    0.222
       351 -10.2176     33.4073     30.0474   9.5085049487e+01   6.7610949815e+01     0.361697    0.2024943 -70.80  0.001753037    2.044    0.511
       352 -10.0612     24.6895     30.9889   9.9718433545e+01   6.8261535979e+01    0.1880875    0.1792067 -45.67  0.000692482    1.184    0.156
       353 -10.4122    211.1016     29.1620   4.7431795162e+01   2.7867548867e+01    0.4270778    0.1933036  29.55  0.001188813    3.459    0.711
       354  -9.9090    105.9761    250.0000   1.0926703981e+02   1.6218906696e+01    0.1578151   0.03844827  40.34 0.0004135614    2.834    0.647
       355 -10.8196     14.9832     18.3406   1.0053056681e+02   7.1866026872e+01    0.2452043    0.1476576 -47.61 0.0003905169    1.370    0.270
       356  -9.8229     78.0202    247.8574   1.1345532085e+02   1.9814285762e+01     0.189178    0.1038958 -89.29  0.001112298    2.283    0.562
       357 -10.5596     19.0894     29.1135   1.0195889366e+02   6.9157004050e+01    0.2787877    0.1874003 -86.08  0.001105145    1.674    0.403
       358 -10.1612     73.4921    244.4406   1.1396575235e+02   2.0769709241e+01    0.1681934    0.1062662  61.10 0.0005650354    1.245    0.197
       359 -10.1679    181.5826     28.2077   5.0906458264e+01   3.5728128089e+01    0.3594655    0.2233547 -21.23  0.001122955    1.569    0.363
       360 -10.9062     70.8383     28.9563   7.8209196029e+01   6.2455841983e+01    0.2958767    0.2079189  52.29  0.001527512    1.669    0.401
       361 -11.7257     48.6131     26.6949   8.6530196910e+01   6.6445674113e+01    0.3967277    0.2849075  75.91            0    2.265    0.559
       362 -10.3434    165.5291     26.9478   5.2909422472e+01   4.0210222413e+01    0.4183089     0.210698 -86.79  0.001300635    3.685    0.729
       363  -9.7437     99.8600     27.3651   6.7647512197e+01   5.6856849304e+01    0.2044092    0.1318585  41.26  0.000643734    1.664    0.399
       364 -10.0748     10.1181     22.3862   1.0468659463e+02   7.1313269516e+01    0.1867936    0.1184226  29.72 0.0006424256    1.949    0.487
       365 -10.4198    205.3458     24.9677   4.6780696535e+01   2.9798718587e+01    0.5019329    0.2473772  26.12  0.001770168    3.002    0.667
       366 -10.2620     38.7232     26.1744   9.0977387438e+01   6.7839154366e+01    0.2343821    0.1574522 -16.13  0.001223838    2.022    0.506
       367 -10.3900    221.1636     28.8680   4.6233571847e+01   2.5367481175e+01    0.2404153    0.1834588 -49.17  0.001244279    1.331    0.249
       368 -10.6436    190.0550     20.2737   4.7068900453e+01   3.4341064497e+01    0.4630052     0.246755  16.10  0.001321765    2.701    0.630
       369 -10.4220    192.8280     17.1861   4.5695683943e+01   3.3919470939e+01    0.2410505    0.2137781  -0.41 0.0003827979    1.143    0.125
       370 -11.2031    176.4949     21.8002   4.9390506865e+01   3.7840667961e+01    0.4276276    0.2136497  42.06  0.001235348    2.213    0.548
       371 -11.5106     76.2705    241.4984   1.1336005717e+02   2.0832016389e+01    0.2666527    0.1310834  58.49 0.0007298934    1.639    0.390
       372 -10.1039    169.8189     23.1818   5.0862708960e+01   3.9497943410e+01    0.2305689    0.2014169 -53.01 0.0004010542    1.184    0.156
       373 -10.0922    153.7700     22.9782   5.3393895184e+01   4.3879898608e+01    0.2356714    0.2002055  18.94 0.0004421019    1.235    0.190
       374 -12.2406    116.9138     22.4130   6.0811291569e+01   5.3578849894e+01    0.3061948    0.2424769 -25.99  0.001537488    1.210    0.174
       375 -10.0224     62.4370     22.9282   7.8757789427e+01   6.5050970713e+01    0.2492218    0.1873906  16.83  0.001337018    1.629    0.386
       376 -10.9100     27.1213     21.4428   9.4963664501e+01   7.0124160028e+01     0.331939     0.184229 -31.75   0.00119895    2.096    0.523
       377 -10.6752    226.9792     22.0612   4.3636300786e+01   2.4623401683e+01    0.2201289    0.2047196 -18.99 0.0006871584    1.030    0.029
       378 -10.2182    132.6528     21.9831   5.7039837638e+01   4.9630024118e+01    0.2785053    0.2155465 -67.93 0.0009994763    1.548    0.354
       379  -9.5087     89.8275     20.8865   6.7716371199e+01   6.0111592628e+01    0.4306156    0.1325962 -41.98  0.001389418    3.239    0.691
       380  -9.8854     40.8046     21.6189   8.7978776789e+01   6.8526664397e+01     0.194609    0.1587071 -36.37 0.0001790432    1.104    0.094
       381 -10.4655    219.6100     19.8160   4.3674875453e+01   2.6676590750e+01    0.2201238    0.1130177 -32.84 0.0009468318    1.721    0.419
       382 -10.7309     36.2244     21.5667   9.0253576150e+01   6.9102585129e+01    0.2934264    0.2227942   9.98 0.0002005623    1.639    0.390
       383 -10.3272    199.0341     18.5250   4.5426158401e+01   3.2127854641e+01    0.2500317    0.2067951  18.48  0.001245936    1.292    0.226
       384  -9.6179    101.8323     19.1493   6.3278315269e+01   5.7679965821e+01    0.2081105    0.1880122 -44.10 0.0003439176    1.151    0.131
       385 -10.7967     65.3086     18.9942   7.5635225521e+01   6.5270411792e+01    0.2078581    0.1795737 -26.49 0.0002944011    1.040    0.038
       386  -9.3843    210.5113    246.5064   9.3158538902e+01   2.9096130238e+00   0.09915613   0.06649303  31.46 -0.0001213239    1.013    0.013
       387 -10.2696    166.0348     17.9434   4.9500716112e+01   4.1127605497e+01      0.25295    0.1699748  31.43 0.0005354885    1.659    0.397
       388 -10.1780     45.9007     17.6767   8.3603607078e+01   6.8622658144e+01      0.30146    0.2141669  73.40  0.001332385    2.492    0.599
       389  -9.7459     22.6968     16.6149   9.5395484270e+01   7.1581144519e+01    0.2997196    0.1758173 -17.75    0.0015041    2.443    0.591
       390 -10.4562    229.9108     16.1564   4.1644403614e+01   2.4473832318e+01    0.2192583    0.1684301 -44.90 0.0004001693    1.243    0.196
       391 -11.7588    201.7153    244.7387   9.4231140506e+01   4.2149782475e+00    0.2362162     0.136047  34.44 0.0005831945    1.190    0.159
       392  -9.1744    148.6849    246.3187   1.0236934337e+02   1.1152471033e+01   0.09644336   0.05966217  56.46 0.0006196988    1.652    0.395
       393  -9.9959     97.4853    245.0385   1.1024362719e+02   1.7856375840e+01    0.1127253   0.09107698 -82.81 0.0009913029    1.572    0.364
       394  -9.4645    106.4812    244.4745   1.0879098870e+02   1.6814327840e+01   0.09906529   0.06760556  48.62 0.0001686708    1.003    0.003
       395 -10.3618     62.6720    243.1751   1.1558835619e+02   2.2150686116e+01    0.1692128   0.08852484  55.88 0.0004750449    1.351    0.260
       396 -10.3190    145.8357    242.8328   1.0248706540e+02   1.1901609167e+01    0.1433183    0.1034515  35.31 0.0005088004    1.179    0.152
       397 -10.6414     91.7670    242.2540   1.1095629866e+02   1.8898497893e+01     0.184964    0.1116164  52.11 0.0003997571    1.170    0.145
       398  -9.8631    185.4301    242.1989   9.6359876411e+01   6.6228248245e+00    0.1029131   0.09735139 -66.19 0.0007507202    1.693    0.409
       399 -10.5368    179.6565     13.8411   4.6139073467e+01   3.7831467617e+01    0.2664379    0.1986496  54.22 0.0007415657    1.351    0.260
       400  -9.8781     89.0229     13.9078   6.4489171150e+01   6.1353436081e+01     0.208297    0.1945466  -5.09  0.000306108    1.031    0.030
       401 -10.8709    110.3099    241.1132   1.0793365479e+02   1.6739353912e+01    0.2276201    0.1376286  64.19  0.000965032    1.696    0.410
       402 -10.0608     55.1340    241.3961   1.1667880111e+02   2.3210099553e+01    0.1769364   0.09613572  79.85  0.001081306    1.867    0.464
       403 -11.8539      4.3216    246.2949   1.2453706923e+02   2.7480536606e+01    0.4544331    0.3514383 -28.61  0.003726873    3.460    0.711
       404  -9.8736     51.4647     13.0610   7.8546673008e+01   6.8651407295e+01    0.2148149     0.115179 -40.95  0.001038067    1.613    0.380
       405 -10.4813    247.4582    240.3117   8.7224311132e+01  -1.3923943179e+00    0.1803759    0.1328459  55.94  0.001347729    2.601    0.616
       406 -10.0868    197.6942    240.4592   9.4335049440e+01   5.1201869641e+00    0.1671088    0.1033023  44.44 0.0004216556    1.397    0.284
       407  -9.7265     31.9968     12.5101   8.8217114825e+01   7.1441071004e+01    0.1673809    0.1266034  25.23  0.001024434    1.569    0.363
       408  -9.2237     26.4253     12.4855   9.1364333240e+01   7.2067743790e+01    0.1271346    0.1010489 -44.61 3.554162e-05    1.014    0.014
       409 -10.1936    134.1719    240.8451   1.0413338723e+02   1.3672393439e+01     0.126758   0.09429458  32.15 0.0003586607    1.315    0.239
       410 -10.3972    119.4104    240.8308   1.0646687993e+02   1.5607018358e+01    0.1630712   0.08410069  40.00 0.0002886054    1.433    0.302
       411 -10.3530    138.0800    239.8682   1.0342916385e+02   1.3263118931e+01     0.151643    0.1075701  44.56 0.0002874116    1.025    0.024
       412 -10.9275    143.1514    237.8151   1.0243715310e+02   1.2812219117e+01     0.470758    0.1007072  42.59  0.002122198    3.224    0.690
       413 -10.0853     33.6540    239.7118   1.1994857069e+02   2.5661463750e+01    0.1438284    0.1134975  57.64  0.001067681    1.288    0.224
       414  -9.8508    167.8265    238.2883   9.8622539430e+01   9.3989678230e+00    0.1422475    0.1255365  53.03 0.0007644249    1.376    0.273
       415  -9.9777     93.7925    234.4659   1.1009372075e+02   1.9650405326e+01    0.1488213    0.1210865  84.58 0.0005427841    1.405    0.289
       416  -9.8042    105.8670    235.3730   1.0820276761e+02   1.8016074843e+01    0.1270749   0.09813571  37.35 0.0001662066    1.316    0.240
       417 -10.5428     96.4357    238.9229   1.0998429640e+02   1.8749516223e+01    0.2601657   0.09118419  49.46 0.0008959337    2.073    0.518
       418  -9.8246    101.6319    235.8713   1.0892597749e+02   1.8489608459e+01    0.2715069    0.1913257 -24.63  0.001835975    3.217    0.689
       419  -9.8812    220.6799    238.3261   9.0724563070e+01   2.2161091569e+00    0.0872711   0.06772143  48.08 0.0006693876    1.681    0.405
       420  -9.4915     84.3019    238.3631   1.1188929097e+02   2.0296128520e+01    0.1418328   0.06025249  46.89 0.0006864472    1.595    0.373
       421  -9.2537     63.4611    238.5041   1.1522198834e+02   2.2686475190e+01   0.09761734   0.06394594  55.15 -3.608805e-06    1.034    0.033
       422  -9.5371     46.6319    238.4671   1.1787772395e+02   2.4511200762e+01    0.1141033   0.06444646  69.96 0.0001193267    1.490    0.329
       423  -9.7001     44.1535    236.0439   1.1816336288e+02   2.5104695457e+01    0.1586092    0.1242481  89.44  0.001481385    1.468    0.319
       424 -10.1238    187.2388    235.9262   9.5386139889e+01   6.9583196925e+00    0.1010294   0.08497455 -24.32 0.0008748593    1.599    0.375
       425 -11.1883     17.9309    233.1430   1.2217225251e+02   2.8090279327e+01    0.2258607    0.1402446  55.51  0.001211078    1.059    0.056
       426  -9.5915    230.5406    233.2043   8.8669735317e+01   1.3054299367e+00    0.1228166   0.07691079   4.47 0.0004823047    1.627    0.385
       427  -9.2131    197.3188    233.6490   9.3595723255e+01   5.7773555190e+00   0.09272832   0.06968752  55.40 0.0007047727    1.740    0.425
       428  -9.5984    173.4736    233.4797   9.7228344521e+01   9.1052083217e+00    0.1041384   0.07336759  35.69 8.704714e-05    1.039    0.038
       429  -9.5979    219.2838    232.6524   9.0220066020e+01   2.8574970688e+00    0.0857271   0.07081594  47.82 0.0003758005    1.649    0.393
       430 -10.1504    143.6808    232.2406   1.0181460995e+02   1.3370427405e+01    0.3991214   0.08808438  43.60  0.001778225    3.203    0.688
       431 -10.9919     40.9217    231.0679   1.1846548307e+02   2.6140269573e+01    0.2778471     0.124011  65.83  0.001663125    1.858    0.462
       432 -10.8559     29.5252    231.0225   1.2028242095e+02   2.7290829804e+01    0.1729521    0.1204363  69.62 0.0005814803    1.179    0.152
       433  -9.9399    243.8438    231.1591   8.6529282572e+01  -2.9122401383e-01      0.13733    0.1028254  26.98 0.0004022012    1.230    0.187
       434  -9.0865    159.5907    230.5604   9.9096499041e+01   1.1350719521e+01    0.1030915   0.07453588  41.86            0    1.050    0.048
       435  -9.6139    152.3605    230.2803   1.0022266464e+02   1.2391415976e+01    0.1022801   0.06535155  25.59 0.0002778828    1.670    0.401
       436  -9.7388    112.5249    223.9151   1.0616088131e+02   1.8626314168e+01    0.1566562    0.1029673  46.29 0.0004504693    1.108    0.097
       437  -9.8542    110.1277    220.8363   1.0629540791e+02   1.9355601021e+01    0.1529875    0.1153884  49.43 0.0003514922    1.041    0.039
       438  -9.8888    111.3049    227.6796   1.0668833261e+02   1.8296434603e+01    0.1731749    0.1057797 -78.47  0.001213717    2.304    0.566
       439 -10.2676    108.6244    225.2673   1.0693083615e+02   1.8964698622e+01    0.1879658    0.1392321  31.73  0.000549498    1.463    0.317
       440 -11.7564     47.5264    231.2522   1.1741152776e+02   2.5424337490e+01    0.3049355    0.1200564  57.65 0.0008725894    1.896    0.472
       441  -9.8964     93.6117    228.2137   1.0966754454e+02   2.0502150879e+01    0.1130251    0.0924587 -60.35  0.000956508    1.700    0.412
       442 -10.8529     73.0306    226.2391   1.1295464991e+02   2.3281289034e+01    0.3049195    0.1048927  50.77  0.001349606    2.098    0.523
       443  -8.6660     55.4660    228.4946   1.1598616885e+02   2.4960552487e+01   0.09735966   0.06756344  56.14 2.872696e-06    1.031    0.030
       444  -9.2680    175.2784    227.6326   9.6286643728e+01   9.4493865657e+00   0.09483241   0.07098283  60.08 0.0007010539    1.682    0.405
       445 -10.0234    153.2637    226.4395   9.9673531640e+01   1.2698539012e+01    0.1480026    0.1330929  41.30 0.0004329447    1.241    0.194
       446  -9.4359     19.6254    225.7200   1.2168177349e+02   2.9009085018e+01    0.1228105   0.06364811  76.44 0.0007799889    1.606    0.377
       447  -9.3866    164.5000    225.5172   9.7760247186e+01   1.1207485378e+01    0.1062498   0.07708519  39.76 6.978922e-05    1.021    0.020
