#   1 NUMBER                 Running object number                                     
#   2 MAG_AUTO               Kron-like elliptical aperture magnitude                    [mag]
#   3 X_IMAGE                Object position along x                                    [pixel]
#   4 Y_IMAGE                Object position along y                                    [pixel]
#   5 X_WORLD                Barycenter position along world x axis                     [deg]
#   6 Y_WORLD                Barycenter position along world y axis                     [deg]
#   7 A_WORLD                Profile RMS along major axis (world units)                 [deg]
#   8 B_WORLD                Profile RMS along minor axis (world units)                 [deg]
#   9 THETA_WORLD            Position angle (CCW/world-x)                               [deg]
#  10 FWHM_WORLD             FWHM assuming a gaussian core                              [deg]
#  11 ELONGATION             A_IMAGE/B_IMAGE                                           
#  12 ELLIPTICITY            1 - B_IMAGE/A_IMAGE                                       
         1 -14.9046      3.2816    127.5846   1.4221849308e+02   4.8255547480e+01     6.072391    0.6824037 -70.06    0.0173044    6.139    0.837
         2 -13.4032    199.7833     27.0134   6.7041451766e+01   3.2209622276e+01     1.385354     1.249529  43.32  0.006965288    1.318    0.241
         3 -13.4443    214.8969      8.7757   6.0989656266e+01   3.0674965835e+01    0.9733212    0.7697843  70.17  0.003272309    1.210    0.174
         4 -10.8193      3.0404      3.7682   1.1302653485e+02   7.1853227914e+01    0.2794152    0.1295722 -32.08  0.001820263    1.650    0.394
         5 -11.5852    150.5892    248.1422   1.2571304273e+02   2.0024286297e+00    0.3844109    0.1498929  45.99  0.001705846    2.127    0.530
         6 -10.4552    249.5259    249.5263   1.0762628496e+02  -1.4258798627e+01    0.1714416     0.149628 -43.36  0.001214522    1.730    0.422
         7 -11.2388    139.3353    248.9888   1.2795824282e+02   3.7847211382e+00    0.3685309    0.2229539 -58.73  0.002051711    1.992    0.498
         8 -11.3296    125.0166    250.0349   1.3078007237e+02   6.0137643338e+00    0.5432853    0.1240516  45.68  0.001924363    3.479    0.713
         9 -11.6268     99.1812    248.1868   1.3535800774e+02   1.0523764799e+01    0.3857207     0.340809   8.05  0.002545229    1.816    0.449
        10  -9.2475     66.3003    250.4130   1.4142760029e+02   1.4992825779e+01    0.1634492   0.08421433  53.80 0.0008743909    1.544    0.352
        11 -11.5824     46.8509    248.3990   1.4457545637e+02   1.7965641905e+01    0.6313308    0.3577302  32.55  0.003616041    2.494    0.599
        12 -12.9003      5.5862    248.0570   1.5113484910e+02   2.2791031072e+01      1.19594    0.6614082  58.13  0.007494653    1.399    0.285
        13 -12.5442     18.6057    241.5462   1.4874659052e+02   2.2613733247e+01    0.6044355    0.4163353 -74.87  0.004237323    1.484    0.326
        14 -12.9296     11.5652    239.9588   1.4977566195e+02   2.3670968396e+01     1.588372    0.5214687  85.44  0.006965619    3.647    0.726
        15 -11.4093     29.1791    248.4363   1.4747503598e+02   2.0123428429e+01    0.3935952    0.2730688 -86.47  0.001602012    1.269    0.212
        16 -12.8943     34.6065    244.3301   1.4632155603e+02   2.0247666291e+01     0.799257    0.5868343  62.87  0.005919267    1.179    0.152
        17 -10.5622    198.5694    245.7281   1.1625403107e+02  -5.8304113920e+00     0.220425    0.1203969 -34.66  0.001150944    2.174    0.540
        18 -10.5941    162.2144    249.5904   1.2370378450e+02  -2.2781743684e-01    0.2541096    0.1009326  45.37     0.001042    2.094    0.523
        19 -13.1648     45.6200    215.3934   1.4211025404e+02   2.4652231857e+01     1.130706    0.7442907 -81.62  0.006437061    1.307    0.235
        20 -12.9794     30.2287    233.1272   1.4627948852e+02   2.2918143986e+01    0.3026516    0.2379006 -88.17 0.0007532411    1.239    0.193
        21 -14.0309     35.1599    227.0220   1.4497879714e+02   2.3547145234e+01    0.8009015    0.5314272  69.80  0.002427668    1.179    0.152
        22 -11.9662     89.4171    226.9850   1.3488892986e+02   1.6099657859e+01    0.8144374    0.1666405  50.43  0.002435531    5.051    0.802
        23 -12.2136    111.7669    231.6528   1.3107888340e+02   1.1575722834e+01    0.5821221    0.1764271  46.37  0.002255217    2.776    0.640
        24 -11.1357     50.0784    235.7769   1.4304335157e+02   1.9960711561e+01    0.2606671    0.1903942  62.97 0.0009934084    1.135    0.119
        25  -9.6301    173.7745    222.8852   1.1739849338e+02   2.1670008981e+00    0.2782065    0.1436305  50.52  0.001258447    1.913    0.477
        26 -11.7926     57.3632    212.0049   1.3953658748e+02   2.3849418651e+01      1.10229    0.3035654  57.54  0.003270008    5.882    0.830
        27  -8.7974    152.5015    213.0674   1.2013865980e+02   7.9192773959e+00    0.1787121    0.1388996 -53.90 0.0002894604    1.427    0.299
        28 -12.3859      9.8677    207.1216   1.4801335268e+02   3.0338848168e+01    0.6065196    0.4148064  33.37  0.003122795    1.931    0.482
        29 -10.5476     56.1894    205.9585   1.3915062964e+02   2.5298687614e+01    0.3206374    0.1340745  49.99  0.001529388    2.178    0.541
        30 -11.7751     57.8683    199.2544   1.3809519115e+02   2.6536661245e+01    0.2684959    0.2162143 -75.12 0.0004973132    1.208    0.172
        31  -9.3089    192.3289    193.9794   1.0844631150e+02   3.8605979203e+00    0.2268844    0.1157517 -63.22 0.0007048728    4.449    0.775
        32  -9.9994      8.5638    193.7511   1.4729497288e+02   3.3262704568e+01    0.2162668    0.1379413  67.81 0.0006913628    1.346    0.257
        33 -11.9997     64.5550    190.7277   1.3570416896e+02   2.7529331383e+01    0.2670818    0.2326382 -75.61 0.0004904324    1.194    0.163
        34 -13.7617      9.3289    156.2126   1.4390741868e+02   4.1412462004e+01     2.769112     1.077556  86.70   0.01117562    3.500    0.714
        35 -11.9182    238.3731    247.5558   1.0926056756e+02  -1.2394504127e+01     0.428961    0.2429183 -18.11  0.002390467    2.024    0.506
        36 -11.9826     83.3742    168.3574   1.2829981944e+02   2.9941669641e+01    0.7032105    0.6417045 -48.97  0.004190508    1.276    0.216
        37 -13.1446     61.7104    175.8354   1.3443300626e+02   3.1319092755e+01    0.5184631    0.2739753 -47.36   0.00162794    2.310    0.567
        38 -10.4626     96.0717    152.6981   1.2245676858e+02   3.1595526029e+01    0.3582657    0.2989451 -41.88 0.0008466679    1.334    0.250
        39  -9.3698     99.1163    148.6486   1.2090536782e+02   3.2037444773e+01    0.2407657    0.1885227 -49.56 0.0006171084    1.285    0.222
        40 -12.0258     84.6216    151.7359   1.2516851859e+02   3.3688438600e+01    0.3079407    0.2499798 -47.86 0.0006527387    1.300    0.231
        41  -8.9299    134.0000    148.0302   1.1203548368e+02   2.5562692457e+01    0.2567883   0.08687727 -49.70 0.0008025385    2.943    0.660
        42 -12.1899     67.2995    143.5719   1.2815185400e+02   3.8175727865e+01    0.6662112    0.4315935  65.22  0.002907452    1.833    0.454
        43  -9.9986    108.5885    137.6266   1.1618055541e+02   3.2952655169e+01    0.4855062    0.3326169 -10.09  0.001359838    2.704    0.630
        44 -10.5907     95.5055    134.8271   1.1902364816e+02   3.5933619562e+01     0.242458    0.2365888 -35.81 0.0004324505    1.127    0.113
        45 -11.3788     26.7900    129.1352   1.3640665913e+02   4.6109726381e+01    0.3771266    0.2173069  53.19  0.002052695    2.063    0.515
        46  -8.9233    106.0995    124.0962   1.1378209804e+02   3.6567683711e+01    0.2006386    0.1908102 -15.22 0.0002927932    1.155    0.134
        47 -10.2924    243.4888     92.4974   7.6620282010e+01   1.1991073884e+01    0.1414195    0.1271881 -56.61 0.0008105112    1.019    0.019
        48 -10.1063    158.3449     76.9858   8.7870389224e+01   3.5039624118e+01     0.216751    0.2007007 -43.27 0.0005913778    1.106    0.096
        49 -12.1523      3.0431     49.7490   1.2855885885e+02   6.4485994866e+01    0.3343952    0.3061603 -48.94   0.00222803    1.298    0.230
        50 -10.7927     75.3990    177.6214   1.3156498730e+02   2.8981498820e+01    0.2464887    0.2133912 -88.59 0.0003383849    1.026    0.025
        51  -9.6523     81.2372    248.9872   1.3868043646e+02   1.3111780142e+01    0.1454892   0.09192546 -74.20 0.0008838854    1.629    0.386
        52 -11.0017    171.7839    247.3198   1.2156365666e+02  -1.5151300588e+00    0.2526503    0.1750015  57.78  0.001445038    1.545    0.353
        53  -9.4705     95.5927    172.9583   1.2615364545e+02   2.6899589976e+01    0.2554965    0.1772708  63.13 0.0005688616    1.484    0.326
