#   1 NUMBER                 Running object number                                     
#   2 MAG_AUTO               Kron-like elliptical aperture magnitude                    [mag]
#   3 X_IMAGE                Object position along x                                    [pixel]
#   4 Y_IMAGE                Object position along y                                    [pixel]
#   5 X_WORLD                Barycenter position along world x axis                     [deg]
#   6 Y_WORLD                Barycenter position along world y axis                     [deg]
#   7 A_WORLD                Profile RMS along major axis (world units)                 [deg]
#   8 B_WORLD                Profile RMS along minor axis (world units)                 [deg]
#   9 THETA_WORLD            Position angle (CCW/world-x)                               [deg]
#  10 FWHM_WORLD             FWHM assuming a gaussian core                              [deg]
#  11 ELONGATION             A_IMAGE/B_IMAGE                                           
#  12 ELLIPTICITY            1 - B_IMAGE/A_IMAGE                                       
         1  -8.6293     55.6526     10.2980   2.9119605294e+02   7.3281301943e+00   0.01122491  0.009516583  68.46 0.0006602808    1.288    0.223
         2  -7.9254     47.5455     10.0125   2.9128700110e+02   7.3781382871e+00   0.01018052  0.006424671 -66.48  0.001024822    1.602    0.376
         3  -8.2935     90.9719      9.0194   2.9078490622e+02   7.1391077868e+00    0.0109052  0.007562376  63.13 0.0006783654    1.735    0.424
         4  -7.7782    101.1703      8.1179   2.9066304985e+02   7.0905925830e+00  0.009109262  0.007427847  57.55 0.0004517592    1.322    0.243
         5  -7.6764     69.2431      7.6459   2.9102492394e+02   7.2803742902e+00  0.006600534  0.004962211  75.07 0.0002777789    1.586    0.369
         6  -8.5802     33.5664      5.3781   2.9141914047e+02   7.5121169917e+00   0.01464301  0.009597076  72.53  0.001191115    2.044    0.511
         7  -8.5144     78.9916      3.5748   2.9088923179e+02   7.2711014798e+00   0.01306044  0.009090234 -88.36  0.001313805    1.745    0.427
         8  -7.3982     44.6811      3.3529   2.9127999901e+02   7.4714924289e+00  0.007026243  0.004907296  65.74  0.000565573    1.746    0.427
         9  -7.7097    115.4825      2.5118   2.9046612292e+02   7.0725284547e+00  0.006567183  0.006270063  73.68 0.0008091605    1.076    0.071
        10  -7.9702    236.5567      1.4889   2.8907964627e+02   6.3820648912e+00   0.00649823  0.006303959 -53.15  7.73604e-05    1.014    0.013
        11  -8.3296     62.1021      1.4733   2.9106966513e+02   7.3927843246e+00  0.009555506  0.006364139  30.70 0.0004814232    1.507    0.336
        12  -9.3156    210.6059    246.2958   2.9083574821e+02   3.7058607398e+00   0.01603232   0.01104565  84.82 0.0009650285    1.844    0.458
        13  -8.8205    241.7945    238.2807   2.9043372782e+02   3.6180934504e+00   0.03144665   0.01000102 -43.20  0.002032056    4.108    0.757
        14  -9.9559    248.5541    242.1528   2.9037998688e+02   3.5342577869e+00   0.02404556   0.01192424 -65.62  0.001475491    2.059    0.514
        15  -8.9758    247.7166    234.6621   2.9034493283e+02   3.6256295110e+00   0.01573339   0.01346352 -68.77  0.001098888    1.166    0.143
        16  -9.5185    246.8534    228.3000   2.9031687717e+02   3.7041168077e+00   0.03067606   0.01108133 -53.14  0.002389443    2.541    0.607
        17  -9.0497    232.7595    247.5212   2.9059131752e+02   3.5636052677e+00   0.01814654   0.01057512 -73.93  0.001597423    1.945    0.486
        18  -8.1195    191.3333    249.6355   2.9107464995e+02   3.7786526231e+00   0.01027022  0.007238712  62.47  0.000873903    1.680    0.405
        19  -8.3934     93.8756    249.5140   2.9218252487e+02   4.3424224331e+00   0.01287182  0.008609714  85.87   0.00105601    1.939    0.484
        20  -9.2197    147.1170    246.3488   2.9155795456e+02   4.0719999138e+00   0.01473074  0.009416432  67.50  0.001403223    2.078    0.519
        21  -9.0056    120.4722    245.6308   2.9185684033e+02   4.2340273310e+00   0.01968809   0.01221468  74.51  0.001798636    2.319    0.569
        22  -8.3640     67.7170    245.2467   2.9245501088e+02   4.5424204109e+00   0.01267386  0.008230194 -85.30  0.001163291    1.911    0.477
        23  -8.7154    202.0020    243.5716   2.9091734933e+02   3.7870780360e+00   0.01444208  0.009357736 -86.65 0.0009534446    1.953    0.488
        24  -9.7689      8.9379    243.1736   2.9311200262e+02   4.9042938406e+00    0.0235296    0.0121203  88.34  0.001681872    3.817    0.738
        25  -8.6387    168.9980    243.2805   2.9129086667e+02   3.9811407088e+00   0.01134929  0.008854311  77.65 0.0005420313    1.487    0.327
        26  -8.6884     78.0091    243.6296   2.9232827339e+02   4.5018767353e+00   0.01579933  0.008329738  59.77  0.001296182    2.769    0.639
        27  -9.0932    194.2400    239.7448   2.9098284451e+02   3.8761697791e+00   0.01517272   0.01064295  73.79 0.0007812029    1.793    0.442
        28  -9.6868    160.4275    240.5692   2.9137224476e+02   4.0619812376e+00   0.02309383   0.01325565  89.40  0.001843186    2.660    0.624
        29  -8.3570     88.1548    242.3578   2.9220525014e+02   4.4581555485e+00   0.01102626  0.007621286 -71.46 0.0009999825    1.511    0.338
        30  -7.4650     34.3388    243.6658   2.9282567829e+02   4.7526925626e+00  0.007067396  0.004874852  63.45 0.0007051646    1.749    0.428
        31  -9.2415    183.1879    240.3011   2.9111180850e+02   3.9336082444e+00   0.02208905    0.0125562  58.96  0.001973977    2.338    0.572
        32  -8.0723    153.4011    242.1900   2.9146179050e+02   4.0838106577e+00  0.009203275  0.006289015 -80.03 0.0004207551    1.669    0.401
        33  -8.5991    146.8663    240.5170   2.9152619998e+02   4.1408788815e+00   0.01960582   0.01040407  62.00  0.001588492    2.893    0.654
        34  -8.6396    135.4992    239.0931   2.9164707792e+02   4.2229469777e+00   0.01099154  0.008656168  59.09 0.0008051812    1.394    0.283
        35  -8.4365    129.6247    238.8472   2.9171246273e+02   4.2596847746e+00   0.01446968  0.008531293  63.23  0.001296666    2.333    0.571
        36  -9.0639    230.9986    237.3173   2.9055064221e+02   3.6916777433e+00    0.0145363  0.009825848  81.72 0.0008144329    1.934    0.483
        37  -8.2800     13.2415    238.2138   2.9303369461e+02   4.9369761518e+00   0.01070151  0.004296215  37.85 0.0008688133    2.427    0.588
        38  -8.3296     25.3373    236.8232   2.9288772584e+02   4.8835919480e+00   0.01339779  0.006350794 -74.18  0.001078865    2.663    0.625
        39 -10.1051    215.0045    233.3333   2.9070869908e+02   3.8302182600e+00   0.03197145    0.0168411  68.79  0.002395174    3.513    0.715
        40  -9.0462    203.2156    234.7687   2.9085123299e+02   3.8817973544e+00   0.01770057   0.01076222  85.53  0.001241887    2.402    0.584
        41  -9.7346    175.8549    233.5521   2.9115510413e+02   4.0539938346e+00   0.02534855   0.01258306 -76.92  0.002074966    2.691    0.628
        42  -8.1773    170.2843    236.0031   2.9123301925e+02   4.0578411769e+00   0.00933202  0.008218278 -73.88 0.0004647569    1.148    0.129
        43  -8.7410    194.9412    233.5122   2.9093783264e+02   3.9441527732e+00   0.01689374   0.01086785  74.77   0.00133355    2.143    0.533
        44  -9.4563    109.0882    234.5458   2.9192067298e+02   4.4278758577e+00   0.02406445   0.01198341  43.58  0.001824066    2.115    0.527
        45  -8.2569     99.7829    234.4910   2.9202626827e+02   4.4821506359e+00   0.01259372  0.007791357  67.68  0.001157735    2.224    0.550
        46  -8.6817     79.0700    234.5925   2.9226267411e+02   4.6003101866e+00   0.01430772  0.009646467  74.62  0.001414043    1.936    0.483
        47  -8.3268    122.7615    234.2247   2.9176314530e+02   4.3527361241e+00   0.01065995  0.008146144  76.97  0.001158305    1.540    0.350
        48  -9.2197     68.5635    232.6884   2.9237102162e+02   4.6828323251e+00   0.02326234   0.01181648  61.83  0.001790803    3.224    0.690
        49  -8.3357    144.9514    233.4643   2.9150612553e+02   4.2334822799e+00   0.01187886  0.006515753  64.16 0.0009700324    2.796    0.642
        50  -8.6583    140.0503    230.1960   2.9154249366e+02   4.2995658378e+00   0.01643232  0.008562439  48.27  0.001164985    2.173    0.540
        51  -7.9623    132.8060    233.0385   2.9164179861e+02   4.3085027888e+00   0.01109688  0.007247035  73.00   0.00105852    2.058    0.514
        52  -9.2217    186.3965    230.6217   2.9101781057e+02   4.0269516255e+00   0.01954665    0.0118922  85.93  0.001368353    2.390    0.582
        53  -7.9495    158.1306    232.2148   2.9134876699e+02   4.1718364080e+00  0.009276128  0.007471795  63.04   0.00053667    1.371    0.271
        54  -8.3848     92.2946    231.4491   2.9209348548e+02   4.5604910586e+00   0.01115103  0.007843144  84.87 0.0005828228    1.768    0.434
        55  -9.0870      1.8740    231.2064   2.9312175873e+02   5.0833165510e+00   0.01461211   0.00940623 -88.03  0.001284694    1.992    0.498
        56  -9.0455    236.0253    230.4816   2.9045286836e+02   3.7415724572e+00   0.01403729  0.009445495 -65.16 0.0005523597    1.480    0.324
        57  -9.0876      9.1411    229.7970   2.9303065669e+02   5.0579120457e+00   0.01968258  0.009567877  73.18  0.001106743    6.201    0.839
        58  -9.1382    151.4776    228.9867   2.9140528929e+02   4.2475782618e+00   0.01722322   0.01079923  79.95  0.001493266    2.281    0.562
        59  -9.1282    148.6591    224.5056   2.9141074868e+02   4.3156672586e+00   0.01638649   0.01164659  75.09  0.001153696    1.752    0.429
        60  -8.7136    229.8396    228.7911   2.9051309329e+02   3.7968912362e+00   0.01241536  0.007744225 -76.44 0.0007706102    1.833    0.455
        61  -8.7688    162.4968    227.9978   2.9127405217e+02   4.1953754923e+00   0.01701679  0.009810675  54.19  0.001122506    2.098    0.523
        62  -8.7541    128.0327    227.3903   2.9166260423e+02   4.4013651767e+00   0.01585887   0.01049825  63.81  0.001076562    1.885    0.469
        63  -8.3723    120.1065    227.7293   2.9175482998e+02   4.4431720789e+00   0.01506039  0.008008357  59.47  0.001163495    2.701    0.630
        64  -8.8979    206.1824    225.6548   2.9076331829e+02   3.9699710215e+00   0.01851594  0.009077266 -67.85  0.001286071    2.171    0.539
        65  -8.0363    200.1105    226.1813   2.9083548020e+02   3.9989976368e+00  0.009168267  0.007592025  72.03 0.0004601503    1.342    0.255
        66  -8.7749     94.2607    224.4846   2.9202981653e+02   4.6297216848e+00   0.02143156   0.01140809  63.60  0.001653453    2.981    0.665
        67  -7.9502     49.2615    226.6314   2.9255496986e+02   4.8639800080e+00  0.006773535  0.004958582  72.50 0.0006980358    1.649    0.393
        68  -8.9187    216.5425    223.8017   2.9063452966e+02   3.9314667435e+00   0.01586632   0.01104454  82.18 0.0009813872    1.823    0.451
        69  -8.8088    180.6942    224.4493   2.9104597725e+02   4.1312577639e+00    0.0139433   0.01024108  57.38 0.0007190477    1.524    0.344
        70  -8.8117    104.9179    224.0493   2.9190589916e+02   4.5733259806e+00   0.01519021  0.009938322  65.91  0.001485014    1.959    0.490
        71  -7.9760     38.4387    224.9465   2.9266826526e+02   4.9457148625e+00  0.009525949  0.005638285  83.82 0.0006973809    2.585    0.613
        72  -9.0161    173.0564    223.2671   2.9112582495e+02   4.1890614116e+00   0.01406143   0.01001548  80.18 0.0008713925    1.749    0.428
        73  -7.8560    113.9906    224.0529   2.9180263603e+02   4.5209672122e+00   0.01056434  0.007553778  64.19 0.0006693573    1.658    0.397
        74  -7.9802     59.9590    223.8088   2.9241642208e+02   4.8350874610e+00     0.011349  0.006642859  53.15 0.0007297328    2.015    0.504
        75  -9.3453    225.3361    221.7828   2.9052257421e+02   3.9039226896e+00   0.01452264   0.01071988 -80.71 0.0007639664    1.500    0.334
        76  -9.2344    160.3267    221.1987   2.9125835216e+02   4.2865190678e+00   0.03062222   0.01038133  46.52  0.002089414    3.766    0.734
        77  -8.0006    140.3548    222.7337   2.9149472771e+02   4.3841000607e+00    0.0104195     0.007199  66.21 0.0006494978    1.780    0.438
        78  -9.1745    239.1129    221.3374   2.9036337435e+02   3.8293469179e+00   0.01440803   0.01046559 -82.34 0.0009281531    1.556    0.357
        79  -9.3630    192.3924    220.9224   2.9089197201e+02   4.1044036686e+00    0.0220496   0.01291194 -72.33  0.001651245    1.882    0.469
        80  -8.1768    202.8013    220.3153   2.9077000500e+02   4.0512330823e+00   0.01097788  0.008714096 -78.99 0.0007118445    1.340    0.254
        81  -8.4026     82.9738    220.7841   2.9213639975e+02   4.7375628320e+00   0.01443471  0.008612468  62.84  0.001172365    2.263    0.558
        82  -8.1279     73.3793    221.1675   2.9224793548e+02   4.7883877968e+00  0.009516045  0.006224771 -80.42 0.0009387531    1.789    0.441
        83  -8.1700     27.6060    221.2558   2.9276982050e+02   5.0506845753e+00  0.009713907  0.005674929 -51.92 0.0008861076    1.650    0.394
        84  -9.1930    120.2152    219.2464   2.9170325664e+02   4.5406525397e+00   0.01885943   0.01154784  65.33  0.001646679    2.218    0.549
        85  -8.8298    249.3759    218.6731   2.9023092121e+02   3.8007215430e+00   0.01543473  0.008302093  56.61  0.001221444    2.473    0.596
        86  -8.3377    210.0596    219.0416   2.9067990790e+02   4.0239742274e+00  0.009966996  0.009399269  88.86  0.000506716    1.086    0.079
        87  -8.6649    179.5250    217.2648   2.9101657085e+02   4.2210665188e+00   0.01623867  0.005965427 -59.84  0.001286681    2.532    0.605
        88  -9.1150    132.8693    216.1818   2.9154102157e+02   4.5030756088e+00   0.02471852    0.0138046  71.53  0.001995804    3.011    0.668
        89  -8.3231     62.1971    217.6213   2.9235428089e+02   4.8937915515e+00   0.01524333  0.009201708  76.04  0.001091446    2.490    0.598
        90  -8.7906     51.4167    217.1244   2.9247413268e+02   4.9615771663e+00   0.01369161  0.009789486  84.94 0.0008104775    1.713    0.416
        91  -8.7088    169.4509    216.4465   2.9112630645e+02   4.2887480775e+00   0.01468316  0.008839594  65.71  0.000849192    2.312    0.567
        92  -8.5998    142.8990    216.4873   2.9142868057e+02   4.4416428952e+00   0.01253753  0.009064748  89.89 0.0007685633    1.647    0.393
        93  -7.8178    111.9775    217.4545   2.9178640388e+02   4.6088948015e+00  0.009643359  0.004737053  49.64 0.0006536149    2.423    0.587
        94  -8.7143     18.5209    216.0555   2.9284255674e+02   5.1630551586e+00   0.01771017  0.006403557 -63.39  0.001363077    2.734    0.634
        95  -8.7800    232.4520    214.6341   2.9039916337e+02   3.9453418804e+00   0.01586824   0.01110961 -77.26  0.001041447    1.572    0.364
        96  -8.5306    185.6896    214.3197   2.9092894364e+02   4.2194757520e+00   0.01188014   0.00797906 -77.88 0.0007307629    1.676    0.403
        97  -8.1670    154.3980    215.2272   2.9129033291e+02   4.3898089112e+00  0.009194766  0.006295193 -79.14 0.0008071318    1.650    0.394
        98  -8.7018     93.2282    214.1592   2.9198034367e+02   4.7551108235e+00   0.01614928  0.009427923  67.44  0.001098322    2.529    0.605
        99  -9.4216    214.1125    212.2781   2.9059359340e+02   4.0786881645e+00   0.02143474   0.01161789  49.83  0.001746949    2.124    0.529
       100  -9.3193     73.3796    212.2416   2.9219503066e+02   4.8916471917e+00   0.03009817   0.01306108  54.72  0.002143427    3.656    0.726
       101  -8.4599    224.7782    212.2168   2.9047198849e+02   4.0176823403e+00   0.01167259  0.008714005 -82.30   0.00126619    1.492    0.330
       102  -8.6757    161.7472    212.4294   2.9119008261e+02   4.3797026592e+00   0.01257385   0.00960974  68.28 0.0008036089    1.516    0.340
       103  -7.7896    106.4655    212.9482   2.9182242432e+02   4.6928040775e+00  0.009065746  0.005614252  81.26 0.0008059732    2.340    0.573
       104  -8.9503    204.3297    211.0502   2.9069751414e+02   4.1494726649e+00   0.01499869   0.01051428  82.31 0.0009399696    1.797    0.444
       105  -9.5298    175.6391    210.2966   2.9101934880e+02   4.3240810825e+00   0.02176242   0.01252491  62.14  0.001318373    2.414    0.586
       106  -9.2312      6.5878    209.2178   2.9293807958e+02   5.3107041114e+00   0.02664475   0.01384014  82.26  0.001842965    4.149    0.759
       107  -8.3267    192.3371    210.4998   2.9083062063e+02   4.2251941392e+00   0.01122213  0.007835716  86.10 0.0008959867    1.788    0.441
       108  -8.7567    148.0393    210.4996   2.9133460963e+02   4.4811975148e+00    0.0138538  0.009634601  73.47  0.001029968    1.819    0.450
       109  -8.8568    116.4319    210.5132   2.9169449365e+02   4.6634829381e+00   0.01614314  0.009251319  56.57  0.001030582    2.205    0.546
       110  -8.4618     32.4559    210.9312   2.9265346903e+02   5.1422735689e+00   0.01361405  0.006543011  57.97  0.001020398    3.263    0.694
       111  -8.4145     85.5986    209.6678   2.9204059774e+02   4.8510337371e+00   0.01352992  0.008622777  65.59  0.001075576    2.053    0.513
       112  -9.1882    236.5921    207.8988   2.9031201886e+02   3.9991938842e+00   0.01934039   0.01256697 -83.80  0.001421453    1.887    0.470
       113  -8.2064    139.2471    208.0992   2.9142042223e+02   4.5597255268e+00   0.01408435  0.009582647  78.77 0.0009001258    1.912    0.477
       114  -9.4520    246.3364    207.3995   2.9019832481e+02   3.9485463032e+00    0.0140905    0.0114647 -70.44 0.0005560028    1.242    0.195
       115  -9.5615    250.0107    201.8937   2.9012378730e+02   3.9908708676e+00   0.02323397   0.01080989 -61.26  0.001537797    2.068    0.516
       116  -7.9744    156.4173    208.1857   2.9122551290e+02   4.4595600343e+00  0.009114218  0.006307881 -81.03 0.0007601762    1.654    0.395
       117  -8.0612    126.3892    208.3260   2.9156814148e+02   4.6313250098e+00   0.00897616  0.006278636 -78.12 0.0007232122    1.584    0.369
       118  -9.0928     99.4555    206.0967   2.9186159569e+02   4.8124732995e+00   0.01783896   0.01094388  71.79   0.00142858    2.346    0.574
       119  -8.5537     57.0809    206.0911   2.9234424556e+02   5.0566370673e+00    0.0183988  0.009949135  62.29  0.001520607    2.775    0.640
       120  -8.3403     11.5200    206.9908   2.9286870267e+02   5.3081545429e+00   0.01009119    0.0063426 -62.59 0.0005879072    1.555    0.357
       121  -8.2047    109.1424    205.4889   2.9174767341e+02   4.7636436282e+00   0.01078904  0.008759063  76.98 0.0006583197    1.389    0.280
       122  -9.2798    194.9539    203.3877   2.9075855009e+02   4.2922646278e+00   0.01952694   0.01309851 -68.52  0.001300147    1.525    0.344
       123  -9.1087    192.3725    197.3980   2.9075227324e+02   4.3764265465e+00   0.01540504   0.01214285  88.55  0.001012904    1.435    0.303
       124  -9.0074    183.8061    204.1623   2.9088996099e+02   4.3477794885e+00   0.01703609   0.01005655  55.91 0.0009845354    2.079    0.519
       125  -8.6565    131.3554    204.1309   2.9148668748e+02   4.6511762129e+00   0.01678498   0.01021872  75.28 0.0009486181    2.437    0.590
       126  -8.4014     24.8270    205.0501   2.9270558260e+02   5.2541686129e+00   0.01090179  0.007276209  75.10 0.0007933774    1.976    0.494
       127  -9.5018    163.9428    203.0590   2.9110939925e+02   4.4753530394e+00   0.02253642   0.01132055  47.41  0.001028817    2.240    0.554
       128  -8.2893    227.6791    202.9946   2.9038411862e+02   4.1074506014e+00  0.009839317  0.008144079 -56.89  0.001145161    1.175    0.149
       129  -8.9675     17.0264    203.2703   2.9278393976e+02   5.3195797545e+00  0.009148866  0.008914125 -78.47  0.001149252    1.025    0.024
       130  -9.3045    243.0541    200.5699   2.9019494459e+02   4.0464488001e+00   0.01708698  0.009604406 -63.86 0.0008471829    1.762    0.433
       131  -8.5437    210.8642    201.3663   2.9056558652e+02   4.2235827147e+00   0.01525195  0.008753132 -74.66 0.0009514188    2.012    0.503
       132  -8.9949    140.6634    201.0948   2.9136268602e+02   4.6325444813e+00   0.01882086   0.01126146  65.26  0.001386847    2.328    0.570
       133  -8.3481     80.1489    201.4264   2.9205379315e+02   4.9777701213e+00   0.01611583  0.008741167  68.51  0.001262224    3.143    0.682
       134  -7.5760     73.2740    202.6428   2.9213932467e+02   5.0033000891e+00  0.006803012  0.004963945  70.42 0.0005496919    1.649    0.394
       135  -8.5613     48.1866    201.9035   2.9242076967e+02   5.1562638823e+00   0.01356085  0.009450912  70.45  0.001304635    1.790    0.441
       136  -8.3965      9.1861    202.8548   2.9287082947e+02   5.3694151389e+00   0.01610262  0.004982519  23.61  0.001080634    3.774    0.735
       137  -9.4670    149.5990    198.6531   2.9124645840e+02   4.6091704424e+00   0.02179804   0.01331934  75.47  0.001238952    2.419    0.587
       138  -8.9196    123.8344    199.2861   2.9154354322e+02   4.7506159908e+00   0.01578167   0.01052795  71.34  0.001286132    1.957    0.489
       139  -9.3708    113.1345    198.5927   2.9166126961e+02   4.8203769454e+00   0.02242755   0.01238709  63.29  0.001762452    2.700    0.630
       140  -8.9733     88.7782    198.7078   2.9193936463e+02   4.9594930443e+00   0.01706207   0.01119135  77.12  0.001467872    2.060    0.514
       141  -9.3040    236.8323    197.7961   2.9024912952e+02   4.1145203966e+00   0.01850192   0.01152142 -67.03   0.00148172    1.634    0.388
       142  -8.3681    177.1060    198.9244   2.9093503181e+02   4.4470669927e+00   0.01022501  0.008478824  67.59  0.000514571    1.329    0.247
       143  -9.0961     12.9017    197.7196   2.9279809688e+02   5.4074988506e+00   0.01780538  0.009681934 -89.45  0.001419065    3.008    0.668
       144  -8.3522    202.2191    197.5839   2.9064138389e+02   4.3173159404e+00   0.01227749   0.00885407 -64.37 0.0006298384    1.370    0.270
       145  -9.0095     61.5563    197.2874   2.9224107236e+02   5.1327286445e+00   0.01893532   0.01157508  63.53  0.001500608    2.176    0.540
       146  -8.7382    215.9962    195.9071   2.9047473551e+02   4.2569693796e+00   0.01486831   0.01019093  82.65 0.0009264908    1.877    0.467
       147 -10.1154    184.0186    195.8058   2.9083783276e+02   4.4431469629e+00   0.01554179    0.0134637 -18.24 0.0009544251    1.249    0.200
       148  -8.1786    133.0089    196.0132   2.9141963665e+02   4.7355060084e+00   0.01067686  0.007604095  66.57 0.0006889662    1.693    0.409
       149  -8.7459    224.5683    194.3853   2.9036821646e+02   4.2249334244e+00   0.01542076  0.009708731 -82.74  0.001016481    1.967    0.492
       150  -8.9558    161.0831    194.5409   2.9109129745e+02   4.5903621376e+00   0.01485974   0.01001665  58.23  0.001029685    1.740    0.425
       151  -8.9603     43.9065    193.4372   2.9241937548e+02   5.2788401088e+00   0.02213147   0.01214258  64.00  0.001838643    2.778    0.640
       152  -9.5022    245.8542    192.4953   2.9011502660e+02   4.1235102840e+00   0.02406587   0.01053674 -53.26  0.001291486    2.141    0.533
       153  -8.5743    230.8322    194.2970   2.9029648604e+02   4.1896887740e+00  0.009408989  0.008117087 -77.28 0.0007395673    1.192    0.161
       154  -8.8078     77.1653    193.9830   2.9204362979e+02   5.0810659716e+00   0.01207862    0.0101338  72.22 0.0006475353    1.313    0.238
       155  -7.8907    205.2359    191.9910   2.9057378313e+02   4.3644985816e+00  0.008681993  0.005412585 -63.01 0.0004219736    1.575    0.365
       156  -8.1008    198.9387    191.9671   2.9064526283e+02   4.4012113875e+00   0.01051966  0.007575751  64.71 0.0004575518    1.646    0.392
       157  -8.5065    172.3278    191.8682   2.9094742892e+02   4.5562635623e+00   0.01246801  0.009502962  71.79  0.001057904    1.538    0.350
       158  -9.1700    139.5452    190.7482   2.9131392570e+02   4.7586461003e+00   0.01850267   0.01221853  73.47  0.001123789    2.016    0.504
       159  -8.1859     22.6486    192.3304   2.9265510035e+02   5.4138635696e+00  0.007114598  0.004849348  62.56 0.0006216283    1.773    0.436
       160 -10.3775     91.9372    188.6159   2.9184348257e+02   5.0580199624e+00   0.04438429   0.01327138  42.24  0.003070945    3.581    0.721
       161  -7.8640     90.6444    181.7012   2.9181715907e+02   5.1454548187e+00  0.009656787   0.00614022 -46.94 0.0006657266    1.572    0.364
       162  -9.1010    216.6099    188.1123   2.9042134355e+02   4.3434895697e+00   0.01765149   0.01079131 -67.16  0.001154348    1.669    0.401
       163  -8.5149    148.7292    189.6153   2.9120263114e+02   4.7186959120e+00   0.01250318  0.008217691  79.65  0.001185602    2.054    0.513
       164  -8.9103    237.1484    188.2854   2.9018888311e+02   4.2225656433e+00   0.01562645  0.008598286 -61.97  0.001038356    1.769    0.435
       165  -9.2378    156.0363    187.5612   2.9110723372e+02   4.7002242100e+00   0.01714261   0.01060711 -76.98 0.0009648977    1.867    0.464
       166  -8.9360    129.2893    188.6190   2.9141805126e+02   4.8424890788e+00    0.0141754  0.009819385  65.48  0.001014833    1.764    0.433
       167  -9.8361    121.0084    186.9679   2.9150254626e+02   4.9093859951e+00    0.0265231   0.01444339 -87.17  0.002162514    2.875    0.652
       168  -8.5954     34.4301    188.4367   2.9249774904e+02   5.3911944673e+00   0.01471063  0.008885589  65.94 0.0008833255    2.296    0.564
       169  -8.1190    242.5324    188.0578   2.9012633737e+02   4.1940112477e+00  0.009851297  0.006339965 -62.29   0.00100661    1.519    0.342
       170  -8.6851    191.4407    187.5530   2.9070428248e+02   4.4956086696e+00   0.01376206   0.01048242  73.51 0.0008516874    1.545    0.353
       171  -9.0194     54.7380    187.0765   2.9225822792e+02   5.2901062926e+00   0.01881292   0.01128267  65.78  0.001597525    2.327    0.570
       172  -7.8764    230.4223    187.1977   2.9025885832e+02   4.2740847130e+00  0.009352287  0.006305263 -81.65 0.0008540624    1.735    0.424
       173  -8.8895    164.7845    186.7391   2.9100276641e+02   4.6591675010e+00   0.01290751  0.009060957 -79.64 0.0006642082    1.599    0.375
       174  -9.2268    109.5296    185.9754   2.9162739247e+02   4.9871032192e+00   0.01944737   0.01266121  73.25  0.001212852    2.074    0.518
       175  -8.6999    249.1629    185.4873   2.9003567057e+02   4.1852958189e+00   0.01265903  0.009433456 -79.18 0.0008117691    1.464    0.317
       176  -8.9110    182.8459    185.1736   2.9078790776e+02   4.5728281263e+00   0.01563048  0.009425584 -70.60 0.0008554014    1.768    0.435
       177  -8.9988    210.3109    184.2666   2.9047007257e+02   4.4243922722e+00   0.01625796  0.008253122 -57.03   0.00139307    1.859    0.462
       178  -9.0072     66.7298    184.6117   2.9210694375e+02   5.2495821642e+00    0.0186494   0.01105253  54.10  0.001061392    2.008    0.502
       179  -7.7453     12.3112    185.6601   2.9273343729e+02   5.5504288780e+00  0.006941953  0.004925752  65.70 0.0007045484    1.693    0.409
       180  -8.5282    224.1689    183.7266   2.9030927323e+02   4.3504006131e+00   0.01112905  0.008728795 -80.58  0.000309022    1.375    0.273
       181  -8.3675    196.9845    183.5340   2.9061729004e+02   4.5099847212e+00   0.01132354  0.008440695  84.36 0.0006608214    1.598    0.374
       182  -8.8980    174.1889    183.6594   2.9087740936e+02   4.6403979455e+00   0.01361082  0.009899326  69.05 0.0008158594    1.653    0.395
       183  -8.2487      2.2288    183.8705   2.9283778504e+02   5.6290261650e+00   0.01176778  0.008378224  39.85  0.001212997    1.423    0.297
       184  -9.1297     44.3154    182.3462   2.9234897372e+02   5.4048063779e+00   0.01738918   0.01142326  70.81  0.001105077    2.010    0.502
       185  -9.6456     25.4473    178.6058   2.9254189453e+02   5.5565765938e+00   0.03697205   0.01863315  88.20  0.002513657    4.264    0.765
       186  -7.9814    240.4736    181.0060   2.9010771483e+02   4.2873994572e+00   0.01012914  0.006401418 -64.34 0.0009241959    1.569    0.363
       187  -9.1466    147.4183    180.4522   2.9116306752e+02   4.8322184868e+00   0.01571934   0.01134694  68.55  0.001113445    1.670    0.401
       188  -8.5414    137.7107    179.4980   2.9126793146e+02   4.8993313542e+00   0.01314781  0.009339659  74.09  0.001219819    1.751    0.429
       189  -9.3779    191.5000    178.2458   2.9064820031e+02   4.6028388647e+00   0.01588156     0.011831  59.39 0.0005308845    1.513    0.339
       190  -8.2073    169.3976    179.1237   2.9090495011e+02   4.7205360400e+00  0.009184902  0.006258562 -81.20 0.0006860101    1.697    0.411
       191  -9.0509     36.0523    177.1761   2.9241251875e+02   5.5121484039e+00   0.02512417   0.01305946  85.65   0.00177645    3.937    0.746
       192  -8.6416    250.4000    172.8056   2.8994602115e+02   4.3246098978e+00   0.01172598  0.008767343 -67.70 0.0004996248    1.345    0.256
       193  -9.2973    248.8969    177.3845   2.8999039947e+02   4.2804312552e+00   0.01737198   0.01285058  59.89  0.001029525    1.534    0.348
       194  -8.6992    247.2917    173.7115   2.8998674632e+02   4.3321593797e+00  0.009189257  0.008812159 -14.97 0.0001949847    1.072    0.068
       195  -8.5300    205.0497    177.5640   2.9048999477e+02   4.5323022484e+00   0.01271622  0.009097313 -87.36 0.0008906046    1.651    0.394
       196  -8.6172    129.1263    177.2809   2.9135251461e+02   4.9745444510e+00   0.01662712   0.01052838  88.18   0.00125177    2.142    0.533
       197  -8.4429    231.0112    177.1503   2.9019230027e+02   4.3867555346e+00   0.01022924  0.008503057  67.42 0.0005251631    1.324    0.244
       198  -8.0932    217.4573    177.0991   2.9034610812e+02   4.4658423588e+00  0.009847643  0.006426747 -66.53 0.0005963876    1.545    0.353
       199  -9.0290    183.1263    176.2809   2.9073178427e+02   4.6739961296e+00   0.01314791   0.01040017 -84.41  0.000445536    1.386    0.278
       200  -9.2152    158.9639    174.9393   2.9099882237e+02   4.8292322186e+00   0.02202181   0.01454611  78.77  0.001229434    2.034    0.508
       201  -9.3250    104.4747    174.8889   2.9161911691e+02   5.1444871542e+00   0.02484478     0.011967  56.29  0.001758509    3.058    0.673
       202  -7.9496     97.4983    177.5071   2.9171415732e+02   5.1544456469e+00   0.00656062  0.006297197 -40.95  0.000810336    1.039    0.038
       203  -8.7474     88.9507    176.9226   2.9180808246e+02   5.2104918039e+00    0.0131076   0.01003111  77.60 0.0008876373    1.536    0.349
       204  -9.9476     57.2761    173.2132   2.9214706756e+02   5.4358768248e+00   0.03962167   0.02051428  79.12  0.002691322    4.344    0.770
       205  -8.9835     12.7420    176.2959   2.9267306698e+02   5.6563017460e+00   0.01878757  0.009811127 -82.54  0.001520397    2.831    0.647
       206  -8.5690    202.8453    184.6366   2.9055718730e+02   4.4633261486e+00   0.01256568   0.00860973  89.32 0.0007810373    1.821    0.451
       207  -9.6270     81.4636    154.5663   2.9176061450e+02   5.5122297386e+00   0.02325941   0.01799618 -71.82  0.001838822    1.325    0.246
       208 -10.6225     76.1062    171.2448   2.9192074905e+02   5.3501952433e+00   0.05134927   0.02274321 -82.30   0.00322045    4.824    0.793
       209  -9.4272     74.7533    160.4145   2.9187185470e+02   5.4832627243e+00   0.02604458   0.01343084  -0.36  0.001904249    3.710    0.730
       210  -8.1901    224.4849    174.4420   2.9025036346e+02   4.4558460420e+00   0.01120154   0.00648313 -78.73 0.0008562449    2.138    0.532
       211  -9.6654    175.6892    172.2240   2.9079227203e+02   4.7639093160e+00    0.0178181   0.01134523 -63.62 0.0008526648    1.548    0.354
       212  -8.3750    142.9559    172.9408   2.9116920401e+02   4.9448504469e+00   0.01051417  0.007600733  64.03  0.000567365    1.628    0.386
       213  -8.6251    134.8499    171.9568   2.9125566706e+02   5.0030547952e+00   0.01208028  0.009166966  81.78 0.0007984351    1.555    0.357
       214  -9.5174    121.4271    170.5213   2.9140002531e+02   5.0971651591e+00   0.01790513   0.01273251  79.36  0.001088186    1.754    0.430
       215  -9.2735     45.1129    170.9770   2.9227246241e+02   5.5317485682e+00   0.01964938   0.01180567 -85.24  0.001233583    2.210    0.547
       216  -8.9741    230.3776    170.4135   2.9015935483e+02   4.4682565963e+00   0.01229307  0.009973516 -55.35 0.0008301047    1.198    0.165
       217  -8.2385    237.1572    169.6273   2.9007759219e+02   4.4380607835e+00   0.01114652  0.008878884 -82.52 0.0006578462    1.359    0.264
       218  -8.2026    205.6854    170.3310   2.9043967961e+02   4.6122075349e+00   0.01038533  0.007261729  65.72 0.0007968501    1.740    0.425
       219  -8.5936    198.3626    170.0928   2.9052156722e+02   4.6573498755e+00    0.0117594  0.008651833  56.71 0.0007244778    1.514    0.340
       220  -9.1370    167.0891    168.6883   2.9086911933e+02   4.8545185805e+00   0.01542845   0.01016196  66.02  0.001016056    1.940    0.484
       221  -8.5193    149.7883    169.8579   2.9107305896e+02   4.9410143644e+00   0.01205926  0.008895588  82.89 0.0008120695    1.632    0.387
       222  -8.4488    218.7303    168.4129   2.9027987509e+02   4.5588339393e+00   0.01097478  0.008053372 -79.03 0.0004863415    1.494    0.331
       223  -8.2379     88.8408    168.7319   2.9176068710e+02   5.3058618289e+00   0.01301191  0.008356057  78.24   0.00101398    2.159    0.537
       224  -8.4973    111.5056    167.4420   2.9149475209e+02   5.1900435194e+00   0.01501436  0.008883222  64.51 0.0009619979    2.360    0.576
       225  -8.9387    191.8752    166.6265   2.9057473603e+02   4.7349579123e+00   0.01228306  0.009368691 -71.66 0.0005158476    1.348    0.258
       226  -8.7752    185.0690    166.6486   2.9065232110e+02   4.7740895294e+00   0.01126789  0.008907493 -80.26 0.0005544979    1.357    0.263
       227 -10.0933     95.2985    163.3021   2.9165483041e+02   5.3314244129e+00    0.0405468   0.01948309  64.42  0.002711749    4.377    0.772
       228  -9.1318     20.4560    166.2533   2.9252559678e+02   5.7281733411e+00   0.01783046  0.009921028  59.15  0.001426835    2.440    0.590
       229  -8.3283    233.8765    165.2248   2.9008864467e+02   4.5079274954e+00   0.01136711  0.008746841 -80.96 0.0006300719    1.416    0.294
       230  -9.8404    136.7339    164.5719   2.9119028296e+02   5.0775620432e+00   0.02879887   0.01208977  46.45  0.002294566    2.758    0.637
       231  -8.6368    159.5710    164.4979   2.9092976939e+02   4.9464314142e+00   0.01271262  0.009991465  70.60  0.000728442    1.457    0.314
       232  -9.6717     33.7761    163.5636   2.9235775382e+02   5.6827204198e+00   0.02968188   0.01164062  49.78  0.002124293    3.505    0.715
       233  -9.4530    245.9394    162.3316   2.8993426478e+02   4.4714407888e+00   0.02493232   0.01006276 -70.01  0.001883732    3.006    0.667
       234  -8.1774    239.7992    164.1847   2.9001511025e+02   4.4856224084e+00  0.009797113  0.008760989  78.71 0.0005509459    1.189    0.159
       235  -8.6304    212.8960    163.6537   2.9031787146e+02   4.6476131909e+00   0.01238247  0.009511644 -78.04 0.0006404727    1.393    0.282
       236  -8.3279    204.9458    163.0778   2.9040487776e+02   4.7003046399e+00   0.01010902  0.008580389  70.87  0.000544416    1.288    0.224
       237  -8.4202     58.2010    163.6996   2.9208006409e+02   5.5406036179e+00   0.01509549  0.006215156  23.60  0.001208468    2.662    0.624
       238  -9.2120      3.4589    162.3838   2.9269650943e+02   5.8705693609e+00   0.02280217   0.01119042  49.33  0.001669228    2.409    0.585
       239  -8.7515    151.6487    161.2510   2.9100065555e+02   5.0297681908e+00   0.01344319  0.009750596  65.69 0.0007896143    1.635    0.388
       240  -8.9882    177.4345    160.6273   2.9070335538e+02   4.8878570572e+00   0.01349712   0.01045874  72.01 0.0007884314    1.496    0.332
       241  -8.7728     60.6728    160.2708   2.9203152767e+02   5.5660340370e+00     0.016842   0.01063695  70.36  0.001269839    2.177    0.541
       242  -7.7063    242.2236    159.9568   2.8996234045e+02   4.5204089354e+00  0.008484373  0.005336584 -64.08 0.0003352864    1.574    0.365
       243  -8.5564    227.3855    159.1832   2.9012643201e+02   4.6153322684e+00   0.01241965  0.009151543  73.89 0.0008408159    1.639    0.390
       244  -8.5936    128.2988    159.2712   2.9125483618e+02   5.1875748851e+00   0.01330168  0.008521353  63.47 0.0006320808    1.994    0.498
       245  -9.6610    105.8453    157.7803   2.9150181207e+02   5.3344394534e+00   0.02390204   0.01644346 -89.55  0.001531189    1.791    0.442
       246  -9.6429    250.2157    157.7209   2.8985816207e+02   4.4999055199e+00   0.01655023  0.009046677 -64.25 0.0008299979    1.822    0.451
       247  -8.3474    237.1844    159.1470   2.9001479896e+02   4.5589684709e+00  0.009278463   0.00767179  72.66 0.0008144119    1.346    0.257
       248  -8.3996    196.6272    158.0844   2.9046977241e+02   4.8061701351e+00   0.01097528  0.008808663  47.95 0.0007214503    1.296    0.228
       249  -7.9479    188.2745    158.0230   2.9056446101e+02   4.8552297104e+00  0.009327283  0.008226373 -73.13 0.0004795068    1.143    0.125
       250  -9.2171    167.6765    157.5484   2.9079610674e+02   4.9798936940e+00   0.01499077   0.01068276  59.75 0.0009924887    1.620    0.383
       251  -8.6064    217.8799    156.5816   2.9021902898e+02   4.7004574986e+00   0.01278752  0.009307495 -76.66 0.0008087812    1.483    0.326
       252  -9.1080    157.6178    156.0198   2.9090153850e+02   5.0557334427e+00    0.0150402   0.01088758 -88.87 0.0009665451    1.633    0.388
       253  -9.3974    119.6745    155.5755   2.9133111222e+02   5.2801113787e+00   0.01952992   0.01268159  78.27  0.001518701    2.109    0.526
       254  -8.6092    144.7935    154.9963   2.9104150083e+02   5.1417005488e+00   0.01571937   0.01004623  63.95 0.0009574944    2.013    0.503
       255  -9.1916     49.7937    155.3766   2.9212652273e+02   5.6852774277e+00   0.01985459   0.01151515  56.61  0.001727566    2.163    0.538
       256  -8.9677    242.8558    155.1160   2.8992628354e+02   4.5726577610e+00   0.01299051  0.008607043  44.89 0.0003726489    1.574    0.365
       257  -7.8352    204.7450    155.5806   2.9036248427e+02   4.7881003264e+00  0.008979875  0.005893459  40.81 0.0005000061    1.549    0.354
       258  -9.6650    132.7396    152.8797   2.9116621546e+02   5.2358229119e+00   0.02178966   0.01310826  59.16  0.001458936    2.116    0.527
       259  -9.0778    133.9057    148.2981   2.9112566380e+02   5.2820579300e+00   0.01391777     0.011476 -44.78 0.0008775834    1.212    0.175
       260 -10.0318     67.8998    153.4410   2.9190857106e+02   5.6034077466e+00   0.02251681   0.01516218  78.07  0.002010153    1.952    0.488
       261  -8.3514    151.5831    152.7713   2.9095092384e+02   5.1281770305e+00  0.009181089  0.006334333 -79.44  0.000941265    1.637    0.389
       262  -8.9787     20.1700    152.8642   2.9244947340e+02   5.8847131237e+00   0.01006499   0.00854385  69.24 0.0005607077    1.284    0.221
       263  -8.7145      8.4928    153.5065   2.9258648057e+02   5.9443661451e+00   0.01389555  0.006554968  25.86  0.001217778    2.193    0.544
       264  -9.5865     29.4284    151.0240   2.9233295344e+02   5.8527801988e+00    0.0199156   0.01247492  70.06  0.001853461    2.210    0.547
       265  -9.5157    248.7272    149.4784   2.8982591136e+02   4.6037301110e+00   0.01531874   0.01078697 -68.29 0.0008284792    1.443    0.307
       266  -8.8110    247.0628    144.0021   2.8981215808e+02   4.6766263805e+00   0.01130217   0.00918681 -61.82 0.0005015272    1.203    0.169
       267  -8.9858    243.1217    150.2892   2.8989446978e+02   4.6268657085e+00   0.01251584  0.009496804 -76.06 0.0007957261    1.398    0.284
       268  -8.9630    189.4077    150.3235   2.9050568687e+02   4.9376505414e+00   0.01437781   0.01066305  88.23 0.0008330392    1.591    0.371
       269  -7.7175    182.4657    151.4998   2.9059171355e+02   4.9642382853e+00  0.006669587   0.00616744  69.97  6.80106e-05    1.128    0.114
       270  -8.8273    162.5066    150.9684   2.9081578835e+02   5.0858534743e+00   0.01253685  0.008683875  47.54 0.0009493576    1.528    0.346
       271  -8.7043     98.3926    150.8326   2.9154544469e+02   5.4577849479e+00   0.01283367  0.009740256  65.16 0.0008036692    1.514    0.340
       272  -8.6126      2.9297    150.5740   2.9263255824e+02   6.0102343737e+00    0.0133949  0.008772162 -89.73    0.0013031    1.961    0.490
       273  -8.9485    238.2915    150.1823   2.8994874737e+02   4.6561022362e+00   0.01520775   0.00805433   8.52  0.001252367    2.743    0.635
       274  -8.0731    213.0094    149.9884   2.9023512535e+02   4.8048478696e+00   0.01018818  0.007610299  67.60 0.0004845085    1.571    0.363
       275  -9.8753     39.7241    147.9340   2.9219718379e+02   5.8293108629e+00   0.02579368   0.01425181  63.83  0.001782236    2.724    0.633
       276  -8.4110    198.8596    149.0941   2.9039079030e+02   4.8971325444e+00   0.01015739  0.008572881  69.46 0.0005393619    1.297    0.229
       277  -9.8839     89.0566    145.4549   2.9161989686e+02   5.5738237832e+00   0.03998411   0.02225599 -82.15  0.003488324    2.448    0.592
       278  -9.0919    233.2937    147.7301   2.8999094797e+02   4.7133962162e+00   0.01226609   0.01042373 -54.82 0.0005775564    1.146    0.128
       279  -9.1155     78.1556    147.2444   2.9175481889e+02   5.6159783915e+00   0.01548513  0.009985548  67.41  0.001077204    2.041    0.510
       280 -10.7899     54.9463    143.5553   2.9199756770e+02   5.7923494315e+00   0.04729207   0.02868149 -80.19  0.003037983    2.016    0.504
       281  -8.2394    223.1494    146.9373   2.9010158808e+02   4.7813459633e+00  0.009927324  0.008578845  70.37  0.000332219    1.252    0.201
       282  -7.9470    206.5903    146.6972   2.9028853440e+02   4.8800558848e+00  0.008690583  0.006325664 -77.67 0.0004685939    1.495    0.331
       283 -10.2449    149.0278    145.0038   2.9093377985e+02   5.2327421355e+00   0.02673382   0.01637611  75.92  0.001687353    2.409    0.585
       284  -8.7353    151.2231    136.0017   2.9085515717e+02   5.3241067827e+00   0.01546448   0.01002914 -10.33  0.001473889    2.125    0.529
       285  -9.9506    139.1833    145.0921   2.9104645141e+02   5.2886249454e+00   0.02294505   0.01421006  84.33  0.001263028    2.315    0.568
       286  -9.2605    139.2760    138.2830   2.9100485364e+02   5.3668056126e+00   0.02080924    0.0112724 -11.89  0.001566306    3.515    0.716
       287 -10.0548    106.7583    144.6525   2.9141333519e+02   5.4809770907e+00   0.03169216   0.01554313  58.43  0.002448955    3.166    0.684
       288  -8.1997    105.0052    139.2185   2.9140099259e+02   5.5539274688e+00   0.01071818  0.009084349 -38.10 0.0006812456    1.209    0.173
       289  -9.4579     13.6454    146.3595   2.9248532309e+02   5.9974473317e+00   0.01794478   0.01071782  53.75  0.001078286    1.975    0.494
       290  -9.4713    240.6665    144.8399   2.8988987498e+02   4.7040377403e+00   0.01692966    0.0121237 -16.98  0.001320349    1.724    0.420
       291  -7.9880    175.7537    146.5391   2.9063856769e+02   5.0604121246e+00   0.00906292  0.005900682  41.65  0.000926748    1.568    0.362
       292 -11.0665     68.8290    140.6947   2.9182224471e+02   5.7454726284e+00   0.04364976   0.02238076 -62.01  0.003227749    1.894    0.472
       293  -9.7503    125.1201    143.0211   2.9119436152e+02   5.3938203800e+00   0.02321693   0.01404891  72.05  0.001476556    2.433    0.589
       294  -8.1865    194.3985    144.1655   2.9041218175e+02   4.9799163171e+00  0.009158759  0.006266306 -80.83 0.0004677523    1.681    0.405
       295  -8.8036    165.5730    143.8360   2.9073838521e+02   5.1505574324e+00   0.01311269   0.01079677 -86.83  0.001100827    1.318    0.241
       296  -9.3069      3.1014    141.9622   2.9257954290e+02   6.1088701699e+00   0.02281426   0.01265851  63.35  0.001659871    2.670    0.625
       297  -8.3364    182.2027    141.9298   2.9053768022e+02   5.0763572532e+00   0.01011455  0.008616747  72.83 0.0006516277    1.283    0.221
       298  -8.4205    250.4912    141.0833   2.8975576887e+02   4.6904530528e+00  0.009814092  0.006412046 -64.68 0.0005692607    1.520    0.342
       299  -8.6393    242.5020    139.2360   2.8983557056e+02   4.7581174701e+00   0.01729028  0.008199592  56.61  0.001309446    3.217    0.689
       300  -9.7363     23.5869    138.4538   2.9232500155e+02   6.0317655707e+00   0.02684406   0.01466074  64.56  0.002003205    2.847    0.649
       301  -7.7492    218.6365    138.8135   2.9010446916e+02   4.9013449935e+00  0.009157158   0.00620541 -77.77 0.0004849753    1.654    0.395
       302  -8.6335    172.3683    138.4706   2.9062903536e+02   5.1732516323e+00   0.01364313  0.009517848  87.42 0.0007707107    1.780    0.438
       303  -8.0710    207.4917    138.0453   2.9022668866e+02   4.9747956016e+00   0.00972759  0.006455922 -67.26 0.0006337194    1.527    0.345
       304  -8.6016    197.5822    137.5636   2.9033658698e+02   5.0377621349e+00   0.01238558   0.00944281  89.43  0.000753047    1.511    0.338
       305 -10.3435     83.1830    133.2623   2.9161436942e+02   5.7486886072e+00   0.02897137   0.01677651 -63.26  0.001471583    1.698    0.411
       306  -9.4976     39.2130    136.2702   2.9213376578e+02   5.9671594241e+00   0.01536978   0.01130064  74.00   0.00103026    1.643    0.391
       307  -8.7408    246.8839    130.3863   2.8973293430e+02   4.8349025398e+00   0.01238514  0.009448332 -75.86 0.0006352447    1.386    0.279
       308  -9.1348    248.2693    135.3558   2.8974684505e+02   4.7694802982e+00   0.01590292    0.0110816 -63.89  0.000768085    1.416    0.294
       309  -8.8597    250.7237    130.9239   2.8969248981e+02   4.8064209056e+00    0.0211718  0.004975479 -60.24  0.001381388    3.749    0.733
       310  -8.2162    187.6799    135.5385   2.9043722826e+02   5.1185046110e+00   0.01130335  0.005953625 -63.05  0.000190532    1.866    0.464
       311  -8.2391    162.4917    136.1585   2.9072773497e+02   5.2571181876e+00   0.01046105  0.008727847  64.27  0.001211773    1.306    0.234
       312  -7.9874    124.9842    136.3419   2.9115615342e+02   5.4718257074e+00   0.01080168  0.005447429  -2.82 0.0007051154    4.414    0.773
       313  -7.5360    231.3689    134.1724   2.8993195485e+02   4.8811518117e+00  0.008749587  0.006217527 -77.05 0.0002659199    1.537    0.349
       314  -8.6334    179.4708    133.7026   2.9051974454e+02   5.1872449283e+00   0.01396236  0.009598034  73.68  0.001028748    1.864    0.463
       315  -9.2015    112.8731    133.2977   2.9127607213e+02   5.5769653685e+00   0.01637376   0.01201684  75.92 0.0009383111    1.654    0.395
       316  -7.5335    237.3203    133.6684   2.8986126573e+02   4.8524645610e+00  0.006956243   0.00492298  64.75 0.0007048904    1.695    0.410
       317  -9.1624    193.1268    131.4398   2.9035078421e+02   5.1343210557e+00   0.01717472   0.01030523 -70.43  0.001678573    1.776    0.437
       318  -9.1062    143.1104    131.7813   2.9092244276e+02   5.4197957062e+00   0.01639502   0.01091195  85.28 0.0007914871    1.970    0.492
       319 -10.2697    132.3615    130.9781   2.9104014320e+02   5.4912093752e+00    0.0299404   0.01976216 -88.16  0.002079335    1.913    0.477
       320  -8.4477    135.4969    124.5240   2.9096596905e+02   5.5476940341e+00  0.009772494  0.006500861  10.75 0.0009811781    1.767    0.434
       321 -10.7467     98.6275    130.0012   2.9141886133e+02   5.6973070999e+00   0.04620223   0.01571388 -62.29     0.003509    2.840    0.648
       322  -8.0270    204.9015    130.8751   2.9021339891e+02   5.0726390611e+00   0.01089246  0.007556753  65.13 0.0008588189    1.757    0.431
       323 -10.0123     12.9287    129.2340   2.9239189957e+02   6.1996529323e+00   0.02573498   0.01565802  76.89  0.002042869    2.447    0.591
       324  -9.1811    168.3763    129.5354   2.9062124314e+02   5.2996145175e+00   0.01386842    0.0102955  69.26 0.0009527773    1.597    0.374
       325  -9.5251    152.9282    128.2125   2.9078932490e+02   5.4042750445e+00   0.02842028   0.01187216 -62.83  0.001383276    2.347    0.574
       326  -9.9596     73.1627    128.7172   2.9170161884e+02   5.8590108452e+00   0.02425172   0.01419328 -69.90  0.001544511    1.814    0.449
       327  -8.6248     25.4836    130.0506   2.9225347983e+02   6.1180541956e+00   0.01456082  0.008545519   0.24  0.001275939    2.505    0.601
       328  -8.0092      1.7730    130.5567   2.9252705667e+02   6.2484241651e+00  0.009663393  0.005786647  40.36 0.0009513845    1.693    0.409
       329  -8.2908    211.6649    129.1442   2.9012610793e+02   5.0534448836e+00    0.0104177  0.008141845  88.17 0.0006454011    1.457    0.314
       330  -7.6703    186.3369    129.6858   2.9041762190e+02   5.1939078022e+00  0.006971877  0.004891314  62.49 0.0007046879    1.693    0.409
       331  -8.3600    162.4899    129.5336   2.9068827673e+02   5.3336945556e+00  0.006515858  0.006328906 -44.59 0.0008095379    1.022    0.022
       332 -10.7324     44.8084    123.4422   2.9199372556e+02   6.0833174561e+00   0.05402631   0.02851258  73.38  0.003926083    3.788    0.736
       333 -10.0070    117.9663    125.2386   2.9117003812e+02   5.6407227324e+00   0.02608847   0.01629004  75.60  0.001523534    2.297    0.565
       334 -10.4129     59.8494    124.9729   2.9183122111e+02   5.9790157247e+00   0.03469748   0.02008718  74.28  0.002469727    2.773    0.639
       335  -8.8334     59.5719    115.3517   2.9177718168e+02   6.0918656254e+00    0.0195292   0.01058588   1.91  0.001575552    2.992    0.666
       336 -10.0251    239.1935    124.3355   2.8978425976e+02   4.9493822379e+00   0.01219394   0.01076807 -57.20 0.0002270405    1.104    0.095
       337  -8.1960    228.5500    125.7707   2.8991387911e+02   4.9945324323e+00  0.009123813  0.006369053 -80.49 0.0008335802    1.627    0.385
       338  -8.8170    179.1812    124.8997   2.9047055908e+02   5.2906420152e+00   0.01186771    0.0100825  72.30 0.0007320055    1.288    0.224
       339 -10.1719     28.3717    122.3528   2.9217481209e+02   6.1904751987e+00   0.03786594   0.01994069  74.56  0.002717349    3.882    0.742
       340  -8.7235     27.2290    114.3366   2.9214023575e+02   6.2897453091e+00   0.01856621  0.006821003  17.96  0.001239253    4.004    0.750
       341  -8.3101    188.4860    124.0273   2.9035941006e+02   5.2468425850e+00   0.00997329  0.006387986 -63.61 0.0005563473    1.539    0.350
       342  -8.7940     84.7661    122.9318   2.9153486771e+02   5.8590076469e+00   0.01932858    0.0112468  -2.02  0.001665882    2.633    0.620
       343  -7.8807    202.7993    121.9856   2.9018429507e+02   5.1875142670e+00  0.008887924  0.005087629 -62.37 0.0004341499    1.707    0.414
       344  -7.8235    194.6598    121.8491   2.9027613142e+02   5.2362483189e+00  0.009542099  0.006118879 -78.46 0.0005939229    1.808    0.447
       345  -8.7965    171.9361    121.6603   2.9053375310e+02   5.3700144781e+00   0.01188769  0.009364011 -76.54 0.0003946078    1.335    0.251
       346  -9.1110    158.5810    121.5476   2.9068520503e+02   5.4486025971e+00   0.01348579   0.01071835  66.53 0.0007904278    1.416    0.294
       347  -9.6298     70.8385    119.7912   2.9167504754e+02   5.9756177099e+00   0.01971757   0.01218722  79.60  0.001194579    2.361    0.576
       348  -9.9630    141.4748    118.0754   2.9085942240e+02   5.5876684029e+00   0.02658546   0.01425627 -71.82  0.001110613    2.098    0.523
       349  -9.7117    130.6420    118.5889   2.9098594393e+02   5.6443545681e+00   0.01884043   0.01243096  76.01  0.001139755    2.035    0.509
       350  -9.5852      3.0735    117.7635   2.9243630251e+02   6.3889173453e+00   0.02387327   0.01431418  67.71  0.002148286    2.384    0.581
       351  -7.5582    231.3452    117.6558   2.8983364664e+02   5.0720390586e+00  0.007139214  0.004866824  63.83 0.0007045506    1.794    0.443
       352  -7.7319    159.3218    117.3354   2.9065165496e+02   5.4929931568e+00  0.007051392  0.004828295 -29.85 0.0007050295    1.708    0.414
       353  -9.8885    109.1380    114.1608   2.9120472407e+02   5.8197643753e+00   0.02447973   0.01492846  81.06  0.001387598    2.437    0.590
       354  -9.1981    109.3231    107.6790   2.9116400779e+02   5.8936175639e+00   0.01883232   0.01067032  -7.69  0.001534052    2.980    0.664
       355  -8.1045    219.4465    116.4985   2.8996210390e+02   5.1544039403e+00  0.006492884  0.006329719 -83.23 7.504917e-05    1.029    0.029
       356  -8.2019    193.0081    115.4344   2.9025666659e+02   5.3199225911e+00   0.01023108   0.00830987 -63.63 0.0001578826    1.211    0.174
       357  -8.7028    167.6308    115.5368   2.9054627707e+02   5.4656905875e+00   0.01387153   0.01002435 -85.68   0.00146965    1.606    0.377
       358  -9.9588     78.9748    112.7078   2.9154009157e+02   6.0106103044e+00   0.02659317   0.01679124  66.79  0.001835106    2.118    0.528
       359  -8.5867     78.4037    105.4524   2.9150342629e+02   6.0977800363e+00   0.01737774  0.009929218 -32.23  0.001551362    2.226    0.551
       360 -10.0193     92.6929    112.4526   2.9138209546e+02   5.9344342721e+00    0.0234664   0.01478231 -84.09  0.001196758    1.996    0.499
       361  -8.9515     92.9742    105.0060   2.9133455124e+02   6.0188909182e+00   0.01263584  0.009293397 -13.02  0.001238847    1.655    0.396
       362  -8.6692    175.0519    112.2544   2.9044217215e+02   5.4606562556e+00   0.01243143  0.009473427 -77.23  0.000657677    1.401    0.286
       363  -9.8324    133.5240    109.5648   2.9089932264e+02   5.7319948885e+00   0.02892462   0.01306191 -63.42  0.001760695    2.191    0.544
       364  -9.8890    121.7262    112.3415   2.9105035986e+02   5.7680840984e+00   0.01885671   0.01273473  75.51 0.0007046777    1.938    0.484
       365  -9.7719     14.2187    111.3652   2.9227109080e+02   6.3988891851e+00   0.02084198   0.01356905  74.64  0.001173961    2.083    0.520
       366  -8.6654    159.1736    111.9616   2.9062130459e+02   5.5559471870e+00   0.01175625   0.01031329  81.33 0.0006092454    1.224    0.183
       367 -10.0779     66.4478    110.7667   2.9167145829e+02   6.1052614362e+00   0.02120643   0.01476203  87.70  0.001273723    1.782    0.439
       368 -10.5925    248.9074    106.5766   2.8956775148e+02   5.0980684839e+00   0.03150813   0.01259735 -58.77   0.00262604    2.325    0.570
       369  -8.1891    189.3649    108.1944   2.9025494947e+02   5.4246649679e+00  0.009327747  0.006214643 -77.87 0.0006302353    1.697    0.411
       370  -9.2131    139.8386    104.6781   2.9079821615e+02   5.7519573331e+00   0.01670495   0.01176033  72.87 0.0008011075    1.777    0.437
       371 -10.5648     45.6894    101.2980   2.9185202847e+02   6.3342920667e+00    0.0495382   0.03053045 -80.16  0.003683518    1.964    0.491
       372 -10.6032     23.0099    102.8628   2.9212022102e+02   6.4466727956e+00   0.03783855    0.0208253  67.63  0.002765563    2.963    0.663
       373  -9.0271     43.0783    109.4995   2.9193059824e+02   6.2544979842e+00   0.01707695  0.006975092  20.34   0.00131127    2.973    0.664
       374  -8.4876    166.5544    104.3475   2.9049180449e+02   5.6012039572e+00   0.01122304   0.01015794  49.59 0.0006370781    1.135    0.119
       375  -9.4177    150.5291    103.1551   2.9066729319e+02   5.7077218542e+00   0.01800971   0.01217819  81.44  0.001139138    1.933    0.483
       376  -9.8664    128.4713    102.1130   2.9091250876e+02   5.8473184558e+00   0.01631218   0.01180645  64.13  0.000753027    1.627    0.385
       377  -8.7239      6.5087    103.1564   2.9231035764e+02   6.5381000170e+00    0.0130077  0.009180249  40.39  0.001318281    1.439    0.305
       378  -7.7970    175.5290    102.4876   2.9037847187e+02   5.5707286083e+00  0.006570124  0.006273679  74.85 0.0001519451    1.075    0.070
       379 -10.5587    109.5385     99.3004   2.9111163697e+02   5.9892127821e+00   0.03583094   0.01558657  50.32  0.002783477    2.988    0.665
       380  -8.3869    159.8149    101.1083   2.9054926882e+02   5.6776379425e+00   0.01015076  0.008615837  73.13 0.0005380987    1.291    0.225
       381  -9.0654     82.1136    100.0447   2.9142890809e+02   6.1388961180e+00   0.01792816   0.01162667  68.51  0.001094585    2.037    0.509
       382  -9.1318     95.0175     97.0822   2.9126405217e+02   6.0986874346e+00   0.01409368   0.01039064 -85.09 0.0005926562    1.549    0.354
       383 -10.0833     63.9985     96.0706   2.9161196106e+02   6.2892689782e+00   0.02582042   0.01528691  67.50  0.001632274    2.453    0.592
       384  -8.7047    151.4839     95.2635   2.9060934366e+02   5.7933773338e+00   0.01612294   0.00870325 -22.11  0.001265697    3.127    0.680
       385  -8.2764    176.7479     93.3834   2.9031025673e+02   5.6688365698e+00   0.01184318  0.008522185  80.59 0.0008099004    1.716    0.417
       386  -8.2200    164.8683     94.1589   2.9045022920e+02   5.7286708578e+00   0.01020053  0.008600143  68.14 0.0005990893    1.297    0.229
       387  -9.3338    139.0285     92.2032   2.9073306554e+02   5.9007882879e+00   0.02096534   0.01338952 -79.50  0.001408107    1.842    0.457
       388 -10.0400    123.8775     91.5773   2.9090208070e+02   5.9956179727e+00   0.02406227   0.01962267   1.20  0.001336875    1.369    0.270
       389  -7.7267    188.4943     93.5521   2.9017747081e+02   5.5988365358e+00  0.006525965   0.00629502  73.03 0.0001741575    1.059    0.056
       390  -8.9192    108.6949     92.3130   2.9107962002e+02   6.0748368494e+00   0.02058186    0.0116171   0.76  0.001733902    2.749    0.636
       391  -9.3299      5.7364     92.3885   2.9225520887e+02   6.6670300913e+00   0.02467753     0.010527  48.38  0.001642305    2.875    0.652
       392  -9.5982     34.8438     90.0866   2.9190915758e+02   6.5263162496e+00   0.02264523   0.01371962  85.45  0.001764158    2.418    0.586
       393  -7.6244    157.9531     91.7525   2.9051467019e+02   5.7965009066e+00  0.008173062  0.005641021  24.80 0.0004157365    1.495    0.331
       394  -9.0142     23.0968     90.2771   2.9204441727e+02   6.5916778033e+00   0.01751742   0.01158448  19.52  0.001243811    1.630    0.387
       395  -8.0419    150.5540     89.0521   2.9058288696e+02   5.8705176719e+00   0.01004272  0.006367409 -64.16 0.0004276653    1.562    0.360
       396  -8.9616     65.9140     87.4816   2.9153897033e+02   6.3775065024e+00   0.02998457   0.01465967  -4.92  0.001778885    5.730    0.825
       397  -9.8783     86.3445     86.6772   2.9130102113e+02   6.2689893796e+00   0.02148704   0.01428726  66.32  0.001074095    1.911    0.477
       398  -9.0084     86.7916     81.2268   2.9126344623e+02   6.3293944358e+00   0.01906166   0.01030004   2.99  0.001543783    2.956    0.662
       399  -7.4580    179.2645     85.6505   2.9023542756e+02   5.7435723998e+00  0.006713916   0.00497569  71.55 0.0003953965    1.614    0.380
       400  -9.6893    104.8948     83.3287   2.9106941869e+02   6.2006027073e+00    0.0215023   0.01441262  77.23     0.001373    1.973    0.493
       401  -8.4199    105.2247     77.0410   2.9102816976e+02   6.2713474521e+00   0.01328571   0.00887983  -2.73 0.0009906566    1.953    0.488
       402  -9.6925     48.4269     84.2868   2.9171957205e+02   6.5151729346e+00   0.02497248   0.01444726  63.60  0.001688218    2.445    0.591
       403  -8.2296    157.9893     83.9852   2.9046790772e+02   5.8860159439e+00    0.0098462  0.009326145 -70.13 0.0004505621    1.046    0.044
       404  -9.1213    140.6937     82.7669   2.9065779302e+02   6.0001742253e+00   0.01746686   0.01104182 -77.48 0.0009207573    1.823    0.452
       405  -8.0180     35.3318     82.3386   2.9185749488e+02   6.6130672922e+00  0.007107437  0.004810907 -29.51 0.0002567992    1.742    0.426
       406  -9.6116     24.5467     80.3749   2.9196897289e+02   6.6977999020e+00   0.02321294   0.01356093  88.55  0.001400985    2.568    0.611
       407  -9.2219      9.9055     81.1605   2.9214086128e+02   6.7728746349e+00   0.01731792   0.01003847  55.57  0.001160812    2.130    0.530
       408  -8.1590    150.5492     80.8276   2.9053386693e+02   5.9655522624e+00  0.009237124  0.006307248 -83.56 0.0009313339    1.732    0.423
       409  -8.9604    119.3928     80.0799   2.9088466949e+02   6.1543807194e+00   0.01800457   0.01123979 -74.39  0.001148363    1.780    0.438
       410  -8.9272     74.4566     80.4682   2.9139970087e+02   6.4093136057e+00   0.01464771   0.01076341  88.31  0.001114904    1.615    0.381
       411  -8.2682    166.7388     79.9195   2.9034392797e+02   5.8823148107e+00  0.009065412  0.008288293 -66.78 0.0004081921    1.080    0.074
       412  -9.3759     65.3087     77.6675   2.9148743769e+02   6.4944176046e+00    0.0155275   0.01242429  84.33  0.001589863    1.416    0.294
       413  -9.8291     63.3898     73.6298   2.9148529414e+02   6.5521362574e+00   0.02172015   0.01296732 -79.72  0.001330187    2.059    0.514
       414  -8.5544    184.0108     78.2789   2.9013734186e+02   5.8012007050e+00  0.008960425  0.008686533  35.84 0.0004942998    1.050    0.048
       415  -8.1498     49.6550     77.6990   2.9166633730e+02   6.5842395665e+00  0.006943373  0.004885726 -26.41 0.0002577151    1.681    0.405
       416  -7.6715    157.2693     76.6348   2.9043224237e+02   5.9750831719e+00  0.006802802  0.004965557  71.48 0.0006096794    1.657    0.397
       417  -8.5875    140.6275     75.4950   2.9061515807e+02   6.0845593942e+00   0.01284445  0.009311205  75.38 0.0006584265    1.692    0.409
       418  -9.3636    127.9887     75.2447   2.9075779097e+02   6.1605488351e+00   0.01546776   0.01144598  75.82 0.0008120648    1.631    0.387
       419  -8.1728    163.2958     73.3803   2.9034412397e+02   5.9777751646e+00   0.01089001  0.007831931  87.10 0.0006989875    1.688    0.407
       420  -9.5742     82.3773     72.7364   2.9126322875e+02   6.4529710819e+00     0.018404   0.01230183  89.08   0.00100062    1.910    0.476
       421  -8.3528    151.3933     73.2755   2.9047917028e+02   6.0478961543e+00  0.008987499  0.006302201 -76.73  0.000936259    1.561    0.359
       422  -8.5684    115.5787     72.6875   2.9088408704e+02   6.2618259467e+00   0.01409534  0.008557511 -56.47  0.001063545    1.575    0.365
       423  -9.0854    105.8729     71.9040   2.9099014356e+02   6.3269530617e+00   0.01369336  0.009286643 -84.51 0.0007899818    1.766    0.434
       424  -8.2857     42.4823     72.7601   2.9171883690e+02   6.6826143546e+00   0.01218515  0.006598348 -70.92 0.0007838313    2.033    0.508
       425  -7.5778    175.5065     72.5558   2.9020005076e+02   5.9165662720e+00  0.006501822  0.006313402 -39.82 0.0001167942    1.029    0.028
       426  -9.2324     95.0980     71.1743   2.9110874027e+02   6.3976043423e+00   0.01701838   0.01095859 -85.98 0.0009397024    1.962    0.490
       427  -7.5203    170.4598     71.4547   2.9025098220e+02   5.9585195022e+00  0.006494939  0.006313721  81.08 0.0001291613    1.045    0.043
       428  -9.5986     51.3517     69.4447   2.9159781572e+02   6.6698535097e+00   0.02156482   0.01211637 -82.04  0.001493244    2.399    0.583
       429  -8.5935     28.4918     70.9927   2.9186809698e+02   6.7835443119e+00   0.01355951  0.009694881 -25.10  0.001013562    1.652    0.395
       430  -8.4120     32.0725     68.4356   2.9181198100e+02   6.7924948416e+00    0.0151274   0.01012771 -15.07 0.0009840456    1.966    0.491
       431  -8.8516     16.6143     70.2811   2.9199953107e+02   6.8600615947e+00   0.01416682    0.0105736  86.75 0.0007366714    1.581    0.368
       432  -8.0566    157.3490     70.1748   2.9039276764e+02   6.0492293915e+00  0.009115214   0.00615691 -77.18 0.0003836409    1.652    0.394
       433  -8.7984    147.1104     68.4033   2.9049891414e+02   6.1289555864e+00   0.01241488  0.009300979 -73.26  0.000578454    1.393    0.282
       434  -8.7696    138.8230     66.2824   2.9058075167e+02   6.2014056651e+00   0.01410342  0.009213723 -84.66 0.0008084138    1.886    0.470
       435  -8.9151    121.5625     66.1281   2.9077669464e+02   6.3030095613e+00   0.01431924   0.01033051  76.49 0.0006988624    1.709    0.415
       436  -7.9855    155.3435     65.6946   2.9038887850e+02   6.1125788447e+00  0.006964196  0.004873732  61.49 0.0007041749    1.688    0.408
       437  -8.8582    110.1205     63.8327   2.9089353791e+02   6.3956517010e+00    0.0138987   0.01028675  88.78 0.0006341566    1.593    0.372
       438  -8.7238     64.4136     63.6804   2.9141433088e+02   6.6611951420e+00   0.02481734    0.0129568 -19.96  0.001823474    3.659    0.727
       439  -8.6755     37.3343     64.3198   2.9172738111e+02   6.8097766110e+00   0.01510987   0.01096643  87.82  0.001018481    1.654    0.395
       440  -8.2428     85.0353     64.3140   2.9118268574e+02   6.5349420713e+00   0.01070595  0.005387354  -1.94 0.0007046711    4.335    0.769
       441  -8.3974    158.2455     62.0062   2.9033376998e+02   6.1383662729e+00  0.009081315  0.008284089 -69.38 0.0003662552    1.089    0.082
       442  -9.2700     97.6607     60.7607   2.9101739586e+02   6.5031079567e+00   0.01461598   0.01113932  38.71 0.0009865955    1.327    0.246
       443  -8.0002    147.3342     59.2166   2.9044151227e+02   6.2337499741e+00  0.009213737    0.0061173 -75.14 0.0004149412    1.654    0.395
       444  -9.5777     73.3880     59.6630   2.9128792246e+02   6.6558642603e+00   0.01858862   0.01230266 -83.08  0.001017696    1.813    0.448
       445  -9.7908     23.5133     56.5629   2.9183907980e+02   6.9789118626e+00   0.02483276   0.01433565  76.97  0.002071927    2.834    0.647
       446  -8.4496    130.9178     57.9738   2.9062131349e+02   6.3430895634e+00   0.01050374  0.007652278  69.39 0.0005581868    1.651    0.394
       447  -9.4307      7.4090     57.2938   2.9202743051e+02   7.0630296812e+00   0.01673447   0.01168115  75.18  0.001429312    1.815    0.449
       448  -9.4576    119.0435     55.2124   2.9074029044e+02   6.4436431677e+00   0.02175549   0.01125695 -71.47  0.001468109    2.189    0.543
       449  -9.5127     54.3093     55.6130   2.9148164459e+02   6.8126242281e+00   0.01734662   0.01216845 -88.33  0.001095846    1.718    0.418
       450  -8.1104    140.1373     56.2218   2.9050570014e+02   6.3099834816e+00  0.009209807  0.007545566  69.35 0.0004778077    1.359    0.264
       451  -8.6973     44.0292     55.4121   2.9159786144e+02   6.8741535787e+00   0.01396349  0.009199918 -77.79 0.0008765955    1.721    0.419
       452  -8.6105    105.6542     53.2598   2.9088142034e+02   6.5435737829e+00   0.01343459   0.00977435  65.94 0.0007277307    1.629    0.386
       453  -8.5739    133.4549     51.5512   2.9055402832e+02   6.4025782895e+00   0.01028565  0.008095229 -54.24 0.0004498756    1.234    0.190
       454  -8.5381    130.0068     49.4865   2.9058103222e+02   6.4463659885e+00   0.01402954  0.009927109  67.72 0.0009538161    1.725    0.420
       455  -9.3926     92.3690     50.7247   2.9101792870e+02   6.6495801290e+00   0.01780451   0.01159408 -83.14  0.001089252    1.865    0.464
       456  -8.8905    248.5349     48.3089   2.8922364154e+02   5.7726217497e+00   0.01260097   0.01039456  -9.62  0.001307579    1.366    0.268
       457  -7.6561    158.3423     49.6790   2.9025903003e+02   6.2801293351e+00  0.007024921  0.004878929  62.62 0.0003927796    1.723    0.420
       458  -7.6279    149.7612     48.9660   2.9035261428e+02   6.3380529672e+00  0.008385156  0.005394601 -61.42  0.000314919    1.513    0.339
       459  -7.8978    144.8045     48.9511   2.9040905073e+02   6.3669201392e+00  0.008962858  0.005007727 -61.62 0.0004961045    1.739    0.425
       460  -8.7605    120.9277     47.4058   2.9067219142e+02   6.5228976429e+00   0.01222073  0.009008255 -54.49 0.0005215143    1.313    0.239
       461  -8.5100    112.3244     47.0192   2.9076805368e+02   6.5770967251e+00   0.01171007  0.008554856  58.13 0.0006143729    1.545    0.353
       462  -8.8768     82.0370     46.5318   2.9111087130e+02   6.7576409086e+00   0.01400167   0.01035433 -79.64 0.0007744392    1.485    0.327
       463  -8.4187     45.0391     45.0000   2.9152428682e+02   6.9886129776e+00   0.01003792  0.009280122  76.05 0.0005379171    1.130    0.115
       464  -8.9429     16.5541     44.7383   2.9184819492e+02   7.1555236305e+00   0.01405681  0.009980635 -82.10 0.0009272074    1.606    0.377
       465  -8.8468    133.0159     43.5545   2.9051127905e+02   6.4974464447e+00     0.012311  0.009144064  88.45 0.0007464163    1.586    0.370
       466  -8.8813     58.0621     42.6419   2.9136146845e+02   6.9408251965e+00   0.01742626  0.009663548 -80.74  0.001325635    2.399    0.583
       467  -8.5096     92.6607     42.8647   2.9096770180e+02   6.7386662919e+00   0.01106537  0.007668977 -43.55  0.001172093    1.474    0.322
       468  -9.2128     69.5365     41.7010   2.9122480276e+02   6.8855427086e+00    0.0170613   0.01151566  81.70 0.0008338525    1.940    0.484
       469  -9.1987      5.3682     42.2964   2.9196149566e+02   7.2480082351e+00   0.01603114   0.01159084  84.20  0.001385089    1.688    0.407
       470  -8.6934    105.9469     41.2606   2.9080646411e+02   6.6804444368e+00    0.0138688  0.008999299 -75.66  0.000670128    1.717    0.418
       471  -7.6165    140.4436     41.5015   2.9041428807e+02   6.4781639530e+00  0.006502898  0.006309439 -53.62 5.379135e-05    1.012    0.012
       472  -8.5726     36.9183     40.8715   2.9159246305e+02   7.0830483755e+00    0.0116741  0.009547297  85.81 0.0007500303    1.362    0.266
       473  -8.8779     95.3059     37.9789   2.9090834471e+02   6.7798064586e+00   0.01321463  0.009692902  86.46  0.000873406    1.634    0.388
       474  -8.5652     80.5336     37.0023   2.9107118573e+02   6.8763624044e+00   0.00993201  0.006376443 -63.83 0.0004045074    1.538    0.350
       475  -9.3363     26.1666     35.5330   2.9168351202e+02   7.2065689641e+00   0.01595561   0.01109893 -82.65 0.0008640175    1.666    0.400
       476  -7.4355    133.6515     36.2886   2.9046062515e+02   6.5776471003e+00  0.006912284  0.004850137  59.89 0.0007024527    1.661    0.398
       477  -8.1046    125.9891     35.7058   2.9054456852e+02   6.6287050191e+00  0.009003482  0.008422992  17.55 0.0003480298    1.098    0.090
       478  -8.6276    111.8414     34.6220   2.9069954944e+02   6.7230238956e+00   0.01227843  0.009488031 -79.00 0.0006635184    1.391    0.281
       479  -8.0486     88.5029     34.5080   2.9096530054e+02   6.8591630154e+00  0.006544403  0.006302215  76.28 -7.371465e-05    1.062    0.058
       480  -8.9422     48.3694     33.5189   2.9141780069e+02   7.1020255324e+00   0.01131321  0.009946808 -78.29 0.0006388691    1.168    0.143
       481  -8.4052     60.7505     32.8130   2.9127214409e+02   7.0388342747e+00    0.0114367  0.008741662  86.02 0.0004687654    1.523    0.344
       482  -8.6693     71.9847     31.0057   2.9113303864e+02   6.9949219259e+00   0.01153682    0.0091069 -82.59 0.0007609371    1.378    0.274
       483  -8.7137     12.9117     30.3823   2.9180432231e+02   7.3422624372e+00   0.01600762  0.009550269 -72.34   0.00106559    1.836    0.455
       484  -8.3734    119.1185     33.0935   2.9060736714e+02   6.6985958890e+00   0.01044434  0.007617776  67.95 0.0004955991    1.639    0.390
       485  -7.9355    161.7508     28.9672   2.9009637790e+02   6.4994330966e+00  0.008878727  0.005473132 -61.61 0.0007917887    1.580    0.367
       486  -8.1634    101.6133     29.3750   2.9078496953e+02   6.8427038733e+00  0.009772557  0.007325009  66.26 0.0006471952    1.554    0.357
       487 -10.5642    143.0985     27.6707   2.9030135757e+02   6.6224329892e+00   0.01298079   0.01097753 -28.22 0.0001582198    1.261    0.207
       488  -8.5079      3.6550     27.8448   2.9189502637e+02   7.4247499183e+00   0.01272012  0.009281844  71.13 0.0007713124    1.657    0.396
       489  -8.7976     91.7655     26.4237   2.9087978638e+02   6.9336553085e+00   0.01407248  0.009465535 -77.99 0.0007344437    1.676    0.403
       490  -8.8992     81.3371     27.5331   2.9100549884e+02   6.9810523036e+00   0.01524075   0.01034831  73.19 0.0009630285    1.908    0.476
       491  -9.0107     63.5432     21.0407   2.9117000598e+02   7.1586468486e+00   0.01522002   0.01051213  77.62  0.000893822    1.860    0.462
       492  -8.8421     48.3490     21.9521   2.9134905240e+02   7.2356919417e+00   0.01194254   0.01030213  59.60 0.0006736691    1.232    0.188
       493  -8.8821     74.1559     19.7383   2.9104099339e+02   7.1124713274e+00   0.01430269  0.009815156  84.22 0.0007917156    1.864    0.464
       494  -7.9266     19.5438     21.5129   2.9167566031e+02   7.4065461534e+00  0.006490095  0.006323364  89.38 7.351309e-05    1.038    0.037
       495  -7.5615     11.5394     20.5216   2.9176125966e+02   7.4640048684e+00    0.0064867  0.006326255  88.52 0.0003493941    1.038    0.036
       496  -8.0140     87.8238     17.7906   2.9087324990e+02   7.0560654780e+00  0.009017564   0.00754675  70.18  0.000470159    1.317    0.241
       497  -7.6979     39.2603     18.6547   2.9143325165e+02   7.3260991694e+00  0.006663365    0.0049712  71.83 0.0002781042    1.597    0.374
       498  -7.9253    112.9513     17.0152   2.9058170524e+02   6.9198277927e+00  0.007870239  0.007434119 -62.08 0.0004096969    1.039    0.037
       499  -7.7459     30.1301     16.1419   2.9152262503e+02   7.4076571799e+00  0.009096139  0.007559003  76.75  0.000551023    1.340    0.254
       500  -7.7883      1.6653     16.3616   2.9184936866e+02   7.5687585267e+00  0.007143391  0.004864685  64.98 0.0007037848    1.814    0.449
       501  -7.9149      7.5340     15.5006   2.9177713328e+02   7.5449850698e+00  0.006584295  0.006233916  72.98 0.0001539782    1.091    0.083
       502  -7.8511     17.1943     14.1865   2.9165884934e+02   7.5046327399e+00  0.009169854  0.007479796  63.36 0.0005586938    1.349    0.259
       503  -7.6193    119.7111     11.3539   2.9047070651e+02   6.9460612490e+00   0.00686595  0.004954713  68.61 0.0007025723    1.674    0.403
       504  -9.1156    218.7060    247.1536   2.9074879985e+02   3.6491183843e+00   0.02352508  0.007937937 -61.75  0.001779803    2.830    0.647
       505  -7.6898     76.3316     10.6380   2.9096180543e+02   7.2049488399e+00  0.007132981  0.004875513  65.27 0.0007039059    1.806    0.446
       506  -8.6051    201.4732    249.0210   2.9095573947e+02   3.7271577575e+00   0.01915261  0.009694188  -2.71  0.001295178    4.326    0.769
       507  -9.2952    175.7724    247.7449   2.9124033862e+02   3.8904033800e+00   0.01889968    0.0125103  71.08  0.001238283    1.986    0.496
       508  -8.9113    156.6136    248.7188   2.9146399816e+02   3.9897802494e+00   0.01578491  0.009036711  51.55  0.001222417    2.029    0.507
       509  -8.2177    113.1916    248.7589   2.9195823020e+02   4.2398319469e+00   0.01283575  0.007637426 -82.66  0.001173311    2.167    0.539
       510  -9.0607    104.0162    247.1988   2.9205340005e+02   4.3107661614e+00   0.02005745   0.01135397 -86.89  0.001588507    2.585    0.613
       511  -8.9664    243.1361    246.7289   2.9046874012e+02   3.5127413947e+00   0.02200969  0.009195156 -54.94  0.001630174    2.215    0.549
       512  -8.5637    132.1986    247.7955   2.9173625255e+02   4.1413560237e+00   0.01236975  0.009487481  73.31  0.000736097    1.524    0.344
       513  -8.5225     62.9201    248.4994   2.9252886794e+02   4.5323982861e+00    0.0101945  0.006494748  26.74  0.001037316    1.603    0.376
       514  -9.9885    223.9696    244.3544   2.9067235113e+02   3.6510261324e+00   0.02796554   0.01409458 -75.86  0.002137212    2.541    0.606
