#   1 NUMBER                 Running object number                                     
#   2 MAG_AUTO               Kron-like elliptical aperture magnitude                    [mag]
#   3 X_IMAGE                Object position along x                                    [pixel]
#   4 Y_IMAGE                Object position along y                                    [pixel]
#   5 X_WORLD                Barycenter position along world x axis                     [deg]
#   6 Y_WORLD                Barycenter position along world y axis                     [deg]
#   7 A_WORLD                Profile RMS along major axis (world units)                 [deg]
#   8 B_WORLD                Profile RMS along minor axis (world units)                 [deg]
#   9 THETA_WORLD            Position angle (CCW/world-x)                               [deg]
#  10 FWHM_WORLD             FWHM assuming a gaussian core                              [deg]
#  11 ELONGATION             A_IMAGE/B_IMAGE                                           
#  12 ELLIPTICITY            1 - B_IMAGE/A_IMAGE                                       
         1 -14.7614    156.9358     44.1944   8.5692389106e+01   4.0684135206e+01     1.317741     1.071018 -19.07  0.003875629    1.266    0.210
         2 -12.6624    189.5414     14.5401   7.0712872059e+01   3.5839212972e+01     1.184186    0.4381157 -53.84  0.003670101    4.078    0.755
         3 -14.4545    166.8359     14.5014   7.3888754925e+01   4.1794924100e+01     1.467878     1.059092  38.74  0.005732998    1.419    0.295
         4 -14.2524    168.6125      8.7751   7.1721428664e+01   4.1900135915e+01     1.181323    0.4655116  69.92  0.003959993    2.492    0.599
         5 -14.3364    207.5049    177.9928   1.1048284351e+02   6.2185275896e+00    0.9509844    0.6623285 -36.31  0.003979944    1.559    0.359
         6 -19.9847     94.2085    232.6587   1.3923743668e+02   1.6905346103e+01     7.573119     5.458958  68.49   0.04973086    1.157    0.136
         7 -12.3010    203.1656    172.5441   1.1022343295e+02   7.8862717918e+00    0.4008612    0.2971352 -34.76  0.001875106    1.445    0.308
         8 -11.9426     21.8446    237.8755   1.5118346692e+02   2.4926028640e+01    0.1523528    0.1042689  82.41 0.0007648737    1.175    0.149
         9 -14.6907    177.5054    172.1971   1.1509258311e+02   1.2982997165e+01    0.9952927    0.6750576 -54.76  0.005068285    1.794    0.443
        10 -13.0035    185.6968    168.4250   1.1275165209e+02   1.1999405285e+01    0.5956141    0.2628074 -45.53  0.002447911    2.558    0.609
        11 -12.1887    230.0492    166.5941   1.0415490216e+02   3.5864628363e+00    0.3762236    0.1699081 -44.15  0.001562458    2.776    0.640
        12 -12.1860    201.2223    165.1429   1.0910385461e+02   9.4369049715e+00    0.3950811    0.2941258 -65.43  0.001265487    1.998    0.500
        13 -11.4230    222.6021    162.0019   1.0451679521e+02   5.6891813054e+00    0.3206353    0.2137865 -55.11  0.001103265    2.220    0.550
        14 -11.5060      4.7004    161.1739   1.4976298100e+02   4.0698667293e+01    0.3907788    0.1553245  72.08  0.002023851    2.553    0.608
        15 -12.2743    175.5008    233.4885   1.2531854106e+02   4.0633069875e+00    0.2558643    0.1804501 -52.16   0.00166996    1.875    0.467
        16 -10.8154     22.9995    156.0567   1.4565064826e+02   4.0190367325e+01    0.1728233    0.1319514  89.26 0.0004820031    1.017    0.017
        17 -11.4277    191.7107    154.1811   1.0865071131e+02   1.3190251933e+01    0.3742485    0.2426017  -5.42  0.001599937    2.371    0.578
        18 -12.2672     18.1108    151.5208   1.4628035085e+02   4.1584272767e+01    0.4858794    0.1348373 -67.78  0.002247188    2.704    0.630
        19 -10.9426     16.3090    249.9379   1.5252234326e+02   2.3566961702e+01     0.127501   0.07507564  83.36 0.0008543296    1.320    0.242
        20 -10.8550    183.0170    149.9767   1.0947812339e+02   1.5740123484e+01    0.2187423    0.1787186 -86.76 0.0005206806    1.650    0.394
        21 -13.5113    173.9982    148.3047   1.1096021184e+02   1.7938245914e+01    0.5373334    0.3818318 -55.30  0.002020661    1.630    0.386
        22 -11.6406      8.0222    148.5910   1.4816446597e+02   4.3034683965e+01    0.2209815    0.1150738 -65.78  0.001377407    1.652    0.395
        23 -12.6317     27.9208    144.9298   1.4351978425e+02   4.2104887408e+01    0.3723634    0.2974624  81.42  0.001777635    1.095    0.087
        24 -12.3553    176.6292    142.9628   1.0924616262e+02   1.8363926632e+01    0.2910018    0.2156656  55.03 0.0008354426    1.390    0.281
        25 -12.4979    176.1125    229.1683   1.2462472470e+02   4.5354218611e+00     0.307253    0.2391506  11.28  0.001162683    1.545    0.353
        26 -10.8287     28.1324    138.0976   1.4274245864e+02   4.3568817104e+01    0.1679451    0.1343718 -69.65 0.0003522512    1.199    0.166
        27  -9.6258     13.3388    135.2558   1.4584017061e+02   4.5451776753e+01    0.1030943   0.07490783 -52.33 0.0005964049    1.576    0.366
        28 -11.6125      3.5447    134.7032   1.4799502872e+02   4.6301376906e+01    0.1992463    0.1194906 -65.98 0.0008397602    1.428    0.300
        29 -12.2376    156.1648    132.8414   1.1134253854e+02   2.4676934663e+01    0.2821634    0.2113068 -43.55   0.00062349    1.364    0.267
        30 -13.5012    160.2767    128.1475   1.0934028154e+02   2.4719323019e+01    0.4982059    0.4433503 -54.10  0.001899534    1.164    0.141
        31 -11.6610    153.7092    125.4442   1.1016271082e+02   2.6677406138e+01    0.2836012    0.1447523  51.57  0.001120529    2.018    0.504
        32 -13.1546     38.0123    124.1573   1.3863251354e+02   4.5706234045e+01    0.4096568    0.2426179  22.68  0.002279562    2.342    0.573
        33 -11.1269    150.7558    240.2688   1.3040783474e+02   7.1595477590e+00     0.213669    0.1733929  77.24  0.001399604    1.424    0.298
        34 -12.9536    198.7230    223.0448   1.1981169177e+02   1.5454680309e+00     0.332458    0.2350686  25.70   0.00136095    1.310    0.237
        35 -19.0585     79.0732     92.7370   1.2133559906e+02   4.7750261655e+01     16.87928    0.7467631 -53.02   0.02318528   19.310    0.948
        36 -10.8908    205.4296    110.1839   9.5634287767e+01   1.7760557807e+01    0.3336417    0.2096413  42.00 0.0009189257    1.631    0.387
        37 -12.2095    142.1869    121.4547   1.1185723551e+02   2.9942735748e+01    0.4368596    0.2591246  69.25  0.001644199    2.672    0.626
        38 -11.0279     18.2833    220.8445   1.5088964336e+02   2.8156798941e+01     0.129126   0.08521287  88.85 0.0004188903    1.233    0.189
        39 -11.9035     31.4716    104.4754   1.3744390904e+02   5.0739473849e+01    0.3072997    0.2105447   2.09  0.001807114    2.248    0.555
        40 -12.0147     96.8155     96.2596   1.1716994110e+02   4.4118500039e+01    0.3305565    0.2221086  54.37 0.0007393907    1.708    0.415
        41 -10.6535     12.6851    243.1032   1.5275666597e+02   2.5006508966e+01    0.1097524   0.09578153 -88.71 0.0008932952    1.625    0.385
        42 -12.4691     52.7370     91.6360   1.2889151201e+02   5.1468482913e+01    0.3138202    0.2960389  -6.52  0.001295146    1.269    0.212
        43 -11.1982     41.9610     92.2476   1.3224829298e+02   5.2488579610e+01    0.2415983    0.1607135 -71.20 0.0007590023    1.357    0.263
        44 -11.1947     23.9370    217.0607   1.4978402802e+02   2.8245878222e+01    0.1455149    0.1056812  77.69 0.0004157153    1.078    0.073
        45 -10.7632     28.5499    239.8473   1.5027688435e+02   2.3901046414e+01    0.1311818   0.08189762  79.15 0.0003740299    1.215    0.177
        46 -13.0810     12.0953    205.8290   1.5110674983e+02   3.1426237731e+01    0.4740024    0.2539793  30.19  0.003084222    2.606    0.616
        47 -10.9809    142.0095     80.5206   1.0079603506e+02   3.8195937210e+01    0.2378776      0.20627 -34.76 0.0005062781    1.130    0.115
        48 -14.6180    146.3202     59.3619   9.3062165731e+01   4.0960056504e+01     1.324291     1.079176   1.21  0.004779915    1.379    0.275
        49 -10.4311     31.4941    205.3622   1.4781167646e+02   2.9566199526e+01    0.1585465    0.1418258  85.81   0.00130565    1.411    0.291
        50 -13.1221    160.5626     35.1375   8.1923848916e+01   4.1005644199e+01    0.4510266    0.4167953  32.77 0.0008356182    1.069    0.064
        51 -10.3267     19.5112    197.2381   1.4936279442e+02   3.2302581985e+01    0.1252613   0.08026559 -73.27 0.0005391083    1.494    0.331
        52 -11.0756     13.4044     59.8701   1.3480210842e+02   6.1879090158e+01    0.1622292    0.1509409 -82.05 0.0004253921    1.268    0.211
        53 -13.9386    195.6837    171.2056   1.1137155513e+02   9.5641260636e+00    0.7991279    0.4539728 -48.70  0.002830559    2.149    0.535
        54 -10.9114    146.1110    245.7140   1.3181493260e+02   7.1462949122e+00    0.1675604    0.1554896 -59.65 0.0006383589    1.403    0.287
