#   1 NUMBER                 Running object number                                     
#   2 MAG_AUTO               Kron-like elliptical aperture magnitude                    [mag]
#   3 X_IMAGE                Object position along x                                    [pixel]
#   4 Y_IMAGE                Object position along y                                    [pixel]
#   5 X_WORLD                Barycenter position along world x axis                     [deg]
#   6 Y_WORLD                Barycenter position along world y axis                     [deg]
#   7 A_WORLD                Profile RMS along major axis (world units)                 [deg]
#   8 B_WORLD                Profile RMS along minor axis (world units)                 [deg]
#   9 THETA_WORLD            Position angle (CCW/world-x)                               [deg]
#  10 FWHM_WORLD             FWHM assuming a gaussian core                              [deg]
#  11 ELONGATION             A_IMAGE/B_IMAGE                                           
#  12 ELLIPTICITY            1 - B_IMAGE/A_IMAGE                                       
         1 -13.8088    204.6322     28.9481   3.5204359237e+02   3.2008957318e+01    0.8370718    0.6486351 -53.31  0.004057997    1.044    0.042
         2 -10.9905     62.0862    245.4664   6.3872823194e+01   1.4436611941e+01    0.2582364    0.1730461  -1.39  0.001479304    1.874    0.467
         3 -14.1051    247.2163    239.2057   2.7150364626e+01  -3.8277914602e+00     1.546514    0.3644528 -35.95  0.007540975    3.407    0.707
         4 -11.4086    178.9718    167.4745   2.6843032632e+01   1.4297415074e+01    0.3779112    0.2749852  11.37  0.001359409    1.503    0.335
         5 -11.2105    174.5348    180.4956   3.0090756891e+01   1.2596310507e+01    0.3225122    0.2363273 -26.02 0.0009508923    1.253    0.202
         6 -12.0216    172.5119    177.4748   2.9948883722e+01   1.3425278159e+01    0.4731624     0.334339 -25.59  0.002464564    1.344    0.256
         7 -18.7960     36.5684    134.6526   6.0161446961e+01   4.3712156022e+01     19.35985     4.417776 -73.76   0.04876108    5.161    0.806
         8  -9.3974    181.7220    201.3303   3.2250098645e+01   8.0790641495e+00    0.1044394   0.09973948 -79.01 0.0003767808    1.600    0.375
         9 -11.6992    143.6700    168.0413   3.4364175610e+01   1.9583634967e+01     0.263447    0.2033514  19.79 0.0006120779    1.329    0.248
        10  -9.9227    163.5160    200.9728   3.5773603634e+01   1.0457109832e+01    0.1810663    0.1178856 -43.04 0.0005326658    1.541    0.351
        11  -9.7809     83.3233    243.1786   5.8888685163e+01   1.2580954458e+01    0.1141078   0.07868735  10.26 0.0006586651    1.479    0.324
        12 -16.3165    118.9860    235.9314   5.0184827556e+01   9.8169735611e+00     5.667045     4.166492 -55.78   0.03572613    1.638    0.389
        13 -10.6001     64.7453    250.1584   6.3618433545e+01   1.3290762884e+01    0.1241034    0.1015138 -61.23 0.0003635459    1.487    0.328
        14 -12.1968     71.4708    229.0781   6.0369473740e+01   1.6605997926e+01    0.2022774     0.183213 -29.55 0.0009679053    1.283    0.221
        15 -12.2083    133.7186    145.8269   3.2329179032e+01   2.5964785076e+01     1.251743    0.3174252 -54.70  0.003013707    5.995    0.833
        16 -10.2758    129.2551    141.5800   3.2534773483e+01   2.7692255320e+01    0.2991007     0.191053 -32.20 0.0007815128    1.779    0.438
        17 -11.7929    154.7033    193.0700   3.6322521706e+01   1.3060746410e+01    0.2793977    0.2051091 -37.56 0.0007448632    1.322    0.243
        18 -13.0664     95.6992    148.2606   4.3022890251e+01   3.1878298068e+01    0.7006087    0.5004367  69.93  0.002038182    1.803    0.445
        19 -13.4350     99.1602    144.8442   4.1353178392e+01   3.2150902894e+01    0.8114184    0.5685521 -25.71  0.001954053    1.806    0.446
        20 -11.7638    110.7982    149.5704   3.9017726863e+01   2.9059362261e+01    0.4087393    0.2819047  65.84 0.0008382241    1.966    0.491
        21 -10.6921    109.0624    142.0563   3.7974905102e+01   3.1141553486e+01    0.2220654    0.2196103 -46.42 0.0003956927    1.007    0.007
        22 -11.9677    110.2301    132.4887   3.5597328569e+01   3.3217538732e+01    0.4961064    0.3359919 -16.57  0.002038603    2.215    0.549
        23 -12.0479     99.4185    130.8145   3.8351786530e+01   3.5560598400e+01    0.2994415    0.2759426 -31.94 0.0004408794    1.128    0.114
        24 -11.9916     88.2481    127.6412   4.1088109266e+01   3.8301088481e+01    0.3285162    0.2731641  56.81 0.0007153155    1.263    0.208
        25 -10.7915    116.4801    125.6713   3.2317724569e+01   3.3665651593e+01    0.2520161    0.1910495  10.45  0.000781655    1.714    0.417
        26 -10.4988    104.6145    120.4839   3.4446402628e+01   3.7126085252e+01     0.272403    0.2487687 -12.96 0.0005620761    1.209    0.173
        27 -10.9241     93.9930    117.8866   3.7047780952e+01   3.9729015614e+01    0.3036365    0.2561276  70.39 0.0007653366    1.314    0.239
        28 -10.4751    177.6306    117.5617   1.6714051091e+01   2.3720942327e+01    0.2975183    0.1810587 -65.30 0.0008848284    2.443    0.591
        29 -10.5494      9.5725    186.2550   7.3257710387e+01   3.2473617359e+01    0.1211872    0.1067324 -19.22 0.0003688144    1.406    0.289
        30 -10.5351     87.5138    113.8051   3.8140306398e+01   4.1921180252e+01    0.2620393    0.2154483  41.05 0.0003311521    1.232    0.188
        31 -12.1380    118.7078    110.6487   2.8037960216e+01   3.6669529104e+01    0.5682041    0.4155417  77.45  0.001801551    1.854    0.461
        32  -9.2793    144.6675    111.3157   2.1832100944e+01   3.1286538473e+01    0.1501523     0.115381 -81.96 0.0007046717    1.686    0.407
        33  -9.2901     93.6841    110.2644   3.5270110257e+01   4.1658567363e+01    0.1545593    0.1204939  73.51 0.0002592658    1.546    0.353
        34  -9.6976     79.3859    220.2924   5.7625668789e+01   1.7484113294e+01    0.2695049    0.1633235  42.42  0.001428473    1.494    0.330
        35  -9.7489    132.4926     98.4680   2.1325526637e+01   3.6448530732e+01     0.151823    0.1401297 -69.94 8.204963e-05    1.074    0.069
        36 -10.6161     77.1321    243.7832   6.0338740891e+01   1.3147422042e+01   0.09088434   0.07507691  62.86            0    1.333    0.250
        37  -9.5829    133.5429     87.7802   1.8134227928e+01   3.8381822310e+01    0.2037082     0.134944 -54.45 0.0004277467    1.525    0.344
        38  -9.9849     94.2525     88.5606   2.9118347623e+01   4.6668135372e+01    0.2899243    0.1461432  50.04  0.001099722    2.102    0.524
        39 -15.7709     68.4619    142.8128   5.0450860719e+01   3.7471277077e+01     2.437004     1.834894 -80.86   0.01172659    1.423    0.297
        40  -9.7462    152.6800     86.6696   1.3761279804e+01   3.4428667682e+01    0.1420563    0.1156288   3.20 0.0006059495    1.691    0.409
        41  -9.9481    119.4360     77.1316   1.8410562253e+01   4.3616181244e+01    0.2381202    0.1973404  87.69 0.0006637381    1.330    0.248
        42 -10.0900     67.5241     75.9723   3.4795355466e+01   5.4793413238e+01    0.2263472    0.1964394  41.12 0.0001198595    1.160    0.138
        43 -13.1179    167.2446     68.1457   6.2218865160e+00   3.4463460154e+01    0.4977868    0.4632417 -31.04 0.0008396963    1.203    0.169
        44 -13.7836    182.1260     55.2734   7.6471144390e-01   3.3222096744e+01     1.004994    0.8702176  20.51  0.003829104    1.606    0.377
        45 -12.0848    188.3450     48.7611   3.5838118913e+02   3.2825877436e+01    0.3474581    0.3109981 -34.23 0.0008678267    1.254    0.203
        46 -10.9369     53.2959     63.1075   3.6549078476e+01   6.0255072054e+01    0.4495243    0.1873818  41.60   0.00122547    2.413    0.586
        47 -11.6763    180.8378    170.8734   2.7121393908e+01   1.3417136897e+01     0.705409    0.3990341  16.86  0.003331696    2.336    0.572
