#   1 NUMBER                 Running object number                                     
#   2 MAG_AUTO               Kron-like elliptical aperture magnitude                    [mag]
#   3 X_IMAGE                Object position along x                                    [pixel]
#   4 Y_IMAGE                Object position along y                                    [pixel]
#   5 X_WORLD                Barycenter position along world x axis                     [deg]
#   6 Y_WORLD                Barycenter position along world y axis                     [deg]
#   7 A_WORLD                Profile RMS along major axis (world units)                 [deg]
#   8 B_WORLD                Profile RMS along minor axis (world units)                 [deg]
#   9 THETA_WORLD            Position angle (CCW/world-x)                               [deg]
#  10 FWHM_WORLD             FWHM assuming a gaussian core                              [deg]
#  11 ELONGATION             A_IMAGE/B_IMAGE                                           
#  12 ELLIPTICITY            1 - B_IMAGE/A_IMAGE                                       
         1 -11.2750    236.1778     29.9504   4.1346382851e+01   2.3077920757e+01    0.6150519    0.3908586 -19.80  0.003180996    1.945    0.486
         2 -10.9439    144.4021     21.0461   5.1098992810e+01   4.6549073708e+01    0.5718334    0.3326747  61.61  0.002520644    1.579    0.367
         3 -10.9322    149.5223     18.0799   4.9199856137e+01   4.5592915263e+01    0.3696348    0.3463684 -79.73 0.0009966067    1.123    0.110
         4 -10.7611    110.9023     18.9769   5.7468037305e+01   5.4775193197e+01    0.3303919    0.2963674  51.87  0.001158879    1.134    0.118
         5  -9.7314    105.4709     17.5044   5.8243789863e+01   5.6154653876e+01     0.310931    0.2027987 -17.80  0.001439663    1.608    0.378
         6 -10.1432    102.4671     13.4633   5.7369065528e+01   5.7243680406e+01    0.2629641    0.2387667  75.05 3.330336e-05    1.323    0.244
         7  -9.5842    154.9051     17.1211   4.7991728560e+01   4.4346818156e+01    0.3206888    0.1874185  -3.15 0.0009459245    2.368    0.578
         8 -10.1554     43.3594     15.8365   7.8977467783e+01   6.7732034506e+01    0.3750213    0.1526129 -38.36  0.001780815    2.360    0.576
         9 -10.6564     57.8453     13.9310   7.1942397782e+01   6.5822139460e+01    0.5206563    0.2909368   9.69  0.002534305    2.228    0.551
        10 -10.0525     17.3637      3.9558   8.5923319412e+01   7.2457637399e+01    0.2908726    0.1858646 -31.90  0.001462576    1.332    0.249
        11 -10.9164     21.9001     14.8300   8.8875294910e+01   7.0393606873e+01    0.3623869    0.2346956  12.95  0.002343227    1.527    0.345
        12 -10.6319     19.5720     10.6996   8.8130351067e+01   7.1255020636e+01    0.2267262    0.1784242  13.65 0.0003162999    1.360    0.264
        13 -11.5881     12.6513      7.3737   9.0279006091e+01   7.2392668735e+01    0.4461882    0.3969348   5.91  0.003475956    1.465    0.317
        14 -10.2562      7.0433      3.4922   9.1560327539e+01   7.3443224045e+01    0.2398679    0.2123514 -19.19  0.001008102    1.430    0.301
        15 -10.3867     10.3905     15.2512   9.5171780428e+01   7.1320766579e+01    0.2950747    0.1808097 -30.31 0.0009925478    1.247    0.198
        16  -9.3724      8.0279     12.0542   9.5061052869e+01   7.2023471374e+01    0.1668908     0.122156 -27.49 0.0003509111    1.038    0.036
        17 -11.1261    182.4857     13.1895   4.2902038164e+01   3.7832835585e+01    0.6150904    0.2821131  61.30  0.002250846    1.939    0.484
        18 -10.2474    187.3515      8.1669   4.0929621821e+01   3.7130926921e+01     0.293422    0.2270614  65.53 0.0008644886    1.207    0.172
        19  -9.8264    120.4553     13.0069   5.2971437121e+01   5.3183158171e+01    0.2645767    0.2568581 -40.05  0.001558934    1.176    0.150
        20 -10.2165    123.3857     11.2268   5.1689366924e+01   5.2661571199e+01     0.291675    0.2562271  15.10  0.001768807    1.155    0.134
        21  -9.1059     63.9754     10.6700   6.8024287282e+01   6.5183370339e+01    0.1731016    0.1382868  21.89 0.0003038462    1.100    0.091
        22 -10.3445    210.5790     10.0322   3.9010119447e+01   3.1300736943e+01    0.4068543     0.235954 -65.54  0.001611089    1.767    0.434
        23  -9.9360    193.0032     10.1717   4.0846422903e+01   3.5538313145e+01    0.2295059    0.1900672 -43.11  0.001377721    1.237    0.192
        24 -10.4886     47.9063      8.8178   7.3510261041e+01   6.8004559024e+01    0.3073323    0.1906914  -3.60  0.001169828    1.598    0.374
        25 -10.7080    238.6829      8.2923   3.6196054320e+01   2.5042404760e+01    0.2635185    0.1816027 -39.44  0.001593211    1.376    0.273
        26 -10.7257    218.4637      7.7812   3.7736486450e+01   2.9680306314e+01    0.3647316    0.2485145  77.78  0.002103193    1.361    0.265
        27  -9.5985    229.2403      8.4110   3.6970239173e+01   2.7137685935e+01    0.1796577    0.1063727 -87.65 0.0009524547    1.652    0.395
        28  -9.5754     79.0938      6.1538   6.0758760435e+01   6.2852163826e+01    0.2603943    0.1793173  24.54  0.001510986    1.309    0.236
        29  -9.6376     38.5636      5.4293   7.5927683896e+01   6.9759983371e+01    0.2844242    0.2070596 -55.31   0.00114287    2.818    0.645
        30 -10.4742     25.3654      6.2801   8.2861342817e+01   7.1290323464e+01    0.3100913    0.1597017 -30.26  0.001380871    1.639    0.390
        31  -9.4795     22.4876      3.5060   8.2910946986e+01   7.1987164368e+01    0.1901526    0.1012063  29.55 0.0008368075    1.931    0.482
        32  -9.2452    212.8044      5.7937   3.7757213404e+01   3.1211578054e+01     0.186557    0.1296888 -66.56  0.001062256    1.342    0.255
        33  -8.8184    158.5287      6.5763   4.4094882963e+01   4.4465504074e+01    0.1341484     0.119481  75.41 0.0001339504    1.033    0.032
        34  -9.1493    108.1707      6.1557   5.3016320599e+01   5.6661420354e+01    0.1847014    0.1645129  12.46 0.0009822666    1.119    0.106
        35  -9.6027    104.5105      2.2247   5.2256507745e+01   5.7821965157e+01    0.3405246     0.201204 -89.80  0.001462324    3.043    0.671
        36  -8.8053    127.5915      5.1497   4.8628701015e+01   5.2203616635e+01    0.1774997    0.1215175   8.30 0.0009306102    1.692    0.409
        37  -9.8287     30.2282      4.0530   7.9212512536e+01   7.1016331472e+01     0.305016    0.1269876 -25.39  0.001498446    2.342    0.573
        38 -10.1331    246.9886      2.0000   3.4235534240e+01   2.3913263220e+01    0.2794217     0.181529 -63.40  0.001710309    1.310    0.237
        39 -10.2259    242.8873      1.4946   3.4406378956e+01   2.4846242616e+01    0.2784095     0.105568  73.95  0.001092881    2.488    0.598
        40  -9.4653     90.4549      3.5059   5.6285663915e+01   6.0777084002e+01    0.2063771     0.123254  68.75 0.0006862134    2.109    0.526
        41  -9.6616     84.8779      1.2217   5.6792902474e+01   6.2136330967e+01    0.3695993    0.1056606  58.03  0.001260802    3.430    0.708
        42 -10.7665    230.1788      1.8956   3.5409860745e+01   2.7605872049e+01    0.3662833    0.1639918  76.62  0.001782445    2.100    0.524
        43  -9.8721     52.3451      2.4004   6.8362434128e+01   6.8046676126e+01    0.2319235   0.09541219  39.20  0.001126628    2.207    0.547
        44  -9.1471    188.9373      1.4582   3.8936841806e+01   3.7378306722e+01    0.1948443    0.1157625  75.69 0.0004354912    1.516    0.340
        45  -8.6341    137.4924      1.4416   4.5593682209e+01   5.0111126796e+01    0.1316584    0.1179924  69.01 0.0001841809    1.069    0.065
        46  -9.4011     17.4644    108.4909   1.1608795720e+02   5.1130861260e+01    0.1265452    0.1016424 -74.75 2.443194e-05    1.062    0.058
        47  -9.7766    240.7006    106.3238   5.8930633936e+01   1.0752829040e+01     0.294418    0.2135542 -62.58  0.001053512    1.683    0.406
        48  -8.6877     71.9561    107.7650   9.9033304892e+01   4.5565257920e+01    0.1674011    0.1226152  30.86 0.0002926375    1.524    0.344
        49  -9.2244    137.0178    106.4731   7.9930241477e+01   3.3905539205e+01    0.2269082    0.1370777  22.07 0.0008099027    2.565    0.610
        50  -8.8427    179.6269    103.8209   6.9230247164e+01   2.4713414937e+01    0.2294113    0.1391448 -47.25 0.0009455692    1.681    0.405
        51 -10.5222     80.0065    103.3283   9.5467502843e+01   4.5423950861e+01    0.3474249    0.2687782 -25.63  0.001772279    1.449    0.310
        52  -9.6766     17.5420    103.9709   1.1539165534e+02   5.2196955889e+01    0.1744985    0.1660999 -44.50  0.001079739    1.225    0.184
        53 -10.2667    108.6267    103.0266   8.6767075877e+01   4.0519268960e+01    0.3869255     0.223109  31.60 0.0006717806    2.016    0.504
        54  -8.7195     89.8078    102.1649   9.2143798877e+01   4.4113532890e+01    0.1936305     0.160457 -27.76            0    1.264    0.209
        55  -9.9776    220.0586    100.7226   6.0850924017e+01   1.6053439912e+01    0.3211652     0.239706  56.02 0.0009906113    1.468    0.319
        56  -8.4279     94.6151    101.7069   9.0560600577e+01   4.3394109583e+01    0.1552919     0.115666 -10.51 0.0002120825    1.762    0.432
        57 -10.7258     53.6753     99.0383   1.0287721162e+02   5.0020517989e+01    0.4530289    0.2778004 -49.36  0.002289234    1.421    0.297
        58  -9.3230      1.3308    100.6524   1.1990254706e+02   5.3955642396e+01    0.2069778   0.09109857 -76.40 0.0005128783    1.876    0.467
        59 -10.4889     69.3504     97.1683   9.7323049861e+01   4.8441643351e+01    0.3540461    0.2357458 -57.04 0.0008249566    1.390    0.281
        60  -9.4008     18.6838     97.7206   1.1403923379e+02   5.3592298817e+01    0.1921241    0.1328743 -67.37 0.0001969523    1.170    0.145
        61  -9.8789     16.4770     95.4493   1.1437747905e+02   5.4277176262e+01    0.2091767    0.1708233 -82.06  0.000600289    1.193    0.162
        62  -8.6222    250.0059     96.2126   5.5231854629e+01   1.0520128942e+01     0.158035    0.1132111  56.44   0.00032758    1.608    0.378
        63  -8.7365     97.3273     96.3065   8.8275648242e+01   4.4141990393e+01    0.1535569    0.1160242 -12.57 0.0007036834    1.653    0.395
        64  -8.8350     31.6188     95.8270   1.0947586798e+02   5.3026929337e+01    0.1952555    0.1099792 -76.07 0.0009476325    1.855    0.461
        65  -9.4341     79.8548     95.0987   9.3403554489e+01   4.7362628757e+01     0.222278    0.2020114 -84.90  0.001237734    1.251    0.200
        66  -9.3937    132.7583     93.8060   7.7473027978e+01   3.7529883105e+01    0.2340188    0.2088305  -3.42 0.0009582777    1.204    0.170
        67  -9.6457      1.2014     93.9917   1.1905935539e+02   5.5503148795e+01    0.1820672   0.09428537 -70.20 0.0003556722    1.472    0.321
        68 -10.1655      1.4773     90.5200   1.1848313079e+02   5.6288809756e+01    0.3754679    0.1501083 -45.07  0.001860135    2.262    0.558
        69  -8.9969     37.5696     93.5317   1.0702976502e+02   5.3029024318e+01     0.132854    0.1108164 -58.13 -1.96204e-05    1.022    0.022
        70  -9.0650      9.3195     93.0581   1.1631936758e+02   5.5283331471e+01    0.1700343    0.1300817 -68.48  0.000439939    1.054    0.051
        71  -9.5435     89.0930     92.0282   8.9631142077e+01   4.6550154465e+01     0.227633    0.2049546 -30.63 0.0005200324    1.063    0.059
        72  -9.0230     51.9916     91.6556   1.0173813990e+02   5.1954135172e+01    0.1773188    0.1650115 -37.80 0.0003888611    1.094    0.086
        73  -9.5931    236.4151     90.7568   5.5867726470e+01   1.4189013089e+01    0.2812748    0.1180227 -39.10  0.001126249    2.075    0.518
        74  -9.7369    230.8990     90.6509   5.6655931653e+01   1.5386998585e+01    0.2751004    0.1887882 -42.92 0.0006380032    1.324    0.245
        75 -10.7705    171.4159     89.5417   6.7039408658e+01   2.9380365455e+01    0.4876838    0.3169549 -34.53  0.001873207    1.531    0.347
        76 -11.5520    174.2185     82.0322   6.4320714878e+01   3.0084801227e+01    0.4938957    0.3940769 -54.96  0.002395705    1.322    0.244
        77 -10.4687    120.9228     87.7761   7.8900627639e+01   4.1348517363e+01    0.3458938    0.2639279 -47.07 0.0002724715    1.307    0.235
        78  -9.7930    124.8175     85.4442   7.7121429494e+01   4.0992841789e+01    0.2688737    0.2372708 -28.42 0.0003414365    1.115    0.103
        79  -8.7394    219.6839     89.6765   5.8149291510e+01   1.8018834333e+01    0.1463276    0.1137811   9.55 0.0004859735    1.666    0.400
        80 -11.1772    180.2879     88.2461   6.4841628934e+01   2.7489420917e+01    0.4484776    0.3598855  21.58  0.002151145    1.473    0.321
        81  -9.4154    109.1844     88.4010   8.2450780895e+01   4.3629676261e+01    0.2992482    0.1116481 -42.19   0.00100189    2.606    0.616
        82  -9.9054    162.3382     86.8456   6.8244083880e+01   3.2065456951e+01    0.3960584    0.2302486 -48.93  0.001595783    1.836    0.455
        83 -11.0154    131.7337     86.6243   7.5619618746e+01   3.9231631975e+01    0.2926638    0.2580915 -20.30 0.0003268007    1.158    0.137
        84  -9.3793     66.0347     84.5087   9.5118413880e+01   5.1812684097e+01    0.2041682    0.1695272 -44.83 0.0002919922    1.068    0.064
        85 -10.2381     46.0518     83.8448   1.0190334505e+02   5.4422824505e+01    0.2383086    0.1637841 -49.02  0.001306931    1.226    0.185
        86 -11.5300    157.2359     80.5844   6.7552385399e+01   3.4463509780e+01    0.6521845    0.3870178  62.55  0.002627095    1.975    0.494
        87  -9.8238     75.9177     82.7669   9.1276402538e+01   5.0754378812e+01    0.2772575    0.1979539 -54.60  0.001032915    1.380    0.275
        88  -9.4871    240.0847     85.8419   5.4170564864e+01   1.4201761717e+01    0.2220549    0.1771925 -60.99  0.001094509    1.302    0.232
        89 -10.9635      5.9466     79.3711   1.1520879506e+02   5.8610533075e+01     0.467579    0.2761133  82.12  0.001290047    2.226    0.551
        90 -10.4501    145.5057     81.1506   7.0472134835e+01   3.7149185101e+01    0.5043473    0.2850891  69.11  0.001769914    2.823    0.646
        91 -11.1160    104.8321     78.3156   8.0661105320e+01   4.6600968224e+01    0.6146592    0.3898172 -10.39  0.001837123    2.519    0.603
        92  -9.5300    110.4460     71.0319   7.6643270126e+01   4.6911951148e+01     0.324629    0.2073187 -39.16  0.001205546    1.523    0.343
        93  -9.1197     80.1720     80.8187   8.9281945440e+01   5.0509217226e+01    0.1962957    0.1574952 -19.95  0.001029355    1.299    0.230
        94  -8.6074     51.0223     80.9623   9.9408695235e+01   5.4522353658e+01     0.158463    0.1404346 -39.50 0.0003945886    1.042    0.041
        95  -9.2895     21.9504     81.0274   1.0984521660e+02   5.7238333477e+01    0.1524564    0.1251832 -53.65 0.0004328174    1.029    0.028
        96  -9.7259     96.6926     79.2707   8.3465120818e+01   4.7965070895e+01    0.2728147    0.2370023 -54.02 0.0009552559    1.220    0.181
        97  -9.8955     99.0428     74.9092   8.1353050239e+01   4.8419708323e+01    0.3766211    0.2363514 -52.70  0.001033475    1.755    0.430
        98  -9.5633     55.8138     79.8071   9.7395955300e+01   5.4207974029e+01     0.265548     0.154238 -44.17  0.001297855    1.509    0.337
        99  -9.0446     43.8313     78.8120   1.0143491420e+02   5.5802271665e+01    0.1998244    0.1524892 -35.42  0.000487249    1.213    0.175
       100  -8.7905     28.3793     78.1782   1.0690706804e+02   5.7389823432e+01    0.1694446    0.1073561 -68.04 0.0002627412    1.503    0.334
       101  -9.9611    217.5493     76.7547   5.5203009903e+01   2.0635041047e+01    0.3034458    0.2314399 -75.86  0.001470459    1.530    0.346
       102 -10.9357     77.6693     75.0627   8.8375949119e+01   5.2145700775e+01    0.5104105    0.2676566  24.01  0.002082723    2.499    0.600
       103  -9.4541     50.0504     76.8232   9.8654510963e+01   5.5562310182e+01    0.3082297    0.1976556   3.85   0.00153331    2.044    0.511
       104 -10.2391     57.3354     71.7192   9.4547548121e+01   5.5792963879e+01     0.452931    0.2637484 -16.84  0.001961026    2.499    0.600
       105  -8.9469     21.3503     76.0007   1.0899843541e+02   5.8423529428e+01    0.2069958   0.09803711 -85.96  0.000703762    4.621    0.784
       106 -11.0199    152.5842     73.6833   6.6526911608e+01   3.6844715002e+01    0.3366503    0.3346359 -18.20 0.0008982565    1.014    0.014
       107  -9.7360    173.1349     74.1220   6.2258011776e+01   3.1747531385e+01    0.2237996    0.2061533   5.09            0    1.175    0.149
       108  -9.6486    163.8179     73.2734   6.3928987071e+01   3.4182905235e+01    0.2757837    0.2025559 -46.53 0.0007663337    1.386    0.279
       109 -11.0609    158.3174     72.8759   6.4996815825e+01   3.5597465143e+01    0.3543582    0.2465896 -19.20  0.001523174    1.683    0.406
       110 -10.7239    137.0638     72.3323   6.9823880643e+01   4.0777307008e+01     0.434262    0.2651108 -41.27  0.001867176    1.635    0.388
       111  -9.7753    238.7236     72.2477   5.1103997722e+01   1.6612640350e+01    0.2864147    0.2250304  48.92  0.001578568    1.453    0.312
       112  -9.0117    125.0020     72.2135   7.2927938588e+01   4.3550648608e+01    0.2045271    0.1228939  47.59 0.0004661666    1.682    0.406
       113  -9.4368    230.9930     70.3255   5.1661993083e+01   1.8603447771e+01    0.2632662     0.174655 -57.51   0.00129731    1.565    0.361
       114 -10.4976     65.2182     70.7508   9.1396024695e+01   5.4935447123e+01    0.4149152    0.2301637  45.45  0.001380142    2.239    0.553
       115  -9.3905     38.7344     71.4162   1.0139041456e+02   5.7969361224e+01    0.1648362    0.1192257  -4.81 0.0005062123    1.600    0.375
       116  -9.5871     17.3828     70.6845   1.0931196296e+02   5.9889191933e+01    0.3238068    0.1661688 -41.11  0.001724625    1.711    0.416
       117  -9.8198     97.0366     68.9393   8.0031781754e+01   4.9993708248e+01    0.2813872    0.1911416 -39.50  0.001348023    1.406    0.289
       118 -10.4700    141.9744     68.8828   6.7520407468e+01   4.0245339608e+01    0.2826664    0.2089821  56.95  0.001327388    1.405    0.288
       119  -9.3185     27.6826     68.7905   1.0492646797e+02   5.9544554567e+01    0.3044996    0.1582429 -33.45  0.001194679    1.964    0.491
       120  -9.9244    159.0886     58.6041   6.0446273239e+01   3.7810199036e+01    0.3760933    0.2808735   7.93  0.001735661    1.733    0.423
       121 -11.3460    163.4082     66.4529   6.1962490729e+01   3.5454473314e+01    0.4776275     0.420419 -74.69  0.002259739    1.250    0.200
       122 -11.3725    163.2363     59.8895   5.9996324490e+01   3.6574011140e+01    0.5002505    0.3593808   0.14  0.002227311    1.874    0.466
       123 -10.6107     89.4573     67.4131   8.1959993230e+01   5.1703592137e+01    0.3400173    0.2760134 -81.55 0.0007497636    1.815    0.449
       124  -8.7717     14.9958     67.9304   1.0960952888e+02   6.0654109837e+01    0.1449669    0.1151523 -49.81 0.0003890788    1.025    0.024
       125 -11.4373    151.8725     63.8213   6.3626087957e+01   3.8733356696e+01    0.5666967    0.3214954 -37.19   0.00195125    1.754    0.430
       126  -9.3356    210.5332     64.3422   5.3044699014e+01   2.4238548447e+01    0.2484877    0.1346026  61.21  0.001077497    1.916    0.478
       127  -9.6186    201.4551     63.1727   5.4123128644e+01   2.6597398592e+01    0.4255874    0.2280884 -47.78  0.001798732    1.881    0.468
       128 -10.3658    109.7037     62.9993   7.4167842321e+01   4.8574193216e+01    0.3912108      0.34763  82.47  0.002079631    1.424    0.298
       129 -10.2344     44.6758     63.2933   9.6801698128e+01   5.9100335091e+01    0.3228955    0.2424707  29.78  0.001190938    1.525    0.344
       130  -9.7077     32.3621     63.5386   1.0171179818e+02   6.0283223757e+01    0.2275644    0.2056003 -69.68  0.001186244    1.292    0.226
       131 -10.2829    172.0883     62.0520   5.8908926884e+01   3.4022418072e+01    0.3397734    0.2100792 -41.98 0.0008400448    1.609    0.379
       132  -9.4351    132.7539     62.7417   6.7805943115e+01   4.3493452595e+01    0.2483899     0.113065 -45.65 0.0008963227    2.425    0.588
       133  -9.5842     66.5406     62.8657   8.8387522306e+01   5.6374139988e+01    0.2190038    0.1880497  18.63 9.034549e-06    1.222    0.182
       134 -10.2885      2.1983     62.3722   1.1338735336e+02   6.2568527348e+01    0.2178036    0.1452844 -62.34 0.0004652874    1.187    0.157
       135 -11.2455      6.2795     58.4785   1.1091828080e+02   6.3210619407e+01    0.3553526    0.1723797 -36.20  0.001049711    1.877    0.467
       136  -8.9631    219.7451     61.6410   5.1025764290e+01   2.2485549276e+01    0.1881837     0.132301  78.82 0.0004742055    1.587    0.370
       137  -9.1562    120.6482     60.9844   7.0388515846e+01   4.6562408521e+01    0.2112725    0.1853821 -23.41 0.0005320437    1.124    0.110
       138  -9.2328    101.4249     59.3015   7.5367430118e+01   5.0947576494e+01    0.3966208    0.2728989 -79.62  0.001548641    3.100    0.677
       139 -10.4474     95.7852     57.3756   7.6445811426e+01   5.2410679552e+01    0.4742923    0.3698137 -30.09  0.002505885    1.226    0.184
       140  -9.2252     91.4635     57.5584   7.7899589753e+01   5.3204915347e+01    0.2281099    0.1387582  41.59  0.000611209    1.690    0.408
       141  -9.7978    237.2333     57.1637   4.7675582788e+01   1.9179727129e+01    0.3948278    0.1546501 -34.68  0.001603793    2.283    0.562
       142  -8.3819     50.4991     59.5797   9.3370190535e+01   5.9195454657e+01    0.1335972    0.1126236 -28.84 0.0001479882    1.018    0.018
       143  -9.7864    183.3714     57.3902   5.5489389018e+01   3.1940161169e+01    0.2729729    0.1246309  48.92 0.0006375405    2.251    0.556
       144 -10.2580    145.5075     56.9721   6.2863884314e+01   4.1413167665e+01    0.3415646    0.2152281  22.45  0.001375683    2.245    0.555
       145 -10.5119    199.5187     56.5308   5.2619930707e+01   2.8081382692e+01    0.4267427    0.2207772  39.98  0.001669903    2.547    0.607
       146 -10.1000    125.2356     56.7018   6.7703866371e+01   4.6257421341e+01     0.326928    0.2204426  50.86   0.00152744    1.481    0.325
       147  -9.7003     60.3043     57.0081   8.8732209864e+01   5.8432284543e+01    0.1937165    0.1608809 -30.88 0.0005907234    1.052    0.049
       148 -11.3180    173.9810     52.8230   5.5806088234e+01   3.4980980929e+01     0.653393    0.2775471 -36.08   0.00248576    2.284    0.562
       149  -9.4291    105.1491     56.1506   7.3126196879e+01   5.0744679256e+01    0.2089638     0.186117   9.31            0    1.085    0.078
       150  -8.6928     78.3253     56.2758   8.1881077980e+01   5.5791351587e+01    0.1415806    0.1023512  -2.56 0.0003581549    1.585    0.369
       151  -8.9188    213.6584     55.6751   5.0332836737e+01   2.4801501582e+01    0.1430184    0.1096167  24.80 0.0007051051    1.732    0.422
       152 -10.2003    206.1607     53.0709   5.0702989569e+01   2.6977585117e+01    0.5405092    0.2202425 -27.09  0.001967049    2.804    0.643
       153 -10.3706    163.6689     52.8274   5.7736188231e+01   3.7566435538e+01    0.3203659    0.2776074 -18.28 0.0007417934    1.231    0.188
       154  -9.7290     36.1351     53.3003   9.7127897406e+01   6.2061930703e+01    0.2816756    0.1898174 -64.60 0.0009833957    1.786    0.440
       155 -10.6900    137.8746     51.9587   6.2964941508e+01   4.4053863724e+01      0.48378    0.3947626  76.42  0.002132616    1.423    0.297
       156  -9.1933    117.2910     52.4365   6.8338861977e+01   4.8756361507e+01    0.1894789    0.1428899  58.92 0.0006004617    1.466    0.318
       157  -8.7923     44.3416     52.3004   9.3419124206e+01   6.1384172736e+01    0.1366888   0.08647654 -20.91 0.0007036793    1.672    0.402
       158  -8.6108     29.4789     52.5047   9.9661748741e+01   6.2851390304e+01    0.1283806    0.1007477 -36.22 0.0001671189    1.025    0.024
       159 -10.4398     17.8100     51.1038   1.0421248825e+02   6.4066318624e+01    0.3609711    0.1866136  10.78  0.001569009    2.327    0.570
       160  -9.7751    126.0151     50.2136   6.5261036152e+01   4.7128172822e+01    0.3633415    0.2186271 -35.67 0.0009609063    1.677    0.404
       161 -10.3461    106.7247     51.0036   7.0810834580e+01   5.1287398307e+01    0.2326943    0.2030406  48.52 0.0003163527    1.217    0.178
       162  -9.7850    237.2600     50.2953   4.6032531629e+01   2.0147727261e+01    0.3604098    0.1807471  60.89  0.001681263    2.088    0.521
       163  -8.9798    190.6985     50.6959   5.2373483588e+01   3.1114717132e+01    0.1438422    0.1117705  26.63 0.0002819965    1.592    0.372
       164  -9.0991     55.4177     50.4768   8.8329732068e+01   6.0362128983e+01    0.1816274    0.1271131  25.30 8.266043e-05    1.516    0.340
       165 -10.4653     59.0152     47.7513   8.5919091645e+01   6.0375202189e+01    0.2595492    0.2056559  11.33 0.0005112265    1.266    0.210
       166  -9.3572     49.1592     49.5720   9.0511621280e+01   6.1342230483e+01    0.2205159    0.1529243 -17.11 0.0008810367    1.455    0.313
       167  -9.9773     46.0428     47.1171   9.0911661763e+01   6.2190271456e+01    0.2550153    0.1756166 -10.45 0.0002748226    1.532    0.347
       168  -9.1491    121.7803     48.8220   6.5862159630e+01   4.8320444869e+01    0.2187697    0.1877403  19.85 0.0006018374    1.167    0.143
       169  -9.7620     95.2001     48.7627   7.3489218434e+01   5.4018763857e+01    0.2196991    0.2159384  58.48 0.0005447263    1.229    0.186
       170  -9.0857    213.6545     48.7404   4.8535647494e+01   2.5799421721e+01    0.1362304    0.1054768  35.25 0.0001846065    1.596    0.374
       171 -10.0047     84.5966     47.6078   7.6520162647e+01   5.6233308483e+01     0.273565    0.1602625 -32.74 0.0008916245    1.641    0.390
       172  -8.6441      6.0475     48.0657   1.0847620143e+02   6.5414513652e+01    0.1409907    0.1044428 -46.24  0.000296344    1.012    0.012
       173 -10.8514    158.1115     45.3794   5.6483594992e+01   4.0053629675e+01    0.4445735    0.3624249 -72.95  0.002285545    1.405    0.288
       174 -10.6182    139.5743     46.1532   6.0618265815e+01   4.4522942356e+01    0.3869078    0.3159561  15.53  0.001770476    1.350    0.259
       175  -9.4335    143.7423     42.0204   5.8312928216e+01   4.4097972399e+01    0.2764983    0.2323905  21.02 0.0007999669    1.273    0.214
       176 -10.4745    150.7287     45.1149   5.7873537416e+01   4.1933019483e+01    0.3872052    0.2360649  50.37  0.001753983    1.566    0.361
       177 -10.4853    167.2511     43.3358   5.4141261194e+01   3.8043678573e+01    0.3634015    0.2872243  26.70 0.0009015442    1.460    0.315
       178  -8.5405      1.2772     44.7232   1.0971013191e+02   6.6335980424e+01   0.09783588   0.08424971 -87.66 0.0002217832    1.497    0.332
       179  -9.6204    110.3068     43.7036   6.7105542599e+01   5.1674249611e+01     0.297887    0.1292757  53.73  0.001142517    2.417    0.586
       180  -9.8172    216.2409     42.0181   4.6477985344e+01   2.6111171158e+01    0.3192044    0.2039664  87.84  0.001550067    1.762    0.432
       181 -10.1315     63.5551     41.0932   8.1597638194e+01   6.0887022653e+01    0.2271379    0.1982149   8.60 0.0004491827    1.122    0.109
       182  -9.6919     56.3311     41.5686   8.4626902350e+01   6.1866628539e+01    0.2443065    0.1777426  54.14 0.0006567111    2.096    0.523
       183  -8.5889     36.3108     42.3141   9.3312619795e+01   6.4193236050e+01    0.1324464   0.08055799 -22.85 0.0007030671    1.633    0.388
       184  -9.4650    205.5217     41.3781   4.7679987956e+01   2.8770353441e+01    0.2751433    0.1641405  62.71 0.0006852694    1.651    0.394
       185  -9.4170    197.3143     41.1492   4.8736598064e+01   3.0810833491e+01    0.2432128    0.1850658  56.79 0.0008720713    1.326    0.246
       186  -8.5141    104.6865     41.2479   6.7783346410e+01   5.3257837164e+01    0.1287369    0.1136575 -87.32 0.0001615074    1.516    0.340
       187  -9.7948    177.8963     39.3137   5.1126432570e+01   3.5906181186e+01    0.2591009    0.2136321 -17.87 0.0006801149    1.350    0.259
       188  -8.8771     92.5359     40.5287   7.1188285417e+01   5.5866432166e+01    0.1384447    0.1273377   1.87 6.641422e-05    1.057    0.054
       189 -10.9385     32.7698     37.0030   9.2920100170e+01   6.5546180923e+01    0.5757796    0.1754375 -39.13  0.002305365    2.905    0.656
       190  -9.1733      3.0557     39.9816   1.0762398534e+02   6.7209037970e+01    0.1778394    0.1049842  42.77   0.00102049    2.570    0.611
       191  -9.8028    161.6167     38.0067   5.3496619809e+01   4.0186549578e+01    0.2596464    0.1984223  52.55 0.0004310988    1.255    0.203
       192  -9.0519    148.9755     37.9265   5.5870022046e+01   4.3363727286e+01    0.2000387    0.1882649  38.64 0.0004895364    1.042    0.040
       193  -9.1413    149.5956     34.4670   5.4605424211e+01   4.3662306922e+01    0.2390189    0.2047805 -11.43 0.0001059951    1.264    0.209
       194 -10.6696     82.2160     26.3017   6.8728483433e+01   5.9920422661e+01    0.3197199    0.2380304  36.87 0.0007876636    1.274    0.215
       195  -9.2486     75.0086     37.7408   7.5988195181e+01   5.9564372526e+01    0.1846984    0.1734198  -0.91 0.0003894688    1.176    0.150
       196  -9.5735     77.4689     34.9468   7.3974509433e+01   5.9563775340e+01    0.2235515    0.1828133 -40.34 0.0005380635    1.389    0.280
       197 -10.6152     78.3983     31.0431   7.2028060489e+01   5.9974373968e+01    0.2764908    0.2363328  37.84  0.001053694    1.258    0.205
       198  -9.8335     48.6861     37.0556   8.5985955644e+01   6.3689956190e+01    0.2456754    0.1906006 -80.39  0.001268856    2.687    0.628
       199 -10.5164    184.3980     33.0842   4.8320187939e+01   3.5077979829e+01    0.5758561    0.3497019  13.60  0.002309953    2.873    0.652
       200 -10.0190    127.5944     36.8010   6.0128877360e+01   4.8718200126e+01    0.3051965    0.2490606  56.59  0.001336735    1.213    0.176
       201  -9.3031     69.2203     36.7773   7.7710342841e+01   6.0698989026e+01    0.1855489    0.1387552  -2.04 0.0004484745    1.317    0.241
       202  -9.1216     94.6853     37.0044   6.9131761008e+01   5.5966307977e+01    0.1966763    0.1722889 -21.86  0.001140634    1.147    0.128
       203  -9.8742    108.1066     35.4880   6.4620178670e+01   5.3350051463e+01    0.4693772    0.2246469  61.52  0.001083779    2.704    0.630
       204  -9.3560     62.4514     36.0829   8.0004588953e+01   6.1893192809e+01     0.217692    0.1630197  13.63  0.000431166    1.304    0.233
       205  -9.1906     27.5556     36.2929   9.5030602721e+01   6.6184712305e+01    0.1630227   0.09297548 -38.41 0.0002944269    1.411    0.291
       206  -9.4063    191.3838     34.7651   4.7800867023e+01   3.3118954691e+01    0.1872758    0.1367819 -15.27 0.0004966912    1.635    0.389
       207  -9.1248    166.9404     34.3122   5.1418211385e+01   3.9323149444e+01    0.2057943    0.1754905  65.39  0.000516671    1.116    0.104
       208  -8.7673    195.6960    229.6789   9.2588376140e+01  -1.2716723363e+00    0.1272641   0.08604652   7.76 0.0005855389    1.633    0.388
       209 -10.2853    238.9568     22.4495   3.9358890935e+01   2.3373401124e+01    0.2651313    0.2096465  77.28 0.0008155732    1.267    0.211
       210  -9.3234    204.9192     32.7868   4.5481295852e+01   3.0037212943e+01    0.2700281    0.1805941 -81.60  0.001341917    1.639    0.390
       211  -9.9962     82.3069     35.6203   7.2582343923e+01   5.8578386503e+01    0.3851122    0.2198621 -45.08  0.001163649    2.076    0.518
       212  -9.3777    125.3457     29.7561   5.8107805829e+01   5.0165686201e+01    0.2233798    0.1717698 -27.23 0.0005937217    1.357    0.263
       213  -8.5341     65.6722     30.3154   7.6341476834e+01   6.2286446543e+01    0.1172517    0.1071664 -70.18 0.0007044626    1.674    0.403
       214  -8.6079    201.2991     29.3106   4.5006715857e+01   3.1353113328e+01    0.1340496    0.1035088  34.02 0.0002099114    1.601    0.375
       215 -10.5735    180.6842     28.3386   4.7487979193e+01   3.6594676568e+01    0.4205795    0.2415285  40.29  0.001874103    2.072    0.517
       216  -9.4527    110.5743     29.4963   6.1651079155e+01   5.3601851778e+01    0.2477902    0.1373997  67.29   0.00102969    2.426    0.588
       217 -10.1490     47.3300     28.5281   8.3019169938e+01   6.5290878668e+01    0.2362676    0.1909939 -15.35 0.0006117207    1.027    0.027
       218 -10.2387     16.1490     26.5705   9.6818165643e+01   6.8927155252e+01    0.3568058    0.2121785 -54.10  0.002117757    1.721    0.419
       219  -8.9287    215.6781     27.6465   4.2900127881e+01   2.8089228448e+01    0.1336434    0.1012008  31.89 0.0001143135    1.755    0.430
       220  -9.4227    193.9647     26.7278   4.5230610839e+01   3.3471653829e+01    0.2709646     0.169417  15.49  0.001160906    2.687    0.628
       221  -9.0736    206.2658     26.3937   4.3641428170e+01   3.0497384681e+01    0.1934353    0.1219588  84.92 0.0009526901    1.642    0.391
       222  -8.9139    120.8554     26.2016   5.7842779065e+01   5.1655256094e+01    0.1986847    0.1495469  28.11 0.0006597973    1.335    0.251
       223  -9.8398    228.5432     23.8523   4.0648111316e+01   2.5549161677e+01    0.3252535    0.1873421 -81.07  0.001597555    1.918    0.479
       224 -10.2743     99.0468     22.6697   6.2065981136e+01   5.6967370285e+01    0.3958741    0.2398409 -19.36  0.001716073    1.723    0.420
       225  -9.5672      8.1402     22.4335   9.9309221242e+01   7.0242668478e+01    0.2034267    0.1696399  -8.29 0.0008180214    1.252    0.201
       226 -10.4973      2.1767     22.0540   1.0229628566e+02   7.0674365202e+01    0.2968183    0.1746493 -46.11  0.001188355    1.290    0.225
       227  -9.9105    180.3621     22.1343   4.5736134219e+01   3.7398872405e+01    0.5026795    0.2156135  46.46  0.001982287    2.595    0.615
       228 -10.4536    164.4251     22.1294   4.8061509499e+01   4.1412821473e+01    0.3526576    0.2031969  64.53  0.000689525    1.599    0.375
       229 -12.1710     76.6404    219.5930   1.1496347251e+02   1.9222770594e+01    0.6149257    0.5329643  48.42  0.002943404    1.215    0.177
       230 -12.1731     69.3569    218.8299   1.1633552715e+02   2.0357403114e+01    0.6563832    0.4712624 -88.58  0.003481272    1.331    0.248
       231  -9.8819     29.9885     22.8090   8.8443149983e+01   6.8295061617e+01    0.2436919    0.1421741 -14.99  0.001355891    1.758    0.431
       232  -9.0441    200.4862     22.4947   4.3289569547e+01   3.2363678392e+01    0.1354636    0.1222612 -81.58 0.0006176532    1.001    0.001
       233  -9.5478    131.9399     20.3556   5.3271650004e+01   4.9680593919e+01    0.3089477    0.1955405 -55.35  0.001442969    2.065    0.516
       234 -10.3799     60.1648    209.3759   1.1728547675e+02   2.3465518507e+01    0.3322912    0.1485066  53.53  0.001452579    2.040    0.510
       235  -9.3095     50.8291     20.9256   7.8123579972e+01   6.5959258574e+01    0.1957849    0.1424669  -1.38 0.0006723354    1.240    0.194
       236  -8.7199     19.6362     21.6753   9.3078044639e+01   6.9488857286e+01    0.1287221   0.07012019 -20.67 0.0007039847    1.792    0.442
       237  -9.4433    222.6273     19.6315   4.0207500003e+01   2.7408386820e+01    0.2480889    0.1520754 -37.03  0.001241894    1.555    0.357
       238  -9.8410     86.7052     17.8219   6.3642908736e+01   6.0097221296e+01    0.2878798    0.2104071  50.16  0.001619454    1.397    0.284
       239 -10.1757     69.5676     19.1711   6.9961844892e+01   6.3175490432e+01    0.2275426     0.188683   5.28 0.0005655813    1.014    0.014
       240  -9.2142    124.0096    205.9753   1.0346119028e+02   1.4703875679e+01    0.1874212     0.169358  47.75   0.00116125    1.041    0.040
       241 -10.3202    101.1327     16.7912   5.9084621652e+01   5.7186341183e+01    0.2397483      0.21665  43.86 0.0003998858    1.134    0.118
       242  -8.7883      1.0000    184.9442   1.2729572753e+02   3.4810753653e+01    0.1835171   0.05063629 -78.48 0.0006400337    2.910    0.656
       243 -10.5863      2.9555    152.9055   1.2470849043e+02   4.1734885978e+01    0.2947277    0.2149163 -39.80  0.001305913    1.807    0.447
       244 -10.9544     38.6070     17.7340   8.2048191061e+01   6.8082407222e+01    0.3127721    0.1925274  22.38 0.0001762379    1.604    0.377
       245 -10.1677    227.1906    145.5739   7.0239965796e+01   6.7740442807e+00    0.2047704    0.1407397  42.31 0.0004671272    1.548    0.354
       246 -10.3808    248.8403    143.9852   6.6199841763e+01   3.0401451042e+00    0.2252166    0.1934265  20.54 0.0007072209    1.218    0.179
       247 -10.1349     21.9828    141.9293   1.1907214308e+02   4.2814566961e+01    0.2007491    0.1668547  53.22 0.0003948025    1.315    0.240
       248  -8.8749     45.4306    141.4599   1.1290371989e+02   4.0666631871e+01    0.1328413     0.112244 -77.65 6.486928e-05    1.010    0.009
       249  -9.1570      5.5611    140.5508   1.2304585038e+02   4.4393385063e+01     0.120691   0.09263404 -83.03 0.0001008295    1.003    0.003
       250 -11.0802    224.8312    134.7423   6.8195587958e+01   9.1082809544e+00    0.4927255    0.3439883  43.01  0.002488065    1.530    0.347
       251 -10.3793    240.6393    134.7214   6.5484875196e+01   6.0496879523e+00    0.2367098    0.2289731   4.32 0.0008200987    1.159    0.137
       252  -9.0826    185.0335    134.0155   7.5766102802e+01   1.7557501937e+01    0.1878625    0.1679374 -31.33 0.0003134084    1.084    0.077
       253  -8.6607    241.3067    129.7408   6.4249128387e+01   6.7496374304e+00    0.1281292    0.1068332 -64.17 0.0002183121    1.521    0.342
       254  -9.3500     32.9940    127.9823   1.1438277876e+02   4.5183149100e+01    0.2159561    0.1277669 -47.37  0.001059521    1.715    0.417
       255 -11.3704    229.9197    123.3745   6.4665817412e+01   1.0058600982e+01    0.6211212    0.4827695 -39.41  0.003325673    1.200    0.167
       256  -9.0728    144.2453     14.5638   4.8935662474e+01   4.7265307674e+01    0.1944312     0.112554  52.77 0.0005674261    1.541    0.351
       257  -8.6944     42.2777    126.6567   1.1156807483e+02   4.4595601950e+01    0.1349946   0.09252846  79.56 0.0003708137    1.626    0.385
       258 -10.0745     37.9786    125.4998   1.1261255982e+02   4.5309204346e+01    0.2589107    0.1473543 -52.90  0.001081485    1.590    0.371
       259  -9.4412     66.7966     13.2032   6.8199226289e+01   6.4395748905e+01    0.2045466    0.1460371  10.27 0.0004266773    1.295    0.228
       260 -11.0681     30.5750    122.8144   1.1432361640e+02   4.6651038261e+01    0.4749704    0.2351212 -56.68  0.001460961    1.694    0.410
       261  -8.8876     23.4980    125.4625   1.1668426229e+02   4.6617260458e+01    0.1278953    0.1037705 -78.16  0.000343801    1.032    0.031
       262  -9.2817     12.3918    122.7143   1.1941541142e+02   4.8109498651e+01    0.1917976    0.1194972  72.35   0.00051952    1.725    0.420
       263  -9.2993    249.2378     10.4178   3.5871272992e+01   2.2525510290e+01    0.1673532    0.1016561 -84.67 0.0006848656    1.593    0.372
       264  -8.9151    187.9353    122.6260   7.2362139301e+01   1.9160136453e+01    0.3190998    0.1362122  40.53 0.0009928138    2.605    0.616
       265  -9.8897     69.5300    118.7378   1.0216422108e+02   4.3257154843e+01     0.458472    0.1960658 -59.32  0.001827896    2.129    0.530
       266  -9.6321    250.5036    120.0311   6.0608541565e+01   6.5987121596e+00    0.2189386    0.1192591 -35.53    0.0010298    1.584    0.369
       267 -10.1966     58.1453    117.5042   1.0532008707e+02   4.5038263326e+01    0.2669725    0.1927712 -38.42  0.001281341    1.482    0.325
       268  -8.7629    209.5572    117.5018   6.6852246378e+01   1.5368366404e+01    0.1499216    0.1387606 -27.58 1.489524e-05    1.008    0.008
       269  -9.6752     98.4627    117.2905   9.3342160220e+01   3.9077530555e+01    0.2553017    0.2039962  35.27 0.0006830441    1.337    0.252
       270 -10.6485     26.3800    116.3475   1.1458869471e+02   4.8568721819e+01    0.4597875    0.1947187  24.23  0.002130477    2.859    0.650
       271  -8.5018    243.7168    116.7251   6.0888794687e+01   8.4388088704e+00    0.1332038    0.1029868   0.28 0.0002302536    1.504    0.335
       272 -10.9550     11.4912    114.7013   1.1868930820e+02   5.0066982456e+01    0.2661397    0.1906683 -51.24  0.001019624    1.334    0.250
       273 -10.2463    192.0472    114.4646   6.9462549052e+01   1.9815366743e+01    0.3323011    0.2147714 -38.88 0.0007948831    1.480    0.324
       274  -9.7254     38.9585    115.0293   1.1063945896e+02   4.7752310704e+01    0.2117538    0.1462704  73.77  0.001127867    1.717    0.417
       275  -9.6182    249.3822    114.2281   5.9458544268e+01   7.7506248072e+00    0.2011862    0.1117972 -41.97 0.0003817737    1.620    0.383
       276  -9.7596      1.9556    113.3040   1.2123883214e+02   5.0975757327e+01    0.3176084    0.1664204 -86.25  0.001717852    1.727    0.421
       277  -9.2625    175.7940    112.6067   7.2373535263e+01   2.3875730929e+01      0.21914     0.151027  61.44 0.0004441459    1.697    0.411
       278  -9.4329     50.1647    112.1146   1.0670268599e+02   4.7283725008e+01    0.1873063    0.1467156 -83.70 0.0004763544    1.317    0.241
       279  -9.2161     90.9767    111.2871   9.4084676054e+01   4.1779695939e+01    0.2013965    0.1933276 -51.79 0.0007087532    1.028    0.028
       280  -9.9567     21.7028    110.1213   1.1505112316e+02   5.0431273391e+01    0.2043123    0.1642095  49.74  0.001036117    1.445    0.308
       281  -8.9711     99.8797    109.1427   9.0922045393e+01   4.0740080463e+01    0.2028215    0.1766752 -11.45  0.000807147    1.290    0.225
       282  -9.3455     28.4940    109.4956   1.1289211609e+02   5.0037193817e+01    0.1314067    0.1060425 -62.00 0.0008102103    1.046    0.044
       283 -10.7943      7.0924    108.0331   1.1912159848e+02   5.1914027733e+01    0.2347264    0.1637966 -67.16            0    1.111    0.100
       284 -10.5963      8.3869    102.1682   1.1795060685e+02   5.3212546784e+01    0.3207457    0.1761086 -81.84 0.0009876839    1.677    0.404
