#   1 NUMBER                 Running object number                                     
#   2 MAG_AUTO               Kron-like elliptical aperture magnitude                    [mag]
#   3 X_IMAGE                Object position along x                                    [pixel]
#   4 Y_IMAGE                Object position along y                                    [pixel]
#   5 X_WORLD                Barycenter position along world x axis                     [deg]
#   6 Y_WORLD                Barycenter position along world y axis                     [deg]
#   7 A_WORLD                Profile RMS along major axis (world units)                 [deg]
#   8 B_WORLD                Profile RMS along minor axis (world units)                 [deg]
#   9 THETA_WORLD            Position angle (CCW/world-x)                               [deg]
#  10 FWHM_WORLD             FWHM assuming a gaussian core                              [deg]
#  11 ELONGATION             A_IMAGE/B_IMAGE                                           
#  12 ELLIPTICITY            1 - B_IMAGE/A_IMAGE                                       
         1 -14.2837    165.7971     54.1489   7.0177440901e+01   3.6727578333e+01     2.222392      1.50493  17.00  0.006592731    1.973    0.493
         2 -14.0224    179.8076     38.8420   6.2594612379e+01   3.5321012364e+01    0.9615971    0.9180545 -50.17  0.002698604    1.057    0.054
         3 -13.7944    184.2827     31.9724   5.9629683032e+01   3.5036134151e+01    0.7218872    0.6901471  14.59   0.00127962    1.070    0.066
         4 -14.6742    199.9997      6.7710   4.9535099760e+01   3.3670058329e+01     1.402091     1.121792 -14.92  0.004327033    1.308    0.235
         5 -13.6691    189.4710     14.0735   5.3066217436e+01   3.5724476543e+01    0.8869461    0.5103621 -56.33  0.003346719    1.979    0.495
         6 -11.1958    114.6351      3.9521   6.1629585682e+01   5.6159638819e+01    0.2567123    0.2085863  68.56 0.0005539313    1.354    0.262
         7 -11.9642    233.8857      2.0672   4.5086399127e+01   2.5481809828e+01    0.6040962    0.1075311  68.83  0.001834917    4.578    0.782
         8 -12.6266    153.4787    201.0331   1.0632487722e+02   1.3645774275e+01    0.4070539    0.3094544 -22.47  0.002566454    1.843    0.457
         9 -14.0309    247.7856    243.4525   9.6901797808e+01  -5.8183783510e+00     1.093111    0.5484188 -22.32  0.007335848    2.290    0.563
        10 -17.1488     58.5705    236.8184   1.2611533832e+02   2.1696068105e+01     7.664986     5.677453  79.55   0.06491007    1.217    0.178
        11 -12.9370    150.6521    190.2007   1.0530051627e+02   1.5785815635e+01    0.5371894    0.3443539  73.23   0.00244691    2.303    0.566
        12 -11.4274     58.1206    201.3651   1.2377704546e+02   2.7569480660e+01    0.1493701    0.1144998  68.57 0.0003360005    1.041    0.040
        13 -10.5458    165.0393    171.7925   9.9628296883e+01   1.6182307887e+01    0.1928357    0.1848619 -53.63 0.0004134899    1.181    0.153
        14 -10.1588    200.8291    168.3371   9.2336225403e+01   1.0032031909e+01    0.2353543    0.2069811  49.48 0.0007427465    1.230    0.187
        15 -10.0427    204.8289    166.9887   9.1366065995e+01   9.4754907392e+00    0.2409568    0.1589186  34.52  0.001315078    1.380    0.275
        16 -11.8744    192.7930    164.7800   9.3121309095e+01   1.2066907105e+01    0.4432593    0.3135125 -58.45  0.001651134    2.000    0.500
        17 -11.8810    193.0295    194.8642   9.8353426787e+01   7.7787182147e+00    0.8038782    0.4326473 -62.30  0.002925806    5.811    0.828
        18 -11.4732    155.1331    187.8631   1.0411347393e+02   1.5383021362e+01    0.2904246    0.2109454  62.94  0.001229314    1.478    0.324
        19 -10.2121    113.4651    160.0901   1.0816376718e+02   2.7437292369e+01    0.1857142      0.12423 -59.49 0.0006587727    1.559    0.359
        20 -11.5390    189.2602    154.9558   9.1862213917e+01   1.4254391668e+01    0.4154758    0.3660015  69.49  0.002390988    1.356    0.263
        21  -9.9164    127.1387    154.7439   1.0437269844e+02   2.6121129336e+01    0.2270995     0.136447  78.62 0.0009458486    2.807    0.644
        22 -12.0304    133.8613    145.3016   1.0122412870e+02   2.6723403717e+01     1.177639    0.3134428 -55.59  0.003199531    5.855    0.829
        23 -10.5675    129.5097    140.4435   1.0125633328e+02   2.8485229176e+01    0.2544115    0.2154694  57.25 0.0001153016    1.125    0.111
        24 -10.4481    151.9337    150.6103   9.8394256762e+01   2.2299506966e+01    0.2182152    0.1894962 -29.53 0.0005859358    1.302    0.232
        25 -12.5842    141.4593    188.8596   1.0683569430e+02   1.7562939034e+01    0.3847951    0.2422664 -47.16  0.002210207    1.874    0.466
        26 -11.3737     45.4053    187.9341   1.2507359610e+02   3.1491066915e+01    0.1850432    0.1228184  52.36 0.0005878781    1.309    0.236
        27 -10.7039    174.5933    149.0407   9.3497039367e+01   1.8123813144e+01    0.2523662     0.223775  56.25 0.0007740417    1.157    0.136
        28 -11.5388    143.8452    145.4696   9.9104896556e+01   2.4805445469e+01    0.3916176    0.2193482 -68.36  0.001560574    2.929    0.659
        29 -12.5530    111.1160    138.4830   1.0505179416e+02   3.2178392564e+01    0.6069639    0.4386979 -30.37  0.003109753    1.951    0.487
        30 -12.5826    100.2933    137.6697   1.0741692067e+02   3.4162980453e+01    0.3855966    0.2534801  41.26 0.0006622217    1.566    0.361
        31 -12.0016    105.9458    130.8893   1.0485408373e+02   3.4655507426e+01    0.4185034    0.3105035 -68.73  0.001184955    1.349    0.259
        32 -11.3696    105.6610    124.8971   1.0376262969e+02   3.5980832687e+01    0.2409983    0.2315546 -38.84 0.0006562285    1.202    0.168
        33 -11.4383    135.4069    126.7627   9.7134964090e+01   3.0089908963e+01    0.5764846    0.1943811 -50.15  0.001981471    3.127    0.680
        34 -11.3040    117.3867    129.0887   1.0179552574e+02   3.3022035443e+01    0.2992968      0.23822 -32.55 0.0007988973    1.532    0.347
        35 -10.9897    160.5570    127.7749   9.1823202517e+01   2.4772986003e+01    0.3530932    0.2643272 -61.12  0.001138641    1.566    0.361
        36 -10.4608    112.1703    118.5211   1.0085566566e+02   3.6194593891e+01    0.2400332     0.214269 -44.66 0.0002976404    1.193    0.162
        37 -10.9596    167.9048    112.8588   8.6733483814e+01   2.5944444121e+01    0.3825959    0.2924109 -81.29  0.001261638    1.819    0.450
        38 -10.6726    205.4832    110.1780   7.8738546967e+01   1.7981967059e+01    0.3233444     0.200597  41.30  0.001031002    1.625    0.384
        39 -19.0474     35.9648    100.2501   1.1777643226e+02   5.0979755956e+01     14.64292    0.8731946 -66.84    0.0270058   13.397    0.925
        40  -9.3491    172.4839    188.9759   1.0107716101e+02   1.2182979240e+01    0.1503397    0.1087659 -79.42  0.000805084    2.281    0.562
        41 -10.2553     66.0370     98.9428   1.0895923539e+02   4.7840033035e+01    0.2121452    0.1820321 -69.41  0.001307286    1.017    0.016
        42 -11.1762    204.5788    176.5086   9.3183370671e+01   8.2018948684e+00    0.3736253    0.2647498 -46.74  0.001683957    1.784    0.439
        43 -10.6724     81.9826     76.0477   9.8730255120e+01   5.0628710964e+01    0.2347008    0.1959562  42.55  0.000360987    1.332    0.249
        44 -12.2927    173.6109     72.4503   7.4398984607e+01   3.1786126856e+01    0.9049617    0.5301448 -79.77   0.00114901    4.172    0.760
        45  -9.9194    169.1762    178.1360   9.9921522066e+01   1.4417044771e+01    0.1648796    0.1446073  73.46 0.0004144594    1.315    0.239
        46 -11.4146    167.7084    232.4675   1.0793137693e+02   7.1146369929e+00    0.2645295    0.1542985  41.71 0.0006665876    1.308    0.236
        47 -10.7702     98.3108    214.2731   1.1776643478e+02   2.0106792203e+01    0.2183562    0.1724671  83.84    0.0011024    1.244    0.196
        48 -10.4129     13.5203     59.9717   1.1793662106e+02   6.1881409759e+01    0.1779557    0.1488711  77.09 0.0003944684    1.346    0.257
        49  99.0000     12.6916    205.9094   1.3186486857e+02   3.1614278780e+01    0.3798226    0.1345304  40.01  0.002324308    2.417    0.586
        50 -12.9033     71.9651    197.1084   1.2090880598e+02   2.6595253048e+01    0.3199214    0.2696294 -50.58  0.001392793    1.708    0.414
        51 -11.4702    160.4983    198.0470   1.0463220085e+02   1.2911265697e+01    0.4211316    0.2690101 -79.28  0.001370978    3.058    0.673
