#   1 NUMBER                 Running object number                                     
#   2 MAG_AUTO               Kron-like elliptical aperture magnitude                    [mag]
#   3 X_IMAGE                Object position along x                                    [pixel]
#   4 Y_IMAGE                Object position along y                                    [pixel]
#   5 X_WORLD                Barycenter position along world x axis                     [deg]
#   6 Y_WORLD                Barycenter position along world y axis                     [deg]
#   7 A_WORLD                Profile RMS along major axis (world units)                 [deg]
#   8 B_WORLD                Profile RMS along minor axis (world units)                 [deg]
#   9 THETA_WORLD            Position angle (CCW/world-x)                               [deg]
#  10 FWHM_WORLD             FWHM assuming a gaussian core                              [deg]
#  11 ELONGATION             A_IMAGE/B_IMAGE                                           
#  12 ELLIPTICITY            1 - B_IMAGE/A_IMAGE                                       
         1 -11.5366    234.3359     19.6212   3.4335551290e+01   2.5364556869e+01    0.4222397    0.1603177 -56.34  0.001868363    2.594    0.614
         2 -13.3546    215.0533     12.9743   3.4505738128e+01   3.0301903201e+01     0.913852    0.4283875  89.84  0.002056788    2.316    0.568
         3 -13.8098    186.9720      7.3266   3.5810284719e+01   3.7334160442e+01     1.014011      0.50949 -58.22  0.004926711    2.106    0.525
         4 -11.5044     57.9246      7.0925   6.1775844592e+01   6.6389088884e+01     0.349333    0.2879956 -33.03  0.001578003    1.526    0.345
         5 -10.3867    109.7715      8.6131   4.7691237281e+01   5.5613515639e+01    0.1795796    0.1152572  71.20  0.000800001    1.624    0.384
         6 -10.6832     19.0110    236.7610   1.2273944602e+02   2.1916210433e+01    0.1393199   0.08070873  40.85 0.0004648264    1.598    0.374
         7 -10.3218     71.5215    229.1238   1.1186627954e+02   1.7215038158e+01    0.1731561    0.1165272 -75.73 0.0006331015    1.533    0.348
         8 -11.4035     96.4861    225.4887   1.0619761332e+02   1.4413271746e+01    0.4000657    0.2011804  44.76  0.001951277    1.734    0.423
         9 -11.3914     97.1865    221.6022   1.0557846830e+02   1.5097928802e+01    0.2607348    0.2221852   6.23  0.001565355    1.511    0.338
        10 -10.6981    211.7800    218.1996   8.0936453485e+01  -2.6080895020e+00    0.1886982    0.1496299  83.46 0.0009582743    2.827    0.646
        11 -10.9036    149.2869    223.4345   9.4547491869e+01   6.4826735400e+00    0.2151997    0.1702413 -85.35  0.001188232    1.792    0.442
        12 -11.1323    239.5632    215.2598   7.5293863401e+01  -6.1909996912e+00    0.2291424     0.107775 -39.64  0.001140283    2.166    0.538
        13 -10.4010    225.1584    212.1757   7.7338487545e+01  -3.6798360997e+00    0.1599985    0.1510353   8.78 0.0007948678    1.349    0.259
        14 -11.7442     50.0982    201.7864   1.1378299585e+02   2.5848536888e+01     0.502736     0.241665  56.65  0.002379952    2.076    0.518
        15 -10.4680    112.3201    197.9860   9.8903667961e+01   1.7731115818e+01    0.2224824    0.1164266 -82.20 0.0007049422    4.300    0.767
        16  -9.9552    133.4026    196.1808   9.3692997875e+01   1.4546514045e+01    0.1959611    0.1379702 -68.12 0.0009469303    1.728    0.421
        17 -12.1013    160.7222    193.1273   8.6937814987e+01   1.0338561507e+01    0.5225951     0.423726  73.36  0.002073447    1.657    0.397
        18 -10.2494     94.6859    187.0329   1.0145207305e+02   2.3044753695e+01    0.2298947     0.114479 -84.49  0.000704714    4.323    0.769
        19 -10.7086    183.2199    183.1886   8.0125181535e+01   8.2230031923e+00    0.3945377    0.2042069 -44.70   0.00170156    1.973    0.493
        20 -10.4228    224.2959    183.6634   7.2064596953e+01   1.0273745242e+00    0.1230255    0.1077214 -64.86 0.0003975597    1.650    0.394
        21 -10.5849    149.5089    199.0070   9.0503467437e+01   1.1146993038e+01    0.1920683    0.1285747 -79.40 0.0008105543    2.575    0.612
        22 -10.1955    191.6771    178.3389   7.7374139091e+01   7.6126477295e+00    0.1377397    0.1172931 -88.10 0.0002894668    1.720    0.419
        23  -9.8282    129.3202    177.6295   9.1372694745e+01   1.9322457502e+01     0.155571    0.1155603  77.82 0.0007034584    1.798    0.444
        24 -10.4875    156.4652    187.5078   8.6845391916e+01   1.2243975111e+01     0.277677    0.2054019  38.09 0.0007969489    1.296    0.229
        25 -11.2201     45.1700    172.3388   1.1176039199e+02   3.3345001546e+01    0.3024188    0.1181871  53.39     0.001166    2.971    0.663
        26 -10.2411    138.8240    164.9834   8.6578516992e+01   2.0405685235e+01    0.2534843    0.1830296 -85.27  0.001087474    2.047    0.511
        27 -10.5483     79.5012    163.9923   1.0169175471e+02   3.0893603797e+01    0.2123027    0.1215495  89.91 0.0008106293    2.625    0.619
        28 -10.2925     52.5801    161.2972   1.0843798654e+02   3.5186928044e+01    0.2638323    0.1258654 -73.82 0.0007690665    2.104    0.525
        29 -11.7366    106.6859    158.4310   9.3467412438e+01   2.7854709918e+01    0.5736026    0.3585766  66.02  0.002329999    2.228    0.551
        30 -11.1736    167.5864    156.8293   7.8034580641e+01   1.6541932302e+01    0.3805686    0.2914486 -66.65  0.001789724    1.646    0.392
        31 -11.1572    118.3007    157.2346   9.0180182472e+01   2.6058228323e+01    0.3224978    0.2690484 -65.82 0.0009197864    1.244    0.196
        32 -10.7579    218.4842    156.0656   6.7412562029e+01   6.8586725388e+00    0.3834224    0.1278322 -39.91  0.001365038    2.741    0.635
        33 -10.1488     23.4668    153.9010   1.1520372197e+02   4.0065741860e+01    0.1941183    0.1095081 -74.74 0.0004255167    1.502    0.334
        34 -10.8612    232.3939    152.5859   6.4192299716e+01   4.9952732624e+00    0.2818639    0.1049876 -48.60 0.0009645896    3.381    0.704
        35 -10.7482    237.3237    150.6664   6.2949045102e+01   4.4712518726e+00    0.1323504    0.1042323 -63.49 0.0007050691    1.708    0.415
        36 -10.1099    189.6684    150.3429   7.1786471284e+01   1.3453140474e+01    0.1497533    0.1205539 -80.38 0.0007050917    1.753    0.429
        37 -11.7431    107.9513    146.0089   9.0609350179e+01   3.0639805482e+01    0.7135026     0.388282  67.16  0.002228199    3.822    0.738
        38 -10.6579    148.8359    145.3515   7.9858890764e+01   2.2842562140e+01     0.302939    0.2160911 -72.88  0.001283419    1.937    0.484
        39 -10.7357     55.4911    145.4983   1.0528345913e+02   3.8784595782e+01    0.3352494    0.1812464  82.16  0.001269056    2.934    0.659
        40 -10.2499    124.4966    142.9917   8.5504093139e+01   2.8260529776e+01    0.2247783    0.1392069 -75.03 0.0008106577    2.601    0.616
        41 -10.2751    181.9556    141.7847   7.1450482784e+01   1.6744989740e+01    0.2441226    0.1830681  80.19  0.001077497    2.006    0.501
        42 -10.4601    132.0020    131.7171   8.0895527269e+01   2.9393684550e+01    0.3264215    0.2016135 -72.69  0.001164622    2.691    0.628
        43 -10.5026     82.9875    132.0438   9.4749348446e+01   3.8313485708e+01    0.2459038    0.1812769  77.46  0.001134931    1.737    0.424
        44 -12.5284    100.0779    129.0573   8.9075980379e+01   3.6175462252e+01    0.7901626    0.4587329  62.12   0.00293889    2.625    0.619
        45 -11.3470     43.3806    122.5023   1.0500200694e+02   4.5957020616e+01    0.5819742      0.29295 -87.51  0.002129202    3.254    0.693
        46 -11.6424    192.4375    117.7866   6.3547505891e+01   1.9306714812e+01    0.5201688    0.3686751 -61.37  0.001675195    1.677    0.404
        47 -10.5445    118.2226    125.9876   8.3204426738e+01   3.3498023731e+01    0.3355859    0.1952489  63.71  0.001184882    2.748    0.636
        48 -10.8144    108.5706    113.0212   8.2661231235e+01   3.8413268142e+01    0.5785941     0.275658 -64.73  0.001691938    3.953    0.747
        49 -11.5145     78.6761    112.3725   9.1621905744e+01   4.3822309681e+01    0.5415834    0.3035634 -81.35  0.001709375    4.045    0.753
        50 -10.5526     92.1312    112.0570   8.7334955253e+01   4.1668312820e+01    0.3460418    0.2044183 -66.17  0.001372483    2.157    0.536
        51 -10.9706    174.1881    111.0648   6.5575518521e+01   2.4668723584e+01    0.3935508    0.2506438 -55.88   0.00109562    1.782    0.439
        52 -12.2085    159.6081    111.0643   6.8802850722e+01   2.7956912050e+01    0.7181701    0.2786246 -46.56  0.002386181    2.618    0.618
        53 -10.2440     66.6764    111.3418   9.5239490108e+01   4.5852633198e+01    0.1479008    0.1122606  78.37 0.0007050808    1.729    0.422
        54 -11.3346     13.4997    110.0099   1.1246616025e+02   5.1626431020e+01     0.331834    0.1642384 -88.05  0.001472446    2.439    0.590
        55 -12.8238    141.1862    102.9764   7.1053862954e+01   3.3786534140e+01     0.727715    0.5055485 -41.90     0.003275    1.416    0.294
        56 -12.3742    127.7004    100.5871   7.3897641474e+01   3.7260921366e+01    0.5711971    0.3357555 -51.28  0.002331444    1.799    0.444
        57 -10.7500     94.5764     97.0431   8.2557419761e+01   4.4700940181e+01    0.3117698    0.1990132 -65.29  0.001292026    2.071    0.517
        58 -10.6073     63.7857     97.1790   9.2766613572e+01   4.9642899130e+01    0.2379369    0.1550334  75.64  0.000952262    2.849    0.649
        59 -12.2813    107.7801     98.9488   7.9068201080e+01   4.1756483559e+01    0.8754157    0.5675231 -74.40  0.003320492    2.649    0.623
        60 -12.2565    169.3377     91.0049   6.1275894913e+01   2.9677150674e+01    0.2886763    0.2682801 -36.46 0.0003700702    1.069    0.065
        61 -12.1478     44.4729    100.6628   1.0029747199e+02   5.1202563124e+01    0.7067865    0.4141037 -87.19  0.002908904    2.785    0.641
        62 -10.7769    151.6588     88.0106   6.4310682262e+01   3.4391548159e+01    0.4554866    0.2004257 -32.03  0.001554881    2.678    0.627
        63 -11.3051     86.7653     86.8704   8.2120358381e+01   4.8347359584e+01    0.3973706    0.2838907 -79.74   0.00171998    2.277    0.561
        64 -11.2499     45.3273     81.8144   9.5406490902e+01   5.5501629295e+01    0.2625156    0.2478169  77.38 0.0008046343    1.303    0.232
        65 -10.6902    140.7193     82.8653   6.5406927222e+01   3.7919779714e+01    0.3634124    0.1311208 -41.55  0.001198477    2.741    0.635
        66 -11.2307    104.4155     83.0849   7.5388195337e+01   4.5806177040e+01    0.3657137    0.2822391 -70.65  0.001719597    1.732    0.423
        67 -10.5997    250.0067     81.0162   4.5983911039e+01   1.3727694430e+01    0.1670979     0.132362 -46.21 0.0007060715    1.062    0.058
        68 -10.5058    119.3755     81.1729   7.0454927185e+01   4.3053870903e+01    0.2207078    0.1395948 -50.07  0.000749199    1.708    0.414
        69 -10.9290     23.8840     79.7304   1.0311616940e+02   5.8034845453e+01    0.3899626    0.1630037 -69.67  0.001570232    2.815    0.645
        70 -11.4664     82.0581     72.8965   7.9354325651e+01   5.2092139891e+01    0.4090673    0.2423167 -66.00  0.001534119    3.128    0.680
        71 -10.2532    116.0237     73.1878   6.8882361086e+01   4.5310856256e+01    0.2487885    0.1828082  80.91  0.001090725    2.058    0.514
        72 -10.0382      4.5656     73.2343   1.0928956116e+02   6.0754993245e+01     0.185782   0.08166366 -53.88 0.0009430788    1.666    0.400
        73 -10.5358     51.4174     71.2042   9.0041820270e+01   5.7089905400e+01    0.1935039    0.1250623 -60.00 0.0009533478    1.742    0.426
        74 -11.1866     42.8613     67.0702   9.2172863745e+01   5.8990100359e+01    0.3498291    0.1630117 -50.75  0.001248149    1.899    0.474
        75 -12.0082     21.1643     50.6382   9.6391579775e+01   6.4475720960e+01     0.549668    0.2578195 -44.65  0.002830975    1.699    0.411
        76 -11.3901     41.3541     62.4533   9.1359026798e+01   6.0118028980e+01    0.3284282    0.2645204  30.78 0.0009748993    1.420    0.296
        77 -13.2798     29.7808     59.8230   9.5418501561e+01   6.1856001410e+01    0.9316692    0.7543423  12.59  0.002724193    1.329    0.248
        78 -10.3884    194.8057     67.8678   5.0427820629e+01   2.7678052532e+01    0.2092657    0.1613448 -68.66 0.0009674333    1.361    0.265
        79 -11.5179      9.6553     55.2987   1.0296371972e+02   6.4350733619e+01    0.3990413    0.3146091  32.29  0.002658221    1.613    0.380
        80 -13.3149    235.2631     63.1794   4.3790821280e+01   1.9395702523e+01    0.9554514    0.5085392 -79.11  0.003986831    2.946    0.661
        81 -10.0424    161.6561     53.2943   5.2089695825e+01   3.7897624580e+01    0.1497079    0.1086846 -75.16 0.0002617718    1.663    0.399
        82 -11.6165    148.8698     51.5197   5.4041324238e+01   4.1275955579e+01    0.4128421     0.225738  56.17  0.001336099    1.730    0.422
        83 -11.8649    230.0087     54.5736   4.2452317348e+01   2.1758414326e+01    0.4112698    0.2910846 -68.93   0.00231841    1.386    0.279
        84 -11.3603    141.5954     45.2164   5.3564449140e+01   4.3943208412e+01    0.1989496     0.140012 -14.86 0.0009592228    1.714    0.416
        85 -10.9249     10.5565     43.9601   9.9260800149e+01   6.6582647851e+01    0.2695251    0.1663085  10.35 0.0008438602    1.746    0.427
        86 -10.8605      4.8044     41.7057   1.0135588117e+02   6.7379645711e+01    0.2739382    0.2144352 -87.90   0.00129029    1.937    0.484
        87 -11.6698     74.5202     43.3360   7.1460023787e+01   5.8749120775e+01    0.3390229    0.1611649  47.48  0.001471654    2.293    0.564
        88 -11.0451     36.5610     38.6806   8.5073877680e+01   6.5177495185e+01    0.2371727    0.1647559 -53.12  0.001355519    1.776    0.437
        89 -10.6900     73.5446     32.5292   6.7472048181e+01   6.0532508584e+01    0.2755717    0.2153061 -80.57  0.001403274    2.474    0.596
        90 -11.0551    109.3779     31.9320   5.6435646432e+01   5.3243154727e+01    0.2482067    0.1873346  70.07 0.0005493037    1.525    0.344
        91 -11.1687    193.6473     29.7764   4.0760487823e+01   3.3301572297e+01    0.2434171    0.1601409 -46.89  0.001306441    1.465    0.317
        92 -10.2112    101.6820     30.2971   5.7846976584e+01   5.5148844628e+01    0.2086871    0.1936071 -89.20 0.0007893911    1.325    0.245
        93 -10.7768    239.6586     21.0072   3.4198633169e+01   2.4087850687e+01    0.2361121    0.2037456  79.25 0.0008359363    1.265    0.210
        94 -11.8647    219.7764    248.6073   8.4531996200e+01  -8.0910861450e+00    0.2776681    0.2586982  78.11  0.001934377    1.999    0.500
        95 -12.4686    203.1066     20.7293   3.7455370442e+01   3.2152222911e+01    0.3734909     0.208886  86.22  0.001878431    1.813    0.449
        96 -10.3729     89.4456     18.1188   5.6441596107e+01   5.9164502803e+01     0.263833    0.1749821  71.70  0.001335696    2.060    0.515
        97 -11.6420     22.0141    248.9252   1.2286712532e+02   1.9261555810e+01     0.207068    0.1674897  57.74  0.001593737    1.203    0.169
        98 -10.3365     46.7879     16.6084   7.0842505475e+01   6.7134932222e+01    0.2059904    0.1391424 -12.72 0.0008095161    1.370    0.270
        99 -11.6064     10.5949    247.1493   1.2477118826e+02   2.0767721707e+01    0.1847487     0.111733  56.08 0.0006642799    1.267    0.211
       100  -9.8394     65.4782     11.4592   6.1109910294e+01   6.4583564112e+01    0.1262138    0.1029943  19.97 0.0001906307    1.003    0.003
       101  -9.6686     32.6851    242.3069   1.2055320879e+02   1.9365465213e+01    0.1223526    0.0639829  63.03 0.0003200871    1.626    0.385
