#   1 NUMBER                 Running object number                                     
#   2 MAG_AUTO               Kron-like elliptical aperture magnitude                    [mag]
#   3 X_IMAGE                Object position along x                                    [pixel]
#   4 Y_IMAGE                Object position along y                                    [pixel]
#   5 X_WORLD                Barycenter position along world x axis                     [deg]
#   6 Y_WORLD                Barycenter position along world y axis                     [deg]
#   7 A_WORLD                Profile RMS along major axis (world units)                 [deg]
#   8 B_WORLD                Profile RMS along minor axis (world units)                 [deg]
#   9 THETA_WORLD            Position angle (CCW/world-x)                               [deg]
#  10 FWHM_WORLD             FWHM assuming a gaussian core                              [deg]
#  11 ELONGATION             A_IMAGE/B_IMAGE                                           
#  12 ELLIPTICITY            1 - B_IMAGE/A_IMAGE                                       
         1 -11.5345     17.8634     32.8534   1.0795224672e+02   6.7487932612e+01    0.7710102    0.3417509 -20.26  0.003033406    3.987    0.749
         2 -11.1448     75.1060     21.8680   7.9237134649e+01   6.2172318699e+01    0.4657079    0.2642733 -44.80  0.002234929    1.950    0.487
         3 -11.0258     14.5691     16.1316   1.0364224255e+02   7.0998803323e+01    0.3188741    0.1961471  27.51   0.00130226    1.959    0.489
         4 -10.9870     41.9834     19.1763   9.1445199361e+01   6.7690416186e+01    0.4507699    0.2796058 -10.65   0.00239826    1.991    0.498
         5  -9.8330     63.9811     16.8187   8.1020268195e+01   6.4863875399e+01    0.3144295    0.1584138 -47.44  0.001405818    2.474    0.596
         6  -9.8384    199.6570     17.0444   5.0590173298e+01   3.2466997176e+01    0.1985094    0.1812664 -32.71 0.0004824711    1.110    0.099
         7  -9.7945     88.8199      8.1987   6.8271263775e+01   6.1327145539e+01    0.3016445    0.1372336 -35.56  0.001311322    2.237    0.553
         8 -10.9772     89.0207     13.6876   7.0814059977e+01   6.0616290984e+01    0.4875001    0.3759912 -62.19  0.002342406    1.873    0.466
         9 -11.0040     92.8120      9.1022   6.7526686320e+01   6.0375774806e+01    0.3334718    0.2438067   7.06  0.001204931    1.389    0.280
        10 -10.2967    155.1024     14.5755   5.6045790327e+01   4.4569480458e+01    0.3615046    0.1900194  43.71  0.001263301    1.923    0.480
        11 -11.6966     30.0927      7.1320   9.1379696691e+01   7.1114837272e+01    0.3079037    0.2835573 -20.03  0.001402904    1.284    0.221
        12 -10.9197     39.7556     10.6343   8.8392809373e+01   6.9388786101e+01    0.2087353    0.1636424  -8.78  0.000562456    1.157    0.136
        13 -11.0120     40.7077      7.6739   8.6421683641e+01   6.9727391037e+01    0.2871759    0.1768529 -22.09 0.0005553181    1.512    0.339
        14 -11.1088    191.1130     14.9056   5.0971973665e+01   3.4943353988e+01    0.4824336    0.1669488 -41.45  0.001698051    2.849    0.649
        15  -9.8744      2.5163      2.7088   1.0475477093e+02   7.4287147978e+01    0.2806616    0.1421155  30.24  0.001615561    2.490    0.598
        16 -10.2420     10.0612      1.9523   9.9854860150e+01   7.3891406510e+01    0.2745995    0.1698826 -29.47  0.000891351    1.343    0.255
        17 -10.8722      4.1633     10.0151   1.0688111081e+02   7.2851857369e+01    0.2101514    0.1506532 -43.72 0.0003582877    1.042    0.040
        18 -10.5910      2.5140      6.4756   1.0639004302e+02   7.3605162006e+01    0.3223351    0.1703957  -9.68  0.001899244    2.291    0.564
        19 -10.5252     15.0444      8.6864   1.0019767839e+02   7.2318433532e+01    0.2094168    0.1600006 -33.48 0.0005603708    1.005    0.005
        20 -10.8785     11.2056      6.9944   1.0158231211e+02   7.2922483394e+01    0.2898806    0.2347978  85.81  0.001937106    2.149    0.535
        21  -9.8569     56.5170     10.5020   8.0887005388e+01   6.7006670098e+01    0.3026226    0.1461622 -23.32  0.001385401    2.218    0.549
        22 -10.8510     55.5782      7.2235   7.9575096144e+01   6.7620464016e+01    0.3097018    0.2606322  10.06  0.001312591    1.117    0.104
        23 -11.2212     57.7345      2.2356   7.6008254899e+01   6.7929858199e+01    0.3433384    0.2561019  -7.28 0.0002304502    1.191    0.160
        24 -11.5176    151.6362      8.1321   5.4272523470e+01   4.6139605339e+01    0.4869579    0.3468593 -81.14   0.00235322    1.675    0.403
        25  -9.9561     71.2976      7.3337   7.3574049855e+01   6.4894896279e+01    0.2408289    0.1514546  24.32 0.0005856631    1.676    0.403
        26 -10.5611     70.1891      4.4092   7.2457094466e+01   6.5462019954e+01    0.2942485    0.2227971  52.33 0.0002418591    1.531    0.347
        27 -10.0695     64.8874      7.0325   7.5776457762e+01   6.6088135457e+01    0.1961742    0.1644559  -5.75 0.0004524835    1.023    0.023
        28 -10.4690    145.1149      6.0767   5.4582977336e+01   4.8049162365e+01    0.2235353    0.1772925  35.73 0.0003664766    1.243    0.196
        29 -10.2289    235.5068      4.5110   4.3612752842e+01   2.4691331353e+01    0.1301487    0.1214106 -63.27 -2.43324e-05    1.044    0.042
        30 -10.9023    130.4162      3.6279   5.6245676769e+01   5.2065007998e+01    0.2856673    0.1629945  61.52  0.001313133    1.633    0.388
        31  -9.4355    120.9961      4.0192   5.8279407780e+01   5.4383032501e+01     0.168053    0.1534142  32.14 0.0004021721    1.003    0.003
        32 -11.1300     19.2295      2.8002   9.4977917164e+01   7.2953588776e+01    0.3532484    0.2027275   8.19  0.002063837    2.100    0.524
        33 -10.6382    210.3587      7.5168   4.6642960973e+01   3.0660352419e+01    0.2320597    0.1288289 -23.62  0.001063001    1.826    0.452
        34 -10.2979     90.0798      2.5321   6.5150118257e+01   6.1685230728e+01    0.2444558    0.2049952 -64.67 0.0008612507    1.631    0.387
        35  -9.5973    176.5066      2.4978   4.8811771235e+01   4.0038258629e+01     0.141452    0.1332403  72.21  0.000810645    1.008    0.008
        36  -9.8833    107.4005      4.8004   6.1674108034e+01   5.7570221817e+01     0.252279    0.1922413  79.34  0.001329891    1.626    0.385
        37 -11.5550     80.2847      1.7012   6.7667625174e+01   6.3814210933e+01    0.3450073    0.1735713  51.45  0.001407435    1.952    0.488
        38 -10.7605     22.2428      9.6358   9.6728806128e+01   7.1512873399e+01    0.2696161    0.1918712  -3.78  0.001154803    1.462    0.316
        39  -9.6051    203.5724      1.4792   4.5561849896e+01   3.2982416647e+01    0.1355557    0.1290861 -87.58 3.202585e-05    1.032    0.031
        40  -9.3934    187.0216      1.1701   4.7170167303e+01   3.7357188848e+01    0.1882824   0.09890693  72.00 0.0003349285    1.795    0.443
        41  -9.5581    100.3158      1.6578   6.1979903036e+01   5.9512593121e+01    0.1346831    0.1031227 -55.99 -3.382232e-05    1.710    0.415
        42  -9.6268     67.0954      1.5065   7.2030234995e+01   6.6377670169e+01    0.1748871    0.1195513  43.27 0.0004231139    1.477    0.323
        43 -12.0203     35.0617     12.8403   9.1736189314e+01   6.9604020622e+01    0.3637393    0.2708261 -33.57  0.002376263    1.123    0.109
        44 -10.5963     11.9723    141.2716   1.2704764506e+02   4.4246451203e+01    0.1519881    0.1197035  81.54 0.0004631302    1.051    0.048
        45 -11.1387      1.5870    248.5645   1.3392663429e+02   2.5769528164e+01    0.2536262   0.08274709 -85.73  0.001625045    2.811    0.644
        46 -11.0015      8.9236    135.4024   1.2730414934e+02   4.5723174058e+01    0.1926646    0.1191214  85.94 0.0004263438    1.307    0.235
        47 -10.4699    213.9580    134.6394   8.0163269928e+01   1.2273844697e+01    0.4738687    0.2537505  64.49  0.001801229    3.183    0.686
        48 -10.6653      2.8373    133.0404   1.2854969192e+02   4.6664421208e+01    0.2557723    0.1203063  45.11  0.001543005    2.051    0.512
        49  -9.8090     35.2256    130.8048   1.2050256547e+02   4.4440532941e+01    0.1596565    0.1218316 -59.29 0.0005578397    1.362    0.266
        50 -11.5840     11.4496    129.3819   1.2622042558e+02   4.6818670852e+01    0.3949163    0.1655153  57.20  0.002067288    2.404    0.584
        51 -10.0508     28.9389    128.2686   1.2179613263e+02   4.5596427028e+01    0.1572495    0.1314874  81.18 0.0003866439    1.078    0.073
        52 -11.7584     22.6747    120.3992   1.2254276053e+02   4.7881567085e+01    0.5326384    0.2264269  71.66  0.002325401    3.149    0.682
        53 -10.1681      8.1130    121.1674   1.2634025317e+02   4.8838048720e+01     0.155595    0.1045763  74.78  0.000374035    1.312    0.238
        54  -9.3120    119.4408    115.5124   9.6030278704e+01   3.5615248538e+01    0.1407387    0.1386224 -83.55 5.545522e-05    1.039    0.038
        55 -11.1607     65.3757    111.1669   1.0960698577e+02   4.5396118245e+01    0.4397903    0.1579171 -59.42  0.001571949    2.465    0.594
        56  -9.5290      2.2936    114.3057   1.2723269032e+02   5.0716827737e+01    0.1081982   0.06942103 -56.34            0    1.580    0.367
        57 -10.8303     72.2688    112.9974   1.0803175391e+02   4.4047867409e+01    0.2108477    0.1819631  61.33 0.0003032348    1.176    0.150
        58 -10.5765     20.2370    112.7864   1.2234320961e+02   4.9769008964e+01    0.1794697    0.1400047  60.79 0.0006163914    1.302    0.232
        59 -11.3724      3.4156    108.6741   1.2644074222e+02   5.1873546818e+01    0.2792115    0.1711179  45.49  0.001834378    1.748    0.428
        60 -11.4225     57.5150    108.1084   1.1127354864e+02   4.7085739846e+01    0.2657713    0.2001578  15.16  0.001520852    1.792    0.442
        61  -9.8669     40.3001    105.3342   1.1574054681e+02   4.9635432103e+01    0.1251121   0.08400807 -44.57 0.0002554438    1.654    0.395
        62  -9.9224     88.1190    101.8231   1.0127116514e+02   4.4158283778e+01    0.1866837    0.1582673 -35.63 0.0004638737    1.299    0.230
        63  -9.7458     18.5009    104.5451   1.2185440982e+02   5.1742411457e+01    0.1182659   0.09437188 -81.36 7.053595e-05    1.005    0.005
        64  -9.3282    186.9933    103.2425   7.7651813012e+01   2.3251185235e+01    0.1933542    0.1251291  50.73 0.0006624705    1.535    0.349
        65 -10.1583    113.5241    102.5056   9.4464167472e+01   3.9502125628e+01    0.1431651    0.1395532 -69.62 0.0001399602    1.013    0.013
        66 -10.7015     57.2583    102.0130   1.1023558698e+02   4.8500504173e+01    0.2367269    0.1566917  52.85   0.00129117    1.649    0.394
        67  -9.7434     23.7017    101.3448   1.1995715032e+02   5.2050145727e+01    0.1868701    0.1156413  69.30  0.001075326    1.746    0.427
        68  -9.5233    139.2824     99.3077   8.7085484308e+01   3.4864229436e+01    0.1476992      0.11932   2.45 0.0001966021    1.562    0.360
        69 -10.7161     62.1424     98.5966   1.0812675513e+02   4.8663206755e+01    0.2430482    0.1659188 -71.94   0.00131476    1.414    0.293
        70 -11.2455    100.5471     96.0672   9.6389090015e+01   4.3295801845e+01    0.3357908    0.2555726  82.47  0.001668272    1.674    0.402
        71 -10.5838     78.9330     94.6833   1.0228482791e+02   4.7188582216e+01    0.1792875    0.1740247  64.64 0.0003625565    1.104    0.094
        72 -10.8245     17.9032     94.9324   1.2080025276e+02   5.3940988348e+01    0.2418677     0.155999  40.37 0.0009302337    1.755    0.430
        73 -10.0417      3.5347     95.2591   1.2507465784e+02   5.4816756930e+01    0.1611265    0.1560565  62.79 0.0004124144    1.309    0.236
        74 -11.0227     10.9687     90.5189   1.2230994642e+02   5.5410065401e+01    0.4898565       0.1405 -68.21  0.002180067    2.517    0.603
        75 -10.1892     29.2998     92.0587   1.1691568466e+02   5.3677078433e+01    0.2201086    0.1773528  71.64 0.0008091062    1.296    0.228
        76 -10.8362     57.8615     91.7478   1.0801211698e+02   5.0754517145e+01    0.2859979    0.2048725 -37.64  0.001064563    1.568    0.362
        77 -11.1323     76.5153     89.2358   1.0171645854e+02   4.8765957111e+01    0.2535475    0.2450504 -72.15 0.0005901613    1.063    0.059
        78 -11.0485    107.8154     88.9863   9.2503949399e+01   4.3458256156e+01    0.2506889    0.2119202  45.46 0.0005576969    1.222    0.182
        79  -9.5432     43.4623     89.4746   1.1204564690e+02   5.2912329035e+01    0.2609953   0.06590716  45.97 0.0008089277    5.547    0.820
        80 -10.7455     18.4605     87.2107   1.1953899228e+02   5.5634366130e+01    0.3118525    0.1935284 -61.47  0.001229091    1.319    0.242
        81 -10.4429     24.9033     89.7414   1.1791044099e+02   5.4568937180e+01    0.3400403    0.2020445  75.71  0.001849096    1.988    0.497
        82  -9.5826    124.4726     86.5270   8.7312065116e+01   4.0602890467e+01    0.1473291    0.1448213 -25.79 0.0002888168    1.019    0.018
        83 -11.5360     54.7615     84.5721   1.0743713647e+02   5.2752349233e+01    0.3283897    0.2258869 -75.82  0.001071827    1.508    0.337
        84 -10.0590     73.2456     84.2553   1.0149773946e+02   5.0355458770e+01     0.374676    0.2534858 -11.57  0.001722366    2.441    0.590
        85 -11.5074    146.1373     83.4161   8.1004399728e+01   3.6391796463e+01    0.2661593     0.244203 -36.62 0.0002651479    1.088    0.081
        86 -10.6702      3.7064     82.3832   1.2352461083e+02   5.7656262245e+01    0.3234124    0.1600465 -83.55  0.001794756    1.775    0.437
        87 -10.4096    100.4160     83.2665   9.3028700156e+01   4.6057313283e+01    0.2485297    0.1794007  67.16  0.001185365    1.766    0.434
        88 -11.4869     64.4356     80.0098   1.0324013256e+02   5.2537742202e+01    0.5024177    0.3070588 -63.12  0.002281425    1.587    0.370
        89 -10.2556     89.1084     80.4851   9.5608025281e+01   4.8659569574e+01    0.2758963    0.1985716 -60.52 0.0007801803    1.426    0.299
        90  -9.9439     85.2777     78.6122   9.6260687760e+01   4.9705733932e+01    0.2486367    0.1892824 -65.27  0.001304528    1.394    0.282
        91  -9.7855    132.3170     80.3334   8.3483827667e+01   4.0121367824e+01    0.1558456    0.1200971   5.70 0.0006059548    1.691    0.409
        92  -9.5227    124.4150     79.1789   8.5183662446e+01   4.2077025361e+01    0.2091835    0.1381742 -53.06 0.0004922879    1.632    0.387
        93 -10.2725    176.9725     77.0042   7.2416797192e+01   3.0090053176e+01    0.2422564     0.238887   8.01  0.001317893    1.011    0.011
        94  -9.6866     28.1741     77.1243   1.1467418291e+02   5.7142104377e+01    0.1549542    0.1249736  88.51 0.0002846743    1.266    0.210
        95 -10.9744     56.1960     75.0744   1.0472964283e+02   5.4698728814e+01     0.391515    0.3105996  23.29  0.002335876    1.489    0.328
        96  -9.9747      7.0650     75.1293   1.2144753627e+02   5.9074781976e+01    0.2631542    0.0799225 -53.00  0.001202776    2.619    0.618
        97 -11.6305     32.1866     73.0492   1.1248999869e+02   5.7707175685e+01     0.343256    0.1964428  51.20  0.001828049    2.186    0.543
        98 -11.1415     36.4653     71.5549   1.1067807697e+02   5.7644992830e+01    0.4271026    0.2571742 -55.43  0.001658453    1.372    0.271
        99 -10.1691     16.0482     75.4612   1.1847867416e+02   5.8436699740e+01    0.2437081    0.1132664  25.65  0.001302335    2.587    0.613
       100  -9.2140    136.5208     74.4484   8.0645557791e+01   4.0288915706e+01    0.1500984    0.1475745   1.06 0.0001265081    1.007    0.007
       101  -9.4570    160.6300     75.2193   7.5278620627e+01   3.4417626733e+01    0.2066351      0.14666 -23.12 0.0002056755    1.530    0.346
       102 -10.5889     92.4696     72.2846   9.2210142550e+01   4.9802069816e+01    0.3810737    0.3065972 -87.95  0.001553828    1.612    0.380
       103  -9.2980    216.9782     72.0285   6.4010733520e+01   2.1023481008e+01    0.1757697     0.163029 -23.29 0.0004733017    1.032    0.031
       104 -10.4604    105.9321     71.8160   8.8050701905e+01   4.7363093651e+01    0.2596759    0.2259226  40.08 0.0004500008    1.196    0.164
       105  -9.9216     76.3444     71.2291   9.7001057736e+01   5.2721990885e+01    0.1984151    0.1205913 -58.25 0.0008475572    1.663    0.399
       106  -9.8581     56.7243     68.4953   1.0284425542e+02   5.6077830705e+01    0.3495573    0.1720938 -30.21  0.001338203    3.359    0.702
       107  -9.6184     46.3541     69.3984   1.0670193610e+02   5.7106253315e+01    0.2213887    0.1294361  21.98  0.001137618    2.167    0.539
       108  -9.9952     10.4295     67.9753   1.1916333778e+02   6.0461062103e+01    0.3015426   0.09304821 -69.96  0.001157113    2.587    0.613
       109 -10.7373    133.9155     66.1472   7.8674392174e+01   4.2415303580e+01    0.3401902    0.2235408  73.36  0.001398337    2.170    0.539
       110 -10.9395     34.2908     65.1350   1.0998917987e+02   5.9272146479e+01    0.2583809    0.2105054 -41.83 0.0005548725    1.189    0.159
       111 -11.1308     39.1479     62.7994   1.0764002076e+02   5.9314764876e+01    0.7917442    0.1870851 -46.56  0.001744458    3.939    0.746
       112 -10.8279     14.0552     63.9416   1.1713785647e+02   6.1124966951e+01    0.2491924    0.1528255 -83.22 0.0003003245    1.631    0.387
       113 -10.7167      9.9813     60.0484   1.1791084104e+02   6.2231999167e+01    0.2037264    0.1329644 -58.00 0.0003844556    1.203    0.169
       114 -11.2860      6.4793     63.4794   1.1981537355e+02   6.1679140970e+01    0.2396362    0.2048139  15.21  0.001786103    1.501    0.334
       115 -10.6506      2.5748     60.0961   1.2067594671e+02   6.2623648247e+01    0.2344115    0.1559225  73.28  0.001335661    1.746    0.427
       116 -10.2632     60.3984     58.2641   9.8592422972e+01   5.7784756353e+01     0.490594    0.1929134 -58.52  0.001758281    2.901    0.655
       117 -10.7247     62.6810     62.6525   9.9108820131e+01   5.6548986279e+01     0.220411    0.1765107 -22.64  0.001171545    1.363    0.266
       118 -10.6703     65.9813     60.7022   9.7360971587e+01   5.6496232197e+01    0.2792106    0.2277747  36.94 0.0009957496    1.368    0.269
       119 -10.7434    100.6812     61.9060   8.6419151008e+01   5.0351960237e+01    0.2404171    0.2254018  74.80 0.0003333289    1.208    0.172
       120 -10.6507     55.9979     60.0019   1.0070612413e+02   5.7997339379e+01    0.2045372    0.1721642 -69.96  0.001238444    1.270    0.213
       121 -13.3764     20.2205     57.5900   1.1352028690e+02   6.2094160350e+01    0.4283894    0.2429275 -66.52  0.002440552    1.479    0.324
       122  -9.9686     15.2982     58.0280   1.1549983223e+02   6.2341201566e+01    0.1744805    0.1369662 -82.47 0.0005515669    1.271    0.213
       123 -11.5557     83.5931     56.9078   9.0126569881e+01   5.4482075782e+01     0.260431    0.2433111 -79.76 0.0003803006    1.239    0.193
       124 -11.8286     88.0895     53.2477   8.7390840531e+01   5.4396221531e+01      0.49822    0.4154843  30.35  0.002046713    1.269    0.212
       125  -9.3271     48.4034     58.2217   1.0297384667e+02   5.9302022409e+01    0.1709255    0.1119539 -63.26 0.0004439548    1.502    0.334
       126  -9.7888     71.5873     56.3616   9.4017372075e+01   5.6556311468e+01    0.2542053    0.1228209 -51.49  0.001103996    1.986    0.497
       127 -10.5366     34.1834     53.9069   1.0718863793e+02   6.1722735015e+01    0.3326684     0.154467 -41.47  0.001006538    2.069    0.517
       128  -9.9616    225.5329     54.4835   5.8022422463e+01   2.1380127992e+01    0.2683876    0.1398121 -13.05  0.001039313    2.468    0.595
       129 -11.4771    114.9968     54.0200   7.9565735798e+01   4.8855267325e+01    0.3332289    0.3180086 -59.01 0.0009428027    1.137    0.120
       130  -9.4730     54.4005     55.4820   9.9927749530e+01   5.9152976536e+01    0.1307249    0.1122419 -48.37 0.0001026261    1.042    0.040
       131 -13.3757      5.9069     50.7936   1.1768067300e+02   6.4470683562e+01    0.4074748    0.2571803 -26.14  0.000676675    1.835    0.455
       132 -11.2387     17.9488     44.8827   1.1136348061e+02   6.4988818206e+01    0.5594323    0.3961958  61.96  0.003464026    1.954    0.488
       133 -10.2135     17.5286    249.4872   1.3163947512e+02   2.4127363834e+01    0.0953499   0.06050212  63.42 0.0006390999    1.020    0.019
       134 -10.5184     25.8557     29.6264   1.0317151857e+02   6.7480055928e+01    0.2096222    0.1429846 -55.69 0.0003287945    1.325    0.245
       135 -10.8440     22.9158     38.4982   1.0742493313e+02   6.5945020512e+01    0.2145543    0.1752425 -70.58 0.0004613874    1.311    0.237
       136 -11.4083     26.6755     34.9732   1.0463890976e+02   6.6345004864e+01    0.3492092    0.1994284 -33.60  0.001190228    1.707    0.414
       137  -9.7305    105.8506     53.2886   8.1916408775e+01   5.0931780093e+01    0.2784478    0.1317817  55.14 0.0008985237    2.547    0.607
       138 -11.8735     66.3600     52.6655   9.4639241052e+01   5.8092131227e+01     0.513511    0.2310031  33.35  0.001738721    2.586    0.613
       139 -11.1989     77.0495     47.5136   8.9044849413e+01   5.7417862958e+01    0.5095304    0.3186593 -17.34  0.002305185    2.184    0.542
       140  -9.5092     53.5250     47.9731   9.7844539838e+01   6.0810859480e+01    0.1989458    0.1127676 -48.68 0.0007023594    1.529    0.346
       141  -9.4886    154.5641     47.5353   6.7728196255e+01   4.0457014817e+01    0.1496372    0.1476849  10.56   7.2455e-05    1.015    0.015
       142  -9.3428    135.5037     46.4226   7.1582501175e+01   4.5385270878e+01    0.1473715    0.1456456  22.37 8.432069e-05    1.042    0.040
       143  -9.6156    104.4308     46.2557   7.9775000333e+01   5.2475022505e+01    0.2061475    0.1314079 -45.45 0.0009488027    1.624    0.384
       144  -9.8815     30.4330     45.2354   1.0623778519e+02   6.3904365949e+01    0.2628271    0.1606855 -87.16  0.001246242    2.845    0.648
       145 -10.7485     25.8593     43.4305   1.0762338194e+02   6.4680982370e+01    0.2514558    0.2102769 -51.39  0.001051015    1.051    0.049
       146  -9.8631    180.5166     42.3533   6.1169528451e+01   3.4454017931e+01    0.3905867     0.236987  -7.71  0.001588757    2.135    0.532
       147  -9.7603    110.7418     42.9873   7.6728994082e+01   5.1677484054e+01    0.1963178    0.1786889 -17.99 0.0002079814    1.054    0.052
       148  -9.6761     95.0217     42.3131   8.1140401814e+01   5.5072756959e+01    0.1897926    0.1762957  13.60 0.0008557011    1.071    0.066
       149  -9.8825     69.4686     41.7846   8.9618770375e+01   5.9733564691e+01    0.2574551    0.1777893 -20.11  0.001114519    1.603    0.376
       150 -10.2680      3.5734     41.8961   1.1675008317e+02   6.6490313241e+01    0.3034305    0.1533817 -17.13  0.001658127    2.663    0.625
       151 -10.9303    139.9803     40.7450   6.8516580133e+01   4.5150570446e+01    0.3013121    0.2511095  82.29 0.0006952053    1.400    0.285
       152  -9.8794     36.2027     41.3709   1.0262288012e+02   6.4145429058e+01    0.1826017    0.1438293 -17.20  0.001161528    1.347    0.258
       153  -9.2766     43.0010     40.7660   9.9587220190e+01   6.3534737971e+01    0.1394099    0.1056001  24.50 0.0004449232    1.511    0.338
       154 -12.2300    121.8117     37.4322   7.1645715248e+01   5.0045156111e+01    0.5661018    0.5136805  75.06  0.001955897    1.253    0.202
       155 -10.2397    127.6944     38.7072   7.0655442762e+01   4.8458599954e+01    0.2279898    0.1802149  43.62   0.00041501    1.243    0.195
       156 -11.0689    134.1851     34.4068   6.7509510134e+01   4.7505128941e+01    0.2554758    0.2042823  20.43 0.0004611521    1.337    0.252
       157 -10.9327      3.2677     34.9961   1.1525039679e+02   6.7951685126e+01    0.3990705    0.1635636 -48.26  0.002179686    1.847    0.459
       158 -10.0821     89.2739     31.6849   7.8708778026e+01   5.7974355569e+01    0.2085499    0.1482812 -70.80 0.0001645287    2.435    0.589
       159  -9.5747    145.1525     33.1520   6.4653353900e+01   4.4920793570e+01    0.1917128    0.1718188 -65.16 0.0002830619    1.242    0.195
       160  -8.9589     50.2827     33.5966   9.3926683261e+01   6.4037160635e+01    0.1236891   0.09808506 -72.96 0.0006988037    1.783    0.439
       161 -10.5446    166.2302     31.0964   5.9920270221e+01   3.9698362088e+01    0.2354301    0.2311694  -3.21 0.0004181088    1.035    0.034
       162 -10.7906     43.4922     26.5062   9.3959129636e+01   6.6205390108e+01    0.3241236    0.2211384  20.71  0.001914301    1.650    0.394
       163 -11.2612     38.9220     30.9410   9.7747201545e+01   6.5913722748e+01    0.2697916    0.2050382 -14.59 0.0008759364    1.358    0.264
       164 -10.9236     43.7820     30.2290   9.5347302725e+01   6.5483386546e+01    0.3779027    0.2626071 -11.68  0.001052897    1.634    0.388
       165  -9.5246    129.2742     30.5858   6.7197693515e+01   4.9244976022e+01    0.2612988    0.1769824   3.05  0.001167405    1.829    0.453
       166 -10.7895      8.2725     28.7783   1.1120947822e+02   6.8953190140e+01    0.2379711    0.2047638  69.58  0.001744458    1.554    0.357
       167  -9.8921     69.7175     28.9133   8.4325398718e+01   6.1980933950e+01    0.1922191    0.1550806 -29.62 0.0004798826    1.119    0.106
       168 -10.0585    147.0672     26.4962   6.1841531402e+01   4.5295496186e+01    0.2337849    0.1964223 -38.20 -0.0004512418    1.236    0.191
       169 -12.0774     11.2770    244.1087   1.3237678385e+02   2.5540570867e+01    0.2312116    0.1688447  28.22  0.001931569    2.108    0.526
       170  -9.4944    229.5150     26.2519   4.9898178656e+01   2.3869501458e+01    0.1902372     0.132604  -6.07 0.0009401622    1.691    0.409
       171 -10.7912     78.5033     21.9798   7.8092966446e+01   6.1533239898e+01    0.5868525    0.1882941 -30.27  0.002044715    3.316    0.698
       172  -8.2912     18.4452     26.4463   1.0555158985e+02   6.8722310561e+01    0.1222022   0.08855671 -38.93 0.0005116126    1.128    0.113
       173  -9.6990    153.7798     25.5918   6.0235041012e+01   4.3660392183e+01    0.2060316    0.1428971  78.62  0.000840354    1.636    0.389
       174 -10.2831    113.8792     24.8361   6.8695742475e+01   5.3697267523e+01    0.2525296    0.2041366 -21.06 0.0009053751    1.219    0.180
       175 -10.3454     58.9311     24.4500   8.6552938558e+01   6.4447890581e+01     0.292545    0.1974146   1.01  0.001546792    1.812    0.448
       176  -9.7072     38.5114     24.8977   9.5515571610e+01   6.7089936463e+01    0.1868463    0.1023448 -43.41 0.0004823334    1.524    0.344
       177  -9.8115     89.5018     23.1577   7.4971568467e+01   5.9228655177e+01    0.2078162    0.1285838 -28.24  0.001017003    1.545    0.353
       178 -10.3036      1.8880     21.7870   1.1224303729e+02   7.0707423721e+01    0.2360361    0.1293172 -63.30   0.00089243    1.527    0.345
       179 -11.0633     13.5944     20.9328   1.0598151196e+02   7.0157948020e+01    0.2527249    0.2241853  72.41  0.001223949    1.596    0.373
       180 -10.3460     20.1399     16.7872   1.0101331292e+02   7.0425049976e+01    0.1709293    0.1447739 -17.76 0.0004642849    1.165    0.142
       181  -9.8554    229.6576    248.0228   9.7532026688e+01  -4.1346080201e+00    0.1414049    0.1077027  17.64 0.0006628358    1.141    0.124
       182  -9.5676     84.8047     21.3303   7.5671417681e+01   6.0426219455e+01    0.1930251    0.1152649  38.00 0.0005739083    1.699    0.411
       183  -9.3974    224.9871    246.5162   9.8053605698e+01  -3.3361376683e+00    0.1539021   0.06550831  26.55 0.0008074161    2.357    0.576
       184  -9.9374     30.8664     20.5465   9.7260189255e+01   6.8718602747e+01    0.2141615    0.1272739 -38.94  0.000760585    1.377    0.274
       185  -9.2056    132.2741     20.3769   6.2561151958e+01   4.9815771032e+01    0.1553906    0.1049262  21.89   0.00038589    1.695    0.410
       186 -10.2596    100.2382     19.0092   6.9912728075e+01   5.7543952886e+01    0.2994918    0.2069553 -54.04  0.001452513    1.927    0.481
       187  -9.5317     58.2941     18.9538   8.4299277520e+01   6.5444517645e+01    0.2003294   0.09156184 -53.38 0.0007029223    4.149    0.759
       188  -9.3741     68.9361     18.1867   7.9781820028e+01   6.3818344514e+01    0.1638137   0.09915563  43.59 0.0005291145    1.759    0.432
       189  -9.7781    136.5727    245.7753   1.1237887270e+02   9.8328363982e+00    0.1230086   0.09735349  84.22 0.0005916484    1.577    0.366
       190  -9.2769     86.6401    245.2687   1.2061428430e+02   1.6848590678e+01    0.1107187   0.05638814  59.11 0.0004372275    1.644    0.392
       191 -11.5006    108.5319     16.2773   6.6467630571e+01   5.6029574432e+01    0.2325102    0.2141078  19.10 0.0002865502    1.015    0.015
       192  -9.7823     26.8829     16.7062   9.7558563199e+01   6.9816336789e+01    0.1550367    0.1344448 -15.72 0.0005610205    1.148    0.129
       193  -9.5059     44.9970    244.2801   1.2723736008e+02   2.2036458798e+01    0.1222982   0.06488515  46.43 0.0005247404    1.442    0.307
       194 -11.8348      6.0804    241.4350   1.3305981563e+02   2.6435597154e+01    0.1625601      0.12589  75.37  0.001531287    1.292    0.226
       195 -10.0535     60.6506    240.9826   1.2455743051e+02   2.0733566903e+01     0.222229    0.1049947  42.49  0.001263979    1.700    0.412
       196  -9.8807     49.0430     16.0727   8.6836689779e+01   6.7270555822e+01    0.1762462    0.1526004 -63.72 0.0006262027    1.661    0.398
       197  -9.9801    175.3447     14.8648   5.3041278722e+01   3.9147348163e+01    0.2353623    0.1741259 -48.38 0.0007314236    1.413    0.292
       198  -9.4947    202.5036    240.0401   1.0076971229e+02   5.9851379393e-01    0.1340874    0.1062161 -19.66 0.0008989822    1.545    0.353
       199 -11.0097     14.1885    238.8713   1.3175670013e+02   2.6066817531e+01    0.1485861   0.08406276  65.11 0.0004740039    1.206    0.171
       200 -11.8695     26.4616    235.9473   1.2974582457e+02   2.5306378356e+01     0.257569    0.1761382  81.10  0.001510624    1.243    0.195
       201  -9.5558     42.2385    235.9939   1.2724296022e+02   2.3621377833e+01    0.1505918   0.06736139  55.55 0.0004168077    1.611    0.379
       202 -10.0346    231.5433     14.4272   4.6541379270e+01   2.4655399771e+01    0.1345306     0.122976 -60.57 9.094511e-05    1.010    0.010
       203 -10.0807    162.3380     13.1638   5.4381804973e+01   4.2797080766e+01    0.2507982    0.1781949  54.31 0.0003730367    1.324    0.245
       204  -9.1593     95.2429     13.6374   6.8932912994e+01   5.9310545098e+01    0.1332676    0.1014518 -48.63 0.0006931971    1.602    0.376
       205  -9.6395    118.8412     12.3523   6.2275910273e+01   5.4052207274e+01    0.2000187    0.1175279  48.65 0.0003189263    1.579    0.367
       206 -11.8829      4.1379    232.4915   1.3306552072e+02   2.8007267085e+01    0.2255133    0.1196765  58.83 0.0002708535    1.272    0.214
       207 -13.0191      9.8364    228.6288   1.3205368498e+02   2.8099858079e+01    0.4606413    0.2491908  83.12  0.001131628    1.491    0.329
       208  -9.0222     80.3464    231.7112   1.2064007187e+02   1.9707964655e+01    0.1141263   0.05979676  61.24 0.0007024282    1.657    0.396
       209  -9.2054    209.5129    229.5270   9.8177975568e+01   6.4947144397e-01    0.1143509   0.08607971  30.82 4.196907e-05    1.033    0.032
       210 -10.5206    140.1519    227.7285   1.0983202137e+02   1.1732819454e+01    0.2242976    0.1557479 -71.10  0.001473428    1.985    0.496
       211  -9.8708    109.7627    226.9577   1.1511248651e+02   1.6395739236e+01    0.1244349   0.09227142 -67.99 0.0008820355    1.624    0.384
       212  -9.9843    249.1842    234.0986   9.2545485501e+01  -5.6409680639e+00    0.1637944    0.1060527  19.61 0.0004514307    1.182    0.154
       213 -10.0173     33.4783    225.4103   1.2811716634e+02   2.6270273346e+01    0.2453573   0.05527516  42.49  0.001245425    2.906    0.656
       214 -12.2872      7.9947    217.5208   1.3193175714e+02   3.0096121307e+01    0.3042008     0.201176  83.42  0.002520377    1.226    0.184
       215 -11.0204     16.1508    212.9796   1.3039921811e+02   3.0104023369e+01    0.1918994    0.1415571  34.83  0.001538854    1.713    0.416
       216 -10.4401     20.5992    209.9720   1.2950606713e+02   3.0192633738e+01    0.1855266   0.09425245  56.28  0.001284434    1.463    0.316
       217 -10.5430      2.9378    205.4876   1.3230502591e+02   3.2603875006e+01    0.1380107   0.08086657  42.34  0.001039577    1.616    0.381
       218  -9.6876    197.0142    203.9991   9.6480263774e+01   5.6652482730e+00    0.1731824    0.1435829  65.78 0.0007211597    1.645    0.392
       219 -11.3099      9.5541    203.5246   1.3110127963e+02   3.2360935687e+01    0.1834213    0.1277853  68.36 0.0008388673    1.030    0.030
       220  -9.1549    123.3087    198.3352   1.0940201565e+02   1.8911699426e+01    0.1130043   0.09409814   9.16 0.0005538253    1.676    0.403
       221 -10.5482     23.1066    197.1440   1.2839981341e+02   3.2226185344e+01    0.2061499    0.1386057 -78.38 0.0006780326    1.441    0.306
       222 -11.2499     13.8689    193.0683   1.2985364966e+02   3.3847086412e+01    0.1748829     0.117447  86.76 0.0005234219    1.206    0.171
       223 -10.6599     19.1251    193.9741   1.2894850637e+02   3.3189954199e+01    0.2336343   0.09066043 -72.79  0.001356967    2.333    0.571
       224 -10.7213      6.1910    191.7713   1.3117139172e+02   3.4768801156e+01    0.1636453   0.09861656  67.49 0.0009367028    1.221    0.181
       225  -9.9564     15.4199    185.6412   1.2918105047e+02   3.5082946344e+01    0.1974189    0.0814836 -87.65  0.001124951    2.144    0.534
       226  -9.7613     13.3189    180.6437   1.2930417162e+02   3.6218356403e+01    0.1170921   0.05530401  66.19 0.0004825513    1.754    0.430
       227 -11.6012      5.5852    167.9709   1.3011429204e+02   3.9327908471e+01     0.261611     0.131006  76.60  0.001248737    1.640    0.390
       228  -9.4622    226.4978    164.0074   8.4160726975e+01   5.6835533696e+00    0.1754799    0.1029949  -0.99  0.000593872    2.292    0.564
       229 -10.2920     14.4781    164.0174   1.2808968186e+02   3.9363363363e+01    0.1520968   0.06459039 -57.92 0.0008101895    2.663    0.624
       230  -9.7740    247.4691    155.5031   7.8978705764e+01   2.9865572314e+00    0.1299876    0.1067863   8.18 0.0001084776    1.019    0.019
       231 -11.0750      3.1015    153.8048   1.2982563162e+02   4.2345930587e+01    0.2584445    0.1137709  38.54  0.001572239    2.193    0.544
       232 -11.0833     24.1788    150.6282   1.2503927825e+02   4.1236397933e+01    0.2024763    0.1569502 -70.95 0.0005269848    1.299    0.230
       233 -10.4516     22.4766    143.0287   1.2478273718e+02   4.2991053613e+01    0.1750551   0.09258999 -77.43 0.0006939698    1.573    0.364
       234 -11.2439      6.0549    142.2070   1.2845169569e+02   4.4507126775e+01    0.1816294    0.0865595  57.88 0.0007553244    1.911    0.477
