#   1 NUMBER                 Running object number                                     
#   2 MAG_AUTO               Kron-like elliptical aperture magnitude                    [mag]
#   3 X_IMAGE                Object position along x                                    [pixel]
#   4 Y_IMAGE                Object position along y                                    [pixel]
#   5 X_WORLD                Barycenter position along world x axis                     [deg]
#   6 Y_WORLD                Barycenter position along world y axis                     [deg]
#   7 A_WORLD                Profile RMS along major axis (world units)                 [deg]
#   8 B_WORLD                Profile RMS along minor axis (world units)                 [deg]
#   9 THETA_WORLD            Position angle (CCW/world-x)                               [deg]
#  10 FWHM_WORLD             FWHM assuming a gaussian core                              [deg]
#  11 ELONGATION             A_IMAGE/B_IMAGE                                           
#  12 ELLIPTICITY            1 - B_IMAGE/A_IMAGE                                       
         1 -12.8745    202.0406     24.6881   4.6385306655e+01   3.1294063644e+01     2.833616      1.43477 -31.21    0.0126049    1.978    0.494
         2 -15.8067    244.6571    117.1450   6.4116514393e+01   7.3552747328e+00     6.766533     4.505852 -23.68   0.03380068    1.465    0.317
         3 -17.5493    245.7705     53.2077   4.8599112716e+01   1.6957727900e+01     7.424798     3.035245  52.34    0.0303484    2.751    0.637
         4 -15.9681    220.6655     79.1425   5.8458899438e+01   1.8863170916e+01     5.838599      2.59922 -60.99   0.01568172    5.318    0.812
         5 -16.3167    248.3025     28.1126   4.2410200526e+01   1.9710986707e+01     1.676764    0.9607517 -51.83  0.006539634    1.553    0.356
         6 -14.5226    220.4086     40.6981   4.8438789874e+01   2.4655106458e+01     1.193692    0.7535348 -22.97  0.005326592    1.779    0.438
         7 -15.7665    222.1112     24.5481   4.4087945748e+01   2.6296006327e+01     3.929771     2.121735   3.18   0.01325321    4.735    0.789
         8 -13.1279      5.0921     24.9073   1.0488518548e+02   7.0115503779e+01     2.047947    0.9667787  -5.40   0.01105364    2.667    0.625
         9 -12.8341      5.5725      4.2443   9.6017492472e+01   7.3630305972e+01     1.947138     1.184031  45.27   0.01112633    3.373    0.704
        10 -12.9057     20.4080      3.0327   8.7023079850e+01   7.2514379885e+01     1.840772    0.6889203  34.80  0.009342086    3.035    0.671
        11 -10.4436    127.2626     24.9574   5.8926459268e+01   5.0483382652e+01    0.3609312    0.2478268 -12.19  0.001780967    1.614    0.381
        12 -11.2034    135.2889     11.5215   5.2284414791e+01   4.9945496521e+01    0.6787454    0.2506346 -23.33  0.002017499    2.888    0.654
        13 -11.2499    133.2496     23.3051   5.7008206520e+01   4.9205453152e+01    0.5337455     0.266247 -20.16  0.001433815    2.260    0.558
        14 -11.6103    179.0522     24.1321   4.9267741081e+01   3.7307509793e+01    0.6296418     0.427434  62.07  0.002850719    1.368    0.269
        15  -9.0960    165.4475     14.9554   4.8413653404e+01   4.1869442538e+01    0.3801773    0.1991651  10.24  0.001383258    3.456    0.711
        16 -10.4696    155.3061     13.4018   4.9469709458e+01   4.4660060955e+01     0.543305    0.2840227  -6.08  0.002133288    2.674    0.626
        17 -11.4645    119.6753      9.5548   5.4675675238e+01   5.3959591017e+01    0.6089704    0.3675626  36.31  0.002707973    1.616    0.381
        18  -8.9416    146.1776     10.9198   5.0127478270e+01   4.7249746408e+01    0.1880385    0.1505853  25.13 0.0004706397    1.340    0.254
        19 -10.6543    205.9603      5.9568   4.0913910311e+01   3.2358869058e+01    0.5146679    0.2227573  45.74  0.001452203    2.953    0.661
        20 -10.1407    180.7062      5.4955   4.3493784265e+01   3.8840789094e+01     0.281159     0.210788  28.21 0.0007097888    1.620    0.383
        21 -11.8085    243.4790      3.4134   3.7158299047e+01   2.3646019397e+01     0.228743    0.1861633  81.32 0.0005921034    1.214    0.177
        22 -12.5228    247.0691      1.5354   3.6488126776e+01   2.3036357264e+01    0.3599927     0.193949 -87.80 0.0008032475    1.811    0.448
        23 -15.5986    236.2601     80.2994   5.6450698427e+01   1.5068105582e+01     10.20645     4.725272  83.06  0.007034484    9.675    0.897
        24 -12.1875     22.5814    161.3349   1.2324006482e+02   3.8690801802e+01    0.6730713    0.3213966  87.30  0.002844133    2.029    0.507
        25 -12.4574     17.0957    159.7217   1.2432450974e+02   3.9548088325e+01    0.4725304     0.367139 -47.22  0.002577024    1.662    0.398
        26 -11.4508      3.5320    154.2751   1.2689957725e+02   4.1861710829e+01       0.5352    0.1919026  74.42   0.00223214    3.441    0.709
        27 -10.7009    196.9128    159.2860   8.2480693723e+01   9.9858897911e+00    0.3560732    0.2693853  84.56   0.00131955    2.168    0.539
        28 -11.9256    191.7044    153.1338   8.2191587817e+01   1.2193316006e+01    0.8534643    0.3905419 -46.99  0.003232493    2.436    0.590
        29 -10.4529    229.5687    201.1953   8.4668459637e+01  -2.7765113485e+00     0.276756    0.2075901 -62.95  0.001459084    2.541    0.606
        30 -11.0052    142.5625    141.7918   9.0636438147e+01   2.4950455224e+01     1.093958    0.3467163 -57.53  0.002243627    7.983    0.875
        31 -12.1562    158.4504    157.1324   9.0260682828e+01   1.8393908368e+01     1.429926    0.8577595 -89.97  0.003797692    6.147    0.837
        32 -10.6520    150.2221    147.2629   9.0028703635e+01   2.2169321225e+01    0.2920967    0.2520999 -83.75  0.000788435    1.329    0.248
        33 -11.4319    147.1492    143.2086   8.9855088324e+01   2.3682296478e+01    0.4326986    0.3527203 -44.71 0.0006174566    1.255    0.203
        34 -10.6738    203.8716    152.3938   7.9571090490e+01   9.7871892510e+00    0.2887528    0.2794462  51.67  0.000862746    1.167    0.143
        35 -12.0661     46.7378    150.3962   1.1637254536e+02   3.8712330715e+01     0.395502    0.3528086 -61.36  0.001043751    1.254    0.202
        36 -13.6721     55.3403    146.6074   1.1371219365e+02   3.8586588362e+01     2.009142     1.340381  -1.45  0.007485561    2.835    0.647
        37 -13.4545     61.6456    143.6178   1.1165784674e+02   3.8500840291e+01     1.159397    0.8031546  52.67  0.004893047    1.475    0.322
        38 -10.9556    133.7211    145.4045   9.3574612599e+01   2.5969505656e+01     1.172405    0.3122676 -55.07  0.002863238    5.564    0.820
        39  -9.5220    157.9890    149.9897   8.8829258162e+01   1.9962341771e+01    0.2371872    0.1877777  85.22 0.0005532912    1.647    0.393
        40 -15.4801    238.3788     44.1568   4.7228725307e+01   1.9896182905e+01     1.063129    0.6459355  86.45  0.005124017    1.891    0.471
        41 -13.5158    168.2525    116.1419   7.8345194463e+01   2.4682465317e+01     1.580476     1.322574 -64.89  0.007650589    1.347    0.258
        42 -11.9569    186.2641    140.4386   8.0425045128e+01   1.5766321403e+01    0.7336138    0.5033034  -8.88  0.001451343    2.027    0.507
        43 -13.2075    183.5559    124.2209   7.7065085412e+01   1.9526542185e+01     1.490261    0.8824821 -26.57  0.005965707    1.998    0.499
        44 -11.5978    185.8381    118.7148   7.5192627338e+01   2.0070307772e+01    0.6122449    0.4748358 -15.30  0.002050466    1.477    0.323
        45 -10.5061    198.4165    144.2466   7.8809330127e+01   1.2413948961e+01    0.2951005    0.2561846  81.71  0.000760968    1.470    0.320
        46 -10.0568    192.2688    144.2017   8.0050517852e+01   1.3743734064e+01    0.2650757    0.2308237  58.14 0.0003816561    1.262    0.207
        47 -11.1244    159.0795    142.6652   8.6939732519e+01   2.1254587226e+01    0.4009933    0.2839033  55.77  0.001044428    1.499    0.333
        48 -10.0872    156.0245    139.0181   8.6808253018e+01   2.2680449079e+01    0.2359499    0.1889469  85.99 0.0003590838    1.595    0.373
        49 -10.1184    162.8323    154.1265   8.8632090924e+01   1.8093615873e+01    0.2303583    0.2123978  77.95 0.0009788225    1.189    0.159
        50 -11.8430    212.0903    137.5963   7.4586633639e+01   1.0695431919e+01    0.5492128    0.4184796 -62.96  0.001916233    1.737    0.424
        51 -10.2808    166.9051    134.0945   8.3144048289e+01   2.1315624821e+01    0.2398226    0.2301342  10.76 0.0007624252    1.054    0.051
        52 -11.2197    158.2001    131.4064   8.4496403794e+01   2.3809094565e+01    0.3431552     0.319859  65.25 0.0009615903    1.112    0.101
        53 -11.3006    160.5251    128.2991   8.3196887550e+01   2.3942760179e+01     0.436517    0.3660759 -73.77  0.001538137    1.402    0.287
        54 -11.6110    136.7740    128.0030   8.8863625470e+01   2.9203875195e+01    0.7012613    0.4252633 -59.64  0.002862217    1.919    0.479
        55  -9.9195    134.8951    120.3586   8.7462582038e+01   3.1299420191e+01    0.2840502    0.2165427 -35.86 0.0009873435    1.382    0.277
        56 -11.3271    134.8801    111.1285   8.5088532249e+01   3.3336309243e+01    0.8897783    0.3262903 -42.31  0.002877312    2.760    0.638
        57 -12.2531    133.9910    101.7515   8.2772602010e+01   3.5564134629e+01     1.147265    0.7284385 -70.81   0.00383035    2.519    0.603
        58  -9.9824    196.7493    129.6118   7.5674183149e+01   1.5502849037e+01    0.3283744    0.2056966 -46.54  0.001426967    1.669    0.401
        59  -9.5311    212.9310    127.6368   7.2058622326e+01   1.2284054648e+01    0.2049205    0.1837097  42.07  0.000497852    1.158    0.137
        60  -9.8949    165.2975    127.0097   8.1780044611e+01   2.3135342906e+01    0.2285099    0.2034733 -41.98 0.0007317546    1.128    0.113
        61 -10.7241    173.6458    149.7774   8.5278082351e+01   1.6674602611e+01    0.2985677     0.285942  76.76  0.001214474    1.138    0.121
        62 -10.7926    143.1597    123.1586   8.6085773050e+01   2.8895184165e+01    0.4724435    0.3172747  86.47  0.001773919    2.588    0.614
        63 -10.0933    215.4533    116.9525   6.8982990088e+01   1.3621475984e+01    0.3181461    0.2782031 -74.45 0.0007894242    1.370    0.270
        64 -12.5227    193.1781    134.5864   7.7601000551e+01   1.5360406640e+01    0.7907294    0.6480021  85.74  0.002177371    1.627    0.385
        65  -9.6118    153.0060    115.4659   8.1716859768e+01   2.8345903044e+01    0.2337301     0.154947  44.35 -4.459829e-05    1.518    0.341
        66  -9.6127    218.3131    112.2190   6.7297796643e+01   1.3812409276e+01    0.4277837    0.2635423 -85.07  0.001403454    4.022    0.751
        67 -10.1613    120.9529    112.0535   8.9009398939e+01   3.6081388253e+01    0.3777291    0.2593412 -69.79  0.001609444    1.860    0.462
        68 -13.5359    179.3962    143.2713   8.2548494120e+01   1.6716712094e+01     1.603854    0.9175912 -56.24  0.006317291    2.282    0.562
        69  -9.3628    179.8352    109.9702   7.4184872923e+01   2.3180317675e+01    0.2812437    0.2211119  45.51 0.0008434445    1.286    0.222
        70  -8.5801    110.2819    110.3662   9.1508759596e+01   3.8591953162e+01    0.1560626    0.1188421 -19.03 0.0007015631    1.687    0.407
        71 -10.5959    146.1928    104.3855   8.0402881661e+01   3.2244236081e+01    0.3396467    0.3098431  19.55 0.0008058122    1.172    0.147
        72 -11.4039    196.5789     97.9561   6.7599899035e+01   2.1422097591e+01    0.7547414     0.286253 -39.25  0.002569612    2.502    0.600
        73 -11.3176    155.5092    100.2660   7.7000261279e+01   3.0916721564e+01    0.7046715    0.3371697  43.17  0.002556964    2.179    0.541
        74 -12.0354    169.5128     94.5209   7.2188057528e+01   2.8672780698e+01    0.8056381     0.654532  -6.38  0.003774039    1.464    0.317
        75 -10.4811    161.7511     95.8644   7.4305511212e+01   3.0301110110e+01    0.3889252    0.2358763  54.52  0.001589857    1.708    0.415
        76 -10.8882    176.7759     90.6430   6.9537856034e+01   2.7619702212e+01    0.3008438    0.2743926  37.49 0.0003135743    1.128    0.113
        77 -11.0574    139.7938     95.2329   7.9427115555e+01   3.5627458678e+01    0.3946107    0.3709779  76.61  0.001286214    1.132    0.116
        78 -10.1400    208.6127     94.0025   6.4345016681e+01   1.9237038205e+01    0.5254467    0.2741074 -43.79  0.001381841    1.875    0.467
        79 -11.4748    153.2630     91.6658   7.5076753677e+01   3.3180038317e+01    0.3360913    0.2786277 -29.91 0.0005812149    1.237    0.191
        80  -9.3351    212.8183     91.2771   6.2901760193e+01   1.8707054178e+01     0.367612    0.2036833 -17.05  0.001348088    2.619    0.618
        81  -8.5147     97.9737     91.9721   9.0146960303e+01   4.5076787177e+01    0.1735961    0.1609105 -42.77 0.0009409705    1.018    0.018
        82  -8.5573    157.4702     89.5022   7.3458654468e+01   3.2587304819e+01    0.1571594    0.1553022  -9.27  5.57127e-05    1.013    0.013
        83 -11.0361    126.7945     75.9635   7.6986923588e+01   4.2483470869e+01    0.4572319    0.3756531 -65.34  0.001240668    1.433    0.302
        84  -9.8887    125.1361     69.8853   7.5466655342e+01   4.4023129514e+01    0.3197486    0.2116491 -36.77  0.001005166    1.496    0.332
        85 -10.2258    113.0395     71.0219   7.9225513293e+01   4.6468922250e+01     0.218496    0.2057058  -9.53  0.001182178    1.033    0.032
        86 -11.2832    144.5964     68.6270   7.0099501558e+01   3.9649993123e+01    0.3543104    0.2944326 -46.35  0.001078006    1.238    0.192
        87  -9.6050    125.5843     62.7319   7.2957626990e+01   4.5231841444e+01    0.2917632    0.1482691 -32.08 0.0009267431    2.056    0.514
        88 -11.1249    194.7827    198.3759   9.0687101033e+01   3.7343841806e+00     0.397161    0.3090609  82.73   0.00196879    2.191    0.544
        89 -11.4800    191.5721    192.2629   9.0198398014e+01   5.3164858784e+00    0.7391768    0.3618378 -53.65  0.002956169    3.142    0.682
        90 -10.7157    122.7189     35.5301   6.3971539767e+01   5.0219275745e+01    0.5441393    0.2586829 -27.35  0.002047358    2.207    0.547
        91  -9.1143    171.8670     34.6844   5.3629746685e+01   3.7891284001e+01     0.235886    0.1661876  50.67 0.0008545201    1.387    0.279
        92 -11.4493    219.2200    185.7522   8.3613459420e+01   1.2676231175e+00    0.4049578    0.2684495 -19.18  0.001049046    1.594    0.373
        93 -12.2201    211.9643    189.2573   8.5662720032e+01   2.0408804491e+00    0.6425635    0.3718451   3.51  0.002643544    2.866    0.651
        94 -11.4404    216.4054    194.4143   8.5810942930e+01   4.6016162679e-01    0.4351019    0.3089173 -60.26  0.002188782    2.392    0.582
        95 -11.2666    218.8338    190.5613   8.4621478814e+01   6.0722436446e-01    0.3786539    0.2503643  22.37  0.001127219    1.495    0.331
        96  -9.8249    134.0000     17.9839   5.4900596442e+01   4.9610115878e+01    0.2559741    0.1667219 -35.09 0.0007661019    1.645    0.392
        97 -10.3960    248.9990    193.3974   7.9782824025e+01  -4.8972656282e+00    0.2141747    0.1811232  -7.03 0.0003423215    1.134    0.118
        98  -9.2768    158.4432     23.2466   5.2214680921e+01   4.2790783535e+01     0.264129    0.1475025 -18.56  0.001142398    2.079    0.519
        99  -9.5305    194.0654     19.2468   4.5840733730e+01   3.3967787457e+01    0.2154956    0.1970605 -31.91 0.0005681009    1.193    0.162
       100  -8.4260     72.4125    179.5641   1.1399686068e+02   2.8764167408e+01    0.1291689    0.1103567  80.83  0.000142574    1.024    0.023
       101  -8.1953    157.6554    192.3428   9.7166047637e+01   1.1672032014e+01    0.1426453    0.1055581  73.63  0.000704661    1.789    0.441
       102 -10.8694    204.7231    190.0062   8.7194405134e+01   3.2465660163e+00    0.3223837    0.2264374  63.14   0.00136773    2.111    0.526
       103  -9.9537    204.0998    184.3169   8.6215600692e+01   4.2768736827e+00    0.2735631    0.1674087  64.01  0.001015123    2.929    0.659
       104 -10.1747    186.9992    182.3724   8.9242211214e+01   7.8612831138e+00    0.2345674    0.2039816 -32.18 0.0002974072    1.227    0.185
       105  -9.3895    250.4974    244.9945   8.8592452317e+01  -1.1196856425e+01    0.1543652   0.09817559 -20.84  0.001036694    1.601    0.375
       106 -10.1588    119.7654    243.3897   1.1178102711e+02   9.2890279257e+00    0.2011432    0.1685678  53.33 0.0002425842    1.085    0.078
       107 -10.2496      9.8395    206.6944   1.2894860214e+02   3.0315887467e+01    0.1453451    0.1329935  69.50  0.001199532    1.447    0.309
       108 -12.5153      5.6638    174.1114   1.2782535499e+02   3.7377489553e+01    0.6643713    0.3557653  84.59  0.004065315    1.511    0.338
       109 -10.9788    249.4928    174.6377   7.5981391285e+01  -2.3943996579e+00    0.2705324     0.231081   8.07  0.001135833    1.074    0.069
       110 -11.2890    201.0502    174.0119   8.4754121010e+01   6.5760415204e+00    0.4174531    0.3189163  19.20  0.001623383    1.328    0.247
       111 -12.8152     18.1846    165.7116   1.2458490031e+02   3.8118975146e+01    0.6553021    0.3586083  51.30  0.002665297    1.732    0.423
