#   1 NUMBER                 Running object number                                     
#   2 MAG_AUTO               Kron-like elliptical aperture magnitude                    [mag]
#   3 X_IMAGE                Object position along x                                    [pixel]
#   4 Y_IMAGE                Object position along y                                    [pixel]
#   5 X_WORLD                Barycenter position along world x axis                     [deg]
#   6 Y_WORLD                Barycenter position along world y axis                     [deg]
#   7 A_WORLD                Profile RMS along major axis (world units)                 [deg]
#   8 B_WORLD                Profile RMS along minor axis (world units)                 [deg]
#   9 THETA_WORLD            Position angle (CCW/world-x)                               [deg]
#  10 FWHM_WORLD             FWHM assuming a gaussian core                              [deg]
#  11 ELONGATION             A_IMAGE/B_IMAGE                                           
#  12 ELLIPTICITY            1 - B_IMAGE/A_IMAGE                                       
         1 -15.3935    137.5495     25.7378   6.0509560410e+01   4.7798743388e+01       4.0653     3.235508 -14.49   0.01141071    1.267    0.211
         2 -16.8259    243.6654     96.5916   6.4915531331e+01   1.3256234589e+01     8.142274     2.640628 -20.81   0.02815587    3.482    0.713
         3 -14.2646    172.1373     81.4903   7.2594073463e+01   3.0702247870e+01     3.225667     1.544664  24.04  0.008359237    5.673    0.824
         4 -17.7750    232.1150     21.4910   4.6736302174e+01   2.4308956719e+01     6.004498     3.323051  58.27   0.02975884    1.962    0.490
         5 -15.0451    187.2197     91.5722   7.2535670438e+01   2.5655087766e+01     7.405248     2.128395 -37.10   0.01252786    3.212    0.689
         6 -10.7100     39.6062     18.1703   9.0454074385e+01   6.9909055439e+01    0.2001193    0.1050003 -36.84 0.0007115321    1.731    0.422
         7 -11.1650    146.0684     13.1942   5.3958684454e+01   4.6994147393e+01    0.3462506    0.2214683 -31.13 0.0008823849    1.523    0.343
         8 -11.4189    142.5383      7.7482   5.2328985778e+01   4.8484768219e+01    0.4853551     0.311256  19.84  0.001586627    1.818    0.450
         9 -10.7738    207.1593      7.8432   4.4933227631e+01   3.1522611399e+01    0.2042919    0.1563466 -42.77  0.000633583    1.208    0.172
        10 -11.4410    135.6088      3.2392   5.1542421033e+01   5.0760448030e+01    0.4863306     0.313908  10.76   0.00168867    1.771    0.435
        11  -9.4567    181.3032      4.3461   4.6202646911e+01   3.8431251419e+01    0.1506582    0.1014144  32.33 0.0003630197    1.689    0.408
        12 -11.2393     57.8634      2.4280   7.1923553900e+01   6.9486778106e+01    0.3167098    0.1009844  42.31  0.001144806    3.287    0.696
        13 -11.2367    208.8947      3.3594   4.3455479563e+01   3.1491669812e+01    0.2031306    0.1681019 -29.24 0.0004281879    1.126    0.112
        14 -12.5546    160.5864    128.4433   8.7093379801e+01   2.5083823074e+01    0.4333399    0.3587708 -36.99  0.001525213    1.249    0.199
        15 -10.0351    107.6888    233.3045   1.1341177836e+02   1.6434774141e+01    0.1069834   0.06369947  55.81 0.0002530631    1.613    0.380
        16 -13.5908    167.4967    114.5370   8.2376400091e+01   2.6113034839e+01    0.7011763    0.5175698   2.68  0.001304613    1.633    0.388
        17 -10.5126    143.6578    145.8144   9.4407636322e+01   2.5172939650e+01    0.2809871    0.1760719 -73.04  0.001162662    3.059    0.673
        18 -10.7536    135.0000    113.0347   8.9375265659e+01   3.3039468459e+01     0.412762    0.1850155 -44.62  0.001616559    2.262    0.558
        19 -11.5190    134.5587    106.2128   8.7806973067e+01   3.4477761859e+01    0.6800963    0.2664467 -45.47  0.002458509    2.586    0.613
        20 -12.0849    152.5501    107.7911   8.3956252165e+01   3.0443594972e+01    0.8029487    0.4890807 -75.18  0.002390598    4.614    0.783
        21 -14.0902      4.1731    202.0741   1.3068492588e+02   3.2543114710e+01     1.329466     0.481591  88.04  0.007681058    2.549    0.608
        22 -10.7216    127.4768    105.4297   8.9384283729e+01   3.6065075790e+01    0.3191156    0.1432827 -45.20    0.0012285    2.231    0.552
        23 -12.6255    166.0615    102.7632   7.9707195513e+01   2.8460270970e+01    0.4465054    0.3525165  43.87  0.001944619    1.269    0.212
        24 -10.4585    111.9848    103.9839   9.3108362545e+01   3.9380825473e+01    0.1770557    0.1691866  47.93 0.0005499201    1.054    0.052
        25 -11.4116    122.4537    102.1255   8.9846077385e+01   3.7743758593e+01    0.4146543    0.2140268  25.14  0.001384151    3.462    0.711
        26 -11.4712    146.0343    100.2286   8.3496842421e+01   3.3238737296e+01    0.3251091    0.3169697  -3.51 0.0006727004    1.016    0.016
        27 -10.9503    132.7493     96.5439   8.5735927918e+01   3.6771285103e+01    0.2909743    0.2600916 -48.79  0.000531874    1.136    0.119
        28  -9.7436    113.4819     94.9981   9.0405455427e+01   4.1008674744e+01    0.2167002    0.1429551 -46.66 0.0003378151    1.489    0.328
        29 -11.9027    139.3906     90.0994   8.2307350793e+01   3.6606890712e+01    0.4730487    0.3349461 -61.14  0.001252364    1.762    0.433
        30 -10.5610    140.9229    104.2449   8.5758481035e+01   3.3550409599e+01    0.2538913    0.2126574 -35.23 0.0006341842    1.196    0.164
        31 -12.8303    152.5683     83.5446   7.7324839291e+01   3.4872293907e+01    0.3694566    0.2725655 -30.58 0.0008002606    1.340    0.254
        32 -10.5860    166.0017    134.6504   8.7309461730e+01   2.2961001646e+01    0.1958481    0.1668957  31.74    0.0005644    1.101    0.092
        33 -11.6980    158.4232     82.3865   7.5693665044e+01   3.3730672297e+01    0.3589339     0.279574 -44.20 0.0007538244    1.312    0.238
        34 -13.3939     70.6325    148.4726   1.1230892118e+02   3.6223488669e+01     1.672768    0.9896927 -74.03  0.006525384    1.744    0.427
        35 -10.6271     87.3264     76.1672   9.2995202574e+01   5.0032796479e+01    0.5570449    0.2463209 -65.56  0.001533448    4.969    0.799
        36 -10.4731    206.5580     74.2001   6.4492512812e+01   2.3874307093e+01    0.2505503    0.2032009 -58.11 0.0008316941    1.463    0.317
        37 -11.4630    246.1588    164.0249   7.9046937260e+01   4.9348133362e+00    0.4097593    0.2010422  12.08  0.001928485    2.668    0.625
        38 -11.8624    149.9714     70.3316   7.3869740175e+01   3.7812682551e+01    0.7233146    0.3800736  51.47  0.002854638    1.936    0.483
        39 -11.1462    148.0146     66.7606   7.3161924127e+01   3.8897219068e+01    0.5728234    0.2323649  49.78  0.002030588    2.462    0.594
        40 -11.2899    130.6987     65.9907   7.7047107205e+01   4.3125808077e+01    0.3229744    0.2719256 -33.86   0.00110782    1.152    0.132
        41 -11.2661    147.8654     58.9671   7.0612200862e+01   4.0248775122e+01    0.3819386    0.2355501 -44.63 0.0005421184    1.671    0.402
        42 -11.9202     94.0689     59.1477   8.5253955110e+01   5.2421291031e+01    0.4039079    0.2879108  42.81  0.001954269    1.482    0.325
        43 -11.7025    135.2641     57.6929   7.3077717380e+01   4.3529082504e+01    0.3393831    0.2022498 -38.79 0.0007475878    1.625    0.384
        44 -13.3762    213.8495     51.6241   5.7105452484e+01   2.5165091154e+01    0.5422584    0.3200621  37.49  0.002234049    1.965    0.491
        45 -12.0797    191.0782     53.2420   6.0776238146e+01   3.0394218442e+01     0.298937    0.2341921 -44.13 0.0004672676    1.282    0.220
        46 -12.7828    190.7290    150.4430   8.5714595418e+01   1.5861840004e+01    0.5905051    0.3181289 -56.03  0.002263898    4.009    0.751
        47 -15.4278     20.8902    190.2980   1.2701744119e+02   3.3231175002e+01     1.649788     1.260786 -38.92  0.007737401    2.088    0.521
        48  -9.5477    186.1015     45.1096   5.9001914536e+01   3.2705809722e+01    0.1973202    0.1565109 -45.12  0.000293575    1.265    0.210
        49 -15.1489    226.1865    107.2439   6.9977779039e+01   1.5250240833e+01     2.360418     1.682813  35.27  0.009812795    1.419    0.295
        50  -9.5602    210.9979     40.5661   5.4266679294e+01   2.7167705978e+01     0.428135    0.1567183 -45.61  0.001494731    2.977    0.664
        51 -13.1105    209.0807    145.0873   8.1300775543e+01   1.3334670749e+01    0.5140463    0.3754482  82.94   0.00235778    3.310    0.698
        52 -10.4791    102.5265     34.4910   7.2824290947e+01   5.5200934912e+01    0.1500943    0.1405697  -8.47 1.275437e-05    1.013    0.013
        53 -10.7932    159.9517     27.0472   5.6972371156e+01   4.1738418555e+01    0.6065424    0.1586398 -35.50  0.001860922    3.268    0.694
        54 -13.7620     61.5107    160.4753   1.1592398724e+02   3.4848570632e+01    0.6491543    0.4200056  67.26  0.001708042    1.500    0.333
        55  -9.5158    186.2320     21.2987   5.1288996389e+01   3.5501404453e+01    0.1391133    0.1067615  20.07 0.0006809572    1.469    0.319
        56 -13.9460     49.3418    170.7663   1.1970672923e+02   3.4159288050e+01    0.5550998     0.485839  28.25  0.001434277    1.377    0.274
        57 -14.2985     56.2834    165.6336   1.1766347641e+02   3.4410288110e+01    0.8064023    0.6012064  67.74  0.002659252    1.179    0.152
        58 -13.4225    186.1423     71.0360   6.6931412368e+01   2.9051414364e+01     1.002048    0.3714204  38.70   0.00305859    3.836    0.739
        59 -11.3634    135.8298    130.0303   9.3006732540e+01   2.9559422742e+01    0.6168543    0.1748164 -48.60  0.001942594    3.861    0.741
        60 -11.1753    135.1122    121.5208   9.1319567732e+01   3.1348846423e+01    0.5148837     0.200932 -48.41  0.001739402    2.723    0.633
        61 -11.2220    172.6961    149.9834   8.9111496554e+01   1.9191270148e+01    0.1858294    0.1695972  -7.61 0.0007531405    1.104    0.094
        62 -12.2440    192.8325    194.9438   9.3268913817e+01   9.4971466001e+00    0.7823125    0.4502605 -60.53  0.002942299    6.474    0.846
        63 -12.1649    212.5398    188.1090   8.8762820786e+01   7.3277202430e+00    0.3316447    0.1379921  35.30  0.001444617    2.063    0.515
        64 -13.9135    167.3727     67.9064   6.9456995245e+01   3.4032416371e+01     1.125498    0.7164981 -28.35  0.001945276    1.530    0.346
        65 -13.1714    200.2648     60.9923   6.1696823262e+01   2.7137619174e+01      1.32428     1.208238 -82.53   0.00744528    1.268    0.211
        66 -11.3252    133.8055    145.8525   9.6625293017e+01   2.6922073324e+01    0.7493553    0.2176182 -54.34  0.002233834    5.156    0.806
        67 -10.4385    202.1879    248.1949   9.9057149746e+01   2.4925545987e+00    0.1507861   0.09962202  21.38 0.0003913213    1.131    0.116
