#   1 NUMBER                 Running object number                                     
#   2 MAG_AUTO               Kron-like elliptical aperture magnitude                    [mag]
#   3 X_IMAGE                Object position along x                                    [pixel]
#   4 Y_IMAGE                Object position along y                                    [pixel]
#   5 X_WORLD                Barycenter position along world x axis                     [deg]
#   6 Y_WORLD                Barycenter position along world y axis                     [deg]
#   7 A_WORLD                Profile RMS along major axis (world units)                 [deg]
#   8 B_WORLD                Profile RMS along minor axis (world units)                 [deg]
#   9 THETA_WORLD            Position angle (CCW/world-x)                               [deg]
#  10 FWHM_WORLD             FWHM assuming a gaussian core                              [deg]
#  11 ELONGATION             A_IMAGE/B_IMAGE                                           
#  12 ELLIPTICITY            1 - B_IMAGE/A_IMAGE                                       
         1 -14.0471    216.9598     33.1413   4.0182911502e+01   2.7285672109e+01     1.432358     1.051257  45.88  0.006651386    1.699    0.411
         2 -13.4354    223.1453     26.9797   3.8128596268e+01   2.6649208491e+01    0.8449702    0.5546338  51.04  0.001520389    1.829    0.453
         3 -13.6667    240.2746     11.0224   3.3226107938e+01   2.4775058661e+01     0.768799    0.5579729 -63.06  0.002642651    1.125    0.111
         4 -11.3401      2.0000     11.5412   9.4836848741e+01   7.2989364328e+01    0.4387042   0.07182419 -47.20  0.001758823    3.807    0.737
         5 -10.7519      8.3856      5.1849   8.7994051183e+01   7.3495244904e+01    0.1460601   0.09349672 -44.82 0.0009554556    1.717    0.418
         6  -8.8089     92.2915      1.6769   5.0822655164e+01   6.0461999145e+01    0.1157753   0.09713911 -69.39 0.0007014108    1.611    0.379
         7 -10.8774     61.2091    234.6306   1.1565162130e+02   1.7881895416e+01      0.29676    0.1921399  74.02 0.0008677177    1.460    0.315
         8 -14.8167     77.8747    247.5581   1.1346351274e+02   1.3187388895e+01     6.788907     2.265497  27.92   0.02103488    6.029    0.834
         9 -12.7712     23.9434    208.7259   1.2123898000e+02   2.7611434527e+01    0.3445567    0.2815109 -62.39 0.0007933062    1.466    0.318
        10 -15.2507     34.7697    198.0928   1.1812924309e+02   2.8794794231e+01     3.244684     1.673496  83.45    0.0151367    1.980    0.495
        11 -11.8422     30.6175    248.1888   1.2241615257e+02   1.8958287957e+01    0.4441111    0.3321984 -89.38  0.003280169    1.283    0.221
        12 -11.5196     23.4817    224.4629   1.2234967660e+02   2.4367325212e+01    0.3321035    0.1672695  82.89   0.00186497    1.840    0.456
        13  -8.7985    226.6830    206.2749   7.7122588566e+01  -3.1300967726e+00    0.1096699    0.1037363  57.61 0.0002743688    1.567    0.362
        14 -10.3744    192.0036    192.8468   8.1406858294e+01   4.8252961307e+00    0.5191956    0.3175349 -63.16  0.002141508    2.992    0.666
        15 -11.6307     54.1146    180.8550   1.1193649463e+02   3.0511747179e+01    0.3602686    0.2732255 -34.47  0.001139193    1.798    0.444
        16 -11.7192     60.4135    174.7573   1.0963461830e+02   3.1164397937e+01    0.3124869    0.2588598 -41.50 0.0007435585    1.460    0.315
        17 -12.7896     56.4474    127.9814   1.0362215829e+02   4.3225476084e+01      2.79346    0.8563179 -72.63  0.005489394    9.892    0.899
        18 -11.2867     71.3279    164.8787   1.0545016677e+02   3.2081194967e+01    0.2870666    0.2572255 -82.74 0.0004154473    1.042    0.040
        19 -13.3513     57.6922    161.2425   1.0854334511e+02   3.4796162409e+01    0.5383747    0.3208412 -44.99  0.001772097    1.944    0.486
        20  -9.8845    124.0426    152.7471   8.9214044795e+01   2.6168526779e+01    0.4003774    0.2718904  88.67   0.00135016    2.315    0.568
        21  -9.6732    134.1924    147.7863   8.5520895384e+01   2.5326864552e+01    0.3517665    0.1226421 -55.23  0.001028343    3.538    0.717
        22 -10.3544     94.3879    143.9118   9.5473920423e+01   3.3676575162e+01    0.3581147    0.3055595 -31.90   0.00106058    1.313    0.238
        23  -9.5029     97.6459    140.6994   9.3900800510e+01   3.3906961691e+01    0.2908557    0.2254874  -7.83  0.001355741    1.750    0.429
        24 -10.1771    123.3455    217.9185   1.0057691991e+02   1.2015921855e+01     0.392675    0.2367806 -82.69  0.001723345    2.746    0.636
        25 -12.1935     82.2402    142.3605   9.8631633416e+01   3.6029509329e+01    0.3220401    0.2684145 -57.29 0.0005142483    1.156    0.135
        26 -11.4278     36.6094    248.1933   1.2133128696e+02   1.8278849073e+01     0.361374    0.2324625  55.99  0.002455087    1.187    0.158
        27 -10.6106    106.7733    131.6005   8.9330755835e+01   3.4478493433e+01    0.3603287    0.3487638 -23.73  0.001049303    1.077    0.072
        28  -9.9295    157.4161    131.9042   7.6053745650e+01   2.4008363698e+01    0.3365661    0.2461167   4.46  0.001050171    1.949    0.487
        29 -10.1293     94.3148    128.1643   9.2176162327e+01   3.7547170493e+01     0.326211    0.2369686 -26.38  0.001153743    1.713    0.416
        30 -11.5091     66.4420    127.1735   1.0039881279e+02   4.2122996876e+01    0.4977371    0.3144045  83.48  0.002112535    2.299    0.565
        31  -9.5489    114.6731    125.4395   8.5647414943e+01   3.4437988474e+01    0.2785824    0.1894348 -29.57 0.0008556716    1.795    0.443
        32 -12.7296     78.0668    157.6334   1.0250455738e+02   3.2883452330e+01     1.345535    0.7235167  59.35  0.001291515    2.335    0.572
        33 -13.0760     68.1899    144.1828   1.0299843201e+02   3.7639419147e+01    0.8302678    0.5758797  82.38  0.002625417    1.707    0.414
        34  -9.5191    104.9954    120.0715   8.7136099370e+01   3.7567253543e+01    0.2192222    0.2125851 -29.85 0.0002971605    1.042    0.040
        35  -9.4233    167.9872    112.9740   6.8861976350e+01   2.5631645978e+01    0.2551793    0.1950527 -80.93 0.0009087463    1.749    0.428
        36  -9.9793    205.0765    110.4966   6.0737293342e+01   1.7744821188e+01    0.3497019     0.231092  35.01  0.001530805    1.811    0.448
        37 -10.1679     44.1162     90.4406   1.0002053823e+02   5.3758517124e+01    0.3072001    0.1780262 -69.86 0.0009297481    1.932    0.482
        38  -9.9020    162.7586     82.5692   6.1814513750e+01   3.2784296258e+01    0.2211951    0.1476704  67.04 0.0009535053    1.694    0.410
        39  -9.0868     24.7547     82.5967   1.0548760913e+02   5.7364713086e+01    0.1464569    0.1205583  32.35 0.0002234542    1.433    0.302
        40  -9.6551     56.4954     75.9942   9.1607211657e+01   5.5538911443e+01    0.2746858    0.1654236  64.23  0.001047412    3.581    0.721
        41  -9.8680     53.8236    231.1248   1.1684328002e+02   1.9520360798e+01    0.1884634    0.1335393  67.64 0.0006244024    1.186    0.157
        42  -9.2388     62.2181     69.7014   8.7531316416e+01   5.6085696677e+01    0.1998077    0.1733516  51.38 0.0006622639    1.418    0.295
        43 -10.6670     13.3103     60.1963   1.0496913467e+02   6.3112941618e+01     0.218628    0.1667712 -51.24 0.0004808589    1.102    0.093
        44 -12.0506    200.3258     47.2105   4.5643889711e+01   2.9311278063e+01    0.6279163    0.3743193 -49.16   0.00305525    1.625    0.385
        45 -14.7271      9.5690    207.7086   1.2408328935e+02   2.9228456865e+01     2.388064     1.039122 -77.78  0.006330492    1.977    0.494
        46 -10.5374     26.3249    250.3152   1.2329888326e+02   1.9036928560e+01    0.2356968    0.2098782 -87.47  0.001255544    1.404    0.288
        47  -8.7481     94.5244     46.5279   6.7986274783e+01   5.4661771143e+01    0.1410633    0.1282039  16.89 4.601533e-05    1.002    0.002
        48 -14.0587     86.1644    227.1295   1.0978854330e+02   1.5948216028e+01     3.278978      0.97224  51.18  0.002747508    3.669    0.727
        49  -9.9364    129.4324     36.8715   5.5093218582e+01   4.8192706823e+01    0.2739674    0.2071745 -86.10 0.0007568559    1.693    0.409
        50 -10.7580     56.9231    238.6021   1.1682302131e+02   1.7653970624e+01    0.2126505    0.1488773  83.44  0.001369882    1.341    0.254
        51  -9.8196    189.2773     15.4160   3.8896204837e+01   3.5925035852e+01    0.1814902     0.112688  85.52 0.0004846088    1.529    0.346
        52 -15.5566      5.7951    238.6193   1.2634598433e+02   2.3349222415e+01     14.82495    0.6774826 -76.99   0.03642065   12.180    0.918
        53 -10.2515     33.9002    237.7543   1.2118846666e+02   2.0580733411e+01    0.2263717    0.1066943  69.24  0.001021277    2.005    0.501
