#   1 NUMBER                 Running object number                                     
#   2 MAG_AUTO               Kron-like elliptical aperture magnitude                    [mag]
#   3 X_IMAGE                Object position along x                                    [pixel]
#   4 Y_IMAGE                Object position along y                                    [pixel]
#   5 X_WORLD                Barycenter position along world x axis                     [deg]
#   6 Y_WORLD                Barycenter position along world y axis                     [deg]
#   7 A_WORLD                Profile RMS along major axis (world units)                 [deg]
#   8 B_WORLD                Profile RMS along minor axis (world units)                 [deg]
#   9 THETA_WORLD            Position angle (CCW/world-x)                               [deg]
#  10 FWHM_WORLD             FWHM assuming a gaussian core                              [deg]
#  11 ELONGATION             A_IMAGE/B_IMAGE                                           
#  12 ELLIPTICITY            1 - B_IMAGE/A_IMAGE                                       
         1 -13.3016    223.9942      6.6631   3.5141518381e+01   2.8635171728e+01     1.208906    0.8491362  56.62  0.005471413    1.610    0.379
         2 -14.2876    196.9498     37.3252   4.5550982462e+01   3.1391048217e+01     2.727744     1.711746  23.37   0.01176783    2.705    0.630
         3 -11.8567     61.4034      4.0983   6.2440587070e+01   6.6158694905e+01    0.4947186    0.3432996 -11.41  0.003074553    1.365    0.267
         4 -12.7167     47.1109      6.8841   6.9335114333e+01   6.8256929333e+01    0.8990912    0.5614803  55.90  0.004869778    2.521    0.603
         5 -10.4342    125.3858    244.1396   1.0594230738e+02   7.0504564456e+00    0.2644827    0.1210928 -59.09  0.001296917    2.706    0.630
         6 -10.4995    140.3571    249.4054   1.0370746736e+02   3.8962086817e+00    0.2730194    0.2374694 -79.61  0.001897902    1.426    0.299
         7  -8.4455    107.5204    250.5217   1.1005937840e+02   8.6467020689e+00    0.1191806   0.09706979  50.25 0.0002262358    1.031    0.030
         8 -19.3656     12.7580    165.1898   1.2145840130e+02   3.8259296378e+01     18.66777     4.107043 -77.95   0.06081292    4.536    0.780
         9 -11.2266    188.2655    209.2053   8.8217118335e+01   2.6884398504e+00    0.4176744    0.3560351  -6.19  0.002555866    1.151    0.131
        10 -10.6109    112.8895    205.8947   1.0354795200e+02   1.6174693487e+01    0.3587928    0.2627599  84.22 0.0009188399    1.610    0.379
        11 -11.2296    107.7135    204.0011   1.0441092801e+02   1.7402334427e+01    0.4726118    0.2900625  61.45 0.0004019681    1.795    0.443
        12 -12.0206    109.6091    200.8357   1.0354560379e+02   1.7758517194e+01    0.6568543    0.3876065 -36.14  0.002647139    2.503    0.601
        13  -9.1631     87.4104    204.2261   1.0887055078e+02   2.0495725201e+01    0.3274668     0.220743 -81.19   0.00178034    1.571    0.364
        14  -8.8784     93.5006    205.3809   1.0769380552e+02   1.9335619871e+01    0.2380873    0.1603399  26.82 0.0008516036    1.785    0.440
        15  -8.5480    223.3185    198.6298   7.9532699640e+01  -1.4351645626e+00    0.1194388    0.1070513 -75.73 0.0007035233    1.792    0.442
        16  -9.0812    133.4102    195.2647   9.7399445543e+01   1.4890567456e+01    0.1846183    0.1346364 -68.19 0.0006762991    1.599    0.375
        17  -9.7421    120.0148    194.0747   1.0020386034e+02   1.7453989982e+01    0.2041612    0.1897585  62.77 0.0003436135    1.014    0.013
        18 -10.5827    208.1063    193.1157   8.1341836245e+01   1.9805127811e+00    0.2152547    0.1692136   4.30 0.0006163655    1.237    0.192
        19  -9.0005     96.3355    201.5292   1.0657160598e+02   1.9718169897e+01    0.2192102    0.1210145 -62.16 0.0007998242    1.875    0.467
        20  -9.5963    149.6629    187.6326   9.2464130999e+01   1.3533118119e+01    0.2799718    0.2445921  65.13  0.001407507    1.251    0.201
        21  -8.6919    238.3093    185.6632   7.4311012039e+01  -1.8427756546e+00     0.118354    0.1044884 -60.11 0.0007043533    1.681    0.405
        22  -8.8480     93.0866    185.5038   1.0507052529e+02   2.3745097801e+01    0.2059319    0.1279361  42.25  0.001014851    1.548    0.354
        23 -10.4037     98.9035    180.9497   1.0301765461e+02   2.3853787062e+01    0.3619948    0.2692831  12.73  0.001801952    1.898    0.473
        24 -10.3435    189.2217    177.3108   8.1966690016e+01   8.1556195774e+00    0.4857805    0.3541968 -59.29   0.00239487    1.790    0.441
        25 -10.4458    144.0051    177.7923   9.1914721447e+01   1.6619472065e+01    0.3782927    0.2116525 -46.07  0.001047076    1.852    0.460
        26  -8.9751    149.3251    177.0417   9.0560139190e+01   1.5777994588e+01     0.195953    0.1832413 -54.94 0.0003909157    1.119    0.107
        27  -9.8491    108.2608    241.3929   1.0894101522e+02   1.0114966539e+01    0.2894808    0.1871095  -9.71   0.00118242    4.564    0.781
        28  -8.3145    194.4812    172.4883   7.9898331047e+01   8.0616417043e+00    0.1436347    0.1320342  -1.42 5.065769e-05    1.001    0.001
        29 -10.0499    138.6670    170.2625   9.1705534004e+01   1.9242359894e+01    0.3608556    0.2768072  37.11  0.001793695    1.296    0.229
        30  -9.3645    240.4527    169.4496   7.0647365693e+01   3.5472904645e-01    0.1348646    0.1135882 -12.54 9.654213e-05    1.007    0.007
        31  -9.2674    158.5847    235.2218   9.8284119648e+01   3.3093918750e+00    0.2031027    0.1678803 -29.37  0.001299437    1.401    0.286
        32  -9.4563    187.8673    162.9374   7.9229635816e+01   1.1144181380e+01    0.3068426    0.2115351 -47.54   0.00146726    1.524    0.344
        33 -11.3393    177.9909    216.2750   9.1483403075e+01   3.2420192215e+00    0.3436562    0.2431295  29.36  0.001931863    1.284    0.221
        34 -11.5339     93.2025    151.7671   9.9461467502e+01   3.1659483086e+01    0.7341804    0.5329068 -35.37  0.003564451    1.653    0.395
        35  -9.6026    187.1324    152.0549   7.6978848122e+01   1.3416596506e+01    0.2374189    0.2020561  -2.60  0.001230491    1.243    0.196
        36 -10.8826    133.8520    145.3349   8.7672975753e+01   2.5765647819e+01       1.2672    0.3333781 -54.28  0.003062787    5.312    0.812
        37  -8.6594    112.6986    150.6314   9.4170285329e+01   2.8563850233e+01    0.2036911    0.1376194  49.15  0.000928782    1.525    0.344
        38  -9.3283    174.8285    149.1356   7.8943405359e+01   1.6530593138e+01    0.2269477    0.2124368 -78.00 0.0006332379    1.216    0.178
        39  -8.4831    109.6467    147.8808   9.4397324138e+01   2.9768621325e+01    0.2084569    0.1376389 -65.76 0.0003619365    1.634    0.388
        40  -9.1177    143.6685    145.6803   8.5338354067e+01   2.3711138415e+01    0.1583352     0.123159  -4.73 0.0007048609    1.693    0.409
        41 -10.6942    105.4611    138.0958   9.3443012480e+01   3.2863702019e+01    0.5591505    0.3459471 -29.62  0.002249477    2.271    0.560
        42 -11.5845     93.2847    137.8921   9.6712705627e+01   3.5020854226e+01      0.29033    0.2595974 -42.40 0.0004090977    1.159    0.137
        43  -9.4323     77.8024    134.1971   1.0027754501e+02   3.8378839601e+01    0.4258298    0.2456759  64.56  0.001594511    2.511    0.602
        44 -10.3854    135.8895    129.6382   8.3495408060e+01   2.8930838618e+01    0.4797097    0.1805451 -48.35  0.001575949    2.628    0.619
        45 -10.3396    105.9230    130.7058   9.1675371723e+01   3.4554358366e+01    0.3947462    0.3203999 -65.15   0.00121704    1.243    0.195
        46 -10.8868    113.8447    129.0480   8.9131961259e+01   3.3471771748e+01    0.4673118    0.3529848  18.36  0.001529593    1.657    0.397
        47 -11.3598    119.6475    122.8359   8.6062345130e+01   3.3799185031e+01    0.5752974    0.3841139 -15.11  0.002241364    2.412    0.585
        48  -8.4026     97.4613    129.4402   9.3735315662e+01   3.6364833591e+01    0.1510019    0.1405216 -79.15 0.0001825206    1.072    0.067
        49  -9.6124    160.7171    127.4642   7.6939338037e+01   2.4092053845e+01    0.3472709    0.1884497 -54.65  0.001301468    2.155    0.536
        50 -10.3640    101.0238    125.0417   9.1729459066e+01   3.6797354888e+01    0.3088806    0.2526913 -23.07 0.0008436932    1.426    0.299
        51  -9.4912    109.0796    118.2681   8.7827238079e+01   3.6920529772e+01    0.2506399    0.2102401 -45.45 0.0003687117    1.143    0.125
        52 -10.0439    231.2440    113.6502   5.9794388271e+01   1.1498321172e+01    0.2917433    0.2616272  52.74 0.0007894597    1.263    0.208
        53  -9.1520    167.4511    112.4654   7.1556041542e+01   2.5724649811e+01     0.356551    0.2427791 -79.63  0.001370513    2.442    0.590
        54 -10.3640    134.5844    107.2608   7.8032471043e+01   3.4201125193e+01    0.9782341    0.1345202 -46.17   0.00185592    7.779    0.871
        55 -12.0265    117.5268    108.9005   8.3041459392e+01   3.7424911909e+01    0.8653181    0.6617768  81.07  0.003892906    1.792    0.442
        56  -9.3951    205.4558    110.1541   6.3320801801e+01   1.7586942643e+01    0.3067525     0.216398  40.63 0.0006539482    1.564    0.360
        57 -15.3105     72.5115    150.2062   1.0465016314e+02   3.5203838765e+01     7.996779     4.038247  82.31   0.01057573    4.809    0.792
        58  -8.8523     63.8427     99.1590   9.6798725333e+01   4.8900994180e+01    0.1974057    0.1574628 -29.22 0.0006325916    1.311    0.237
        59 -11.2772    161.0066    217.0016   9.5042700467e+01   5.9800006425e+00    0.2865123    0.2549753   3.87   0.00154312    1.168    0.144
        60 -11.1619     51.3983     89.7220   9.8643885826e+01   5.2700135088e+01    0.3792641    0.2396918  51.82  0.001062706    2.094    0.522
        61 -10.8248    184.3551    212.4060   8.9554335282e+01   2.8164234200e+00    0.6760349    0.3841255 -50.42  0.003297287    2.179    0.541
        62 -11.5213    194.5349    199.0090   8.5120490694e+01   3.3306499081e+00     1.361092    0.6494482 -53.30  0.005373866    3.194    0.687
        63 -11.2822    204.2223    199.3884   8.3288378812e+01   1.6064879162e+00    0.6166446    0.2075054  33.23  0.002167325    3.397    0.706
        64  -9.3351     64.2821     70.0062   8.8450089550e+01   5.5361962748e+01    0.1946881    0.1658899 -36.98 0.0004869953    1.058    0.055
        65 -10.8263    115.3057    246.2263   1.0812091663e+02   8.2233962331e+00    0.4226211    0.2529867 -68.43  0.002410455    2.084    0.520
        66 -12.8279    181.4675     51.3306   5.1689952045e+01   3.3256108684e+01    0.8781249    0.7285509  37.14 0.0008432449    1.359    0.264
        67 -10.6775    119.8838    245.8495   1.0720114555e+02   7.5985606990e+00    0.3028129    0.1681791  48.81  0.001162793    1.544    0.353
        68  -9.4311    189.6136     15.0639   4.0484250899e+01   3.5815440435e+01    0.2258049     0.168919 -86.08  0.000646923    1.270    0.213
        69  -8.4647    168.1611    248.1246   9.8253193317e+01  -1.8434834413e-01    0.1497612    0.1229171  45.83            0    1.235    0.190
