#   1 NUMBER                 Running object number                                     
#   2 MAG_AUTO               Kron-like elliptical aperture magnitude                    [mag]
#   3 X_IMAGE                Object position along x                                    [pixel]
#   4 Y_IMAGE                Object position along y                                    [pixel]
#   5 X_WORLD                Barycenter position along world x axis                     [deg]
#   6 Y_WORLD                Barycenter position along world y axis                     [deg]
#   7 A_WORLD                Profile RMS along major axis (world units)                 [deg]
#   8 B_WORLD                Profile RMS along minor axis (world units)                 [deg]
#   9 THETA_WORLD            Position angle (CCW/world-x)                               [deg]
#  10 FWHM_WORLD             FWHM assuming a gaussian core                              [deg]
#  11 ELONGATION             A_IMAGE/B_IMAGE                                           
#  12 ELLIPTICITY            1 - B_IMAGE/A_IMAGE                                       
         1  -8.4211     97.4416     48.4324   6.2313041253e+01   5.3531442355e+01    0.2709987    0.2404709 -89.53  0.001515314    1.498    0.332
         2 -12.3624    230.2178      5.0705   2.8871519862e+01   2.8167550757e+01     3.731807          nan -43.11   0.01242326    5.319    0.812
         3 -10.6266    248.9213      3.7430   2.7423029290e+01   2.4594556545e+01    0.6009331    0.3786536 -65.24   0.00409531    1.241    0.194
         4 -10.9063    218.1922     27.8836   3.4627159922e+01   2.8138431107e+01    0.7060757    0.3566701 -56.36  0.003467555    1.863    0.463
         5 -10.3578    146.2843     16.3084   4.0416883090e+01   4.6134961900e+01    0.3630994    0.2506369  11.64  0.001923249    2.010    0.503
         6  -9.5602     93.1237     15.1552   5.0883124903e+01   5.8595061618e+01    0.4899256    0.2297632  44.74  0.002331754    1.808    0.447
         7  -8.7593    113.9937     13.6362   4.5385006373e+01   5.4046623408e+01    0.3222448    0.2093327  49.54  0.001774793    1.315    0.239
         8  -9.1179     80.9062      9.4466   5.1943056005e+01   6.1716878222e+01    0.3418635    0.1769448 -39.95  0.001679257    2.507    0.601
         9  -8.7545     75.3861      9.2010   5.3494716185e+01   6.2865229685e+01    0.2717173    0.1637188  30.84  0.001497911    1.514    0.339
        10  -9.0710     94.1896      9.0296   4.8191903198e+01   5.8922906543e+01    0.2403876     0.136115 -38.28  0.001240318    2.146    0.534
        11 -10.0183    185.4166      6.6342   3.2915729997e+01   3.7798162116e+01    0.5227524    0.2632143 -83.60  0.002516921    2.171    0.539
        12  -8.6016    101.2769      6.6360   4.5588054793e+01   5.7552901415e+01    0.2125863    0.1492471 -34.84  0.001063813    1.681    0.405
        13 -12.1482    248.4023     13.3035   2.9240892095e+01   2.3650466886e+01     1.706443    0.9010264 -30.04  0.009742265    2.213    0.548
        14  -9.3690    145.9490      2.5262   3.6384878837e+01   4.7450289953e+01     0.328851    0.2613639  79.96  0.001987015    1.109    0.098
        15  -9.2729     47.5790      2.9204   6.0496661281e+01   6.8605717094e+01    0.4313562    0.2270537  56.08  0.002154531    2.636    0.621
        16  -9.0100    138.8587     15.1363   4.1251397091e+01   4.8031355735e+01    0.3460186    0.2093287  11.14  0.001411404    2.524    0.604
        17  -8.2733    156.7321    225.3318   8.9906106513e+01   4.4117636878e+00     0.214774    0.1826858 -22.60 0.0007604877    1.228    0.186
        18 -11.2732    187.7657    245.2625   8.6530990240e+01  -3.6565289405e+00      1.19508    0.7225776 -16.30  0.006336526    1.931    0.482
        19  -7.8381     33.7699    224.6214   1.1718294722e+02   2.2101416596e+01    0.1731798   0.09366099  44.62 0.0009512664    1.608    0.378
        20  -9.6331    231.0708    188.8195   6.7977675404e+01  -8.1451806785e-01    0.6364955    0.1961548 -42.04  0.002372565    3.059    0.673
        21  -9.5086    228.4797    182.4264   6.7188691411e+01   6.6645040819e-01    0.3823678    0.1853108 -48.16  0.001653855    2.410    0.585
        22  -8.2956    220.1933    178.7321   6.7983749727e+01   2.6250996902e+00    0.3158621   0.09472258 -45.66  0.001033494    3.636    0.725
        23 -10.1400    211.7859    173.2502   6.8469308916e+01   5.0158022029e+00     0.474327    0.2846067 -57.80    0.0020235    2.526    0.604
        24 -10.4052    132.9879    247.8848   9.8329920445e+01   3.9845725147e+00    0.5962485    0.4016224  89.00  0.002970322    2.649    0.622
        25  -9.0914    204.7930    167.2365   6.8585131626e+01   7.3614735481e+00    0.4702075    0.1498902 -47.49  0.001492649    3.555    0.719
        26 -11.1372    238.2043    156.4016   6.0186806751e+01   3.6406028476e+00    0.6811796      0.31459 -43.19  0.003053181    1.954    0.488
        27 -11.5569    231.8678    145.7704   5.9018637766e+01   6.5777299200e+00     1.214465    0.7993107 -69.44  0.005335166    2.777    0.640
        28  -8.7018    141.6878    157.0798   8.0657284945e+01   2.1549131611e+01    0.2212474    0.1984176 -40.68 0.0003785027    1.103    0.093
        29  -8.4573    128.7593    151.5351   8.2798105734e+01   2.5364925332e+01    0.2133818      0.14833  50.99   0.00046522    1.568    0.362
        30  -8.1972    128.1335    146.1915   8.1768044426e+01   2.6762022165e+01    0.2143944    0.1902194  87.29 0.0006123267    1.312    0.238
        31 -11.1034    246.0339    128.1783   5.3051700648e+01   7.2184118743e+00     1.247565    0.5790016 -51.82   0.00529953    2.446    0.591
        32  -8.2523    216.6754    139.3272   6.0259598855e+01   1.0486105313e+01     0.215303    0.1911834  85.58 0.0009596733    1.445    0.308
        33  -8.6787    215.5014    135.0235   5.9511013296e+01   1.1512126132e+01    0.3618591    0.1264783 -42.27  0.001295647    2.561    0.610
        34  -9.0973    166.3985    136.8644   6.9969918881e+01   2.1061457395e+01    0.4850511    0.2868432 -61.71  0.001823583    2.387    0.581
        35  -7.7799    113.0049    139.5132   8.4423966058e+01   3.1282843936e+01    0.2392817    0.1559692  38.76  0.001020992    1.560    0.359
        36  -8.5984     24.6489    117.7093   1.0787923624e+02   4.9042124968e+01    0.3950518     0.169108  43.40  0.001643939    2.835    0.647
        37  -7.9958    171.5470    116.5154   6.3787921309e+01   2.4242958819e+01    0.1548005    0.1469052 -22.75 0.0002517712    1.050    0.048
        38  -9.7384    222.2632    113.0729   5.3415747263e+01   1.4227067568e+01    0.3521762    0.3156623 -68.23  0.001735011    1.189    0.159
        39  -9.6644    122.3155    109.2655   7.4160966639e+01   3.6572770344e+01    0.5867916    0.4807875 -61.95  0.002459611    1.358    0.264
        40  -9.2746    197.1145    107.9167   5.6516009310e+01   2.0348694378e+01     0.580666    0.2025788 -47.15  0.001927634    2.935    0.659
        41  -8.9514    160.8637    108.5610   6.4122872942e+01   2.8252338500e+01    0.4417643    0.3210661 -48.46  0.001589689    1.374    0.272
        42  -7.6580     66.9941    102.4958   8.9974736310e+01   4.8134152788e+01    0.1983382    0.1203625  55.28 0.0006835951    2.353    0.575
        43  -9.2887     57.1750     99.8285   9.2800401493e+01   5.0116631026e+01    0.4898132    0.2521268 -66.24  0.001943654    2.363    0.577
        44  -9.7759    122.6639     97.8916   7.0878902051e+01   3.8984461474e+01    0.6667512     0.567595 -10.78  0.003295054    1.290    0.225
        45  -9.8473    215.0918     95.6605   5.0548639663e+01   1.8748211323e+01    0.7712909    0.2796203 -41.79   0.00291739    2.431    0.589
        46  -8.7939    106.6865     98.1118   7.5627429224e+01   4.2258757929e+01    0.4275394    0.2660181 -33.38  0.001797627    1.727    0.421
        47 -10.3351    235.7808     88.6470   4.6001822968e+01   1.5744790905e+01    0.8513482    0.3244978 -38.06  0.003518508    2.303    0.566
        48  -9.7796    242.5178    100.4932   4.7669458373e+01   1.2518050097e+01    0.2602465    0.2352498 -87.96  0.001667249    1.234    0.190
        49  -9.4710    248.0592     84.4806   4.3577305523e+01   1.4065900856e+01    0.5024456    0.3084567 -41.32  0.002772848    1.371    0.271
        50  -8.2621    212.3487     84.0109   4.8233578457e+01   2.1310452104e+01    0.2570401     0.187568 -78.14  0.001021737    1.597    0.374
        51  -8.7554     83.5942     83.2755   7.8709534964e+01   4.9836214537e+01    0.2930485    0.1409791 -49.13  0.001149109    2.122    0.529
        52  -8.8018    141.6632     81.5137   6.1116005915e+01   3.7982392488e+01    0.3050763    0.1909005 -42.12  0.001162885    1.612    0.380
        53  -9.2498    181.0807     80.0580   5.2410270266e+01   2.8988296407e+01     0.440481    0.3005272 -86.52  0.001961291    1.998    0.499
        54  -9.7936    242.4560     76.5776   4.2571931863e+01   1.6357640571e+01    0.4468748    0.3673155 -60.88  0.002498999    1.076    0.071
        55 -10.6598    233.1337     58.1702   3.9688993328e+01   2.0961277617e+01    0.8158815    0.4358324 -87.24  0.003703429    2.630    0.620
        56 -10.5043    248.1156     70.6294   4.0684924896e+01   1.6175354906e+01    0.5989923    0.4136713 -57.86  0.003579759    1.275    0.216
        57  -9.3917    248.9270     64.4013   3.9313945330e+01   1.6939500807e+01     0.421919    0.2788426 -49.24  0.002512734    1.245    0.197
        58 -10.9304    245.1342     59.9703   3.8791763111e+01   1.8310375208e+01    0.7795317    0.5946811 -13.11  0.004570189    1.931    0.482
        59  -9.3342    216.3644     73.3157   4.5153304920e+01   2.2186913623e+01    0.6522676    0.2894626 -48.53  0.002780438    2.125    0.529
        60  -9.4069    106.1028     72.2061   6.7854580815e+01   4.7669356774e+01    0.5876496    0.4277512  86.91  0.002505726    2.393    0.582
        61  -9.4119    148.0170     69.9974   5.6246364720e+01   3.8534108999e+01    0.3920781    0.3481289 -81.16  0.001817799    1.228    0.185
        62  -8.3167      5.3764     70.8300   1.0639644606e+02   6.1506514170e+01    0.1896419   0.08330242 -53.23 0.0005557017    1.680    0.405
        63  -8.9157     31.7727     65.8755   9.3672207407e+01   6.0683357792e+01    0.2922508    0.1838022  39.55  0.001525451    2.001    0.500
        64  -8.2578    161.4904     65.0083   5.1997362059e+01   3.6134281616e+01    0.3312743    0.1505685 -28.20  0.001216991    2.718    0.632
        65  -7.6523     64.4655     80.4984   8.4775424054e+01   5.3542420355e+01    0.1454277    0.1290314 -21.44 0.0001642471    1.012    0.012
        66  -7.5000     47.4865     65.0069   8.6670339178e+01   5.9125702569e+01     0.210251    0.0922843 -32.00 0.0002242716    2.624    0.619
        67  -8.9782    200.1348     60.9304   4.4461032684e+01   2.7684020551e+01    0.5747688    0.1758346 -43.74  0.002056269    2.984    0.665
        68  -7.2818     36.2801     63.6171   9.1022046707e+01   6.0703835529e+01    0.1221045    0.1053793  87.83 0.0007006035    1.723    0.420
        69  -8.0665    148.3265     57.6602   5.2508871439e+01   4.0452466855e+01    0.1516769     0.110762 -73.64 0.0007051486    1.731    0.422
        70  -8.3470    108.6750     55.1482   6.1378873242e+01   5.0067826708e+01    0.2933404    0.1223907 -42.28  0.001103539    2.617    0.618
        71 -10.3024    238.7090     52.5564   3.7902101961e+01   2.0629147128e+01    0.3780064    0.2438876 -85.14  0.002137586    1.664    0.399
        72  -9.6587    243.1276     47.1228   3.6340101371e+01   2.0496706072e+01    0.6661406    0.1760683 -42.88   0.00269639    2.889    0.654
        73  -8.1981     17.4907     54.5088   9.6765991198e+01   6.4272212584e+01    0.2025675    0.1038328  30.69  0.001015294    2.265    0.559
        74 -11.1514    241.8438    238.0635   7.5018030569e+01  -9.7643891761e+00     2.026866    0.7722819  15.87   0.00684344    5.359    0.813
        75  -8.0412    124.4862     52.4972   5.6293080763e+01   4.6895403291e+01    0.1431526    0.1355942  48.47 4.865847e-05    1.036    0.034
        76  -8.6623    249.9926     45.1614   3.5314353195e+01   1.9422572875e+01    0.3120784    0.1477214 -41.79  0.001510053    1.762    0.432
        77  -8.3345     57.3459     45.5780   7.5579076471e+01   6.1381690556e+01    0.3007196    0.1563117  40.03 0.0009834245    2.008    0.502
        78  -7.7650    203.2927     45.6281   4.0329212640e+01   2.9159873499e+01    0.1440393   0.08759871 -64.07 0.0007025129    1.727    0.421
        79  -8.5673    156.9100     43.1335   4.6563663258e+01   4.0457581213e+01    0.3135422    0.1902728 -70.16  0.001361403    2.282    0.562
        80  -8.8771    173.5939     42.8543   4.3731023597e+01   3.6469654136e+01    0.2756583    0.1534065 -48.30  0.001286953    1.846    0.458
        81  -7.7906     85.5474     42.4643   6.3865777873e+01   5.6860714313e+01    0.1383847    0.1223745  17.55 8.467175e-05    1.008    0.008
        82  -8.5699    126.8482     40.0084   5.1610509272e+01   4.8098428271e+01    0.2742493    0.1772228 -29.16  0.001355608    1.687    0.407
        83  -7.5670      7.3017     39.6648   9.7160756339e+01   6.7908530772e+01     0.101989   0.09442606  74.32 0.0007035989    1.660    0.398
        84  -7.9938    103.6963     41.9506   5.8131310278e+01   5.3129411544e+01    0.1932469    0.1795767   9.95 0.0006702201    1.071    0.066
        85 -10.4840    233.7247    246.5150   7.7894326896e+01  -9.9211382578e+00    0.5637174    0.2778269   7.40  0.002731749    2.528    0.604
        86 -10.6860    224.6311    239.1270   7.8343049388e+01  -7.7646514791e+00     0.830192    0.3860255 -33.75  0.004317725    2.062    0.515
        87  -9.1753    224.6111     43.1118   3.7326053804e+01   2.4827702279e+01    0.5305943     0.364969  15.17  0.002545378    3.076    0.675
        88  -8.8823    222.3585    233.8322   7.7872868215e+01  -6.7033816980e+00    0.4260677    0.2185733 -10.96  0.001946032    2.617    0.618
        89  -7.9634     33.4713     25.9925   7.8213643481e+01   6.7832889520e+01    0.1793558    0.1071411 -34.29 0.0007494119    1.561    0.359
        90  -8.2992      5.6854     24.3305   9.2490355102e+01   7.0802014727e+01   0.09602982   0.09257337  45.79 0.0004869821    1.679    0.404
        91  -7.4300     89.3374     21.3094   5.4378833906e+01   5.8776830753e+01    0.1414281   0.08662852  27.58 0.0007043713    1.683    0.406
        92  -8.1714     42.2706     32.5480   7.6859921093e+01   6.5679710399e+01    0.2337802    0.1125076  36.96  0.001140977    2.138    0.532
        93  -9.5598    242.8436    247.1360   7.6357976834e+01  -1.1087223827e+01    0.2646272     0.127051 -26.93  0.001237371    1.898    0.473
        94 -10.6136    187.7230    232.1067   8.4418662877e+01  -1.5554902288e+00    0.7333341    0.5518162 -49.97  0.004271354    1.714    0.417
        95  -8.3582    155.2076    241.3805   9.2697373408e+01   1.7774438785e+00    0.2369942    0.1624571 -16.06  0.001186981    1.800    0.444
        96 -11.6890    224.5971    218.1059   7.4689178000e+01  -4.6304142140e+00     1.414623    0.9516818 -54.52  0.007389212    2.444    0.591
        97  -8.0083      7.9683     11.4991   8.5496660209e+01   7.2690653584e+01    0.1640277   0.09552918  14.97  0.001032192    1.588    0.370
        98  -9.0513    223.1865    207.8087   7.3069411700e+01  -2.7943121954e+00    0.4076294    0.2420774  -1.56   0.00197172    2.054    0.513
        99  -8.4084    149.4490    234.7308   9.2950550300e+01   3.8348298962e+00     0.168168    0.1229857 -30.26 0.0004714213    1.539    0.350
       100  -8.5684    141.9845    235.1745   9.4641328998e+01   4.9104203269e+00    0.2297607    0.1474875   7.33   0.00109707    2.082    0.520
       101 -11.1795    246.3256    178.2972   6.3242036297e+01  -1.3172869764e+00     1.051447    0.2831976 -39.07  0.003842921    3.166    0.684
       102 -10.7389    248.8628    221.2143   7.0852297338e+01  -8.2728559206e+00     0.776024    0.3416316 -31.94  0.003976953    1.980    0.495
       103  -8.0179    184.8673     25.8971   3.7747139250e+01   3.5895284118e+01    0.1932915    0.1692697  54.99 0.0008143043    1.264    0.209
       104 -12.6346    246.4714    203.4940   6.8042889371e+01  -5.3434413194e+00     2.289828    0.6702808 -36.94  0.009139171    2.982    0.665
       105  -8.7174    145.0417     25.2019   4.3302266412e+01   4.5511577037e+01    0.4178655    0.2020659 -82.59  0.001248703    5.326    0.812
       106  -7.8716     94.6845    222.3620   1.0351437717e+02   1.4706787953e+01    0.1440629   0.09389989  65.50 0.0007041803    1.761    0.432
