#   1 NUMBER                 Running object number                                     
#   2 MAG_AUTO               Kron-like elliptical aperture magnitude                    [mag]
#   3 X_IMAGE                Object position along x                                    [pixel]
#   4 Y_IMAGE                Object position along y                                    [pixel]
#   5 X_WORLD                Barycenter position along world x axis                     [deg]
#   6 Y_WORLD                Barycenter position along world y axis                     [deg]
#   7 A_WORLD                Profile RMS along major axis (world units)                 [deg]
#   8 B_WORLD                Profile RMS along minor axis (world units)                 [deg]
#   9 THETA_WORLD            Position angle (CCW/world-x)                               [deg]
#  10 FWHM_WORLD             FWHM assuming a gaussian core                              [deg]
#  11 ELONGATION             A_IMAGE/B_IMAGE                                           
#  12 ELLIPTICITY            1 - B_IMAGE/A_IMAGE                                       
         1 -16.2668    243.3508    111.4117   1.0700674232e+01   1.2604552553e+01     3.246473    0.9267967 -36.37   0.01353733    2.687    0.628
         2 -16.2781    243.2906     64.8454   9.8893732271e-01   1.9020180397e+01     2.885115     1.016483 -36.80   0.01370976    2.099    0.524
         3 -15.3577    222.7144     52.1142   9.6232738811e-03   2.4442030782e+01     1.646531     1.037402 -33.67  0.009545711    1.397    0.284
         4 -12.6540    187.2477     19.3975   3.5500089934e+02   3.5939807297e+01    0.3586455    0.2505453 -63.80  0.001619873    1.245    0.197
         5 -15.2135    194.6715     37.4483   3.5907983851e+02   3.2137176950e+01      1.61911     1.276645  41.20  0.007628235    1.681    0.405
         6 -14.9783    179.6204     25.4971   3.5734530702e+02   3.7005646340e+01     1.251338    0.7620069 -82.22   0.00640173    1.670    0.401
         7 -13.3943     81.2360     38.9156   2.1034064397e+01   5.9614494498e+01    0.6479712    0.3809636 -45.54  0.002888523    1.820    0.451
         8 -13.3198     41.6614     28.6057   3.3611779016e+01   6.9535155080e+01    0.6199439    0.4088491   9.70  0.002930562    2.015    0.504
         9 -12.1882    223.8643     21.1839   3.5282972373e+02   2.7949563167e+01    0.4376159    0.2501046 -49.63  0.001928292    1.354    0.262
        10 -12.2619    247.2996     18.3231   3.5091776785e+02   2.3858969796e+01    0.4341531    0.2667798 -64.72  0.002759844    1.403    0.287
        11 -12.7128    237.7536     18.8655   3.5152088168e+02   2.5539084976e+01    0.3435906    0.2427251 -29.96  0.002047728    1.415    0.293
        12 -14.4002    233.9332     12.8886   3.5042976334e+02   2.6891469015e+01    0.9906158    0.7537453 -71.04  0.005557537    1.189    0.159
        13 -14.2569    169.4499      2.8873   3.5181063629e+02   4.1774259010e+01     1.004365    0.6520443 -52.75  0.005725075    1.338    0.252
        14 -14.4158    163.9507     11.3673   3.5475133841e+02   4.2283781615e+01    0.7931222    0.4925989  88.26  0.004206819    1.515    0.340
        15 -13.7681    156.5365     11.3703   3.5545469425e+02   4.4103304307e+01    0.7189829    0.5971016  65.24  0.004347601    1.271    0.213
        16 -13.7521    152.9134      3.7861   3.5341582846e+02   4.5723977442e+01    0.9809662    0.4836668  76.31  0.004690683    1.848    0.459
        17 -11.9343     39.5072      8.9966   2.2818536820e+01   7.3004881284e+01    0.1953674    0.1261736 -28.59  0.001040704    1.614    0.380
        18 -13.1632    144.2911      3.4317   3.5410380745e+02   4.7914808776e+01    0.6937432    0.4029151  69.81  0.003556028    1.581    0.367
        19 -11.7702    192.1351      5.3525   3.5096074195e+02   3.6295051908e+01     0.252001    0.1533576 -41.97 0.0009461381    1.398    0.285
        20 -12.8604      4.0214      3.0646   4.6982436658e+01   7.9332274590e+01    0.5781162    0.2845689  19.62  0.002977948    2.024    0.506
        21 -11.1106     61.3247      2.3293   8.7718817158e+00   6.9012174714e+01    0.1434543   0.08781701  33.69 0.0007050104    1.700    0.412
        22 -12.4408    187.9475    131.2346   2.3109807367e+01   1.8684521047e+01    0.8760016    0.3525101 -47.29  0.003415563    2.600    0.615
        23 -13.4969    185.6845    170.3204   3.1514893318e+01   1.2240110479e+01     1.014935    0.6734427 -27.66  0.005607487    1.426    0.299
        24 -13.1122    177.8127    170.1274   3.3006516141e+01   1.3484388930e+01    0.7569971    0.3117031 -41.55  0.003247269    2.328    0.570
        25 -14.4759    163.2238    149.7273   3.1954317288e+01   1.9659683472e+01     1.195948    0.7384697  14.22  0.005173601    2.342    0.573
        26 -14.2419    171.4790    160.8911   3.2496817390e+01   1.6154786787e+01     1.005767    0.7068499  25.38  0.004680017    1.470    0.320
        27 -14.2752    177.7624    150.6256   2.9167186652e+01   1.6979548720e+01     1.258736    0.7232122 -29.70  0.005943533    1.802    0.445
        28 -14.3169    175.3767    137.6040   2.6875495012e+01   1.9788669797e+01     1.347097    0.8134928  33.73  0.006305685    1.838    0.456
        29 -13.5067    149.6021    163.0401   3.7629192434e+01   1.9397304211e+01    0.7638758     0.504275 -51.24  0.003781281    1.628    0.386
        30 -12.8572    205.7997    163.0252   2.6491235796e+01   1.0428271175e+01    0.5427051    0.4206438 -29.43   0.00231904    1.140    0.123
        31 -12.7813    140.2993    162.2184   3.9626182642e+01   2.1140503211e+01    0.4897906    0.2830089  53.28  0.002091667    2.230    0.552
        32 -12.9083    240.3066    159.4000   2.0432299910e+01   6.2010292533e+00     0.532674    0.2539755 -35.36  0.002945696    1.699    0.411
        33 -11.4110     14.6187    160.2174   7.5263353865e+01   3.9058372182e+01    0.1961342    0.1119629 -69.42 0.0009570363    1.692    0.409
        34 -12.6386     80.9203    158.7567   5.4864404563e+01   3.1682405573e+01    0.3202959     0.249598 -36.91  0.001608745    1.473    0.321
        35 -12.1590    249.1156    141.7158   1.5934860013e+01   7.5129842415e+00    0.3942279    0.2150872 -44.89  0.001918244    1.830    0.454
        36 -13.1905    244.9855    144.8848   1.7074238666e+01   7.6217323569e+00    0.4835284    0.4183964 -50.95  0.002853811    1.488    0.328
        37 -10.9551     39.8398    140.9801   6.5336957080e+01   4.1736314617e+01    0.2546588    0.1434187 -45.50   0.00108835    2.028    0.507
        38 -11.3802     81.6884    238.5760   6.4076479361e+01   1.4342457755e+01     0.248763    0.1046957  24.43  0.001149373    2.198    0.545
        39 -13.7817    233.4067    214.2867   3.0854217196e+01  -2.9441954561e-01     0.778188    0.3674483 -32.44  0.004337833    1.833    0.454
        40 -12.1946    187.9840    121.5332   2.0935553525e+01   2.0388449022e+01    0.2975927    0.1940177 -38.00  0.001201112    1.374    0.272
        41 -12.7963    201.8180    116.8897   1.7573578652e+01   1.8658429540e+01    0.5869161    0.5401621 -60.60  0.003725172    1.215    0.177
        42 -11.9166    189.4512    115.2748   1.9246450873e+01   2.1209550734e+01    0.3468747    0.2331439  -1.56  0.001588114    2.293    0.564
        43 -11.7532    212.1429    112.1349   1.4948654277e+01   1.7601446623e+01    0.4677009    0.2490376 -43.24  0.002332989    1.649    0.394
        44 -10.7109    183.0746    114.4928   2.0180720859e+01   2.2564301050e+01    0.1993726    0.1404047  49.35  0.001027738    1.576    0.365
        45 -11.1301    220.2912    108.0825   1.2917110065e+01   1.6824565694e+01    0.2150467    0.1424635 -24.17  0.001190318    1.489    0.329
        46 -13.5233    143.7748    101.0368   2.4754393822e+01   3.3259854555e+01    0.8159294    0.3774146 -39.86  0.003101787    2.133    0.531
        47 -11.6963    112.6282     99.9982   3.2497433157e+01   4.0251629492e+01    0.3697394    0.1478276 -47.16  0.001252256    2.474    0.596
        48 -12.8823    151.4067     91.6301   2.0520000281e+01   3.3417446932e+01    0.3147704    0.2760754 -70.30 0.0009216067    1.183    0.155
        49 -12.6290     44.2211     90.3299   5.4817060128e+01   5.4942984717e+01    0.4813385    0.3301125  24.87  0.002272529    1.550    0.355
        50 -13.4176     14.8313     89.0126   6.8021546053e+01   5.8233739634e+01    0.6801131    0.3649038 -17.11  0.002875818    2.438    0.590
        51 -12.7115      3.0658     88.1507   7.3417937149e+01   5.9157118276e+01    0.3812453    0.3033804 -89.11  0.002169997    1.169    0.145
        52 -10.7719    164.4146     86.7358   1.6606801156e+01   3.1421868433e+01    0.2859365    0.1281454 -42.37  0.001123026    2.051    0.512
        53 -11.6444    144.0317     81.0521   1.9098973393e+01   3.7093831388e+01    0.3579542    0.2603936 -56.17  0.001170278    1.407    0.289
        54 -12.8991    147.2085     78.3806   1.7646317304e+01   3.6847554428e+01    0.6982666    0.4520808 -83.42  0.002836416    2.357    0.576
        55 -11.9183     94.3919     79.1869   3.1873163979e+01   4.8821065241e+01    0.2313422    0.1455578 -57.11  0.000957573    1.742    0.426
        56 -11.3590    220.0023     76.7083   5.9386876076e+00   2.1574160044e+01    0.2770512    0.1856789 -59.17  0.001573923    1.516    0.340
        57 -14.4072    246.2768    225.8987   3.0677066593e+01  -2.9675382725e+00    0.7286748    0.5165241  -4.64  0.004306646    1.045    0.043
        58 -11.3570    218.7089     71.1736   4.8117902540e+00   2.2610821550e+01    0.2040718    0.1636923 -76.89 0.0007992804    1.351    0.260
        59 -11.0921     74.4858     69.4670   3.5757286683e+01   5.5105668524e+01    0.1495565    0.1492321  83.70 0.0001658515    1.005    0.005
        60 -11.9328    199.2198     63.3743   5.1908328113e+00   2.7630007439e+01     0.349018    0.2210848 -46.38  0.001779089    1.355    0.262
        61 -10.8648    193.9143     62.3301   5.5813524878e+00   2.8906125746e+01    0.2690753    0.1917598  63.75  0.001488025    1.542    0.351
        62 -12.6638    195.3766     56.8052   3.9902378834e+00   2.9387941485e+01     0.429952    0.3386296  23.46  0.002397667    1.814    0.449
        63 -12.2128    211.4616     24.9874   3.5454715980e+02   3.0036115748e+01    0.2871486    0.2087643 -51.70  0.001097363    1.099    0.090
        64 -16.0866    246.5817    194.5447   2.5683806076e+01   7.6761945916e-01     3.362361    0.7682282 -34.99   0.01400818    3.647    0.726
        65 -14.7202    152.6514    222.0390   4.6705856980e+01   8.2509471337e+00     1.305906     1.160362  52.63  0.008876882    1.505    0.336
        66 -14.1903    142.5078    206.5658   4.6631197808e+01   1.2236229866e+01     1.477099    0.7332235  25.92  0.007022534    1.919    0.479
        67 -11.3836    123.2581     46.0004   1.2309353741e+01   4.8196879963e+01    0.1964644    0.1267503 -35.39 0.0008958858    1.581    0.367
        68 -12.5760    167.2229    139.0054   2.8826505236e+01   2.1004491133e+01    0.7484199    0.4230341 -61.98  0.002904949    2.928    0.658
        69 -13.2802    217.0409     34.1955   3.5631673798e+02   2.7813784344e+01     0.522527     0.437296 -32.31  0.002803363    1.270    0.213
        70 -13.9423    208.6797    214.9678   3.5011641217e+01   2.3585430120e+00    0.8246955    0.4356239 -11.72  0.004438385    2.197    0.545
        71 -11.5517     97.2379     36.9900   1.5232059786e+01   5.6082090824e+01    0.1953427    0.1237354 -34.04 0.0008913339    1.652    0.394
        72 -12.0827    220.8926    222.5429   3.4130251981e+01   7.0598715099e-03    0.2539946   0.09242836  32.98  0.001315837    2.686    0.628
        73 -10.9220    234.5415     28.4237   3.5377820635e+02   2.5079026650e+01      0.17132    0.1536117 -86.01  0.001269232    1.294    0.227
        74 -11.0018    240.9568     25.2616   3.5271030765e+02   2.4246855914e+01    0.2112494     0.130016 -41.23 0.0008480294    1.245    0.197
        75 -10.6791    102.7863     25.6087   9.0180573555e+00   5.6263821733e+01    0.2061665    0.1317168  76.61 0.0009504326    1.648    0.393
        76 -14.6382    225.1811    172.1576   2.5024535680e+01   6.3508927927e+00     1.340124    0.6776522  20.54  0.006724404    2.587    0.613
        77 -15.8032    192.0193    191.4294   3.4125592207e+01   7.8823047224e+00      2.38497     1.050656 -42.04  0.009935703    2.256    0.557
        78 -15.0625    200.2530    176.9477   3.0062787220e+01   9.0192724596e+00     1.132635    0.8309386  30.96  0.005406767    1.422    0.297
        79 -15.1720    202.2666    186.6786   3.1445710428e+01   7.2324849493e+00     1.086315    0.6797016  28.78   0.00559488    1.590    0.371
        80 -12.9596     93.9369    197.4237   5.6809205505e+01   2.0877565791e+01    0.5353017    0.1736719 -51.60  0.002000628    3.284    0.696
        81 -13.4308     89.0021    202.5403   5.8675391803e+01   2.0468162273e+01    0.5157691    0.2952691 -40.75  0.002461499    2.192    0.544
        82 -12.2468    226.7404    198.4841   2.9355017064e+01   2.4834319026e+00    0.2652906    0.1769592  28.08  0.001781464    1.564    0.360
        83 -10.5647    168.4891    197.4505   3.9709837786e+01   1.0162637884e+01    0.1283066    0.1086304   3.45 0.0001416971    1.008    0.008
        84 -11.3035    229.4599     28.7341   3.5417378669e+02   2.6008549216e+01     0.251857    0.1666823 -35.91  0.001238823    1.312    0.238
        85 -12.0373    105.4745    225.5210   5.7416490137e+01   1.3789368326e+01    0.2828906    0.2096128  56.17  0.001701149    1.518    0.341
        86 -13.0834    212.8374    203.8145   3.2517813948e+01   3.3972126559e+00    0.5471606    0.5257178  68.61  0.004025342    1.854    0.461
        87 -11.2293    123.3217    187.3182   4.8093421274e+01   1.8708512646e+01    0.1409446    0.1029813  -9.08 0.0004163975    1.666    0.400
        88 -11.4129    175.7979    180.0042   3.5229654509e+01   1.2073601647e+01    0.3407364    0.1795273  29.45  0.001653612    1.917    0.478
