#   1 NUMBER                 Running object number                                     
#   2 MAG_AUTO               Kron-like elliptical aperture magnitude                    [mag]
#   3 X_IMAGE                Object position along x                                    [pixel]
#   4 Y_IMAGE                Object position along y                                    [pixel]
#   5 X_WORLD                Barycenter position along world x axis                     [deg]
#   6 Y_WORLD                Barycenter position along world y axis                     [deg]
#   7 A_WORLD                Profile RMS along major axis (world units)                 [deg]
#   8 B_WORLD                Profile RMS along minor axis (world units)                 [deg]
#   9 THETA_WORLD            Position angle (CCW/world-x)                               [deg]
#  10 FWHM_WORLD             FWHM assuming a gaussian core                              [deg]
#  11 ELONGATION             A_IMAGE/B_IMAGE                                           
#  12 ELLIPTICITY            1 - B_IMAGE/A_IMAGE                                       
         1 -15.3215    136.2355    123.3627   2.5839910091e+01   3.0483623186e+01     5.063721     1.989776 -59.46   0.01358236    4.991    0.800
         2 -18.4133    242.8781    125.2065   7.8850812026e+00   1.2195223349e+01     7.543616     2.855341 -38.12   0.03789526    1.996    0.499
         3 -17.3974    242.9538     82.5094   3.5959186234e+02   1.8275196239e+01     7.559237     2.392529 -55.15     0.019814    6.279    0.841
         4 -15.5887    171.3747    110.1908   1.5286956393e+01   2.6338688812e+01      2.78687     1.496695 -39.80  0.007052669    1.692    0.409
         5 -12.7912    208.0818      2.4649   3.4513533639e+02   3.4241942330e+01     0.280089     0.195769 -87.40  0.001020002    1.347    0.258
         6 -11.8838    217.5221      1.4936   3.4449436122e+02   3.2516877309e+01    0.1941261   0.09540175  78.59 0.0008303604    2.075    0.518
         7 -11.9399    172.6374    214.7538   3.5176578463e+01   7.0911320941e+00    0.2239197    0.1863299  26.43 0.0009377879    1.321    0.243
         8 -14.4338    246.9275    247.8636   2.7432909693e+01  -4.6467135408e+00    0.9907992    0.4675312  26.27  0.005957953    2.172    0.540
         9 -13.6389    248.1613    232.9011   2.5154083048e+01  -3.0201903641e+00       1.0193    0.2827202 -31.99  0.005133507    2.995    0.666
        10 -13.2238    219.9348    211.5280   2.6255372464e+01   2.3243631083e+00     0.291139    0.2341806  41.78  0.001260296    1.972    0.493
        11 -12.1133    189.3568    212.3850   3.1647038051e+01   5.5179952628e+00    0.2089686    0.1987888   1.24 0.0009511344    1.426    0.299
        12 -12.2759    247.0583    209.7847   2.1874900785e+01  -8.2609862563e-02    0.2128218    0.1899752 -13.50 0.0005570079    1.541    0.351
        13 -10.7795      6.3203    208.3211   7.4530207513e+01   2.7495522799e+01    0.1196883   0.09241091 -39.08 0.0006690829    1.670    0.401
        14 -12.9889    248.7331    203.8978   2.0725590772e+01   5.1680721597e-01    0.2399424    0.2223635  18.28  0.002025785    1.732    0.422
        15 -10.8660    212.8202    204.5193   2.6309061910e+01   4.0743710440e+00    0.1860142    0.1655648 -38.71 0.0007597948    1.541    0.351
        16 -12.7656    204.7444    198.6206   2.6712878064e+01   5.8605369287e+00    0.5574378    0.3751399  20.45  0.003597509    1.483    0.325
        17 -13.6432    192.1459    194.2761   2.8214110509e+01   8.0487972030e+00     1.049575    0.5276354 -58.96  0.003849393    5.136    0.805
        18 -11.9733    186.0155    185.2966   2.7809331342e+01   1.0315321745e+01    0.4229421    0.2164588  28.38  0.002153401    2.060    0.514
        19 -14.3494    133.9553    148.0873   3.1853270064e+01   2.5514419709e+01     1.589227    0.5098134 -56.33  0.003531027    4.493    0.777
        20 -11.0326    224.4910    228.9888   2.8166894965e+01  -4.6207175891e-01    0.1824465     0.131823  29.03   0.00108389    1.731    0.422
        21 -15.1991    189.0671    115.6857   1.3470496303e+01   2.2100732466e+01     1.298941      1.17413  -6.73  0.007096376    1.226    0.184
        22 -15.7961    224.1880    168.3273   1.8368929580e+01   8.1599122932e+00     2.315912     1.107434 -38.09   0.01247983    1.700    0.412
        23 -15.8184    164.0792    160.6501   2.7592069554e+01   1.7942290758e+01     3.558036     2.039584  12.90   0.01490915    2.744    0.636
        24 -15.5206    206.1320    171.4397   2.1791630845e+01   9.9663718914e+00     1.433925    0.8187248 -54.66  0.006311196    2.491    0.599
        25 -14.3913    196.8376    175.2144   2.4063878915e+01   1.0574445666e+01     0.591562    0.3973986 -52.94  0.001768237    1.839    0.456
        26 -15.1897    188.0318    167.8091   2.4288530762e+01   1.3044891348e+01     1.536022     1.020284   0.68  0.005608161    1.854    0.461
        27 -15.9901    206.4474    115.3110   1.0702785555e+01   1.9193013981e+01      2.30034     1.578879 -40.92   0.01350625    1.208    0.172
        28 -15.4141    222.3354    118.4758   9.1526729296e+00   1.6162589191e+01    0.8121356    0.7997317 -25.80  0.003543962    1.240    0.194
        29 -11.4266    196.1924    226.6484   3.2571189416e+01   2.6502614546e+00    0.2347777     0.164485  19.60 0.0007779729    1.341    0.254
        30 -11.7306    250.3719    187.0503   1.7810710247e+01   2.5704129927e+00    0.2794902     0.105109 -32.20 0.0008905112    2.111    0.526
        31 -10.8287    203.1565    188.3703   2.5269599263e+01   7.6386315829e+00    0.1934627     0.183797  82.90 0.0009818038    1.702    0.413
        32  -9.6496    122.3270    199.7056   4.3783085098e+01   1.6296226676e+01    0.1324821    0.1006688  55.59 0.0006283096    1.626    0.385
        33 -10.8151    144.1201    182.5951   3.5965480981e+01   1.6660881469e+01    0.2078766    0.1814343 -51.18 0.0003106948    1.270    0.212
        34 -11.3898    196.7878    222.7195   3.1883366896e+01   3.1535075367e+00    0.2682108    0.1594315 -40.99  0.001279015    1.715    0.417
        35 -11.8784    119.7359    155.2068   3.6872628439e+01   2.6336478504e+01    0.2678125    0.1796897 -55.60 0.0009989731    1.538    0.350
        36 -12.9776     69.4823    145.4934   4.9813824568e+01   3.6699831420e+01    0.4927314    0.3897743  67.52  0.001363374    1.369    0.270
        37 -13.1495     66.3107    143.6554   5.0541610264e+01   3.7636723280e+01    0.5639343    0.4081006  89.34  0.001893878    1.588    0.370
        38 -10.8980    179.6447    193.5888   3.0432776614e+01   9.7397916661e+00    0.2700007     0.224128  89.71 0.0009398364    2.241    0.554
        39 -11.4680    165.2266    134.5510   2.1986631318e+01   2.2828031810e+01    0.2376516    0.1382192  46.33 0.0008320686    1.914    0.477
        40 -13.5139    160.5388    128.5856   2.1626366691e+01   2.4838504354e+01    0.5190496    0.4413075 -59.46  0.001820592    1.242    0.195
        41 -10.7516    120.3767    128.2280   3.0996118564e+01   3.2419136578e+01    0.2536493    0.1837035 -58.75 0.0003843868    1.439    0.305
        42 -10.8672    153.5479    126.0374   2.2521207272e+01   2.6638595754e+01    0.2082857    0.2005286  33.66 0.0005754647    1.113    0.102
        43 -14.2603    156.8901    113.6195   1.8911887905e+01   2.8479123429e+01     1.317057    0.7028987 -26.75   0.00505177    2.701    0.630
        44 -13.0838    155.9050    108.3911   1.7848675802e+01   2.9695830427e+01    0.4237449    0.3049383 -44.67 0.0005229737    1.281    0.219
        45 -10.6295    114.8783    118.6912   3.0235603485e+01   3.5661082575e+01    0.2458013    0.1977964  17.06  0.001182592    1.479    0.324
        46 -13.5632     39.2378    108.6256   5.4289006744e+01   5.0705774077e+01    0.5404412    0.3877582  27.83  0.001058426    1.432    0.302
        47 -14.3303     55.8819    112.2506   4.8334706556e+01   4.7560536173e+01    0.9314523    0.7318965  41.78   0.00151375    1.284    0.221
        48 -15.2734     48.2500    108.8531   5.0641940719e+01   4.9525065935e+01     3.159616     1.148228  26.02  0.006698211    2.905    0.656
        49 -14.5940      8.7079    107.9449   6.7169516034e+01   5.3611380071e+01    0.9955522     0.872081 -70.12  0.003771455    1.055    0.052
        50 -12.2584    147.8425    113.4963   2.0802545670e+01   3.0281008183e+01    0.3807175     0.272991  48.69 0.0007301383    1.493    0.330
        51 -11.2344    141.6183    113.6808   2.2243663762e+01   3.1478893907e+01    0.2378884    0.1818376  73.34 0.0006006219    1.650    0.394
        52 -12.6620    126.2205    110.3870   2.5147598726e+01   3.5276521394e+01    0.3620886    0.3076732 -87.87  0.001008431    1.353    0.261
        53 -11.2529    175.5244    222.5368   3.5780324957e+01   5.5181020624e+00     0.118921   0.09679753  -1.81 4.803377e-05    1.034    0.033
        54 -10.2937     92.9837    110.9848   3.4851241606e+01   4.1684343874e+01    0.1879189      0.18055 -62.70 0.0004418591    1.024    0.024
        55 -11.9162    141.2362    105.8904   2.0383130057e+01   3.3161088474e+01    0.3531113    0.2793091 -81.03   0.00124931    1.539    0.350
        56  -9.8998    109.2898    105.3148   2.8422315593e+01   3.9840298329e+01    0.1524175    0.1229033 -12.08 0.0002566375    1.591    0.371
        57 -12.9048    120.0868    102.0394   2.4565585075e+01   3.8354530430e+01    0.3789271    0.2851293 -38.50  0.001767674    1.362    0.266
        58 -11.6804    203.2963     98.4359   7.4990241678e+00   2.2482950663e+01    0.4451842    0.1851172 -33.29  0.001278248    2.364    0.577
        59 -11.9054    113.5607     95.3657   2.4505943382e+01   4.1174504460e+01    0.2779571    0.2669741   4.19 0.0006301485    1.147    0.128
        60 -11.7928    122.1014     94.0561   2.1857598073e+01   3.9635614681e+01    0.3449738     0.309058 -22.02  0.001128218    1.250    0.200
        61 -10.2377    156.8992     93.1294   1.3816631963e+01   3.2398376795e+01    0.1919111    0.1597569 -27.29 0.0004627086    1.301    0.231
        62 -11.6004    172.5231     90.7858   1.0403196376e+01   2.9606994791e+01     0.311395    0.2352056  -1.53  0.001302649    1.982    0.495
        63 -11.9494    175.0702    186.5387   3.0119665454e+01   1.1559866650e+01    0.5343993    0.3169092 -62.40  0.002356262    3.035    0.671
        64 -11.1867    190.2485     82.7647   5.7267033628e+00   2.7430604233e+01    0.1706677     0.150528 -18.08 0.0004993481    1.326    0.246
        65 -10.8494    176.6705     82.8530   7.7604814847e+00   3.0120210902e+01    0.2164845     0.199014 -77.89  0.001330146    1.110    0.099
        66 -11.4393    134.9574     79.7039   1.4694720675e+01   3.9666278303e+01    0.5647423    0.2172928  51.38  0.002046979    2.661    0.624
        67 -10.8918    208.0356     75.7807   1.8342379781e+00   2.5140232809e+01     0.208112    0.1508325 -42.21 0.0003095424    1.147    0.128
        68 -11.3687    166.8574    190.7866   3.2488379742e+01   1.1914984394e+01    0.3247656    0.2437112 -33.75  0.001942912    1.245    0.197
        69 -12.7704    170.9893     63.3859   3.6336543305e+00   3.4450411012e+01    0.4806998    0.2307741 -61.64   0.00190323    2.750    0.636
        70 -10.8136    172.0444    198.0424   3.2655105522e+01   9.9579375694e+00     0.273748    0.1658048 -57.06  0.001383783    2.324    0.570
        71 -12.6973    145.2023     55.6782   5.5868613340e+00   4.1449440310e+01    0.5752214    0.3377553 -15.93   0.00163202    2.875    0.652
        72 -11.3290    185.0298     49.3318   3.5819127134e+02   3.3499719611e+01    0.2601826     0.212617  22.60 0.0009472625    1.819    0.450
        73 -11.9312    182.4927     54.5124   3.5980176660e+02   3.3308447033e+01    0.3350168    0.2810272 -39.39 0.0009895694    1.197    0.165
        74 -12.4914    178.5097     55.5312   5.5957753992e-01   3.4007872728e+01    0.4181462    0.2113472  57.02  0.001742191    2.158    0.537
        75 -12.6899    244.1759    220.2645   2.3879903408e+01  -1.1442645987e+00     0.280577    0.1660106  14.64  0.000491198    1.641    0.391
