#   1 NUMBER                 Running object number                                     
#   2 MAG_AUTO               Kron-like elliptical aperture magnitude                    [mag]
#   3 X_IMAGE                Object position along x                                    [pixel]
#   4 Y_IMAGE                Object position along y                                    [pixel]
#   5 X_WORLD                Barycenter position along world x axis                     [deg]
#   6 Y_WORLD                Barycenter position along world y axis                     [deg]
#   7 A_WORLD                Profile RMS along major axis (world units)                 [deg]
#   8 B_WORLD                Profile RMS along minor axis (world units)                 [deg]
#   9 THETA_WORLD            Position angle (CCW/world-x)                               [deg]
#  10 FWHM_WORLD             FWHM assuming a gaussian core                              [deg]
#  11 ELONGATION             A_IMAGE/B_IMAGE                                           
#  12 ELLIPTICITY            1 - B_IMAGE/A_IMAGE                                       
         1 -16.8180    212.7097     96.6156   7.1213819017e+01   1.8362772067e+01     3.868323     3.253338  89.54   0.02023718    1.517    0.341
         2 -19.3968    187.1299    128.0557   8.3715286391e+01   1.9003018018e+01     7.904553     7.460472 -67.67   0.04529955    1.231    0.188
         3 -13.8403    140.3519     47.4367   7.0806070386e+01   4.4039578316e+01    0.8920377    0.5563198 -18.13  0.003807577    1.856    0.461
         4 -10.9337     50.4390     17.6382   8.6975074040e+01   6.6819935238e+01     0.301647    0.1083434 -44.68  0.001240553    2.741    0.635
         5 -10.8040     89.9828     13.7690   7.0557391732e+01   6.0406518337e+01    0.2294609    0.1803503 -17.55  0.000331543    1.207    0.171
         6 -13.4510    245.0161      9.2128   4.4062740715e+01   2.1975708148e+01    0.8097243    0.3004021  72.26   0.00334323    2.728    0.633
         7 -12.5686    248.3970      4.6059   4.2665842885e+01   2.1648446996e+01    0.6076936    0.3848508 -69.67  0.003220491    1.599    0.375
         8 -13.0484    238.5046      3.5331   4.3130084449e+01   2.4068850671e+01    0.6358098    0.3425253  31.03  0.002735435    2.880    0.653
         9 -12.7384    228.5383      6.9820   4.4830747482e+01   2.6143144038e+01    0.4155646    0.2237725 -53.26  0.001945546    1.843    0.457
        10 -11.2339    178.4514      5.8068   4.9653401710e+01   3.9215797172e+01    0.2506977     0.239576 -84.73 0.0004021697    1.034    0.033
        11 -11.5460    224.1303      4.8849   4.4646897485e+01   2.7435481399e+01    0.2127069    0.1683725 -59.24 0.0004114658    1.194    0.163
        12 -11.3417     26.2386      7.6907   9.3665432238e+01   7.1442636134e+01    0.2334715    0.1915706  -7.37  0.001049841    1.164    0.141
        13 -10.5432    208.0096      1.4909   4.5145230249e+01   3.1834491931e+01    0.2091547    0.1296175  75.36  0.000579769    1.554    0.356
        14 -12.1860    126.8372    238.6668   1.1330812268e+02   1.2210031980e+01    0.3428587    0.1737106  40.48  0.001302812    1.568    0.362
        15 -13.4160    243.2012    245.8499   9.5156033173e+01  -5.8291767313e+00    0.6516706    0.3913024  11.40  0.004576127    1.563    0.360
        16 -13.2474    234.1565    243.2052   9.6172917143e+01  -4.3371493669e+00    0.3674442    0.2268101  15.51 0.0009822027    1.470    0.320
        17 -11.6236    222.5628    250.2848   9.8934930957e+01  -3.3369143075e+00    0.2181265    0.1014696  46.93  0.001053276    2.108    0.526
        18 -11.8120    202.4672    250.0850   1.0207314400e+02  -4.2444237089e-01    0.3171452    0.1205635  42.15  0.001747334    1.954    0.488
        19 -12.2553    188.5185    250.1645   1.0431906744e+02   1.6158617903e+00    0.6407918    0.1694963  37.15   0.00264324    3.222    0.690
        20 -13.1988    191.5585    242.0369   1.0281694083e+02   2.0339786661e+00    0.4494213    0.2344678  40.72  0.001233034    1.426    0.299
        21 -10.1986     80.4596    238.7000   1.2114876304e+02   1.8621858676e+01    0.1175168   0.09532534 -68.39 0.0009409999    1.590    0.371
        22 -10.7563     43.2863    238.3546   1.2719953556e+02   2.3136417666e+01    0.1776132    0.1190948  71.28 0.0006543835    1.156    0.135
        23 -11.5529    182.4057    237.5090   1.0375629948e+02   3.9358190618e+00    0.4216044    0.1514404  39.80  0.002123506    2.118    0.528
        24 -12.3563    233.7507    235.8633   9.5192816319e+01  -3.6060329069e+00    0.3215162    0.1738448  28.64  0.002068559    1.445    0.308
        25 -11.8007    192.9856    233.7036   1.0149420549e+02   2.7397087973e+00    0.2649123     0.172193 -37.95 0.0009569343    1.996    0.499
        26 -10.6954     32.7244    235.0269   1.2871510228e+02   2.4800875719e+01    0.1952191   0.08687081  58.02 0.0008917085    1.622    0.384
        27 -11.0466    245.3112    233.9354   9.3114951257e+01  -5.0820656160e+00    0.1505145    0.1090559  14.80 0.0004618247    1.104    0.094
        28 -11.9937    175.9114    230.1191   1.0390758716e+02   5.8262963350e+00    0.3253776     0.253928 -10.58  0.002059148    1.648    0.393
        29 -10.7722    249.8292    232.1288   9.2152161135e+01  -5.5572715893e+00    0.1529509      0.12441  20.35 0.0008181593    1.259    0.206
        30 -10.8257    183.6987    229.0879   1.0244279577e+02   4.7259785784e+00     0.189576    0.1496513  36.97 0.0005563409    1.056    0.053
        31  -9.7794     81.6648    230.2546   1.2030071886e+02   1.9763190227e+01    0.1117054    0.0598993  59.76 0.0001545033    1.567    0.362
        32 -10.4788     69.3446    230.1452   1.2239711706e+02   2.1357829316e+01    0.1663365    0.1172754  45.99 0.0003702118    1.285    0.222
        33  -9.5340     52.3248    228.2757   1.2514550465e+02   2.3709823520e+01   0.08373199   0.07785517  42.20 0.0003862651    1.584    0.369
        34 -11.6487    197.1930    226.6423   9.9822188852e+01   2.8875999485e+00    0.2252946     0.182082  51.72  0.001611491    1.424    0.298
        35 -10.3231     91.5039    227.5442   1.1837289560e+02   1.8871533072e+01    0.1107562   0.08300341  56.81   2.7854e-06    1.010    0.010
        36 -13.1489    246.4381    221.5856   9.1057154142e+01  -4.1046466969e+00    0.3473408     0.229839   9.79  0.001038506    1.335    0.251
        37 -11.6921    203.1235    225.1649   9.8616285717e+01   2.1232332364e+00    0.2633572    0.1974535  16.65 0.0009937369    1.259    0.206
        38 -10.6593    206.3158    221.9691   9.7617371484e+01   1.9811173487e+00    0.2351356    0.1515751  10.65  0.001438733    1.782    0.439
        39 -11.7550    175.5077    220.5009   1.0269911746e+02   7.1024714394e+00    0.1867994     0.124489  45.68  0.001187609    1.256    0.204
        40 -11.9640    182.8561    221.6588   1.0157739395e+02   5.7688672026e+00    0.2997658    0.1986813  26.26  0.001371877    1.437    0.304
        41 -11.3488    187.1099    220.8631   1.0072991061e+02   5.1818317777e+00    0.2827505    0.2265058  65.30  0.001913813    1.667    0.400
        42 -11.6690    132.3336    222.7068   1.1064836254e+02   1.3658913408e+01     0.307498    0.1753602  41.87  0.001010555    1.404    0.288
        43 -11.6808    129.9837    220.6079   1.1083220391e+02   1.4331849748e+01    0.3080893     0.225268 -24.67  0.001926856    2.272    0.560
        44 -11.5083    230.9573    220.1113   9.3281123056e+01  -1.6495881654e+00    0.4399421    0.1839799  48.50  0.002155603    2.674    0.626
        45 -10.6650    121.2084    218.0131   1.1213098589e+02   1.6069342488e+01      0.20066    0.1661507  82.42 0.0007764773    1.310    0.236
        46 -12.4308    124.6775    215.4510   1.1120916140e+02   1.5934656884e+01    0.3632436    0.2697405  53.86   0.00154497    1.105    0.095
        47 -11.7680     93.2353    214.3369   1.1686415431e+02   2.0757101107e+01    0.3196895      0.22265  36.65   0.00135912    1.492    0.330
        48 -12.6005    213.3366    216.7933   9.5665284489e+01   1.4514807021e+00    0.4338258    0.2985086   7.90  0.002663302    1.534    0.348
        49 -13.5800    221.0854    208.5960   9.3082800153e+01   1.1355627510e+00    0.5590376    0.2898809  42.25  0.001574273    1.645    0.392
        50 -15.8364    170.0699    200.6576   1.0083406427e+02   1.0720713159e+01      1.79599     1.752389 -86.07  0.009827503    1.267    0.211
        51 -16.7861    148.1465    193.9116   1.0398098596e+02   1.5514602369e+01     4.450432     2.622303  70.05   0.02044925    2.837    0.647
        52 -16.0547    224.5800    177.0788   8.7008031374e+01   4.3340649836e+00     1.554428     1.342247  70.20  0.008807313    1.744    0.427
        53 -10.5367    173.2211    247.4285   1.0648401845e+02   4.1898730394e+00    0.1577262   0.07878561  47.41 0.0007292898    1.633    0.388
        54 -16.0577    231.4526    121.9509   7.4263239751e+01   1.0525710201e+01     1.836666     1.204615  51.59  0.009343664    1.623    0.384
        55 -16.7614    187.6523    168.7796   9.2130683156e+01   1.2296402579e+01     2.657202     1.534502  39.31   0.01336393    1.548    0.354
        56 -16.1450    171.9816    155.9043   9.2736542716e+01   1.7411700724e+01     2.249137     1.052732  28.83   0.00802643    3.314    0.698
        57 -11.0756    161.2277    245.9968   1.0829917150e+02   6.1513311580e+00    0.1732474    0.1231385  44.62 0.0003829548    1.082    0.076
        58 -16.4228    212.8828    137.7994   8.1060053709e+01   1.2020406811e+01     1.958456    0.8879552  53.47  0.007951926    2.456    0.593
        59 -10.6003     66.9548    157.7425   1.1613429990e+02   3.4994361437e+01    0.2468407    0.1331987 -43.77  0.001176228    2.769    0.639
        60 -11.9017    102.7725    155.5286   1.0768159556e+02   3.0206607569e+01    0.3009081    0.2602329 -67.88  0.001141574    1.194    0.162
        61 -11.2737     82.0655    155.9992   1.1247436747e+02   3.3283038125e+01    0.1863748    0.1637779  76.18 0.0003361695    1.028    0.027
        62 -12.7224     80.8139    150.7563   1.1203116303e+02   3.4559906304e+01    0.3748775    0.2734484 -84.06 0.0003699331    1.352    0.260
        63 -12.7278     97.1495    149.6854   1.0805595500e+02   3.2310374839e+01    0.5192075    0.2669936 -71.36  0.002012455    2.402    0.584
        64 -12.3469    102.2470    150.3590   1.0697924381e+02   3.1349834218e+01    0.3758555    0.2080911  51.85  0.001824787    1.754    0.430
        65 -10.1526    243.8934    152.0931   7.8849167796e+01   4.0547337372e+00    0.1693227    0.1260607  15.53            0    1.235    0.190
        66 -12.4903     90.3362    149.0788   1.0955459643e+02   3.3499730044e+01    0.4751911    0.2150324 -53.50  0.002158167    2.272    0.560
        67 -11.2976     56.9937    145.4935   1.1694476713e+02   3.8843617251e+01    0.2195026    0.1588401 -77.86 -7.026863e-05    1.241    0.194
        68 -10.7175     11.9250    143.0652   1.2719300853e+02   4.3873255910e+01    0.1631365    0.1260143  86.54 0.0003249478    1.029    0.028
        69 -10.3295     71.8413    152.1891   1.1431534617e+02   3.5509750071e+01     0.156875     0.141131 -57.78  0.000344084    1.308    0.236
        70 -12.0348    100.0303    140.1069   1.0578048221e+02   3.3854316178e+01    0.2783503    0.2280203  43.59 0.0003428383    1.234    0.190
        71 -11.5831     95.6826    139.2993   1.0669293743e+02   3.4731485165e+01    0.2076281    0.1638215  50.40  0.000456403    1.223    0.182
        72 -11.4537     86.9509    140.4416   1.0900509088e+02   3.5848786059e+01    0.2332022     0.181437 -70.70 0.0003516323    1.239    0.193
        73 -10.2857     80.4488    138.0528   1.1021490901e+02   3.7329722856e+01    0.1924855    0.1197649 -63.08 0.0005132735    1.543    0.352
        74 -11.5279     71.0258    137.7348   1.1249091104e+02   3.8723564875e+01    0.3689607    0.1715817  56.55  0.001409419    2.469    0.595
        75 -10.9675     42.2950    138.1729   1.1960229895e+02   4.2103951653e+01    0.1709313     0.164652  45.93 0.0006223701    1.322    0.244
        76 -10.8691     11.8586    207.8772   1.3089741569e+02   3.1388004076e+01    0.1378334    0.1100951  80.16 0.0003619763    1.241    0.194
        77 -12.9262    247.6038    137.5664   7.5178701247e+01   5.2366393891e+00    0.3172634    0.2541608   6.63 0.0004927057    1.126    0.112
        78 -11.4224     68.9749    129.9536   1.1182016511e+02   4.0710230782e+01    0.1968078    0.1699897  89.90 0.0003836372    1.026    0.026
        79 -12.3871     86.3699    128.4440   1.0711561371e+02   3.8541645717e+01    0.4299651     0.239513  32.70  0.002023641    2.081    0.519
        80 -10.0369     54.9981    128.7017   1.1521784025e+02   4.2757555380e+01    0.1626779    0.1465673  73.78 0.0003061483    1.114    0.102
        81 -10.9199     79.5979    127.8052   1.0874007245e+02   3.9696402916e+01    0.1967949    0.1790823 -70.46  0.001230579    1.104    0.094
        82 -10.3617     75.6877    128.3222   1.0983374519e+02   4.0145012409e+01     0.175449    0.1266841  29.68 0.0006569286    1.647    0.393
        83 -11.6403     94.4911    123.8436   1.0417554326e+02   3.8262886477e+01    0.2979484    0.1634597  55.47  0.001334247    2.038    0.509
        84 -10.8501     63.7071    122.7171   1.1204118279e+02   4.3014047638e+01    0.2575326    0.1651428 -48.60  0.001377893    1.680    0.405
        85 -10.0162     56.9866    123.9761   1.1401077457e+02   4.3572170213e+01    0.1519024    0.1316094 -87.75   0.00038725    1.010    0.010
        86  -9.6972     19.5224    123.4576   1.2367145053e+02   4.7469978976e+01    0.1163836   0.09234475 -86.81 7.650982e-05    1.016    0.016
        87 -11.5445     70.3432    118.5703   1.0957011455e+02   4.3062249539e+01    0.4508938    0.1990304 -43.32  0.001796737    3.012    0.668
        88 -11.4875     34.5364    118.3733   1.1918138751e+02   4.7264342742e+01    0.2412574    0.1868878 -76.36 0.0009342928    1.086    0.080
        89 -12.0206    142.8636    215.8735   1.0793410388e+02   1.3012833967e+01    0.2881689     0.242893  53.72 0.0009402307    1.101    0.092
        90 -11.9276      5.7044    115.3087   1.2643904228e+02   5.0277137332e+01    0.2881092    0.1100678 -76.37  0.001477518    2.045    0.511
        91 -12.1079    249.0623    114.2447   6.9725201997e+01   8.0302483831e+00    0.3745882    0.2761801  10.32 0.0008527579    1.411    0.291
        92 -11.0150     76.9083    201.4777   1.1869949861e+02   2.5205246442e+01    0.2659677    0.1444615 -72.92  0.001578709    1.959    0.490
        93 -12.2958     85.5236    103.0200   1.0227499714e+02   4.4308418165e+01    0.7634066    0.2135328 -54.43  0.002542426    3.337    0.700
        94 -11.1401    241.3399    104.0425   6.8475334538e+01   1.0988413076e+01    0.2649712      0.18894 -22.86 0.0005012907    1.304    0.233
        95 -10.3818     69.3720    203.1051   1.2026979236e+02   2.5902155616e+01    0.1522848   0.09114599  89.34 0.0009399714    1.718    0.418
        96  -9.8555     79.2998    103.3258   1.0411108403e+02   4.5201121700e+01    0.1350332    0.1034335 -29.32 0.0003898347    1.635    0.388
        97 -10.7218     45.7287    201.4146   1.2453834788e+02   2.9061787149e+01    0.1915652    0.1572238 -83.81  0.000978334    1.313    0.238
        98 -10.3460     39.9819     97.5476   1.1456958166e+02   5.1435014381e+01    0.1893854    0.1445949 -70.53 0.0001463901    1.106    0.096
        99 -11.1335    204.2962    200.6239   9.4659812929e+01   4.8621807742e+00    0.3534502     0.181652  52.65  0.001261859    2.274    0.560
       100 -11.5412     33.0752     94.8231   1.1620586921e+02   5.2714995188e+01     0.204865     0.156685 -66.69 0.0002794851    1.098    0.089
       101 -11.2801     98.8537     93.5332   9.6223552765e+01   4.4146762205e+01    0.3123353    0.1740968 -45.80  0.000914682    1.743    0.426
       102 -11.2480     74.8101     93.4633   1.0323013821e+02   4.8076600299e+01    0.2421162    0.2056874  71.06 0.0004439972    1.275    0.216
       103 -10.2565     51.3992     90.7791   1.0981684023e+02   5.1745464795e+01    0.1828324     0.103087 -53.91 0.0003759798    1.561    0.359
       104 -11.4840    226.6863    198.8336   9.0531817347e+01   1.3391813739e+00     0.276057     0.216597  48.71  0.001810984    1.516    0.340
       105 -10.7724     87.4824     89.0297   9.8370203950e+01   4.7082010589e+01    0.2567672    0.1918922 -18.28  0.001276712    1.805    0.446
       106 -10.1003     72.8452     89.1721   1.0282102877e+02   4.9321509161e+01    0.1806161     0.154059 -30.39 0.0004001039    1.307    0.235
       107 -10.3280     46.4950     89.1605   1.1102993444e+02   5.2660586361e+01     0.189519    0.1097673 -63.11 0.0004255335    1.479    0.324
       108 -10.1506    242.6800     87.7604   6.4305239062e+01   1.2941610361e+01    0.2841483     0.123066 -25.27  0.001127602    2.270    0.559
       109 -10.6640     93.1544     88.0342   9.6440180702e+01   4.6338482181e+01     0.215059    0.1891713 -19.51 0.0004927815    1.286    0.222
       110 -10.9689    230.8367     85.2246   6.5386231666e+01   1.5909335695e+01    0.2488628    0.2037542  18.76  0.001338769    1.297    0.229
       111 -11.3527    107.3565     83.0309   9.0975580919e+01   4.4792390058e+01    0.2251461    0.2014505  22.32 0.0003773898    1.220    0.180
       112 -10.6315     23.6178    198.9038   1.2840475283e+02   3.1856820268e+01    0.1506951    0.1181952  59.64 0.0003225761    1.209    0.173
       113 -11.5600    101.8224     83.5334   9.2696974220e+01   4.5739903516e+01    0.2922491     0.231037 -83.15  0.001294192    1.586    0.370
       114  -9.8024     95.8226    195.8705   1.1447438456e+02   2.3560234857e+01    0.1586358    0.1136924  66.60 0.0002584336    1.263    0.208
       115  -9.8569     52.5780     81.2314   1.0739536126e+02   5.3762797647e+01    0.1804577    0.1048227 -50.94 0.0003764073    1.524    0.344
       116 -10.6319    250.6400     80.2032   6.1357085151e+01   1.2245782017e+01    0.1928869    0.1184897 -28.21 0.0004521305    1.466    0.318
       117 -13.2599    109.8385     76.6199   8.8398305026e+01   4.5618672560e+01     0.602015    0.4460939  58.54  0.002087565    1.524    0.344
       118 -13.0135    107.0381     69.7068   8.7071250781e+01   4.7563992006e+01    0.5985242    0.3789771  60.54  0.002640211    2.001    0.500
       119 -10.8900    101.6002    194.7667   1.1321415591e+02   2.2900766051e+01    0.2249267    0.1404868  45.58 0.0005777478    1.363    0.266
       120 -12.6541    118.8878     71.0767   8.4178739763e+01   4.4843531380e+01    0.3412758    0.3190317  46.44  0.001348954    1.100    0.091
       121 -10.1348    235.5044    194.4969   8.8324618944e+01   3.9202448132e-01    0.1231495   0.09491962  18.42 -0.0001115639    1.036    0.035
       122 -10.4576    240.9807     72.7019   6.0754980979e+01   1.5353396865e+01    0.2303125    0.1838156  -9.40 0.0007327226    1.271    0.213
       123 -11.1935    100.1533     71.4674   8.9639604599e+01   4.8552875046e+01    0.2511486     0.199591 -44.93 0.0005307974    1.199    0.166
       124 -10.8811     88.6715     72.0881   9.3324824709e+01   5.0512035116e+01    0.2033126    0.1668595 -44.56 0.0004047291    1.137    0.121
       125 -11.4752      7.4004     71.9870   1.2086356294e+02   5.9751634520e+01    0.1777912    0.1721119  45.81 0.0001726387    1.305    0.234
       126  -9.8871    237.1226     67.8547   6.0024855063e+01   1.6875155936e+01    0.1754234    0.1544498  16.71 0.0002625874    1.204    0.169
       127 -11.9167    243.3684     65.8953   5.8710844906e+01   1.5719040268e+01    0.4772243    0.2954215 -88.28  0.002049577    2.504    0.601
       128 -11.8674    126.2163     65.5695   8.0456235529e+01   4.4277570128e+01    0.3166576    0.2495692 -77.66  0.001503909    1.678    0.404
       129 -12.5289    117.8419    191.2611   1.0956608376e+02   2.0999108069e+01    0.4608413    0.3559547 -65.85  0.002255997    1.459    0.315
       130 -10.8643    228.8150     61.7687   5.9541594349e+01   1.9625326196e+01    0.4109924    0.2338562 -59.16 0.0009374844    2.353    0.575
       131 -12.3685    131.9758     59.9884   7.7133994848e+01   4.3963641449e+01    0.4432495    0.2998515  10.11  0.001203396    2.173    0.540
       132 -11.3546    102.0072     60.9664   8.5707652942e+01   5.0272871309e+01    0.2150406      0.20106 -20.28            0    1.035    0.034
       133  -9.9879     77.1712    192.2289   1.1775925104e+02   2.6846421979e+01    0.1620671    0.1110662  71.65 0.0005694075    1.324    0.245
       134 -10.9032     49.0260     70.7354   1.0610018760e+02   5.6511458183e+01    0.2415363    0.1332098  54.18  0.001132259    2.506    0.601
       135 -10.5682     75.4080     62.2617   9.4607477534e+01   5.4752439197e+01    0.2265813    0.1912181  35.00 0.0004683869    1.296    0.228
       136 -12.0204    138.5755     57.9984   7.4845955141e+01   4.2745949862e+01    0.3464911    0.2509347  12.68  0.001544645    1.782    0.439
       137 -10.9129    227.4408    190.2588   8.8919628558e+01   2.2184155603e+00    0.2845751     0.171327  32.46 0.0009664704    1.408    0.290
       138 -12.9024    160.1887     56.0721   6.9386727289e+01   3.7709905174e+01    0.5169039    0.4023699 -61.27  0.001997615    1.499    0.333
       139 -10.4031    217.7199    200.7520   9.2365667204e+01   2.5945145583e+00    0.1830935    0.1357626  18.58  0.001183981    1.183    0.155
       140 -10.1337     83.8404    192.5902   1.1647982745e+02   2.5865308542e+01    0.1736967   0.08573081  51.68 0.0008536006    1.727    0.421
       141 -10.9964    249.3981     53.1821   5.4762229615e+01   1.5987950465e+01    0.2273191     0.193883 -59.54 0.0004312646    1.216    0.177
       142  -9.8209     51.6732     54.7268   1.0071387996e+02   5.9650987344e+01     0.128945   0.09141253 -24.57 0.0001900473    1.583    0.368
       143 -12.8440    157.0804    244.0287   1.0876917585e+02   7.0115159206e+00    0.2598453    0.2152125 -13.13  0.001733679    1.672    0.402
       144 -11.8173     56.7823     52.9216   9.8235111278e+01   5.9376787572e+01    0.2119175    0.1960146 -33.21 0.0002271665    1.071    0.066
       145 -12.1668    148.5063     51.3129   7.0303770957e+01   4.1405565375e+01    0.4259965    0.2504933  53.73  0.001216614    1.671    0.401
       146 -12.2848    242.6341     48.3976   5.4308197008e+01   1.8117460791e+01    0.3034726    0.2471864  44.94 0.0006216742    1.342    0.255
       147 -10.4252    236.9606    187.0238   8.6758710839e+01   1.0069074942e+00    0.1761569    0.1512344  16.27 0.0004680467    1.141    0.124
       148 -10.4780    239.3322    182.7810   8.5596663177e+01   1.1045653587e+00     0.319549    0.2050564 -43.10  0.001700754    2.152    0.535
       149 -13.0640    116.8634     47.1401   7.6582383756e+01   4.9630676651e+01    0.5533376    0.3411497  54.88    0.0022921    1.722    0.419
       150 -11.0809     62.5517     47.9069   9.4403962505e+01   5.9597178448e+01    0.2555966    0.1869637  26.24 0.0005855268    1.537    0.349
       151 -10.6706    230.2399     47.0760   5.5423340086e+01   2.1201404362e+01    0.2191382    0.2027678  63.21 0.0004465874    1.138    0.121
       152  -9.8776     76.1354     46.8649   8.9126560023e+01   5.7693709674e+01    0.1814484    0.1475547 -15.70            0    1.265    0.210
       153 -10.2729    236.6559     45.8124   5.4322327463e+01   1.9831752480e+01    0.2675937    0.1714269  40.63  0.001286166    1.802    0.445
       154 -12.3380    214.1377     44.2913   5.6714343457e+01   2.5517054076e+01     0.530757    0.3347334  -6.53  0.002333221    1.985    0.496
       155 -12.3518    156.0668     44.2491   6.6305643507e+01   4.0559558876e+01     0.433409    0.3266644 -27.96  0.002095863    1.339    0.253
       156 -11.1990    248.7649    185.1758   8.4514164770e+01  -7.1750530668e-01    0.4184218    0.1173743  37.59  0.001657571    3.277    0.695
       157 -11.6589    195.2484     43.8799   5.9288928222e+01   3.0401684723e+01    0.2585248    0.2393377   1.17 0.0002952871    1.131    0.116
       158 -10.5185     92.4481    183.4496   1.1372794693e+02   2.6329688921e+01    0.1216444    0.1019174  64.43  5.37849e-05    1.015    0.015
       159 -11.9133    149.8528     42.9324   6.7138264312e+01   4.2341681453e+01    0.4371286    0.2923194 -63.12 0.0007426692    2.004    0.501
       160 -11.4508    145.7799     42.9823   6.8028186015e+01   4.3365834188e+01    0.2984488     0.232781 -11.53  0.000985964    1.387    0.279
       161 -11.7655    191.9375     40.4472   5.8750460553e+01   3.1716155916e+01    0.2338897    0.1943723 -28.42 0.0006583833    1.201    0.167
       162 -11.8344    117.1969     40.0328   7.3840244266e+01   5.0711003267e+01    0.3353802    0.2655412  23.23 0.0003195004    1.342    0.255
       163 -10.3196     61.8839     40.1366   9.1832054609e+01   6.1199869827e+01    0.1843703    0.1711474 -51.96  0.000251631    1.209    0.173
       164  -9.6858     50.6715     40.7207   9.6446339526e+01   6.2620653735e+01    0.1292475   0.09006457 -19.59 0.0002909077    1.598    0.374
       165 -12.8964     87.4469    173.8402   1.1360995915e+02   2.8904079938e+01    0.4887649    0.2475626 -53.67  0.002505192    2.216    0.549
       166  -9.8413     48.1864    180.8541   1.2248737074e+02   3.2630872187e+01    0.1376071    0.1222335 -81.56  0.000380194    1.308    0.235
       167  -9.8337    208.2928     39.3299   5.6076268016e+01   2.7629243644e+01    0.1493724    0.1096043  25.33 0.0002534295    1.629    0.386
       168 -12.5748    132.4147     35.6326   6.8376546645e+01   4.7766317169e+01    0.6037104    0.2976743 -21.82  0.002326261    2.306    0.566
       169 -10.3043    136.0038     32.0000   6.6198883439e+01   4.7388143068e+01    0.2152544    0.1633465  34.01 0.0003893186    1.347    0.257
       170 -10.6647    233.0433     35.9793   5.2126592828e+01   2.1886837186e+01    0.2109314     0.196469 -35.55 0.0005135689    1.036    0.035
       171 -12.4506     84.9501     35.2753   8.1612211743e+01   5.8213913577e+01    0.2765159    0.2382853 -27.90 0.0004590629    1.086    0.079
       172 -13.2739    199.3103     32.6413   5.5319681347e+01   3.0776602080e+01    0.3444145    0.3327767 -41.08 0.0006423977    1.031    0.030
       173 -11.9115    214.6391     31.8079   5.3105760753e+01   2.6933550672e+01    0.2958814    0.2430854  85.28 0.0005108921    1.263    0.208
       174 -10.2758     11.2635    174.9987   1.2938703159e+02   3.7482593947e+01    0.1460809    0.1035552  79.91 0.0002816051    1.054    0.052
       175 -11.1109    118.4701     30.7863   6.9916996156e+01   5.1803750833e+01    0.2763625    0.2031679  53.24 0.0007239364    1.366    0.268
       176 -12.1967    137.2061     45.1603   7.0732402351e+01   4.5167128210e+01    0.3649226    0.2909184 -88.15  0.001097997    1.602    0.376
       177 -12.4491    101.1727    172.6447   1.1052814745e+02   2.7067806314e+01    0.3308361    0.2482966  88.47 0.0005703286    1.400    0.286
       178  -9.6114     28.3198     30.3229   1.0228526812e+02   6.7118936345e+01    0.1278276   0.07602115 -30.11  0.000541541    1.673    0.402
       179 -10.4396     62.6770    173.8065   1.1885174314e+02   3.2273602264e+01    0.1764012     0.143668  52.31   0.00045106    1.206    0.171
       180 -11.7510    188.4290     27.3978   5.5225445931e+01   3.4264298182e+01    0.2798547    0.2610973  37.47 0.0005646861    1.105    0.095
       181 -11.6014    137.9778    215.7878   1.0881440690e+02   1.3802876720e+01    0.2252388    0.1792055 -58.11 0.0008500866    1.559    0.359
       182 -11.8454    210.4432     25.1684   5.1706004690e+01   2.8774695452e+01    0.3301884     0.194859  66.34  0.001522973    1.675    0.403
       183 -11.7816    201.2865     22.9431   5.2158358757e+01   3.1395788074e+01    0.3535901    0.1857506 -29.34  0.001281475    1.841    0.457
       184 -10.7500    174.9188     22.7462   5.5711213033e+01   3.8396456875e+01    0.2258274    0.1879811  44.95 0.0004866169    1.200    0.167
       185 -10.4300    106.7951     22.9547   6.9791609650e+01   5.5567133578e+01    0.2151059    0.1756968   8.21 0.0005014261    1.231    0.188
       186 -11.3333    214.0670     19.6759   4.9722563620e+01   2.8457718637e+01    0.1953399    0.1769856  74.49 0.0004026965    1.102    0.093
       187 -10.4896     15.8353     19.9389   1.0447158009e+02   7.0182898227e+01    0.1799733    0.1211919 -38.19  0.000416015    1.193    0.162
       188 -11.6096     59.1521    215.8701   1.2314147251e+02   2.4956830295e+01    0.2959767    0.2646163   6.34  0.002288579    1.896    0.473
       189  -9.7218     56.5327    170.5035   1.1981678040e+02   3.3692022068e+01    0.1182425   0.09574596  75.42  3.54057e-05    1.007    0.007
       190  -9.7547     51.5238    245.4776   1.2627556512e+02   2.1119058237e+01    0.1010841   0.06873941  60.95 7.035079e-05    1.008    0.008
       191 -10.2958     20.4498     18.2491   1.0145713795e+02   7.0127652053e+01    0.1562682   0.09925145 -57.28 0.0009385094    1.560    0.359
       192 -11.8321    238.8392     16.1559   4.6341446671e+01   2.2717744041e+01    0.2214964     0.168535 -56.09  0.001072147    1.241    0.194
       193 -10.7724     97.9836    166.3128   1.1034494827e+02   2.8802329703e+01    0.1781639    0.1423419  54.89 0.0001841234    1.119    0.107
       194 -10.0650    127.0128     16.2138   6.2042941633e+01   5.1615835475e+01    0.2535044    0.1384546  36.28     0.001068    1.961    0.490
       195 -10.1554     12.8348     14.8245   1.0403639442e+02   7.1373045061e+01     0.147907    0.1225062 -58.19 0.0007084987    1.319    0.242
       196 -11.1231    234.9101    215.2572   9.1883021965e+01  -1.7548506451e+00    0.2580454    0.1552938  23.49   0.00101109    1.415    0.294
       197 -11.1562    201.9047    243.0062   1.0125674723e+02   3.7860473569e-01    0.1660738     0.122298  32.45 0.0003387512    1.022    0.021
       198 -10.1131      2.1825    213.8597   1.3273954647e+02   3.1232938990e+01    0.1177302   0.09573446  80.87 0.0005231666    1.318    0.241
       199 -11.1486    206.0925     12.8715   4.8628133135e+01   3.1225774778e+01    0.2233234    0.1792701 -63.24 0.0005910569    1.244    0.196
       200  -9.8872    192.3246     13.2966   5.0326186956e+01   3.4789305110e+01     0.149495    0.1024567  37.61 0.0003726595    1.625    0.385
       201 -11.1067     91.0233    218.9914   1.1769984514e+02   2.0301507912e+01    0.1663677    0.1276231  59.77  0.001212362    1.015    0.015
       202 -10.4506    121.2400    243.0598   1.1468109631e+02   1.2416709513e+01    0.2077163    0.1023813  52.13  0.001258692    1.638    0.389
       203 -10.3415     47.0367    242.9478   1.2684683982e+02   2.2010720311e+01    0.1674486   0.07802512  63.22 0.0009501085    1.710    0.415
       204  -9.9940     21.6100    243.2469   1.3079652657e+02   2.4664828776e+01    0.1077325   0.07356324 -86.29 0.0002502472    1.476    0.323
       205 -10.2440      2.2932    242.9378   1.3366318095e+02   2.6552622459e+01    0.1272542   0.08360299  74.18  0.000996121    1.144    0.126
       206 -11.9994    146.5034    209.0387   1.0639026549e+02   1.3441931397e+01    0.3096695    0.2616203  32.52  0.001652909    1.188    0.158
       207 -11.3949    208.1438    241.4346   1.0004199392e+02  -3.8899109986e-01     0.207962    0.1336547  20.82 0.0007229024    1.443    0.307
       208 -10.9340     90.5013    241.2538   1.1967081091e+02   1.6927270490e+01    0.1737176    0.1211438  50.80 0.0003080441    1.094    0.086
       209 -11.8420    248.4393    159.2805   7.9590948824e+01   2.3519186849e+00      0.23784    0.2200635  34.68 0.0009405275    1.344    0.256
       210 -10.6553     42.4365    158.7833   1.2172196676e+02   3.7706219833e+01    0.2671164    0.0958952 -69.57  0.001270789    2.472    0.595
       211 -10.4144     32.7649    242.4308   1.2905331927e+02   2.3644345474e+01     0.119251   0.07823373  40.60 0.0007400117    1.578    0.366
       212 -11.7224     85.9370    159.0496   1.1201436755e+02   3.2089735858e+01    0.2659796    0.1741246  36.56 0.0009185206    1.613    0.380
