#   1 NUMBER                 Running object number                                     
#   2 MAG_AUTO               Kron-like elliptical aperture magnitude                    [mag]
#   3 X_IMAGE                Object position along x                                    [pixel]
#   4 Y_IMAGE                Object position along y                                    [pixel]
#   5 X_WORLD                Barycenter position along world x axis                     [deg]
#   6 Y_WORLD                Barycenter position along world y axis                     [deg]
#   7 A_WORLD                Profile RMS along major axis (world units)                 [deg]
#   8 B_WORLD                Profile RMS along minor axis (world units)                 [deg]
#   9 THETA_WORLD            Position angle (CCW/world-x)                               [deg]
#  10 FWHM_WORLD             FWHM assuming a gaussian core                              [deg]
#  11 ELONGATION             A_IMAGE/B_IMAGE                                           
#  12 ELLIPTICITY            1 - B_IMAGE/A_IMAGE                                       
         1 -12.4116     42.9804     20.0666   9.3878930989e+01   6.7613747338e+01    0.6059346    0.4359614  25.05  0.001941948    1.592    0.372
         2 -12.3860    216.4095     14.6773   5.1201035988e+01   2.8785758443e+01    0.6199741    0.5425389  43.27  0.001939827    1.238    0.192
         3 -13.3272    187.8745      6.9305   5.1903422537e+01   3.7077876619e+01     1.138628    0.5386907 -66.23  0.004068917    3.004    0.667
         4 -11.7804     58.0016      8.0192   8.1567676117e+01   6.7394160274e+01    0.4282467    0.3276072  15.53  0.002646053    1.330    0.248
         5 -11.5962     44.1843      8.5838   8.7703785310e+01   6.9365109302e+01    0.2693789    0.2009821 -34.57  0.001079974    1.185    0.156
         6 -10.0842    109.4956      8.5147   6.5734529045e+01   5.7114783250e+01    0.1385956    0.1292918   6.55 0.0008102905    1.032    0.031
         7 -11.8354    166.1948      2.1123   5.2936430238e+01   4.3339218684e+01    0.6640154    0.1914955  71.03  0.002095956    3.440    0.709
         8 -11.1865     95.8380    224.5950   1.1967530979e+02   1.9314735868e+01    0.2585451    0.1662422  76.15  0.001785643    1.555    0.357
         9 -10.2498    184.9347    223.1639   1.0455916340e+02   6.0103439608e+00    0.2230171    0.1082747  47.98  0.001256659    1.740    0.425
        10 -10.5264    149.1905    223.1808   1.1051213639e+02   1.1646612023e+01    0.1562518    0.1142148  62.13 0.0009139765    1.360    0.264
        11 -10.7925    226.1500    221.1785   9.7692285439e+01  -2.2882905607e-01    0.1405026    0.1199653  41.18 0.0006808591    1.355    0.262
        12 -10.7043    238.0077    212.1203   9.4477320859e+01  -1.1496134569e+00    0.3073468    0.2474093 -88.06  0.001870535    2.982    0.665
        13 -11.8921    223.5717    213.4118   9.6927613362e+01   9.6628257844e-01    0.3904916    0.1521251  34.20  0.001922054    2.322    0.569
        14 -10.8767    116.0625    209.1843   1.1466515743e+02   1.8798791555e+01    0.2389712    0.1440739 -77.39  0.001423574    2.120    0.528
        15 -10.4621     48.7127    201.0527   1.2595665717e+02   2.9208089625e+01    0.2731895    0.1119405 -84.82  0.001470676    2.601    0.615
        16 -11.0385      4.9376    199.4694   1.3340174231e+02   3.3929130057e+01     0.266821     0.103854  52.97  0.001081481    1.859    0.462
        17 -10.0225    112.3246    197.6565   1.1404560627e+02   2.1240816793e+01    0.1242718   0.07691978  69.60 0.0007050697    1.736    0.424
        18 -12.4294    160.2891    191.9516   1.0443282441e+02   1.4291851701e+01    0.6013951    0.4273825  77.17  0.002852749    1.956    0.489
        19  -9.6903     41.4967    202.0070   1.2728892847e+02   2.9853513369e+01    0.1455016   0.08587638 -83.91 0.0004633243    1.528    0.345
        20 -10.0926     94.6995    187.0470   1.1615969619e+02   2.5724951108e+01    0.1836032   0.08576125 -87.26  0.000703791    4.229    0.764
        21  -9.9916     34.3238    187.6413   1.2763646523e+02   3.3218605527e+01    0.1188893   0.05740205  67.51 0.0007044023    1.775    0.436
        22  -9.9998    109.0162    185.8409   1.1325467716e+02   2.3784475944e+01    0.2111951    0.1147429  64.01   0.00108363    2.020    0.505
        23 -10.2719    224.3094    183.6554   9.1901000090e+01   4.1875811307e+00    0.1085753   0.09828074  87.23 0.0004335702    1.700    0.412
        24 -10.1743    183.5166    182.4593   9.8718162125e+01   1.1586642523e+01    0.2147723    0.1191255 -26.23  0.001042926    2.498    0.600
        25  -9.5576    129.3002    177.6646   1.0819749932e+02   2.1938737838e+01    0.1279789   0.08907405  74.65 0.0006437604    1.657    0.396
        26 -12.1567     35.8067    173.5573   1.2636040307e+02   3.5730097985e+01    0.4340427    0.2013939  63.15  0.002497128    1.919    0.479
        27 -11.1922     55.8286    167.7964   1.2185552342e+02   3.4601164702e+01    0.4239951      0.21475  87.41  0.002253619    2.115    0.527
        28 -11.2045    121.0243    168.3491   1.0847955597e+02   2.5010269542e+01    0.3274609    0.1575503 -71.76  0.001302076    3.488    0.713
        29  -9.7605    112.3771    168.1465   1.1022016287e+02   2.6480411225e+01    0.1722002    0.1129703 -75.63   0.00093975    1.729    0.422
        30  -9.9477     88.3817    168.1976   1.1518231236e+02   3.0181506273e+01    0.1747444    0.1050419 -80.84 0.0009513628    1.797    0.443
        31  -9.3707      6.9362    165.2368   1.3143819275e+02   4.0076359510e+01    0.1161371   0.07442287  47.86            0    1.503    0.335
        32 -10.5986     78.6551    162.0067   1.1645277556e+02   3.2792622940e+01    0.3140345    0.1403644 -88.21  0.001137764    4.307    0.768
        33 -11.5401    106.6406    158.0839   1.0993960746e+02   2.9347735916e+01    0.5690934    0.3090154  67.87  0.002576934    2.433    0.589
        34 -10.5128     24.2510    160.0323   1.2766034917e+02   3.9560410320e+01    0.1612033    0.1169076  85.56 0.0008274693    1.061    0.058
        35 -10.2472     92.3229    159.6776   1.1323456387e+02   3.1274841724e+01    0.1328899   0.08481761  73.10 0.0005349249    1.679    0.404
        36 -10.7736    167.5252    157.4969   9.7288583558e+01   1.8461345461e+01    0.2958443     0.205065  85.24  0.001386352    2.392    0.582
        37 -11.1203    118.9205    156.9900   1.0715085360e+02   2.7510587633e+01    0.3603612    0.2431873  54.09  0.001604106    1.371    0.271
        38 -10.4624    218.3839    156.6096   8.7784834295e+01   8.7249454279e+00    0.2421317    0.1040289 -45.84 0.0009583831    3.236    0.691
        39  -9.1048      6.6897    155.7059   1.3094460949e+02   4.1973942133e+01   0.09480134   0.07096913 -63.07 0.0007003931    1.590    0.371
        40  -9.9755     81.3320    154.6503   1.1493299243e+02   3.3903959458e+01    0.1354087   0.08267149  73.54 0.0007048004    1.773    0.436
        41 -10.0580     68.0150    154.5029   1.1782878821e+02   3.5758226104e+01     0.182611   0.07741801  58.19 0.0008105027    2.578    0.612
        42  -9.8687     22.5440    150.5036   1.2729305685e+02   4.1655223114e+01    0.1714928   0.08420303 -88.80 4.853308e-05    1.744    0.427
        43  -9.9673     30.1831    152.2127   1.2580076351e+02   4.0574839573e+01    0.1967731   0.09223846  68.57  0.001053895    2.090    0.522
        44 -11.3318    243.4495    150.8635   8.2504496323e+01   4.7798107554e+00     0.271296    0.1565499  62.42  0.001240255    2.779    0.640
        45 -10.1879    189.3992    150.2020   9.1669334197e+01   1.5337625405e+01    0.1889808    0.1264745 -49.09 0.0009548952    1.757    0.431
        46 -10.4977     56.2189    146.2260   1.1946113298e+02   3.8973346041e+01    0.2776645    0.1333492  70.06   0.00129004    2.550    0.608
        47  -9.9929    148.1924    144.7957   9.8770373305e+01   2.4456290447e+01    0.2329695    0.1492465  86.51 0.0009519412    2.841    0.648
        48 -10.3505     87.8214    144.2347   1.1199795990e+02   3.5108015423e+01    0.2283982    0.1215837  74.54 0.0009560836    2.825    0.646
        49  -9.7096    124.6620    143.3418   1.0355848510e+02   2.9162929355e+01    0.1434072    0.1006618  80.10 0.0007049955    1.767    0.434
        50 -11.3359    107.4385    145.5805   1.0777748292e+02   3.1714511680e+01    0.5303177    0.2783225  74.10  0.001943224    3.703    0.730
        51 -10.8407     83.2157    132.1282   1.1116552378e+02   3.8367839365e+01    0.3003817     0.174817  76.92  0.001383956    2.294    0.564
        52 -12.1200     98.3454    127.3555   1.0667654539e+02   3.7028218635e+01    0.8717687    0.4763857  87.31  0.003095961    3.868    0.741
        53 -10.7409     59.2460    124.6237   1.1588359038e+02   4.3274642660e+01    0.3869028    0.1866317  86.63  0.001534635    3.309    0.698
        54  -9.9444    117.3405    125.6551   1.0180382947e+02   3.4083739035e+01    0.1479127    0.1047048  83.40 0.0007047611    1.783    0.439
        55 -11.0226     42.9364    122.2537   1.1965627747e+02   4.5679385707e+01    0.5883816    0.2408686 -89.02  0.002203117    3.823    0.738
        56 -11.2720     26.3311    119.6522   1.2352761665e+02   4.7882694812e+01    0.3478961    0.1609905  82.87  0.001682065    2.428    0.588
        57 -10.6147     14.9662    121.4211   1.2653270658e+02   4.8456868927e+01    0.3221447    0.1780494  27.47  0.001962586    2.295    0.564
        58 -11.5501    193.2800    118.4690   8.3908576098e+01   1.9649997923e+01    0.5424786    0.4250762 -66.19  0.002133818    1.659    0.397
        59 -10.3273     71.6068    120.6163   1.1212192755e+02   4.2545294685e+01    0.4049751    0.2050706  71.81  0.001593063    3.282    0.695
        60 -11.0758    140.9890    116.8093   9.4376896043e+01   3.1273602108e+01    0.4420863    0.2198232 -44.72  0.001836299    2.038    0.509
        61  -9.9928    130.3149    118.6387   9.7252770884e+01   3.3059069486e+01    0.1499438    0.1102631 -89.09 0.0005997262    1.757    0.431
        62 -10.5439      2.3400    115.7696   1.2914443862e+02   5.0598730779e+01    0.2543528    0.1050819 -89.19  0.001322831    2.073    0.518
        63 -10.6557    108.2823    112.5013   1.0121351782e+02   3.8500768375e+01    0.5692858    0.2356932 -64.06  0.001842771    3.794    0.736
        64 -10.6792     78.4616    112.3169   1.0885180002e+02   4.3413463884e+01    0.4078414    0.2216572 -86.38  0.001634842    2.951    0.661
        65 -12.2171    160.1544    110.4676   8.8609595869e+01   2.8401617841e+01    0.7128828    0.4581755 -64.00  0.003035252    2.133    0.531
        66 -10.4727     92.0434    111.4952   1.0513831681e+02   4.1497279092e+01    0.4435268    0.2152015 -70.71  0.001696943    2.879    0.653
        67 -11.6134     15.3151    110.2957   1.2533346433e+02   5.0858546359e+01    0.6193105    0.3014239  73.99  0.003281903    2.193    0.544
        68 -12.7889    140.6624    105.2428   9.1650573527e+01   3.3632342598e+01    0.5567015     0.403047  46.40   0.00274048    1.391    0.281
        69 -12.0487    127.6625    100.7564   9.3609184965e+01   3.7244433552e+01    0.5271608    0.2837784 -58.47  0.002123436    2.204    0.546
        70 -10.8769    174.5756    110.8455   8.5694564796e+01   2.5122043631e+01    0.3973151    0.2799464 -33.90     0.001585    1.453    0.312
        71 -12.4611    108.7908     99.0462   9.7945407651e+01   4.1284321871e+01    0.8516151    0.5081952  75.98  0.003228735    3.069    0.674
        72 -10.7476     82.0119    100.6880   1.0551846008e+02   4.5468745870e+01    0.1870207     0.172361  71.70  0.000674703    1.122    0.109
        73 -10.2227     19.8761     98.4267   1.2270017803e+02   5.3135493604e+01    0.2794085    0.1129292 -86.55   0.00122474    2.765    0.638
        74  -9.9373     89.7372     97.8951   1.0276621422e+02   4.4863444487e+01    0.1990958    0.1630069 -59.30  0.001121657    1.122    0.109
        75 -11.0945     63.1561     95.9770   1.0983750227e+02   4.9198161457e+01     0.362466    0.1945852 -84.24  0.001512248    2.761    0.638
        76 -12.9422    170.5567     91.0850   8.1319060459e+01   2.9561291552e+01    0.4303671    0.3921688  89.45  0.002281535    1.215    0.177
        77 -10.9955     34.1162     88.4234   1.1701901071e+02   5.4158757633e+01     0.343525    0.1467782 -78.01  0.001499233    2.550    0.608
        78 -11.7730     42.3332     87.8289   1.1441091546e+02   5.3480294768e+01    0.3556631    0.2435449 -18.70  0.001475835    2.310    0.567
        79 -10.8752     45.4747     81.9300   1.1226758818e+02   5.4478837512e+01    0.2499903    0.1389763 -74.20 0.0007904827    1.789    0.441
        80 -11.4727     87.4305     87.5592   1.0090245923e+02   4.7509446770e+01     0.419054    0.2695492  62.72  0.001996197    1.964    0.491
        81 -10.9661    104.8860     83.5030   9.4916526245e+01   4.5311222561e+01    0.4437076    0.2944746 -73.29   0.00197678    2.041    0.510
        82 -11.9309     44.7862    101.4929   1.1610689284e+02   5.0129682333e+01    0.6508038     0.327495  85.03  0.002787777    2.939    0.660
        83 -10.9606     82.3488     73.3456   9.8581341354e+01   5.1415908239e+01    0.4176458    0.2607386  88.57   0.00162739    3.249    0.692
        84 -10.8201     62.2463     70.7464   1.0421791230e+02   5.4948401597e+01    0.3508272    0.1008592 -50.94  0.001274774    2.890    0.654
        85  -9.9679    115.6771     72.9883   8.8897535556e+01   4.5342934578e+01    0.2449422     0.108984 -59.47 0.0007038455    4.209    0.762
        86 -11.4303    223.4413     71.2375   6.6491708016e+01   1.9940657540e+01    0.3299232    0.2816299 -44.65 0.0006659823    1.177    0.151
        87 -10.9024      6.9699     85.0202   1.2475043668e+02   5.7034356853e+01    0.1780247     0.106029 -51.67 0.0004269602    1.645    0.392
        88 -10.6005     51.9816     70.5397   1.0755049745e+02   5.6287607364e+01    0.2699164    0.1724118 -59.66 0.0008282204    1.328    0.247
        89 -10.2791    195.5766     67.8934   6.9941655697e+01   2.7269542438e+01    0.3412312     0.209194  64.69  0.001465215    1.791    0.442
        90 -11.5266     20.8587     51.6743   1.1405601549e+02   6.3457060583e+01    0.5366454    0.3118118 -62.44  0.002490024    1.345    0.256
        91 -11.6431     39.4013     52.8537   1.0727586721e+02   6.1537256020e+01     0.566659    0.1568337 -50.20  0.002082506    2.789    0.641
        92 -13.5358     30.3338     59.6995   1.1243259410e+02   6.0924848539e+01     1.107947    0.7216509  39.25   0.00373816    1.856    0.461
        93 -11.4456     19.4158     59.3668   1.1634796176e+02   6.1886721710e+01    0.2785481    0.2044688 -52.27 0.0009508481    1.192    0.161
        94 -11.0550    239.7449     64.7534   6.2508865642e+01   1.6990562361e+01    0.2131978    0.1242577  80.05 0.0008959262    2.431    0.589
        95 -10.8351    232.4829     60.4895   6.2308511598e+01   1.9253817477e+01    0.1441799    0.1337306 -24.70 0.0001889621    1.007    0.007
        96 -10.1691     72.5798     58.3285   9.7152229151e+01   5.6119567264e+01    0.2776954    0.1206596 -53.28  0.001145236    2.189    0.543
        97 -11.3065      9.6851     57.2602   1.1950228260e+02   6.3005229116e+01    0.5599025    0.3319892  75.41  0.003200268    2.145    0.534
        98  -9.9894     53.7183     53.7175   1.0224500093e+02   5.9712921455e+01    0.2630169    0.1479025 -71.28  0.001167164    2.515    0.602
        99 -10.3637    162.1927     53.3876   7.1569266139e+01   3.7998072078e+01    0.2155324     0.149747  73.28 0.0005646991    1.687    0.407
       100 -12.0615    149.3448     52.0561   7.3787629214e+01   4.1437240446e+01     0.335489     0.293558  61.10 0.0004354701    1.187    0.157
       101 -10.4333     82.0900     47.0300   9.0102149043e+01   5.6817328513e+01    0.2138886    0.1916222 -44.09 0.0005498219    1.077    0.071
       102 -10.5990    157.1117     45.0096   6.9752376142e+01   4.0577165133e+01    0.2519117    0.2178047  55.80 0.0004549267    1.171    0.146
       103 -11.1694      6.9917     43.1841   1.1758985603e+02   6.6208619650e+01    0.4208623    0.2385477  49.37  0.002481698    2.391    0.582
       104  -9.4509    149.3158     43.2710   7.0737355511e+01   4.2816784743e+01    0.1540315    0.1140011  25.66  0.000210011    1.557    0.358
       105 -11.2184     70.0641     42.3074   9.2435130605e+01   5.9703858635e+01    0.4397303    0.2950465  65.67  0.002126485    2.407    0.585
       106 -12.1568     42.3507     37.3319   1.0114018402e+02   6.4433300310e+01    0.6379396    0.3937675   9.97  0.002990719    2.341    0.573
       107 -10.5749     82.7497     37.8093   8.6339345828e+01   5.8399299112e+01     0.385382     0.242076  62.42  0.001778688    2.356    0.576
       108 -11.0789    120.1462     34.2834   7.4062354557e+01   5.1250628473e+01    0.3032712    0.2789007 -79.71 0.0007229194    1.260    0.206
       109 -11.6628     46.7077     35.8425   9.8826167064e+01   6.4213650435e+01     0.373551    0.2587364   1.06  0.001559015    1.927    0.481
       110 -10.1598     73.5418     32.5208   8.7311377805e+01   6.0933207815e+01    0.2804222    0.1948619  79.05  0.001264852    2.898    0.655
       111 -10.6072    103.8561     30.4351   7.6833429706e+01   5.5463653771e+01    0.5122363    0.1700134  54.67  0.001750092    3.342    0.701
       112 -12.4097    203.6529     21.4804   5.4653127115e+01   3.1369579883e+01    0.4630716    0.2860852 -78.99  0.002017523    1.980    0.495
       113 -11.3820    219.9761    248.4214   1.0237648333e+02  -1.8912471774e+00    0.2101599    0.1740034 -68.66  0.001596519    2.406    0.584
       114 -11.0027    239.9829     20.6095   5.0594831416e+01   2.2266988919e+01     0.283085    0.2417433  88.20 0.0005434777    1.220    0.180
       115 -12.3490     22.3936    239.1964   1.3224556390e+02   2.5784812711e+01    0.4016753    0.1589134  68.58  0.002684476    1.999    0.500
       116 -10.3394    222.8023     16.3828   5.1054386603e+01   2.6974043867e+01    0.2671539    0.2109633  51.41  0.001248865    1.353    0.261
       117 -10.0985    134.0664     18.0275   6.4365890369e+01   5.0088555480e+01    0.2185575    0.2125951  28.26 0.0005411996    1.035    0.034
       118 -10.1837     33.1694    242.3859   1.3078233677e+02   2.4196795464e+01    0.1380685   0.05552981  51.28 0.0009427709    1.676    0.403
       119 -11.4054      8.4177    240.2159   1.3431956101e+02   2.6985968255e+01    0.1499993    0.1268655  71.60  0.001474056    1.502    0.334
       120 -10.7404     12.8396    227.4475   1.3322668717e+02   2.8541566248e+01    0.1693496    0.1129946  77.74 0.0005268451    1.155    0.134
       121 -10.0692    104.4754    225.4453   1.1829933064e+02   1.7984582619e+01    0.1857557    0.1034902 -65.66  0.001199426    2.130    0.531
