#   1 NUMBER                 Running object number                                     
#   2 MAG_AUTO               Kron-like elliptical aperture magnitude                    [mag]
#   3 X_IMAGE                Object position along x                                    [pixel]
#   4 Y_IMAGE                Object position along y                                    [pixel]
#   5 X_WORLD                Barycenter position along world x axis                     [deg]
#   6 Y_WORLD                Barycenter position along world y axis                     [deg]
#   7 A_WORLD                Profile RMS along major axis (world units)                 [deg]
#   8 B_WORLD                Profile RMS along minor axis (world units)                 [deg]
#   9 THETA_WORLD            Position angle (CCW/world-x)                               [deg]
#  10 FWHM_WORLD             FWHM assuming a gaussian core                              [deg]
#  11 ELONGATION             A_IMAGE/B_IMAGE                                           
#  12 ELLIPTICITY            1 - B_IMAGE/A_IMAGE                                       
         1 -11.6254      7.0756     18.1343   1.1701190852e+02   7.5781118896e+01    0.3067102    0.2982177 -26.98  0.001242387    1.210    0.174
         2 -12.1176     18.0801     23.9118   1.1053497609e+02   7.3642599086e+01    0.5203779    0.3355813 -64.87  0.002352812    1.888    0.470
         3 -11.3484    182.1845     19.5594   5.6378855982e+01   3.6650809725e+01    0.3310752    0.2169521 -23.89  0.001755413    1.732    0.423
         4 -10.5508     74.1191      8.6428   7.0900373731e+01   6.5618945186e+01    0.2573776    0.1826943 -40.66   0.00114361    1.601    0.375
         5 -12.0180     80.3043     15.6057   7.2551170367e+01   6.3345685316e+01     0.425915    0.3597503 -78.06  0.001216428    1.380    0.275
         6 -10.5884     43.6329     16.4959   8.8840232116e+01   7.1240317105e+01    0.4265589    0.2934701  88.80  0.001698408    3.893    0.743
         7 -11.3104     25.7299     13.6411   9.8938986511e+01   7.4635450861e+01    0.3902677     0.220063 -30.02  0.001155504    1.885    0.470
         8 -10.3519     67.2837     13.1482   7.5748523058e+01   6.6732087297e+01     0.324234    0.1600774 -32.52  0.001453874    2.181    0.542
         9 -11.7161    174.3932     12.0846   5.5016301568e+01   3.9350546878e+01    0.2843679    0.2624988 -83.94  0.001823884    1.143    0.125
        10  -9.9048     97.9060     12.0665   6.6119233006e+01   5.9285705296e+01    0.2023877    0.1750997 -76.53 0.0003254949    1.220    0.180
        11 -10.6116     51.9917      6.0134   7.7923181052e+01   7.0968568092e+01    0.2076744    0.1397084  24.10 0.0003669325    1.582    0.368
        12 -10.0348     13.1344     11.1720   1.0789571417e+02   7.6619951831e+01    0.1465722    0.1417757   1.89  0.000381283    1.264    0.209
        13 -11.5906     45.5247      8.6239   8.2852348762e+01   7.1985226224e+01    0.3570606    0.2707568  60.34  0.002021702    1.523    0.343
        14 -11.4714     38.8501      3.9583   8.3452280834e+01   7.3878522250e+01    0.4251992     0.262175 -52.30  0.002075934    2.514    0.602
        15 -12.3882    209.5087      5.0307   5.0633426413e+01   3.1861182874e+01    0.4802037    0.2542338 -59.38 0.0005252871    1.586    0.370
        16 -10.8276    194.9072      8.6866   5.2464464288e+01   3.4786702255e+01    0.1787595      0.13866 -76.01 0.0004133736    1.094    0.086
        17  -9.3827     37.3214      9.6486   8.8298143192e+01   7.3397928083e+01    0.1215813    0.1058893 -87.15 0.0002141706    1.748    0.428
        18 -11.0447    159.2234      7.4717   5.5087961074e+01   4.3620193764e+01    0.2418387     0.202787 -74.86  0.000672365    1.038    0.036
        19  -9.9286    128.1659      8.3771   5.9086383141e+01   5.1657300786e+01     0.199673    0.1191077  85.96 0.0003124965    1.608    0.378
        20 -10.9000    108.0100      7.5262   6.2046145784e+01   5.7082271168e+01    0.2223155    0.1242404  71.03  0.001027745    1.582    0.368
        21 -10.0187     87.4914      7.0727   6.6284347202e+01   6.2453209812e+01    0.1866495     0.140499 -15.87  0.001008869    1.533    0.348
        22 -10.4078     24.6254      6.7170   9.5197223842e+01   7.5925460145e+01    0.2205712    0.1859082 -50.65  0.001272557    1.537    0.349
        23 -10.3214     20.0268      7.3010   9.9347426718e+01   7.6482559253e+01     0.172402    0.1453788  18.51 0.0008269462    1.135    0.119
        24 -10.0013     14.2652      4.9841   1.0285606939e+02   7.7595098355e+01    0.1649825    0.1381595 -20.72 0.0002072195    1.107    0.097
        25 -10.0563      7.8978      5.5072   1.0940884003e+02   7.8174327141e+01    0.1686433    0.1089109  15.88 0.0003711331    1.466    0.318
        26 -11.4559    194.1070      3.7260   5.1253277725e+01   3.5460743315e+01    0.2972771    0.1904368  63.54 0.0006386818    1.678    0.404
        27 -11.3781    161.0845      2.8650   5.3513465800e+01   4.3575427435e+01    0.4066509    0.2434134 -88.77  0.001974306    1.510    0.338
        28 -10.5380    217.8262      2.4750   4.9585728278e+01   3.0318587773e+01    0.2220562    0.1468663 -39.37   0.00139031    1.348    0.258
        29 -11.2956    181.1734      2.2574   5.1744558057e+01   3.8656832075e+01    0.3029465     0.211124  88.73   0.00108902    1.269    0.212
        30 -10.8877     73.8549      1.9540   6.7335433441e+01   6.6328844708e+01    0.3083043    0.2043267  63.11  0.001492154    1.333    0.250
        31  -9.9638     48.0330      3.0198   7.7845855548e+01   7.2145613677e+01    0.2212206     0.136649  26.40  0.001081073    1.737    0.424
        32 -10.6117    199.0859      1.6312   5.0417940441e+01   3.4518664068e+01    0.2029193    0.1455808  73.68 0.0006684744    1.422    0.297
        33  -9.2380    115.6441      2.2368   5.8582504780e+01   5.5525551130e+01     0.141246    0.0930267 -75.82 0.0004545973    1.580    0.367
        34  -9.6564    143.6572      1.2783   5.4687395397e+01   4.8206548129e+01    0.1447384   0.08703158 -67.44 0.0003701882    1.627    0.385
        35  -9.8942     90.3421      1.3939   6.2848691987e+01   6.2228226509e+01    0.1790571    0.1196352  77.73 0.0005176319    1.418    0.295
        36 -10.1946      8.4520      1.2019   1.0590599093e+02   7.8883444700e+01    0.3076535   0.07426125  30.97  0.001163918    3.745    0.733
        37 -10.3323    134.3708    235.5234   1.1337650743e+02   8.7114040963e+00    0.2979703    0.1635465  55.41  0.001303767    2.863    0.651
        38 -10.0974    208.1945    250.1950   1.0100862607e+02  -2.3908131118e+00    0.1612135    0.1100831   4.52 0.0005011911    1.118    0.106
        39 -10.8401    210.5808    247.1282   1.0017901989e+02  -2.2980354740e+00    0.2021498    0.1413059  13.31 0.0005400371    1.085    0.078
        40 -11.9309    187.4728    248.5990   1.0449049929e+02   1.4418260812e-01    0.2800669    0.1990415 -25.25 0.0004562498    1.495    0.331
        41 -10.8640    107.5977    250.5138   1.2072203390e+02   9.8031656480e+00    0.2650462    0.1041825  33.34 0.0001551095    1.865    0.464
        42 -11.8265    116.2789    248.4573   1.1867401289e+02   9.0286774777e+00    0.4884802    0.2926084   2.31  0.002546838    2.389    0.581
        43 -10.3112    121.2977    247.6970   1.1753271299e+02   8.5063160271e+00     0.136354    0.1107433 -31.34  0.000217527    1.519    0.341
        44  -9.3546    102.2537    250.6530   1.2187431909e+02   1.0451506586e+01    0.1155777   0.07596184  52.90 0.0002633425    1.589    0.371
        45 -11.9272     19.6158    217.7047   1.3827671152e+02   2.6095903474e+01    0.4881547    0.2736968  88.18  0.002028588    1.816    0.449
        46 -13.2573      8.8832    212.7580   1.4059986320e+02   2.8096876340e+01    0.7133578    0.5134045 -82.24  0.001519549    1.484    0.326
        47 -11.9961     39.7346    229.7263   1.3421285623e+02   2.1643616726e+01    0.2824355    0.2460261  83.17 0.0009543161    1.281    0.219
        48 -11.2687     45.8055    229.4465   1.3280448472e+02   2.1037829680e+01    0.5265021    0.2520065  49.66  0.002799997    1.689    0.408
        49 -12.7223     31.0267    230.9704   1.3625406929e+02   2.2310764100e+01    0.8488103    0.2192141  45.86  0.003615749    2.586    0.613
        50 -12.7598     14.0874    219.7697   1.3963814895e+02   2.6185614657e+01    0.4662752    0.2943868 -84.93  0.002904462    1.655    0.396
        51 -12.5739     10.4705    248.3586   1.4131866460e+02   2.1023216030e+01    0.4644828    0.3548825  74.66  0.003512341    1.307    0.235
        52 -12.7552      3.2543    246.4078   1.4274629709e+02   2.2016875874e+01    0.3719086    0.2680968  39.04  0.001385434    1.172    0.147
        53 -13.4932      3.7902    235.8658   1.4239228827e+02   2.3928220468e+01    0.9613714    0.3688984  86.81  0.005005021    2.672    0.626
        54 -13.4571     17.8457    246.9980   1.3975255552e+02   2.0586716458e+01     1.064032    0.2977717  49.01   0.00472781    2.350    0.574
        55 -14.0408     32.9904    244.4807   1.3644654228e+02   1.9556159294e+01     1.010722    0.5679764  36.62  0.003030972    1.327    0.246
        56 -12.9067     21.8314    238.0070   1.3858817212e+02   2.1872219421e+01    0.4661963     0.308925  57.66 0.0005012226    1.215    0.177
        57 -10.2612    156.9607    233.7272   1.0843115849e+02   5.9793094010e+00    0.1986976    0.1633452 -72.88 0.0007695844    2.028    0.507
        58 -10.4805    184.4051    232.2417   1.0282534552e+02   2.6454857674e+00    0.3776807    0.1804241  10.55  0.001308607    2.931    0.659
        59  -9.9939    173.2380    233.5840   1.0516165744e+02   3.8786361993e+00     0.166704   0.09241921  20.94 0.0006404816    1.564    0.361
        60 -11.4768    143.6205    232.3170   1.1101504561e+02   7.9756166572e+00      0.36672    0.1722077  30.32  0.001010427    1.718    0.418
        61 -10.7151    152.4459    230.9797   1.0899544064e+02   6.9953085365e+00    0.2196342    0.1978314 -54.03 0.0004668387    1.530    0.346
        62 -10.7878    151.8488    227.1555   1.0860818076e+02   7.6672347893e+00    0.1852888    0.1465692  15.88 0.0002865948    1.058    0.054
        63 -12.0858     73.7324    227.5563   1.2618234507e+02   1.8109558803e+01    0.4824655     0.283613  76.15  0.001863643    2.220    0.550
        64 -10.1121     58.9824    230.8744   1.2986478490e+02   1.9260453696e+01    0.2876639    0.1474179  79.11  0.001329197    2.574    0.611
        65 -10.1713     80.8854    231.2616   1.2484876087e+02   1.6512295846e+01    0.1924451    0.1321467  45.81 0.0007438757    1.222    0.182
        66 -10.2318    231.1762    233.7096   9.4829147280e+01  -2.9852415944e+00    0.1756521    0.1247501  -9.36 0.0008411903    1.137    0.120
        67  -9.4618    248.4839    230.4743   9.1641551331e+01  -4.4160773950e+00    0.1053044   0.07369028  -2.21 3.215397e-05    1.006    0.006
        68 -10.9097    242.8172    229.4065   9.2350550234e+01  -3.7224903839e+00    0.1975458    0.1853431 -50.18  0.001550006    2.313    0.568
        69 -11.4910     95.2267    229.1378   1.2135107463e+02   1.5046728062e+01    0.4925433    0.2169801  56.79 0.0008309696    3.310    0.698
        70 -11.8428    107.3146    227.8905   1.1845725466e+02   1.3653918256e+01     0.261555    0.1876733  41.01 0.0002999532    1.195    0.163
        71 -10.4184    111.4681    227.5199   1.1747361752e+02   1.3155275293e+01    0.1961391    0.1566814  53.26 0.0001299276    1.333    0.250
        72  -9.6821     65.1035    229.3316   1.2833484643e+02   1.8828684244e+01    0.1730246     0.086393  38.50 0.0004113732    1.518    0.341
        73  -9.7235    202.6483    227.7180   9.8804360472e+01   9.9182750224e-01    0.1382215    0.1006135 -36.28  0.000691134    1.637    0.389
        74 -10.3179    174.0708    228.0231   1.0422014230e+02   4.5608869309e+00    0.2489989    0.1384227  27.25  0.001277105    1.487    0.327
        75  -9.5718    125.8115    228.3699   1.1436671986e+02   1.1044156957e+01    0.1746546    0.1007378  22.09  0.000326937    1.605    0.377
        76 -10.2520     23.1113    226.9502   1.3786204048e+02   2.3890183189e+01    0.1868457    0.1406746  51.08  0.001023581    1.015    0.015
        77 -11.0075    164.3372    224.5037   1.0566573491e+02   6.3762832281e+00    0.2225113    0.1956411  25.63 0.0006936002    1.237    0.192
        78 -10.8103     78.8834    223.7626   1.2463655155e+02   1.8185612167e+01    0.2366995    0.1793395  87.51  0.001191261    1.572    0.364
        79 -11.0227     37.9004    224.1473   1.3432398037e+02   2.2943933825e+01    0.3577954    0.1929544  42.64  0.001645703    1.406    0.289
        80 -12.1299     38.4169    218.4504   1.3387312264e+02   2.4045268641e+01    0.3407695    0.2769981 -14.54 0.0005398444    1.729    0.422
        81 -10.0366    178.1536    223.8344   1.0281723026e+02   4.6267371510e+00    0.1726003    0.1457687  26.34 0.0005228827    1.267    0.211
        82 -13.1768     11.1462    231.7813   1.4069860902e+02   2.4063228011e+01    0.6787595    0.4303268  46.72  0.001187765    1.156    0.135
        83 -10.8332    187.8659    222.3977   1.0073765156e+02   3.5606412446e+00    0.1996092    0.1479937 -14.54 0.0003662058    1.276    0.216
        84  -9.9086     54.2296    222.1310   1.3034971150e+02   2.1529436371e+01     0.262821     0.184801  -7.24  0.001439842    2.143    0.533
        85  -9.6351     44.7895    223.5637   1.3267684667e+02   2.2313417523e+01    0.1730922   0.08781084  40.73 0.0004172326    1.494    0.331
        86 -10.0903    121.2564    222.0133   1.1460526941e+02   1.2772791425e+01    0.1682731    0.1460715  30.40 0.0003348895    1.079    0.074
        87 -10.6537     64.1393    221.2538   1.2792165563e+02   2.0523998650e+01    0.3574639    0.1647519  57.26  0.001109928    2.300    0.565
        88 -11.0841    228.8746    219.9133   9.3126890282e+01  -1.1118618378e+00    0.2835402      0.14371 -37.83  0.001122105    2.103    0.524
        89 -11.1883     88.4440    218.0228   1.2180181836e+02   1.8042969226e+01    0.4672689    0.2388443 -82.89  0.001888156    3.222    0.690
        90 -11.3946     84.7144    214.6754   1.2235416954e+02   1.9201190021e+01    0.4236563     0.257561  17.88  0.001945502    1.806    0.446
        91 -10.6825     86.2617    211.6617   1.2166074272e+02   1.9595016329e+01    0.2323335    0.1713839  70.81 0.0002980392    1.548    0.354
        92 -11.6215     27.3125    219.6236   1.3656217134e+02   2.4953304722e+01    0.3501825    0.2446236  31.72  0.001225778    1.290    0.225
        93  -9.0096    157.6810    220.2846   1.0643634751e+02   7.9415101777e+00    0.1176263   0.08959451  47.90 0.0006997954    1.589    0.371
        94 -10.8239     95.8998    219.0590   1.2013736473e+02   1.6834645183e+01    0.2815708    0.1854827 -85.38  0.001501803    2.128    0.530
        95 -10.4703    135.2326    218.3787   1.1100407144e+02   1.1426340333e+01    0.2416227     0.180308  -0.57 0.0006951193    1.474    0.322
        96 -10.8388     47.3087    218.1854   1.3172772379e+02   2.3122092271e+01    0.2619977    0.1981157   6.94  0.001473247    1.658    0.397
        97 -10.5851    173.7238    217.0588   1.0268878035e+02   6.2210974482e+00    0.2731748    0.2254931  73.93  0.001432805    2.228    0.551
        98 -10.8123    101.3668    217.3818   1.1865693750e+02   1.6401430657e+01    0.2181336    0.2140818  -4.42  0.001033701    1.209    0.173
        99  -9.6001    217.7697    216.9849   9.4525156123e+01   5.4773590061e-01    0.1420944   0.08240091 -30.39 0.0008776908    1.640    0.390
       100 -10.9222    117.1356    216.4400   1.1485346826e+02   1.4355958979e+01    0.2254493    0.2037898 -23.22 0.0003304516    1.277    0.217
       101 -10.1691    117.9406    212.5215   1.1416722195e+02   1.4962013774e+01    0.2150568    0.1504429  18.72 0.0006841008    1.393    0.282
       102 -10.7250     72.9784    216.4971   1.2538146473e+02   2.0372736048e+01    0.2781017     0.189616  24.19 0.0003965862    1.403    0.287
       103 -11.0663     74.7053    213.0460   1.2463602639e+02   2.0848920586e+01    0.4073195    0.2554774  77.70  0.002117366    1.991    0.498
       104 -10.0511    157.3763    215.7626   1.0584802068e+02   8.7044980389e+00    0.1660629    0.1108648 -29.07 0.0009460444    1.655    0.396
       105 -12.1525     31.4234    212.8597   1.3523328316e+02   2.5942142657e+01     0.420188    0.3411186  76.24  0.002192259    1.209    0.173
       106  -9.1359    147.7113    215.7210   1.0790317449e+02   1.0089829251e+01    0.1248971   0.08850881   2.62  0.000209044    1.521    0.343
       107 -11.1751    112.0235    213.7752   1.1571278269e+02   1.5579736939e+01    0.2480514    0.1881948 -48.29 0.0007859754    1.561    0.359
       108  -9.6278    133.9997    214.5257   1.1075692605e+02   1.2271656297e+01    0.2098941    0.1082627  33.85  0.001032494    1.608    0.378
       109 -10.0033     97.9961    214.0319   1.1907743086e+02   1.7512558935e+01    0.1997748    0.1625952  36.50 0.0004298677    1.016    0.016
       110  -9.3554    164.4267    213.4301   1.0403261157e+02   8.0774614890e+00    0.1250291    0.1041471  19.69 1.840544e-05    1.070    0.066
       111 -11.0862     30.9209    202.2805   1.3475282461e+02   2.8269787593e+01    0.3642866    0.1521739  45.09  0.001183494    1.868    0.465
       112 -11.8053     39.1000    211.5022   1.3328275358e+02   2.5420707714e+01    0.4508009    0.2484875  53.86  0.002087805    1.545    0.353
       113 -10.8043     35.5976    204.8103   1.3372963963e+02   2.7230746580e+01    0.3218454    0.1630482  60.71  0.001608055    1.848    0.459
       114  -9.6528    246.5118    212.5002   8.9193092015e+01  -2.1864701953e+00     0.109165   0.07916947  -5.03 0.0008105804    1.001    0.001
       115 -10.2844    231.1051    211.9874   9.1524131278e+01  -3.9745706068e-01    0.1685778    0.1261592  -1.94 0.0004498944    1.004    0.004
       116 -12.0076     96.4561    209.1446   1.1888547902e+02   1.8688339986e+01    0.3315839    0.2710953 -45.32 0.0003183993    1.461    0.315
       117 -10.2255     14.2538    211.3584   1.3928303775e+02   2.7915502383e+01    0.2247527    0.1350529  59.34            0    1.360    0.265
       118 -10.7312     23.7928    209.0251   1.3688581472e+02   2.7517649928e+01     0.358493    0.2385798  53.69  0.001109848    1.206    0.171
       119  -9.9060    214.6191    210.1875   9.3992375127e+01   1.8167943874e+00    0.1590964   0.09180079 -22.82 0.0009183176    1.634    0.388
       120  -9.9939     80.9880    210.0291   1.2278697765e+02   2.0636609437e+01    0.1572212    0.1376341  47.33 0.0009814725    1.070    0.065
       121 -11.9357    128.7789    207.8136   1.1101707679e+02   1.4240477809e+01    0.3370365    0.2608336  11.40  0.001964404    1.297    0.229
       122 -10.1050    195.6435    208.8090   9.7176094597e+01   4.4605065358e+00    0.2176552    0.0816617  31.36  0.000739452    2.455    0.593
       123  -9.3762    144.4836    208.4431   1.0755716947e+02   1.1797263915e+01    0.1317599     0.110325  26.87 9.056397e-05    1.060    0.056
       124  -9.7464     89.9415    208.5273   1.2041338893e+02   1.9722315545e+01    0.2034281    0.1148244  30.64   0.00100468    1.521    0.342
       125 -11.6170     67.3190    207.2961   1.2592823638e+02   2.2989972967e+01    0.2558265    0.1923684  38.92 0.0002348286    1.106    0.096
       126 -10.6228     17.3461    207.7614   1.3839356505e+02   2.8397994997e+01    0.2992361    0.1281235  41.26  0.001093619    1.747    0.428
       127 -10.7206    157.3611    207.0884   1.0455522786e+02   1.0127589603e+01    0.2211213    0.1520001  21.51 0.0005725667    1.291    0.225
       128 -10.8052      2.0831    205.0791   1.4196617318e+02   3.0290765768e+01     0.278286    0.1274747  44.89  0.001139399    1.631    0.387
       129 -10.0095    110.6988    205.6088   1.1498821559e+02   1.7333843482e+01    0.1989711    0.1047896  40.14 0.0003859806    1.625    0.384
       130 -10.7692     90.3471    204.8848   1.1989805609e+02   2.0407697296e+01    0.2276483    0.1539957  42.40 0.0002300174    1.260    0.207
       131 -11.1295     11.6625    203.5101   1.3960231991e+02   2.9825128168e+01    0.2240914    0.1616525  69.39 0.0001813186    1.199    0.166
       132 -10.6207    195.3315    204.0518   9.6466202196e+01   5.1903749060e+00    0.2124413    0.1432542  14.46  0.001282744    1.344    0.256
       133 -10.6700    184.2358    202.9021   9.8397770759e+01   6.9067210663e+00    0.2946788    0.1602496  -0.49  0.001278077    2.926    0.658
       134 -12.4975     52.3364    202.9070   1.2934618047e+02   2.5771681100e+01    0.4664565    0.4159462 -21.80  0.000528509    1.449    0.310
       135  -9.6548    104.3140    209.3315   1.1700021392e+02   1.7534569134e+01    0.1314659   0.09914295  -6.52 0.0007045228    1.680    0.405
       136 -11.1412    121.3360    200.7895   1.1177679042e+02   1.6679446300e+01     0.438075    0.2580894 -65.30  0.002070356    2.314    0.568
       137 -12.2749     19.1911    201.2974   1.3764742510e+02   2.9629853845e+01    0.2655555    0.2544527 -89.49 0.0004997091    1.271    0.213
       138 -10.7858     14.4232    198.1428   1.3869805393e+02   3.0759241126e+01     0.319976    0.1676635  68.96  0.001691651    1.733    0.423
       139 -12.3548    240.2338    201.0043   8.8307630988e+01  -9.7340942852e-02    0.3482603    0.2530028 -15.01  0.001943358    1.106    0.096
       140  -9.8367    166.5502    202.3510   1.0187665596e+02   9.5566956028e+00    0.2074295    0.1067787  33.06 0.0006659392    1.715    0.417
       141 -11.5626     70.7310    201.5735   1.2450751684e+02   2.3768558605e+01    0.3456732     0.214498  41.98 0.0009299609    1.341    0.254
       142 -10.9290     41.2325    201.4167   1.3207425985e+02   2.7365807304e+01    0.3976548    0.1875009  10.64  0.001555676    3.402    0.706
       143 -12.4852      5.2186    200.0232   1.4105281535e+02   3.1129887759e+01     0.269835    0.1909732  37.72 0.0005233973    1.241    0.194
       144 -11.3113    190.7638    200.7569   9.6787255604e+01   6.3109800826e+00    0.2052077    0.1769761   2.82  0.000245461    1.104    0.094
       145 -11.5318     96.0845    200.1445   1.1789235300e+02   2.0566479758e+01    0.2784624    0.2334092 -82.65  0.000566648    1.405    0.288
       146 -10.1442    155.0824    199.8501   1.0391950029e+02   1.1696923658e+01    0.1865664    0.1579226  35.05  0.001145777    1.193    0.162
       147 -11.6249     89.9774    199.2144   1.1932333210e+02   2.1637439969e+01    0.2805267    0.2427547  38.10 0.0003983845    1.023    0.022
       148 -10.3472     86.6722    198.6997   1.2010532729e+02   2.2214412802e+01    0.2388802    0.1885429 -28.62 0.0009544117    1.612    0.380
       149 -11.0751    209.2633    198.7748   9.3061180208e+01   4.0658939603e+00    0.2385824    0.1596183  -1.77 0.0009009586    1.442    0.307
       150 -10.6129    224.0205    198.2919   9.0454399767e+01   2.2176993200e+00    0.1797322    0.1281412  -0.78 0.0003926379    1.200    0.166
       151 -11.7656    228.1225    195.6848   8.9344203141e+01   2.0476650761e+00    0.3482441    0.2137674 -10.15   0.00113088    1.575    0.365
       152 -10.1696    169.5196    197.8148   1.0052562878e+02   9.8612448410e+00    0.2178667    0.1209879 -37.67 0.0009335318    1.902    0.474
       153 -10.9979    136.9825    196.5802   1.0747030879e+02   1.5071412622e+01     0.316029    0.2455456 -81.56  0.001058506    1.931    0.482
       154 -10.1399    140.1952    194.9685   1.0647847127e+02   1.4869957537e+01    0.3391189    0.2239857  58.61  0.001645608    2.112    0.527
       155 -10.1182    105.4977    195.5214   1.1492510769e+02   2.0129302002e+01    0.3337417    0.1252198  29.41  0.001248812    2.547    0.607
       156 -10.9112    109.3880    197.9160   1.1428216212e+02   1.9055076902e+01    0.2606155     0.209154  42.68 0.0004105549    1.131    0.116
       157 -10.4182    108.8055    194.1863   1.1391230597e+02   1.9902115727e+01    0.2162355    0.2084021  51.26 0.0002532984    1.129    0.114
       158  -9.8349     62.0326    212.3340   1.2769336080e+02   2.2596123344e+01    0.1861912    0.1397162  37.91 0.0005074667    1.110    0.099
       159 -10.4774     24.9623    195.0168   1.3585544174e+02   3.0480164913e+01     0.416424    0.1449691 -83.64  0.001697427    3.086    0.676
       160 -11.3922     62.8382    196.4755   1.2605252503e+02   2.5898799942e+01    0.2309665    0.1996288  62.38 0.0002783131    1.100    0.091
       161 -11.3405    217.3256    194.5163   9.0944089284e+01   3.5923693377e+00    0.2479769    0.1820923  -2.82 0.0006699198    1.170    0.146
       162  -9.8555     82.4040    195.7633   1.2086194606e+02   2.3442153706e+01    0.1748614    0.1266877 -50.66 0.0005121361    1.614    0.381
       163 -10.4945     95.4274    195.0194   1.1741133754e+02   2.1733039427e+01    0.2361714    0.1766294  18.60 0.0003645557    1.385    0.278
       164 -11.0185     57.2734    195.0390   1.2738201511e+02   2.6914115374e+01    0.1847626    0.1575851  52.29 0.0005553376    1.024    0.024
       165 -11.6649    122.7055    192.7354   1.1027217177e+02   1.8043177726e+01    0.4767242    0.2624293  52.46 0.0005199779    2.176    0.540
       166 -10.2355     71.1897    193.9079   1.2359201275e+02   2.5380952235e+01     0.221047    0.1612612  54.31 0.0007309406    1.264    0.209
       167 -10.1080     43.7299    194.3661   1.3090260184e+02   2.8661467341e+01    0.2769092    0.1418726  28.41  0.001331096    1.773    0.436
       168 -10.1336    163.1340    193.1144   1.0109071258e+02   1.1624351930e+01    0.1946662    0.1561083   4.37            0    1.186    0.157
       169  -9.6657    146.7696    193.3723   1.0472617874e+02   1.4132271640e+01    0.1924224    0.1147599  24.84 0.0005664621    1.615    0.381
       170 -11.2619     66.1715    191.4050   1.2466066426e+02   2.6601830668e+01    0.3913842    0.2299111  14.79  0.001315165    2.103    0.524
       171 -11.7013    245.9321    191.0216   8.5783330628e+01   4.7946996130e-01    0.2131455    0.1362908  19.75 0.0004784038    1.509    0.337
       172 -10.3142    188.4951    190.9945   9.5576319502e+01   8.1358672989e+00    0.1856627    0.1165833 -34.24   0.00102909    1.586    0.370
       173  -9.3705     20.7455    194.3025   1.3690587834e+02   3.1042590750e+01    0.1318227   0.07452746  57.66            0    1.506    0.336
       174 -10.6433     16.8427    191.0394   1.3775203586e+02   3.2139359928e+01    0.1977312    0.1550791  42.20            0    1.137    0.121
       175 -10.9348    227.0426    189.2926   8.8432843656e+01   3.0396771469e+00      0.19392    0.1465436 -27.36 0.0003447542    1.267    0.211
       176 -12.4882     91.6187    188.9851   1.1761589843e+02   2.3588571811e+01    0.2830829    0.2488176  53.35 0.0004664922    1.094    0.086
       177 -13.4655     79.7858    182.5043   1.1995183919e+02   2.6756703195e+01    0.5771676    0.4338323 -52.62 0.0006121177    1.507    0.337
       178 -11.6913     79.2022    174.2744   1.1904186396e+02   2.8742733492e+01    0.4358062    0.2832134  38.23  0.001008937    1.360    0.265
       179 -11.0018    205.3564    187.1848   9.1773000598e+01   6.2775805070e+00    0.2109153    0.1734366   4.46 0.0001508692    1.042    0.040
       180 -12.1869     53.2298    192.2083   1.2819895131e+02   2.8044344442e+01     0.443951    0.3165016  -8.58  0.000864216    2.034    0.508
       181 -11.9266    131.7670    186.5964   1.0712677399e+02   1.7812103715e+01    0.2467157    0.2355579   9.53 0.0002903215    1.097    0.088
       182  -9.8661    126.9453    188.4695   1.0858812860e+02   1.8217782639e+01    0.2062387    0.1009257  51.26  0.000809223    2.551    0.608
       183 -10.3065      2.2616    187.8300   1.4138814673e+02   3.4081740049e+01    0.2475432    0.1641761   9.08 0.0009568211    1.856    0.461
       184  -9.9179    221.0958    186.1237   8.8863314873e+01   4.2581798437e+00    0.1808319    0.1328683  -2.70 0.0004209314    1.198    0.165
       185 -11.3227    104.9940    184.2291   1.1345871378e+02   2.2581155197e+01    0.4332319    0.3313643 -20.78  0.002249998    1.656    0.396
       186 -11.5281     47.3979    181.8849   1.2885889732e+02   3.1126302643e+01    0.5665958    0.3349437   5.06  0.002260844    2.480    0.597
       187 -10.9878     30.7939    184.6324   1.3365962753e+02   3.2288809482e+01    0.5941868    0.1405746  28.97  0.002128591    3.242    0.692
       188 -11.3146     29.6608    180.1905   1.3366357602e+02   3.3450420960e+01    0.4274377    0.3102456  52.31  0.002300236    1.173    0.147
       189 -11.9045     32.0296    176.4102   1.3272451043e+02   3.4114657150e+01    0.2750732    0.2606959  28.78 0.0003447908    1.205    0.170
       190  -9.8178     10.4331    185.5208   1.3917448568e+02   3.3958133697e+01    0.1905604    0.1199402   5.23  0.000866338    2.079    0.519
       191 -11.1622     56.0570    182.1142   1.2646753555e+02   3.0028877010e+01    0.4476941    0.2611244  55.19  0.001695902    1.635    0.388
       192 -11.1479     60.7530    179.7554   1.2490735697e+02   2.9989168499e+01     0.439091    0.2695827  75.37  0.001023659    1.878    0.467
       193 -10.9652     15.5118    183.5315   1.3773025953e+02   3.3987116969e+01    0.2429007    0.2140073  52.92 0.0008143354    1.104    0.094
       194  -9.8356    226.4876    183.5167   8.7519921344e+01   3.9008473926e+00    0.1175639   0.09626669  -8.65 0.0008095686    1.061    0.058
       195 -10.7524    174.1521    183.2167   9.7077363522e+01   1.1594829277e+01      0.39102    0.1720101  39.09  0.001730872    2.168    0.539
       196 -11.0491     88.0941    182.2329   1.1765820528e+02   2.5605054187e+01    0.2532457    0.2044234 -85.98 0.0007414929    1.406    0.289
       197 -10.2365      4.4703    182.8747   1.4063867502e+02   3.5047176763e+01    0.2935115    0.1603027  16.47  0.001524988    2.041    0.510
       198 -11.4505    229.6544    180.6483   8.6505904419e+01   3.8756854764e+00    0.2455575    0.2190043 -61.40  0.001689865    1.855    0.461
       199  -9.7312    123.0159    182.4891   1.0860424837e+02   2.0059783752e+01    0.2264866    0.1273433  33.71 0.0008335171    1.593    0.372
       200 -10.7170    131.3933    179.5019   1.0604871330e+02   1.9286023803e+01    0.2608776    0.2256638  70.19 0.0005526193    1.406    0.289
       201  -9.5843      4.4259    179.4637   1.4052086487e+02   3.5843182434e+01    0.1251597    0.1047317  64.55 3.444836e-05    1.039    0.038
       202 -11.7126    106.5041    176.2891   1.1185883390e+02   2.4064402971e+01    0.4975006    0.3192835  19.10  0.001647463    1.767    0.434
       203 -10.8799    101.0421    175.9954   1.1327005725e+02   2.5006101735e+01    0.2092935    0.1854816  40.50  0.001175532    1.015    0.015
       204 -11.2031     91.8370    177.3482   1.1596323180e+02   2.6141650267e+01    0.2296228    0.2282976 -35.09 0.0002303501    1.131    0.116
       205 -10.6832     74.1106    177.2411   1.2085991218e+02   2.8778016292e+01    0.2284449    0.2264183  -0.80 0.0004599446    1.158    0.137
       206 -11.0530     46.0645    177.1312   1.2879793968e+02   3.2412385866e+01    0.2988456     0.224958  15.03  0.000938086    1.505    0.336
       207  -9.7416     19.4909    170.5007   1.3589316850e+02   3.6741891994e+01    0.3530443    0.1494248 -63.34  0.001556579    2.403    0.584
       208 -12.5797     22.1510    175.5217   1.3545224480e+02   3.5287715799e+01    0.2841479    0.2275184  56.34 0.0003986667    1.057    0.054
       209 -10.9570     14.9633    175.8570   1.3748113871e+02   3.5844961439e+01    0.3364354    0.2175423  -5.78  0.001726229    2.212    0.548
       210  -9.7019    136.4835    176.4666   1.0429557647e+02   1.9041609127e+01    0.1424367    0.1278189  22.30 0.0001328495    1.015    0.015
       211  -9.4869     69.0019    176.0138   1.2214919201e+02   2.9776227070e+01     0.170436    0.1477051  46.46 0.0009632687    1.024    0.023
       212  -9.7612    171.3226    175.3587   9.6247026304e+01   1.3408634543e+01    0.1433937   0.09794915  -3.42 0.0003923673    1.771    0.435
       213 -10.5769    159.8393    173.8231   9.8431489403e+01   1.5597048560e+01    0.2339486    0.1809317  29.28 0.0003030172    1.196    0.164
       214  -9.8918    156.4485    173.6100   9.9144975250e+01   1.6209669947e+01    0.2323214    0.1556042  15.63 -3.23782e-05    1.682    0.405
       215  -9.6290      2.1049    173.6797   1.4092858559e+02   3.7376131876e+01    0.1577726    0.1136904   7.35 0.0004877831    1.696    0.410
       216  -9.6344    199.6026    171.7538   9.0027623444e+01   9.4931377197e+00    0.1559607     0.114652 -39.07 0.0002726926    1.406    0.289
       217  -9.9605     97.9945    171.9653   1.1347733576e+02   2.6398506841e+01    0.2270965    0.1634915  64.33 0.0005691934    1.592    0.372
       218 -10.1951    110.0399    170.9729   1.1006503785e+02   2.4654124629e+01    0.2274709    0.1638366  62.02 0.0004133448    1.624    0.384
       219 -10.2869     63.3396    170.9540   1.2316404724e+02   3.1751217617e+01    0.2526067    0.1661602  41.80 0.0005016609    1.345    0.256
       220  -9.1108     41.2934    171.3466   1.2963890105e+02   3.4354879185e+01    0.1342528    0.1020547 -38.00 0.0005628949    1.668    0.400
       221 -10.8384     59.2737    165.9943   1.2376495720e+02   3.3496676744e+01    0.2652743    0.2098382  48.81 0.0006432295    1.136    0.120
       222 -10.5787      2.2952    168.8092   1.4068799447e+02   3.8523570982e+01    0.2341626    0.1938644 -20.80 0.0004544687    1.584    0.369
       223  -9.8274    113.9891    168.4871   1.0859959013e+02   2.4537798403e+01    0.2245869    0.1337808  35.95 0.0003846101    1.527    0.345
       224 -11.6242     46.7548    166.1851   1.2752379227e+02   3.5000718912e+01    0.3732033    0.2939875  44.32  0.000985887    1.140    0.123
       225  -9.6161    121.7831    167.3696   1.0636721184e+02   2.3445458287e+01    0.2065836    0.1309062  26.52 0.0004210139    1.610    0.379
       226 -10.6242     73.5537    165.4778   1.1946972534e+02   3.1659310483e+01    0.2213769    0.1816039 -58.19 4.604208e-05    1.323    0.244
       227 -10.1337     75.5347    162.4820   1.1846275181e+02   3.2098031190e+01    0.2438136    0.1263562 -51.92 0.0007330855    2.100    0.524
       228 -10.4886     82.0228    165.0029   1.1692756280e+02   3.0518544601e+01    0.2638327     0.163484  60.84  0.001163399    1.840    0.457
       229 -12.6029     23.9119    163.8891   1.3415402651e+02   3.7967081577e+01    0.3094444    0.2340254  37.06  0.000516337    1.243    0.195
       230  -9.9358     54.4192    164.4376   1.2503432261e+02   3.4502729563e+01     0.142608    0.1257021  58.23 5.752661e-05    1.017    0.017
       231 -11.4287    141.0846    161.1657   1.0038302858e+02   2.1332848918e+01    0.2807247     0.219958  35.80 0.0003678761    1.197    0.165
       232 -10.9415     45.1542    159.4293   1.2729669271e+02   3.6875760497e+01    0.4050004    0.2845771 -10.37  0.001245845    2.003    0.501
       233 -11.3576     35.6481    158.6752   1.3015527425e+02   3.8117095310e+01    0.7402177    0.1841289  44.97  0.002431982    3.426    0.708
       234 -11.1581    247.9978    158.0770   7.9688330316e+01   4.5055650155e+00    0.2058002     0.138054 -26.26 0.0005833327    1.207    0.172
       235 -10.6835     97.9734    161.2087   1.1174910052e+02   2.8879550239e+01    0.4375629     0.271289 -23.36  0.001467631    2.655    0.623
       236 -10.7825    107.8169    158.4621   1.0851537438e+02   2.7845229584e+01     0.402534    0.2347679  34.23   0.00131748    1.611    0.379
       237  -9.8348     66.4628    158.5106   1.2063186522e+02   3.4378426284e+01    0.2831252    0.1041744  40.92   0.00102881    2.377    0.579
       238  -9.8953     18.8679    160.6761   1.3543906788e+02   3.9216937786e+01    0.1877282    0.1469485  44.38 0.0007053018    1.169    0.145
       239 -10.9830     12.2365    156.7313   1.3719236364e+02   4.0746423096e+01    0.3035817    0.1789966 -61.36  0.001550644    1.767    0.434
       240  -9.3906    158.5272    157.5612   9.5609835059e+01   1.8893815619e+01    0.1415611     0.130642  12.01 0.0001706891    1.008    0.007
       241 -12.1604     95.9775    154.2118   1.1112059290e+02   3.0862756013e+01    0.4030512    0.2662296 -58.86 0.0003605047    1.616    0.381
       242 -10.7585     52.1701    155.3276   1.2464247373e+02   3.7069815060e+01    0.2754902    0.2250135 -61.81  0.000752244    1.294    0.227
       243  -9.7153    164.4785    155.4313   9.3868378814e+01   1.8222490271e+01    0.1394349    0.1302557  11.42 3.993078e-05    1.027    0.026
       244 -10.5762     71.0517    154.5141   1.1865200590e+02   3.4719524364e+01    0.2212644    0.1982801 -58.24  0.000319758    1.202    0.168
       245  -9.8572    113.3054    153.9928   1.0618011450e+02   2.7897956039e+01    0.2039993    0.1970371 -84.59 0.0007415122    1.108    0.097
       246  -9.0666      1.5523    152.4427   1.4021223422e+02   4.2578672119e+01    0.1281056    0.1116837  74.95 0.0001260658    1.045    0.043
       247  -9.5110    137.4851    151.4572   9.9349478837e+01   2.4007032428e+01     0.148128    0.1382179  18.78 8.966906e-05    1.035    0.034
       248  -9.5563    109.6594    151.2359   1.0666818668e+02   2.9181730007e+01      0.15252    0.1091252  58.23 0.0002653257    1.549    0.355
       249  -9.4016      7.7432    149.6358   1.3816250286e+02   4.2864237695e+01    0.1315618   0.08961337 -53.53 0.0005313902    1.630    0.387
       250 -10.0870     36.1202    145.7628   1.2870019696e+02   4.1376610031e+01     0.336919    0.1556057 -78.77  0.001059381    2.215    0.549
       251 -11.4166      4.7774    143.3150   1.3874748666e+02   4.4668367294e+01    0.2399939    0.1837963 -78.03 0.0002025554    1.237    0.192
       252 -10.9568     17.6111    142.3180   1.3449544233e+02   4.3990935706e+01    0.5713353    0.2619926  25.38  0.002499224    2.130    0.531
       253 -10.8727    132.2538    140.3297   9.8350006857e+01   2.7387004145e+01    0.2510324    0.2405993  79.60 0.0003175281    1.123    0.109
       254  -9.5131     72.5464    140.4515   1.1593774988e+02   3.8046095517e+01    0.1475415    0.1436954  47.34 0.0001056662    1.067    0.062
       255 -10.2529     34.6169    138.5851   1.2840935873e+02   4.3407151505e+01    0.3598311     0.177072  43.44  0.001557061    1.893    0.472
       256 -10.5600     49.8306    136.0977   1.2286300026e+02   4.2332299979e+01    0.4427357    0.2314191 -43.75  0.001787055    2.315    0.568
       257 -10.7438     94.6568    136.6264   1.0821422019e+02   3.5339844428e+01    0.3192333    0.2251971 -32.30  0.001417289    1.766    0.434
       258  -9.9116     54.9270    136.1441   1.2112131044e+02   4.1668275836e+01    0.1919873    0.1720031 -32.12  0.001032919    1.278    0.217
       259 -10.4211     24.0886    136.1363   1.3176661813e+02   4.5056045973e+01    0.2495954    0.1745335  34.97  0.001147192    1.392    0.282
       260 -10.8267     40.6771    133.5866   1.2569895501e+02   4.4074062383e+01    0.3520629    0.2100251  78.76  0.001170091    1.903    0.475
       261 -11.1098     37.5000    130.4562   1.2641509637e+02   4.5249642475e+01    0.4315983    0.1797337  37.40  0.001718911    2.189    0.543
       262 -10.7425      9.6712    131.4079   1.3635443345e+02   4.7413235097e+01    0.3038401    0.1883686 -49.80 0.0007263859    1.746    0.427
       263 -10.3143     47.5207    131.5145   1.2300319263e+02   4.3823164470e+01    0.2885287    0.1794786  -9.56  0.001006735    2.488    0.598
       264 -11.8642     27.5806    131.5713   1.3007775278e+02   4.5943222873e+01    0.5142043    0.2597795  52.69   0.00221934    1.991    0.498
       265 -10.5015     91.2444    127.1900   1.0733047341e+02   3.8271342441e+01    0.3404434    0.2306296  16.90  0.001435266    1.885    0.470
       266  -9.7796     30.1183    125.8571   1.2850736510e+02   4.7219649504e+01    0.1829239    0.1608469 -38.97 0.0003134339    1.267    0.211
       267  -9.8382      3.4632    124.8101   1.3808118678e+02   4.9516191518e+01    0.1859244    0.1095669 -68.02 0.0004327098    1.569    0.363
       268  -9.6935    106.3304    124.2853   1.0199802084e+02   3.6135234656e+01    0.1555139    0.1246932  -2.85 0.0001963075    1.614    0.380
       269  -9.3510     81.9795    124.4738   1.0978842819e+02   4.0581246189e+01    0.2382092    0.1138674  53.74 0.0008100785    2.607    0.616
       270  -9.3431    123.4648    121.4284   9.6390165711e+01   3.3332211767e+01    0.1552136    0.1475473  61.40 8.303713e-05    1.052    0.049
       271 -10.0779     39.3227    121.9833   1.2458414233e+02   4.7304474584e+01    0.2129904    0.1717663 -73.94  0.001123027    1.196    0.164
       272 -11.0221     67.6725    119.1457   1.1365081324e+02   4.4286876310e+01    0.4634953    0.2079205 -45.11  0.001652084    2.580    0.612
       273 -11.3648     20.0754    118.6704   1.3142665837e+02   5.0011354318e+01    0.6091661    0.3265586  66.06  0.002683751    2.027    0.507
       274 -10.1568     92.3722    118.0374   1.0492824618e+02   4.0320671692e+01    0.4005188    0.2454127 -79.14  0.001495265    2.476    0.596
       275 -10.0041     10.9041    117.5198   1.3479112893e+02   5.0976957500e+01    0.2141249    0.1693893 -84.20  0.001215718    1.149    0.130
       276  -9.5283    100.7397    116.6426   1.0192018799e+02   3.9053092593e+01    0.1568644    0.1231409 -19.97 0.0004967157    1.622    0.384
       277  -9.4995     49.2123    115.9204   1.1987341240e+02   4.7745032731e+01    0.1931837    0.1178087 -69.96 0.0003881165    1.637    0.389
       278  -9.8785    138.9805    115.5659   9.0877701634e+01   3.1315767083e+01    0.2290715    0.1480989  45.91  0.000459984    1.526    0.345
       279 -11.3017     60.0442    113.3202   1.1527748504e+02   4.6952502354e+01    0.3607663    0.2575865  70.78  0.000542205    1.627    0.386
       280 -11.4122      5.3138    113.3253   1.3656963005e+02   5.2417349848e+01    0.4755104    0.2231273  68.64 0.0006593755    2.251    0.556
       281 -11.3086      2.9757    107.8042   1.3704484233e+02   5.3989445716e+01    0.2762166     0.206901  81.66 0.0003849498    1.234    0.189
       282 -10.2253     37.8451    111.8295   1.2359759133e+02   5.0174859372e+01    0.2120796    0.1951595  79.94            0    1.046    0.044
       283 -10.7707     37.5904    108.2860   1.2311928413e+02   5.1147376263e+01    0.2853469    0.2309052 -52.59 0.0006172684    1.238    0.192
       284  -9.6661     73.0082    111.4962   1.1009561956e+02   4.5399228553e+01    0.2374887    0.1489513  35.70 0.0005771128    1.560    0.359
       285  -9.7254     47.3176    111.8480   1.1987620940e+02   4.9064040023e+01    0.2802382    0.0984045  28.88 0.0009626341    2.752    0.637
       286 -11.0329     20.5313    109.5916   1.3019977349e+02   5.2392851480e+01    0.3509912    0.2182155 -40.88  0.001457301    1.772    0.436
       287  -9.7744     85.4892    109.5306   1.0521771571e+02   4.3699826377e+01    0.1558549    0.1504878  59.37 0.0008097955    1.002    0.002
       288  -9.9861     65.4538    108.7862   1.1228412965e+02   4.7315200174e+01    0.2771167    0.1529181 -67.84  0.001102162    1.985    0.496
       289 -10.9383    112.8079    104.9909   9.5274023233e+01   3.9287693702e+01    0.2448141    0.2189222  44.55 0.0002825472    1.093    0.085
       290  -9.5541     62.6170    105.1887   1.1256758702e+02   4.8683911673e+01    0.2041332    0.1372508 -50.78 0.0001789595    1.501    0.334
       291 -11.8300    149.8228    111.2521   8.7185829732e+01   2.9845352456e+01    0.2530493    0.2461655 -53.40 0.0002372544    1.030    0.029
       292 -10.3847     18.9210    103.2766   1.3006754742e+02   5.4197911834e+01    0.3038589    0.1826254  44.36 0.0007278517    1.694    0.410
       293  -9.5787    123.5484    103.4919   9.1801366520e+01   3.7276652295e+01     0.156994    0.1501191  78.59 2.959332e-05    1.052    0.049
       294  -9.9808     76.3090    103.3464   1.0696655694e+02   4.6897049791e+01     0.160301    0.1214756 -20.94  0.000704447    1.704    0.413
       295 -11.3348     50.8088    102.1366   1.1659091567e+02   5.1175363580e+01    0.4587345    0.3190866  11.70  0.001565082    1.701    0.412
       296 -10.7483     58.6402    100.2308   1.1300831752e+02   5.0565331140e+01    0.3168851    0.2138537  34.18 0.0005635494    1.470    0.320
       297 -10.4504     54.4387     97.2243   1.1402614999e+02   5.1953700152e+01    0.3137443    0.2116045  84.24 0.0007743911    1.930    0.482
       298 -11.0646     43.4286    102.4733   1.1968774653e+02   5.2023886391e+01    0.3442771    0.2305389 -51.27 0.0001395091    1.481    0.325
       299  -9.5028     29.4218    103.4361   1.2569250925e+02   5.3267763796e+01    0.1407287    0.1313516  89.30 0.0001178291    1.024    0.023
       300 -10.7935    134.9723    101.0797   8.8128181770e+01   3.5227851979e+01    0.3237818    0.2243536 -34.77  0.000711002    1.568    0.362
       301 -10.1980     70.4448    101.7560   1.0876438277e+02   4.8305544352e+01    0.2159176    0.1409659 -46.17 0.0005243163    1.598    0.374
       302  -9.9228     84.9897    100.4897   1.0310634249e+02   4.6014380329e+01     0.316896    0.2106396  21.49  0.001315515    1.870    0.465
       303 -10.3553     86.5423     97.4764   1.0175323261e+02   4.6445725025e+01    0.2947262    0.1933571 -24.75 3.789404e-05    2.233    0.552
       304 -10.2238      9.2025     99.8876   1.3376369640e+02   5.5740230776e+01    0.3095119    0.1526951  37.59  0.001410214    2.042    0.510
       305 -12.6056    106.2954     97.8377   9.5300925609e+01   4.2306500848e+01    0.3310159    0.2850718  46.47 0.0004777647    1.129    0.115
       306 -10.0598     39.6832     99.7201   1.2072626883e+02   5.3189504060e+01    0.1475114    0.1072391 -31.19 0.0002367816    1.576    0.365
       307  -9.8636     16.0129     98.6677   1.3071085613e+02   5.5631387422e+01     0.182713    0.1752893  85.35 0.0004975488    1.050    0.047
       308  -9.5262     79.4693     96.4876   1.0403737076e+02   4.8025848012e+01     0.153263    0.1517109  23.47 0.0001061373    1.042    0.041
       309 -10.8087     62.8388     96.0293   1.1032359801e+02   5.0998147189e+01    0.2616619    0.2152131  44.05 0.0003914089    1.209    0.173
       310 -10.0138     47.9118     92.8739   1.1578239723e+02   5.3974313690e+01    0.2357785     0.204059 -30.01  0.001246207    1.238    0.192
       311 -10.5531      1.3855     92.7776   1.3643019373e+02   5.7995758530e+01    0.2354214    0.1166054 -85.57 0.0005557945    1.879    0.468
       312 -10.4754     54.0422     92.5066   1.1308244036e+02   5.3225238242e+01    0.2203171     0.146344  31.31 0.0006118473    1.514    0.339
       313  -9.8097     17.8375     91.8158   1.2896684665e+02   5.7313997511e+01    0.1913727    0.1490914  50.56 0.0005828734    1.341    0.254
       314 -11.5392      6.7535     90.1624   1.3377044617e+02   5.8429609140e+01    0.4937675    0.2566321  49.46  0.001679416    2.072    0.517
       315 -10.0566    105.7801     91.2631   9.3585424924e+01   4.3893296779e+01    0.2759643    0.1860358  48.46 0.0008972962    1.449    0.310
       316 -11.0022    115.7995     90.0665   9.0221215545e+01   4.1911990317e+01    0.3113756    0.2210304  43.18 0.0007245771    1.397    0.284
       317 -10.4792     88.4986     89.1936   9.8728250030e+01   4.8019594421e+01    0.3048395    0.2260677  42.04  0.001410687    1.316    0.240
       318 -10.1959     66.8743     88.8684   1.0683469098e+02   5.2133088678e+01    0.2251922    0.2193387  56.78            0    1.020    0.019
       319 -10.1497     63.2967     86.9253   1.0776719373e+02   5.3209572017e+01    0.2606757    0.2025126  45.46  0.000410575    1.297    0.229
       320 -10.9358     27.5767     87.7528   1.2382622659e+02   5.7586431227e+01    0.6110198    0.2385261 -39.94  0.002134672    3.151    0.683
       321 -10.7028     21.0724     88.1051   1.2690699252e+02   5.8047159717e+01      0.22291    0.1934595  27.50  0.001281696    1.219    0.180
       322 -11.1166     24.4771     86.5311   1.2504711898e+02   5.8180874077e+01    0.3010097    0.2023064 -54.89  0.001519052    1.387    0.279
       323 -10.8935    120.2905     85.6189   8.7628704020e+01   4.1810191925e+01    0.3688045     0.259059  88.01   0.00138088    2.074    0.518
       324 -10.3209      9.4350     85.4921   1.3196473554e+02   5.9508310278e+01    0.2317509    0.1770958  34.60 0.0005820451    1.393    0.282
       325  -9.4861    155.0130     85.0828   7.9085360261e+01   3.3691002758e+01    0.1822204    0.1663927 -48.65 0.0005845198    1.080    0.074
       326  -9.8155    128.7888     85.6422   8.5354404184e+01   3.9808703968e+01    0.2327519     0.143709  60.46 0.0009542792    1.749    0.428
       327 -11.4095     49.5209     83.8342   1.1288803903e+02   5.6071256115e+01    0.3989076    0.2700062 -27.73  0.001222091    1.803    0.445
       328  -9.7802     53.5037     82.4844   1.1075673082e+02   5.5840194390e+01    0.1467186    0.1437858 -33.36 -8.110813e-05    1.020    0.020
       329 -10.0917     98.2588     84.0880   9.3853049438e+01   4.7126859385e+01    0.2247889     0.209823  -3.53 0.0007934847    1.191    0.160
       330 -10.7820     20.1212     82.1031   1.2633405629e+02   5.9689541352e+01    0.2198818    0.2045049 -63.60 0.0003100627    1.001    0.001
       331  -9.8916     14.2792     83.4738   1.2937766024e+02   5.9745040360e+01    0.1834423    0.1199011  35.75 0.0009299776    1.606    0.377
       332  -9.7755    132.7340     82.5360   8.3431304024e+01   3.9483329484e+01     0.205759    0.1482059  65.77 0.0005331823    1.488    0.328
       333 -11.6339     42.5494     78.1613   1.1463681830e+02   5.8426819084e+01    0.8453042    0.2372223 -64.54  0.002477085    4.021    0.751
       334 -11.3039     77.1782     80.5398   1.0031893991e+02   5.2269863126e+01    0.2895041    0.2694028  -0.93  0.000678038    1.159    0.137
       335  -9.8515     67.8860     78.8424   1.0352463135e+02   5.4387342626e+01    0.2263203    0.2025762 -17.84 0.0004786878    1.215    0.177
       336  -9.6000    110.6735     77.6871   8.7944608049e+01   4.5686558586e+01    0.1581528    0.1257341  11.42 0.0004147743    1.665    0.399
       337 -10.8288     53.3603     76.0948   1.0902821043e+02   5.7438390688e+01    0.4044328    0.2979389  60.04  0.001934741    1.606    0.377
       338  -9.9317     49.5167     77.5211   1.1119991054e+02   5.7650775002e+01    0.2182334    0.1324853  40.79 0.0006372394    1.675    0.403
       339 -10.3771      3.5454     75.1981   1.3349978573e+02   6.2458994691e+01    0.3481712    0.1985514  74.78  0.001302524    1.961    0.490
       340 -11.8582     58.5668     69.6984   1.0468955205e+02   5.8141853903e+01     0.829284    0.5059264 -83.00  0.003044243    3.050    0.672
       341 -12.1347     52.4820     68.0525   1.0698189002e+02   5.9502264861e+01    0.5072891    0.3984332 -36.23  0.001706777    1.312    0.238
       342 -10.1451     28.8800     74.2542   1.2039013636e+02   6.0948737935e+01    0.2906237    0.1434898 -43.00  0.001115254    2.068    0.516
       343 -10.6587    141.2798     73.7356   7.8769128398e+01   3.9061134562e+01    0.3088985    0.2521096   0.59 0.0001651193    1.625    0.385
       344 -10.5946     80.5028     73.9844   9.6945085086e+01   5.3106986027e+01    0.2737974    0.2174423  42.87 0.0003141544    1.227    0.185
       345  -9.4181     69.2494     73.6528   1.0132853411e+02   5.5355305189e+01    0.1489617    0.1192929  87.37  0.000650859    1.583    0.368
       346 -10.1316     36.6960     71.7182   1.1580713051e+02   6.0750698918e+01    0.2635668    0.1753954   6.80  0.001242073    1.753    0.430
       347 -10.5131    117.9585     69.7868   8.3307486280e+01   4.5512591920e+01    0.2376398     0.220746 -42.76 0.0002996922    1.126    0.112
       348  -9.6248     63.7051     69.6378   1.0238083270e+02   5.7276943622e+01    0.1561767    0.1156725 -17.92 0.0007031141    1.708    0.415
       349 -10.8158     45.1683     68.9528   1.1079909929e+02   6.0353921126e+01    0.2713885    0.1805986 -40.11  0.001283881    1.546    0.353
       350 -10.1486     88.5853     68.2521   9.2009466119e+01   5.2646178368e+01    0.2193286    0.1471898 -32.25 0.0009471421    1.728    0.421
       351 -11.1660     16.4309     65.9789   1.2513432739e+02   6.4088279067e+01     0.458492    0.3646797  65.84  0.001241141    1.429    0.300
       352 -10.8698     22.2093     67.7617   1.2238155960e+02   6.3193901467e+01    0.2885219    0.2300261  62.55 0.0004113911    1.432    0.302
       353 -10.3191     21.4967     62.9352   1.2163290809e+02   6.4457325824e+01    0.2636103    0.1333372 -72.48  0.001143645    2.072    0.517
       354 -11.0953      9.6775     62.7721   1.2826113791e+02   6.5317081358e+01    0.3000146    0.2483844  20.49 0.0008846599    1.304    0.233
       355 -11.2258      2.0048     60.9720   1.3231550818e+02   6.6121239961e+01    0.3191544    0.1731721 -54.94 0.0008729877    1.577    0.366
       356 -11.9727      6.5635     58.4616   1.2924334869e+02   6.6551050829e+01    0.4261895    0.3298979 -10.90  0.002507696    1.350    0.259
       357 -10.3494      7.0489     68.4593   1.3070307809e+02   6.4020064761e+01    0.1852474    0.1308425   7.10 0.0004540523    1.541    0.351
       358  -9.5305    105.7092     67.3242   8.6022590184e+01   4.8929736887e+01    0.1566839    0.1217776 -82.95 0.0003565389    1.612    0.380
       359  -9.7524     75.2329     66.5661   9.6487152905e+01   5.5795988917e+01    0.2033219    0.1438809  30.25 0.0003672697    1.501    0.334
       360  -9.7431    101.3435     64.0083   8.6227015006e+01   5.0605393169e+01    0.2078543    0.2006378 -34.94 0.0003025102    1.097    0.088
       361 -10.0510     73.9942     61.0060   9.4988086867e+01   5.7231069898e+01    0.2303415     0.199642   7.28 0.0005734441    1.284    0.221
       362 -10.7225     70.0610     60.6323   9.6484380854e+01   5.8090201062e+01    0.4116389    0.2607723  35.97  0.001259335    1.578    0.366
       363 -10.5617     47.5437     58.5824   1.0624246434e+02   6.2448423343e+01    0.2529815     0.241334  -7.29 0.0005912464    1.011    0.011
       364 -11.1936     30.3998     53.3191   1.1380911808e+02   6.5909860372e+01    0.4227058    0.3222862  -3.05  0.002285012    1.400    0.286
       365 -10.8733     22.2517     57.2337   1.1973344980e+02   6.5789268854e+01    0.3946332    0.2116468  32.40 0.0009386474    1.919    0.479
       366 -10.5829     31.2659     58.9582   1.1507979287e+02   6.4481311816e+01    0.2009665    0.1847216  70.62 0.0003640643    1.236    0.191
       367 -10.6374     27.7275     57.0256   1.1650478538e+02   6.5319027415e+01     0.223648    0.1826147  30.83 0.0003008942    1.279    0.218
       368  -9.7418    110.2471     56.9972   8.1071837072e+01   4.9760010647e+01    0.2257038    0.1649615  78.67 0.0007895127    1.615    0.381
       369 -11.1880    225.8243     55.7520   6.1199493847e+01   2.2513489803e+01    0.2133553    0.1667335 -52.33 0.0002719075    1.073    0.068
       370  -9.6224    137.4247     55.7562   7.3976480365e+01   4.3110867560e+01    0.2014774    0.1498651 -21.69 0.0009471705    1.617    0.382
       371 -10.3855     39.2740     60.6224   1.1123452148e+02   6.3128706911e+01    0.2467096    0.2294226 -52.90 0.0006830428    1.083    0.077
       372 -10.2614     52.6011     55.7862   1.0268807719e+02   6.2280043077e+01    0.2017083    0.1397644 -63.74 0.0009471938    1.702    0.413
       373 -11.7935     42.0363     52.0491   1.0679660991e+02   6.4724127883e+01    0.4153728    0.2358706 -42.10 0.0009583249    1.767    0.434
       374 -10.1936     76.5482     52.4540   9.0675509488e+01   5.8429870385e+01    0.1485109    0.1412255  31.25 3.618206e-05    1.018    0.018
       375  -9.9049     60.6908     51.9822   9.7325161232e+01   6.1681739928e+01    0.1972325    0.1866797 -30.51 0.0006404275    1.075    0.069
       376 -10.9839     66.0635     50.1885   9.4160331290e+01   6.1022063685e+01     0.355696    0.2166308 -49.61  0.001597439    1.764    0.433
       377 -10.6938     20.8518     40.7454   1.1547777968e+02   6.9771630338e+01     0.516131     0.201907  20.80  0.001712554    2.631    0.620
       378 -10.7759      4.5032     35.9999   1.2547411600e+02   7.2024611389e+01    0.6337942    0.2295288 -72.05  0.002580567    2.842    0.648
       379 -11.7781     12.5855     39.8977   1.2083956981e+02   7.0645908933e+01    0.4819534     0.372054   4.37  0.001669272    1.309    0.236
       380 -12.3248     12.2845     46.2271   1.2289255715e+02   6.9192631049e+01    0.5025153    0.3827955 -84.22 0.0004040599    1.485    0.327
       381 -10.2083     17.0199     46.7692   1.1996493110e+02   6.8720272547e+01    0.2437967     0.188102  -6.61 0.0006294132    1.316    0.240
       382  -9.5519    174.2121     50.3711   6.5907187004e+01   3.4698873690e+01    0.1892578    0.1277985  82.87 0.0002497247    1.556    0.357
       383 -10.1614    128.8945     49.9433   7.3892766861e+01   4.6224858002e+01    0.2196741    0.1961213  32.36 0.0002742575    1.268    0.212
       384 -11.1613     94.9072     49.3883   8.2855908400e+01   5.4833301055e+01    0.4507231    0.3082876  39.55 0.0008637579    1.505    0.335
       385 -11.1813     73.9415     49.2296   9.0420319870e+01   5.9602058438e+01    0.3522571    0.2168808 -32.20  0.001548909    1.849    0.459
       386  -9.7336    152.8741     48.3548   6.8660909669e+01   4.0306783757e+01    0.2109459    0.1216291  53.42 0.0005039935    1.743    0.426
       387  -9.6851     31.5947     48.1526   1.1133980288e+02   6.6959497114e+01    0.1810084    0.1184754 -43.95 0.0009073323    1.454    0.312
       388  -9.5234     22.5098     48.0339   1.1686430991e+02   6.7950281631e+01    0.2130303    0.1242076 -58.74  0.001041351    1.620    0.383
       389 -10.4869    122.9033     46.1122   7.3917983720e+01   4.8365911541e+01     0.247882    0.2173044 -41.03 0.0006349321    1.205    0.170
       390  -9.8385    114.4510     47.0409   7.6318855415e+01   5.0386410166e+01     0.212529    0.1506681 -35.37 0.0003663448    1.506    0.336
       391  -9.8003    164.8085     46.0004   6.6027334703e+01   3.7633491432e+01    0.1918923    0.1727717 -57.54 0.0003296919    1.077    0.072
       392 -10.8808     61.7443     44.9543   9.3923693164e+01   6.2889200325e+01    0.2935185    0.2342525 -21.44 0.0004006654    1.375    0.273
       393 -11.4257     69.7189     42.1679   8.9174041310e+01   6.1803045906e+01    0.4127788    0.2475841 -27.07 0.0009759283    2.053    0.513
       394  -9.9284     42.7714     44.2439   1.0333523357e+02   6.6307497133e+01    0.1958384    0.1563477 -14.60 0.0006951037    1.328    0.247
       395 -10.0813     33.7659     44.1579   1.0854197585e+02   6.7580427610e+01    0.2359154     0.174123  42.19  0.001256673    1.484    0.326
       396 -10.7289    141.4718     42.3710   6.8781023828e+01   4.4104580734e+01    0.2444425    0.2219311  83.50 0.0001882834    1.018    0.018
       397 -10.1020     80.9567     43.0681   8.5107021762e+01   5.9186587212e+01    0.2171539    0.2033468  38.18 0.0003163351    1.021    0.021
       398 -11.8022    103.6509     39.0605   7.6136604880e+01   5.4368981316e+01    0.2787979    0.2478463 -89.42 0.0003870616    1.171    0.146
       399 -10.3807     91.7203     39.5508   7.9895908328e+01   5.7245591769e+01    0.3699649    0.2009459 -45.33  0.001554366    2.027    0.507
       400  -9.6054     47.2845     40.6925   9.9321149810e+01   6.6321600633e+01      0.13176    0.1123451  76.91 0.0002739638    1.566    0.361
       401 -11.8529     41.4748     38.1992   1.0146866655e+02   6.7747717333e+01    0.3667879    0.2523368  -9.37 0.0004350338    1.820    0.451
       402 -10.1169    117.0666     38.6591   7.2557354072e+01   5.0991793580e+01     0.313206    0.1382553  69.04   0.00110508    2.573    0.611
       403 -10.2165     86.0437     37.4766   8.0889005140e+01   5.8935946737e+01    0.2118634    0.1990042 -30.47 0.0003954645    1.142    0.124
       404 -12.2220    193.9410     35.3103   5.9421218949e+01   3.2014437819e+01    0.2449598     0.214053 -66.23 0.0003157597    1.032    0.031
       405 -10.1461    131.0687     36.3119   6.8694644482e+01   4.7665887438e+01    0.3571731    0.1531783  59.37  0.000840911    2.098    0.523
       406  -9.9453    209.2574     34.9745   5.7866402332e+01   2.8611747913e+01    0.1659863   0.09800308 -36.21 0.0007792873    1.526    0.344
       407  -9.4987    175.5004     35.4945   6.1538617081e+01   3.6388837296e+01    0.1412062    0.1206168 -70.82 -0.0001279972    1.039    0.037
       408 -11.0215    119.2285     34.1315   7.0364326644e+01   5.1066587915e+01    0.3653841    0.2321441  86.47  0.001161261    1.870    0.465
       409 -11.0219    142.0247     32.3786   6.5360258383e+01   4.5314248615e+01    0.4021043    0.2306786 -48.61  0.001615129    1.770    0.435
       410 -10.7453    112.8865     33.4395   7.1549462906e+01   5.2814455652e+01    0.2575542    0.1938494 -56.16 0.0006848921    1.440    0.305
       411 -11.2874     77.0577     33.1093   8.2144598656e+01   6.1720216116e+01    0.3903963    0.2689221  83.84  0.001639954    2.225    0.550
       412  -9.9372     60.7353     33.9791   8.9396010344e+01   6.5099145905e+01    0.2009875    0.1824444 -28.45  0.001152609    1.150    0.130
       413 -10.3948     29.2543     34.0624   1.0719398738e+02   7.0296364136e+01    0.2107993    0.1793655  16.15 0.0004336543    1.141    0.123
       414 -10.7179     87.6965     32.6371   7.8215422694e+01   5.9283750554e+01    0.2576424    0.2159851  27.43 0.0005794071    1.275    0.216
       415  -9.6300     66.0330     33.0170   8.6551265859e+01   6.4167519262e+01    0.1700024    0.1536192 -25.60 0.0004124991    1.162    0.140
       416 -11.6282    107.4278     29.2580   7.1200775085e+01   5.4794412502e+01    0.3921087    0.3014733 -21.92 0.0004303725    1.497    0.332
       417  -9.9046    206.6784     31.4416   5.7232313431e+01   2.9604283756e+01    0.1621478    0.1148388  65.89 0.0009365649    1.519    0.342
       418  -9.8495     45.4432     31.5673   9.6060245491e+01   6.8381245709e+01    0.2525382    0.1230341  27.93  0.001020422    2.396    0.583
       419 -10.5807     34.2601     30.3043   1.0217381062e+02   7.0379191684e+01    0.2902572    0.2627312  82.10  0.001740087    1.482    0.325
       420 -10.4734    159.0075     30.0032   6.2041979753e+01   4.1211961064e+01    0.2083414    0.1865396 -79.83  0.001212962    1.019    0.019
       421 -10.9579     70.7112     29.0690   8.2686060139e+01   6.3779817144e+01    0.3220006    0.2375568 -38.00  0.001671135    1.459    0.315
       422 -10.2740     50.5297     28.4745   9.1712728386e+01   6.8023408326e+01    0.2794824    0.2082629  82.73 0.0009015984    2.350    0.575
       423 -10.1371    160.1506    248.8720   1.0972637104e+02   3.4074324179e+00    0.1580316    0.1114578   5.30 0.0002919894    1.317    0.241
       424 -10.6937     15.3264     18.1271   1.0986811729e+02   7.5072111600e+01    0.2737177      0.20521  58.77  0.001542461    2.002    0.500
       425 -10.6614    128.6863    248.6383   1.1608301648e+02   7.4165202834e+00    0.3365175    0.1747964   3.40  0.001392966    3.746    0.733
       426 -11.7012     10.1925     23.5244   1.1670011484e+02   7.4428259183e+01    0.2670591    0.1991273 -33.65 0.0005176081    1.184    0.156
       427 -10.5947     99.1641     27.0716   7.2400400129e+01   5.7206120933e+01    0.3616149    0.1960156  57.52  0.001204035    1.646    0.393
       428 -11.2264    242.9583     25.3238   5.3184152700e+01   2.2863026375e+01    0.2044879    0.1441203 -45.40 0.0003618249    1.130    0.115
       429 -11.8765      1.9042     25.3023   1.2427409240e+02   7.4555736361e+01    0.3145885    0.1709608 -71.39  0.001626574    1.914    0.477
       430  -9.5160    131.3096     25.2982   6.4739094567e+01   4.9015160855e+01    0.1446968    0.1041661  40.15 0.0001673067    1.597    0.374
       431 -10.6865    131.7199     22.0179   6.3494410576e+01   4.9291284625e+01    0.2572726    0.2160925 -27.42 0.0004259921    1.343    0.256
       432 -10.3801     61.3253     23.6886   8.3930654925e+01   6.6636836840e+01    0.3504303     0.174532  39.12  0.001501019    1.994    0.498
       433 -10.0051     46.0220     24.5138   9.2067334563e+01   6.9521137072e+01    0.2105842    0.1262819  42.52  0.001028752    1.601    0.375
       434 -11.3945    221.8316     22.3712   5.3898926960e+01   2.7395252769e+01    0.2722599    0.1527788 -49.99  0.001540195    1.440    0.306
       435 -10.8225    175.1242     23.3469   5.8139117201e+01   3.7948683773e+01    0.2165273     0.160668  60.34 0.0008031159    1.423    0.297
       436 -12.1088    117.3275     22.6060   6.6352313349e+01   5.3033630017e+01    0.3566464    0.2356257  57.17 0.0001689039    1.385    0.278
       437  -9.8696    101.8154     22.1597   6.9617611617e+01   5.7145302036e+01    0.1903316    0.1572807  38.21 0.0003436852    1.267    0.211
       438 -10.7346    190.3042     20.3408   5.5850804842e+01   3.4627363924e+01     0.228637    0.1803983 -63.20 0.0002554003    1.079    0.073
       439 -10.9284     77.8992    247.6946   1.2688186350e+02   1.3944055938e+01    0.2766764     0.185671  89.83  0.001725942    1.950    0.487
       440 -10.6185     37.4716     21.1617   9.5294022654e+01   7.1560110103e+01    0.3408886    0.1750406  32.69  0.001583258    1.906    0.475
       441 -10.8492     33.0526     18.3304   9.6543877144e+01   7.2748666784e+01    0.3168967    0.2461538 -77.38 0.0009040457    2.224    0.550
       442 -11.0631     91.1335     19.0857   7.1034335218e+01   6.0243937395e+01    0.4511339      0.26232  65.47 0.0009810327    1.620    0.383
       443 -10.3617    198.9838     18.0291   5.4533149354e+01   3.2868761072e+01    0.1940968    0.1519071  40.04  0.001147337    1.742    0.426
       444 -12.0354     75.8789    241.1193   1.2681087708e+02   1.5340681500e+01    0.4441766    0.2572585  66.24  0.001817629    2.074    0.518
       445 -12.6818     46.6791    247.0798   1.3362600493e+02   1.7640261470e+01    0.2913225     0.204675  62.23 0.0004531201    1.322    0.243
       446 -10.1653     74.7703     12.6434   7.2817746042e+01   6.5027111908e+01    0.2270912    0.1702884 -71.15 0.0007428673    1.743    0.426
       447 -12.4274    151.8386    244.8929   1.1089279976e+02   5.0108129408e+00    0.2965945    0.2092427  -4.42 0.0006921166    1.512    0.339
       448 -11.0595    113.7293     15.4827   6.4240160491e+01   5.4781700590e+01    0.5095059    0.2396656  64.02  0.001949205    1.835    0.455
       449 -11.5375    146.3000    242.8434   1.1176907499e+02   6.0199893643e+00    0.3260694    0.2459493  -5.60  0.001140663    1.399    0.285
       450 -10.1214    185.7234     13.9589   5.4548011284e+01   3.6403962006e+01    0.1817375    0.1472099 -55.56 0.0003053935    1.107    0.097
       451 -10.7431    179.9987     13.6883   5.4964657353e+01   3.7811612816e+01    0.1919525    0.1493801 -86.54 0.0005272322    1.139    0.122
       452 -10.9771    136.7129    246.4752   1.1417323474e+02   6.7146538865e+00    0.1814158    0.1643027 -30.41 0.0007433819    1.385    0.278
       453 -11.4391     98.6283    245.2132   1.2215121952e+02   1.1800679328e+01    0.4626754    0.2066049  43.75  0.002360213    1.892    0.471
       454 -10.7496    148.5144     12.9773   5.7998864133e+01   4.5843125184e+01    0.2547978    0.1677443  60.78 0.0006085023    1.464    0.317
       455 -11.9591    101.8526    239.5866   1.2090405374e+02   1.2337986034e+01    0.3746381    0.2571915  57.31 0.0005350022    1.621    0.383
       456 -10.0047     22.6489     12.3195   1.0050302421e+02   7.5285575516e+01    0.1837203    0.1149289  33.17 0.0006354054    1.555    0.357
       457 -10.6844     96.1429    238.7321   1.2208669392e+02   1.3221412075e+01    0.4758197    0.1980825  48.83  0.002178621    2.443    0.591
       458  -9.9674     93.1929    233.4572   1.2224214130e+02   1.4532670915e+01    0.3045496    0.1303398  52.86  0.001317162    2.770    0.639
       459 -10.5640     87.4939    231.5022   1.2335429331e+02   1.5623785801e+01    0.2905911    0.1374525  44.82 0.0005220125    1.791    0.442
       460 -10.7279    200.3343    244.9194   1.0166864443e+02  -8.9065761964e-01    0.1966418    0.1412863  16.44 0.0004242587    1.107    0.097
       461  -9.6099      8.0509     11.0000   1.1253136822e+02   7.7129388612e+01    0.1894899   0.06494524  20.82 0.0004153783    2.863    0.651
       462 -11.6900    198.4530    240.2122   1.0135426179e+02  -9.5170892857e-02    0.3334556    0.1622285  32.57 0.0002663639    1.796    0.443
       463 -10.8946    197.1428    234.5282   1.0078848805e+02   7.7848822138e-01    0.3371955    0.1833352 -19.32  0.001958628    1.991    0.498
       464  -9.3767     85.6971    245.3031   1.2498456997e+02   1.3403548975e+01    0.1245368   0.07251398  50.52 0.0002891412    1.593    0.372
       465 -10.6325    180.8342    243.4590   1.0504389784e+02   1.5913922414e+00     0.242625     0.141434  -0.61   0.00140342    1.914    0.477
       466 -11.1168     92.0051    242.7613   1.2337675470e+02   1.3052675724e+01    0.3183487    0.1865715  33.01  0.001144566    1.305    0.233
       467 -11.0382     63.0870    243.1820   1.2980136338e+02   1.6494939526e+01    0.2384468    0.1689688  31.24 0.0006939509    1.187    0.158
       468 -10.9435    191.8601    241.4348   1.0272014562e+02   5.2820015219e-01    0.2780204    0.1972964 -36.68  0.001195394    1.702    0.413
       469 -10.8411    129.7876    242.2655   1.1514154011e+02   8.2549751535e+00    0.2306138    0.1737496  60.05   0.00119053    1.769    0.435
       470 -10.2817    246.1367    241.7407   9.3639666747e+01  -5.3846629837e+00     0.151805    0.1099539 -13.80  0.000235334    1.266    0.210
       471 -12.2332    122.5029    241.3116   1.1658640242e+02   9.3587974325e+00    0.6139583    0.1521281  34.63  0.002402521    2.914    0.657
       472 -10.3195    116.3399    238.6726   1.1762956340e+02   1.0597843244e+01    0.2853672    0.1167189  33.66 0.0006528044    1.863    0.463
       473 -10.9124     55.2782    240.8600   1.3137641765e+02   1.7814692003e+01    0.3279797    0.1690302  80.76  0.001039081    2.492    0.599
       474 -10.9436    109.7569    239.1994   1.1912482900e+02   1.1374776884e+01    0.2308095    0.2137278 -37.10  0.001087187    1.353    0.261
       475 -10.7488    106.0357    235.3114   1.1954180256e+02   1.2524549817e+01    0.1896769    0.1695335  53.84  0.000225089    1.243    0.196
       476 -11.8304    142.0684    238.8992   1.1216315952e+02   7.1640391617e+00     0.387426    0.2023704  31.30 0.0009140203    1.502    0.334
       477 -12.9300    217.4308    236.8748   9.7565397113e+01  -1.8557984574e+00    0.2468269    0.1959964  14.48 0.0005615988    1.281    0.219
       478 -10.7506    219.2640    232.6708   9.6644103743e+01  -1.5617282830e+00    0.1769947    0.1296195 -15.32 0.0002628381    1.237    0.191
       479 -10.5300    167.9945    238.5273   1.0685873021e+02   3.8551748561e+00    0.1961219    0.1676225 -22.84 0.0006012677    1.356    0.263
       480  -9.7988    162.5447    239.0154   1.0800136769e+02   4.4825340843e+00    0.1498504    0.1130756 -32.81 0.0004604638    1.525    0.344
       481  -9.7980     83.9798    237.9726   1.2473681545e+02   1.4900804534e+01    0.2010911    0.1141228  50.43 0.0006890358    1.630    0.387
       482 -10.8244     44.2145    236.4487   1.3357705980e+02   1.9867366655e+01    0.4182335     0.148266  48.16  0.001983174    2.177    0.541
