#   1 NUMBER                 Running object number                                     
#   2 MAG_AUTO               Kron-like elliptical aperture magnitude                    [mag]
#   3 X_IMAGE                Object position along x                                    [pixel]
#   4 Y_IMAGE                Object position along y                                    [pixel]
#   5 X_WORLD                Barycenter position along world x axis                     [deg]
#   6 Y_WORLD                Barycenter position along world y axis                     [deg]
#   7 A_WORLD                Profile RMS along major axis (world units)                 [deg]
#   8 B_WORLD                Profile RMS along minor axis (world units)                 [deg]
#   9 THETA_WORLD            Position angle (CCW/world-x)                               [deg]
#  10 FWHM_WORLD             FWHM assuming a gaussian core                              [deg]
#  11 ELONGATION             A_IMAGE/B_IMAGE                                           
#  12 ELLIPTICITY            1 - B_IMAGE/A_IMAGE                                       
         1 -13.2401      2.7219     10.7108   8.9037725696e+01   7.3102631029e+01    0.4268428    0.2588497 -37.43  0.002187266    1.391    0.281
         2 -16.2314     14.0587     22.2887   8.7775375534e+01   7.0343924160e+01     2.087863     1.118187 -17.88   0.01171039    1.853    0.460
         3 -15.6597      7.0180     67.4930   1.0572403659e+02   6.2119802516e+01     2.085364     1.021928 -65.94  0.008466608    1.877    0.467
         4 -14.4760    122.0740     37.4341   5.3761654262e+01   4.9470854037e+01     1.144461    0.6511713  30.77  0.002706671    2.169    0.539
         5 -14.6163    146.8525     29.2356   4.6103890074e+01   4.4515891554e+01     1.422801    0.9025094  77.90  0.006824324    1.680    0.405
         6 -13.9492    165.8551     30.8902   4.3522749259e+01   3.9685691469e+01     0.845633    0.7388692 -68.69  0.003410417    1.141    0.124
         7 -12.8698    120.0738     26.4170   5.0401075640e+01   5.1257914366e+01    0.7642182    0.4616075  35.17  0.003732699    1.761    0.432
         8 -13.5716    189.8745     26.9758   3.9264804305e+01   3.4369282396e+01    0.6980463    0.2430886 -48.26  0.002720321    2.968    0.663
         9 -12.9910      8.1385      2.6539   8.1672295628e+01   7.3786545088e+01    0.3577405    0.2535093   6.68  0.002599799    1.198    0.165
        10 -12.9322     47.4269     20.6598   7.0674060681e+01   6.6491297531e+01    0.4631046    0.2650167  30.44  0.002571591    1.608    0.378
        11 -15.2347     97.7710     12.0143   5.0224442257e+01   5.7797079225e+01     1.564119    0.7060889  55.21  0.007364076    1.869    0.465
        12 -11.7189     60.0767     17.2266   6.3992676043e+01   6.4825698728e+01    0.2867812    0.1707603 -34.36  0.001577907    1.852    0.460
        13 -13.1976    187.2974     11.4464   3.5643226723e+01   3.6658300596e+01     0.501078    0.2852721 -22.47  0.002600795    2.155    0.536
        14 -11.7771     46.5945     13.0894   6.7430839644e+01   6.7557617558e+01    0.2472878    0.2333143 -22.22  0.001758241    1.485    0.326
        15 -12.6078    214.4955     10.2824   3.2844501352e+01   3.0578333192e+01    0.3157597    0.2670845 -88.17  0.001128074    1.095    0.087
        16 -13.9657     41.7090      4.6235   6.5281664664e+01   6.9261056142e+01    0.6936529    0.4662382   8.70  0.003480938    1.322    0.244
        17 -12.4402    223.7773      5.1012   3.1003457841e+01   2.9099431752e+01    0.2429835    0.1606676 -25.75  0.001475609    1.846    0.458
        18 -12.0296     71.2665     17.7970   6.0267233049e+01   6.2707214512e+01    0.3167628    0.2259712 -20.48  0.001884243    1.439    0.305
        19 -11.3971    117.4789      1.4748   4.2188861285e+01   5.4178276185e+01    0.1837427    0.1120373  76.26 0.0005926731    1.654    0.395
        20 -12.0365     80.0628      2.0455   5.0685305348e+01   6.2431470622e+01    0.5606708    0.1300774  48.75  0.002157899    3.014    0.668
        21 -11.5088     61.1509      1.7274   5.6310377266e+01   6.6186126020e+01    0.3604321    0.1374997  51.05  0.001691146    2.287    0.563
        22 -10.9032    153.0368      8.9591   3.9045794968e+01   4.5084799826e+01    0.2069548    0.1374736  40.94  0.001072483    1.648    0.393
        23 -14.7070     15.4076    175.3141   1.1823777016e+02   3.5820906883e+01     1.829405    0.6768441  54.07  0.007837683    2.876    0.652
        24 -11.9454     51.3199    247.3456   1.1637170842e+02   1.6301368658e+01    0.2401391    0.1609838 -39.07   0.00137876    2.517    0.603
        25 -12.8036      2.8801    248.6192   1.2527895163e+02   2.1323256035e+01    0.4448935    0.2387746  84.02  0.002935583    1.561    0.359
        26 -13.8941      9.1589    245.8487   1.2406054752e+02   2.1239672814e+01    0.7340255    0.3484278  63.62  0.003471523    1.702    0.413
        27 -11.1626    206.3204    190.6803   7.5359755200e+01   2.9321339557e+00    0.1252167    0.1128052 -87.80  0.000533125    1.667    0.400
        28 -12.5333    249.3027    182.7070   6.5995073024e+01  -2.5168996416e+00    0.2982959    0.1567511 -38.40  0.001532461    1.712    0.416
        29 -10.8778    200.5067    192.0078   7.6772862890e+01   3.6768328551e+00    0.1768228    0.1223932 -63.58 0.0008086436    2.403    0.584
        30 -12.2500    243.9817    171.7285   6.4709155307e+01   2.7583161409e-02    0.2172041    0.1378088 -63.92 0.0009007614    3.538    0.717
        31 -12.5206    124.3217    167.2167   8.9140820846e+01   2.2731185948e+01     0.599178    0.3947195 -70.05  0.002581028    1.935    0.483
        32 -10.9521    192.9853    165.0021   7.2783262718e+01   1.0037164403e+01    0.1808635    0.1659028 -11.77   0.00101166    1.002    0.002
        33 -10.5444     23.3431    164.2676   1.1524054439e+02   3.7760685311e+01    0.1232773   0.09044015 -42.83  0.000698509    1.606    0.377
        34 -11.7383     77.1705    156.8506   9.9757270265e+01   3.3181485627e+01    0.3708523    0.2400427  27.53   0.00160133    1.735    0.424
        35 -13.0417     73.3562    153.9024   1.0030735104e+02   3.4474987558e+01    0.6393246    0.4567761  28.47  0.003028544    1.544    0.352
        36 -12.0455    189.0797    156.1528   7.1665958040e+01   1.2515253033e+01    0.2375371    0.1983539  -1.02   0.00114802    1.271    0.213
        37 -12.8477    246.3693    150.3322   5.9948534741e+01   3.1626586743e+00    0.4526541    0.2793235 -42.32  0.002395656    1.476    0.322
        38 -11.1744    103.0973    150.5229   9.1385637034e+01   3.0540543899e+01    0.3251629     0.187975 -38.46  0.001314746    2.002    0.501
        39 -11.7147    109.8834    154.2442   9.0303478298e+01   2.8432499605e+01    0.3560797    0.2256134 -71.91  0.001463601    2.033    0.508
        40 -11.4495     59.4892    148.5345   1.0332262123e+02   3.7718519721e+01    0.1421274    0.1293573 -78.92  9.67859e-05    1.017    0.017
        41 -11.6910      9.5768    144.9893   1.1685163015e+02   4.3593729401e+01    0.2834231    0.2080844 -27.82  0.001699313    1.739    0.425
        42 -12.2072    246.8697    137.6381   5.7215019127e+01   5.1930415578e+00    0.4134317    0.2456865  60.28  0.002011516    2.447    0.591
        43 -13.4152     81.1527    114.9230   8.9924238836e+01   4.2956928926e+01     1.155959    0.7491801  35.36  0.005340542    1.625    0.385
        44 -14.2100    108.6447    121.0073   8.3102481601e+01   3.6624625773e+01     1.449055     1.161194  12.04  0.006925306    1.476    0.322
        45 -13.4077     94.3441    110.2109   8.4607135449e+01   4.1819655554e+01    0.8971965    0.7461984  66.76  0.003616869    1.442    0.307
        46 -11.4476     65.2909    126.6508   9.7552153450e+01   4.2446444773e+01    0.2879027    0.2360498 -52.93  0.001542944    1.124    0.111
        47 -10.6486     59.4633    125.4873   9.9141478185e+01   4.3516171200e+01    0.1444216    0.1307308 -56.57   2.2132e-05    1.014    0.013
        48 -13.3282     29.1275    122.2263   1.0814713565e+02   4.7648821616e+01    0.4613145    0.3237122 -63.94  0.002574186    1.207    0.172
        49 -12.0137      4.1043    119.9415   1.1560163999e+02   5.0053738266e+01    0.4429589    0.1903365  15.68  0.002104133    2.931    0.659
        50 -13.2274    248.3767    114.1019   5.1991833466e+01   8.8345794379e+00    0.3467945     0.276717 -70.90  0.002042719    1.494    0.331
        51 -13.5279      6.5405     43.4969   9.9539288575e+01   6.7113164202e+01    0.7761288    0.3631091  17.13  0.004199536    2.318    0.569
        52 -13.1289     28.4121    245.4895   1.2056467094e+02   1.9310063573e+01    0.4028643    0.2313926  45.31  0.002566668    1.455    0.313
        53 -12.3776     59.8091    246.4066   1.1465370788e+02   1.5424930856e+01    0.1974813    0.1502158  21.97  0.001256855    1.691    0.409
        54 -13.5841      2.1812     96.9313   1.1308829957e+02   5.5666739807e+01    0.8617189    0.2406439 -72.24  0.003222502    3.215    0.689
        55 -15.2211     14.9308    107.1742   1.1034530257e+02   5.2459355776e+01     1.402162     1.110149  80.85   0.00860414    1.397    0.284
        56 -15.2042     26.3038     94.0531   1.0395718105e+02   5.4737284176e+01     1.419644     1.091305   0.83  0.008439748    1.490    0.329
        57 -12.1879     61.5912    108.8782   9.4861214685e+01   4.7322442108e+01    0.4941847    0.3432766 -63.26  0.002447471    1.433    0.302
        58 -12.2971    236.2805    110.0230   5.2824846931e+01   1.1760013531e+01    0.2074519    0.1627728 -40.55  0.001182105    1.104    0.094
        59 -12.4402     95.4013    237.3038   1.0654896242e+02   1.2330774159e+01    0.2773927    0.2020808 -21.20  0.001505605    2.202    0.546
        60 -14.8626    106.7608    105.0524   7.9462675569e+01   4.0657939394e+01     1.824815     1.475598   3.35   0.00881516    1.467    0.318
        61 -12.2931    136.0630    103.4896   7.0906244268e+01   3.4828179481e+01    0.5739809    0.2983852  48.53  0.001803958    1.970    0.492
        62 -11.1150    166.4951    101.5064   6.3178870718e+01   2.8309566091e+01    0.1527216    0.1484968 -54.24 0.0005912209    1.016    0.015
        63 -12.0972     42.7201     91.0830   9.7246448717e+01   5.3852904007e+01    0.5387259    0.3017337 -70.25  0.001921218    2.167    0.538
        64 -12.0968     46.8484     99.7415   9.7813630690e+01   5.1355386453e+01    0.4578058    0.3412047  80.70  0.002340014    1.833    0.454
        65 -12.2360     52.7132     98.1084   9.5350562378e+01   5.1044392452e+01    0.4077288    0.2468282 -17.04  0.001774576    2.315    0.568
        66 -12.9121     49.2342     94.2539   9.5647891605e+01   5.2371057818e+01     0.447689    0.3832292  72.15   0.00188056    1.469    0.319
        67 -12.5841     61.0496     97.8746   9.2361082143e+01   5.0013699478e+01    0.3910972    0.3019347  85.34  0.001829415    1.801    0.445
        68 -12.2776    136.2198     95.3324   6.8571206908e+01   3.6473701854e+01    0.3762191     0.269912  45.59  0.001195489    1.400    0.285
        69 -12.0120     90.2531     88.3493   7.9794182562e+01   4.7467032242e+01    0.4282216    0.3371157  52.91  0.002147086    1.458    0.314
        70 -12.0470    187.7381     84.7612   5.4581845956e+01   2.6464917915e+01    0.3614352    0.1810777  41.89  0.001409193    2.425    0.588
        71 -12.3574     47.2552     81.8741   9.3156646667e+01   5.5431182819e+01    0.4874315    0.2879719 -52.29  0.002068647    1.527    0.345
        72 -12.1105     41.9654     77.6506   9.4035971593e+01   5.6974124897e+01    0.5632097    0.2344665 -58.94  0.002283626    2.478    0.596
        73 -11.1069     39.2848     80.3232   9.5807862233e+01   5.6673449341e+01    0.2109964    0.1657453 -30.97 0.0004260926    1.162    0.139
        74 -13.0514    163.6590     71.6369   5.5533971781e+01   3.4403658472e+01     1.082822    0.3561945  51.98  0.003636436    2.906    0.656
        75 -13.3258    160.9731     80.7640   5.8662998428e+01   3.3473727942e+01    0.8880018    0.5456889  19.83  0.003242665    2.981    0.665
        76 -13.7174    169.3914     77.2897   5.5991686211e+01   3.2073614379e+01    0.8222781    0.5392096  36.09  0.003329589    1.833    0.454
        77 -12.4410     31.3837     63.2477   9.4202908776e+01   6.1158411320e+01    0.5837204    0.3074331 -62.03  0.002755736    2.194    0.544
        78 -13.5857     91.4493     58.3197   6.9599825967e+01   5.3053924562e+01    0.4963051    0.4571964 -48.82  0.002867512    1.256    0.204
        79 -13.4681     65.7334     50.1442   7.5596774926e+01   5.9132355660e+01     1.300894    0.6533183 -25.71   0.00554304    2.374    0.579
        80 -12.9793     72.3571     74.9874   8.1766033517e+01   5.3368435042e+01    0.8867772      0.41223  28.75  0.003511416    2.499    0.600
        81 -12.1659     81.1066     69.8937   7.7030460717e+01   5.2890263665e+01    0.4660414     0.313799  43.78  0.002224421    1.577    0.366
        82 -12.8874     87.4831     65.6235   7.3433504234e+01   5.2523899949e+01    0.5306661    0.3518126  -6.57    0.0018497    2.044    0.511
        83 -12.7892     40.6066     67.6783   9.1686844011e+01   5.9265172592e+01    0.9674488    0.5919968  29.14  0.005104371    1.766    0.434
        84 -13.1197     56.8164     66.9778   8.4979825698e+01   5.7355060307e+01    0.6311561    0.5040596  29.73  0.003621015    1.328    0.247
        85 -13.0634     54.5205     82.0643   9.0463497358e+01   5.4481627873e+01    0.5703042    0.4113711 -45.19  0.002210615    1.246    0.197
        86 -14.1138     60.9632     75.6159   8.6137730335e+01   5.4986478500e+01    0.7156347    0.4524076 -36.03  0.001680212    1.497    0.332
        87 -12.8583     52.1872     69.9560   8.7743254443e+01   5.7377799383e+01    0.7001965    0.5021068  89.57  0.003196301    2.763    0.638
        88 -12.0730    114.2875     80.2529   6.9975222848e+01   4.4310312496e+01    0.3893844    0.3178182 -65.57 0.0008544825    1.491    0.330
        89 -12.6932     31.4376    111.3158   1.0552444501e+02   5.0131913125e+01    0.2647993    0.2278661 -58.70 0.0006830088    1.006    0.006
        90 -10.6078     69.4781     80.4668   8.4502277242e+01   5.2682238432e+01    0.1437547    0.1300956 -21.84 0.0001845095    1.004    0.004
        91 -11.4826     27.4786     76.0562   9.9368788700e+01   5.8766290715e+01    0.2632717    0.1789042 -63.69  0.001459295    1.470    0.320
        92 -12.9086    133.7150     67.3502   6.0811269028e+01   4.2272536208e+01    0.7985112    0.4818285  28.66  0.002437341    2.215    0.548
        93 -12.7283    199.5695     69.7068   4.8783126482e+01   2.6218112875e+01    0.4639503    0.2708331  57.81  0.002026117    1.748    0.428
        94 -10.4184    117.2783     71.6395   6.6415861478e+01   4.5271712744e+01    0.1491048    0.1185879 -72.54 0.0007011094    1.666    0.400
        95 -13.7230     80.9553     57.2669   7.2712816742e+01   5.5244347920e+01    0.8790233    0.5973558 -19.45  0.004316058    1.599    0.375
        96 -12.3009     24.5651     59.8179   9.6126559649e+01   6.2499408654e+01     0.405838    0.2346073 -42.27  0.001488817    1.423    0.297
        97 -14.4366    119.8887     54.6004   6.0124660699e+01   4.7548001992e+01    0.7937908    0.5790398  36.22  0.002834291    1.373    0.272
        98 -12.6203    135.1448     79.9274   6.4320344911e+01   3.9707263900e+01    0.7124029     0.387244  54.80  0.002889772    1.921    0.479
        99 -12.0561    109.7076     53.8982   6.2595653707e+01   4.9946372334e+01    0.3625425    0.2334091 -21.39  0.001687762    1.772    0.436
       100 -13.5162    103.2737     50.7340   6.3302557221e+01   5.1840272486e+01    0.8719851    0.5153285 -52.88 0.0009954963    2.324    0.570
       101 -12.9409     97.7163     50.5588   6.4876165021e+01   5.3046656300e+01    0.6949431    0.3278609 -45.47   0.00280559    2.521    0.603
       102 -13.3805    177.8148     57.9543   4.9154388337e+01   3.3152636908e+01    0.7240815    0.5107995 -54.58   0.00256809    1.455    0.313
       103 -12.0335    135.8522     50.0017   5.4819865747e+01   4.4491827959e+01    0.4322929    0.2515567  36.24  0.001455328    1.979    0.495
       104 -10.5440     23.4738     50.4318   9.3682649135e+01   6.4479546915e+01    0.1276844   0.09964386 -27.04 0.0001579518    1.047    0.045
       105 -11.8768     39.1016     60.8031   9.0161681044e+01   6.0844771787e+01    0.2978067    0.2150521 -77.76  0.001518112    2.300    0.565
       106 -12.1194    158.8014     43.3668   4.8266561289e+01   3.9840736692e+01    0.4176331    0.2812129  54.58  0.001630771    1.404    0.288
       107 -13.4835    217.5379     42.2401   3.9794547074e+01   2.6117664087e+01     1.122121    0.3527424  65.15  0.004055014    3.088    0.676
       108 -12.9512    204.9232     40.2522   4.0766221578e+01   2.9222744324e+01     1.034234    0.4213491  88.64  0.002917584    5.999    0.833
       109 -12.4084    109.6241     42.1917   5.8502874971e+01   5.1693684507e+01    0.4244861    0.1920388  57.66  0.001347607    2.307    0.567
       110 -12.2356     24.4017    217.4072   1.1952063380e+02   2.5443911901e+01     0.506372    0.4295684 -80.62  0.003604272    1.242    0.195
       111 -12.5109    113.8064     38.1456   5.5991641304e+01   5.1291582413e+01    0.3686322    0.2960347   0.92  0.001035682    1.377    0.274
       112 -13.1076    131.9588     32.6710   5.0012106156e+01   4.7717066269e+01     0.706553    0.4025968 -42.36  0.003341367    1.937    0.484
       113 -10.8563     55.3315     41.0595   7.6161628995e+01   6.2294693943e+01    0.1773367    0.1460449 -16.49 0.0003990377    1.091    0.083
       114 -12.4710     76.0720     37.3071   6.6820884611e+01   5.9326201418e+01    0.3706573    0.2313104  42.43 0.0009797015    1.528    0.346
       115 -12.1323     69.3216     36.5939   6.8934246110e+01   6.0662909461e+01    0.4413229    0.2209351  32.15  0.001408982    2.036    0.509
       116 -12.2389    241.5233     36.0373   3.6065055067e+01   2.1813229817e+01    0.4156628    0.1741356  71.45  0.001907345    2.469    0.595
       117 -11.8663    104.7988     35.7680   5.7456392141e+01   5.3626773410e+01    0.3968113    0.1903216 -16.82   0.00155266    2.932    0.659
       118 -13.0091     45.9996     33.4701   7.6976162275e+01   6.4870676604e+01    0.4799709    0.3347173 -13.61  0.002826789    1.341    0.254
       119 -13.3450     14.0246    223.0544   1.2194693182e+02   2.5301165630e+01    0.4541116    0.2191441  68.48  0.002124449    1.868    0.465
       120 -12.8484    138.8942     21.9981   4.5231428747e+01   4.7243008140e+01    0.5799404    0.2506519  62.89   0.00209249    2.039    0.509
       121 -13.6527     26.0736    226.6607   1.1981678414e+02   2.3324076268e+01    0.6717578    0.3417544 -61.25  0.003756928    2.117    0.528
       122 -12.4577    171.2349     28.3882   4.2044457867e+01   3.8670802856e+01    0.3165309    0.2780582 -87.88  0.001151183    1.053    0.051
       123 -13.6129     20.5505    225.3552   1.2081616621e+02   2.4170597038e+01    0.3976178    0.3526755  83.69  0.002981695    1.229    0.186
       124 -13.4741     65.2668    223.3769   1.1147063005e+02   1.9343921201e+01    0.6981813    0.5617669  34.52  0.004406142    1.325    0.245
       125 -12.9908     55.6726     27.2858   7.0235371942e+01   6.4301609860e+01    0.5944801    0.2805218  43.60  0.002649532    2.163    0.538
       126 -11.2189     97.8932     27.1377   5.6067960719e+01   5.6201245931e+01    0.1989104    0.1832317  71.15  0.001226233    1.266    0.210
       127 -13.9532     64.2346    214.8139   1.1082660774e+02   2.1309840670e+01    0.5234249    0.3538891  58.71  0.002982436    1.353    0.261
       128 -11.9423    248.9128    216.1560   7.2330339132e+01  -7.4089567408e+00    0.1780141    0.1561547  -7.42  0.001254874    1.291    0.226
       129 -12.3334    237.4244    214.5659   7.4045552277e+01  -5.6371716158e+00    0.2675219     0.182645 -61.77  0.001243666    3.605    0.723
       130 -11.3188    200.4957    214.5162   8.0977048752e+01  -1.6511639099e-01    0.1325743    0.1135573   5.99 0.0001711178    1.022    0.022
       131 -11.9466     72.4029    207.1384   1.0814446451e+02   2.1894654069e+01    0.3535969    0.2641087  85.34  0.002015644    1.347    0.258
       132 -11.2254     41.4146    206.2137   1.1502344074e+02   2.6029797854e+01    0.1770699    0.1057167  89.99 0.0008674179    1.629    0.386
       133 -10.5906    198.3244    204.6605   7.9615668357e+01   1.8333546882e+00    0.1245372    0.1108868  80.80 0.0005860046    1.725    0.420
       134 -10.8941    185.3391    203.6782   8.2087084795e+01   4.1580648146e+00    0.1304487    0.1112274  72.37 0.0007050529    1.717    0.418
       135 -12.5400    248.2055    196.9969   6.8921293902e+01  -4.5411957127e+00    0.4927452    0.2618938 -40.53  0.002585228    1.867    0.464
       136 -11.6699     16.8699    196.1052   1.1957046173e+02   3.0875531877e+01    0.2891133    0.1513617 -75.94  0.001460134    1.652    0.395
       137 -13.5067     29.8028    169.1067   1.1411352732e+02   3.5968444016e+01    0.7678008    0.4811963 -40.17  0.002982144    2.037    0.509
       138 -13.0762     22.2206    181.3673   1.1715800159e+02   3.3770831140e+01    0.6280024    0.3650153 -61.56  0.003107915    1.629    0.386
       139 -14.8917      7.6677    183.6102   1.2068380713e+02   3.4545250275e+01      1.19907    0.9531602  76.94  0.008173842    1.068    0.063
