#   1 NUMBER                 Running object number                                     
#   2 MAG_AUTO               Kron-like elliptical aperture magnitude                    [mag]
#   3 X_IMAGE                Object position along x                                    [pixel]
#   4 Y_IMAGE                Object position along y                                    [pixel]
#   5 X_WORLD                Barycenter position along world x axis                     [deg]
#   6 Y_WORLD                Barycenter position along world y axis                     [deg]
#   7 A_WORLD                Profile RMS along major axis (world units)                 [deg]
#   8 B_WORLD                Profile RMS along minor axis (world units)                 [deg]
#   9 THETA_WORLD            Position angle (CCW/world-x)                               [deg]
#  10 FWHM_WORLD             FWHM assuming a gaussian core                              [deg]
#  11 ELONGATION             A_IMAGE/B_IMAGE                                           
#  12 ELLIPTICITY            1 - B_IMAGE/A_IMAGE                                       
         1 -19.0174    119.5555    180.2111   1.0419964745e+02   2.1239275951e+01     5.507416     4.963509 -63.13   0.02069953    1.191    0.160
         2 -11.0743    224.4904     34.9486   4.7470828737e+01   2.4462150021e+01    0.8885004     0.553789 -38.76  0.004341324    1.491    0.329
         3 -12.3075    119.6818      9.7078   5.5602595118e+01   5.4019650009e+01     1.813156    0.6878089  45.83  0.006882767    2.377    0.579
         4 -13.7044    143.2241     26.6263   5.7098688642e+01   4.6399338488e+01     2.935204     1.337733 -30.87   0.01199101    2.222    0.550
         5 -11.1054    136.4966      8.2569   5.1763046897e+01   5.0044077301e+01    0.6444111    0.5679122 -44.81  0.002217572    1.260    0.206
         6  -9.1209      1.8546      1.8215   9.7126313966e+01   7.4269956076e+01    0.1798586    0.1435844  46.17  0.001297982    2.254    0.556
         7  -8.8901     71.9920    239.9579   1.2062493639e+02   1.7101146126e+01    0.1795704     0.121783  65.24 0.0006565162    1.148    0.129
         8 -10.0094    248.8405    249.8186   9.0708127979e+01  -1.1286452788e+01    0.2935643    0.1489724  42.51  0.001744402    1.975    0.494
         9  -9.1327    162.6770    249.6039   1.0548520760e+02   1.8160567900e+00    0.2644996    0.1786093  54.29  0.001678312    1.435    0.303
        10  -8.9640     96.8949    250.1251   1.1715996995e+02   1.1901376863e+01    0.1729847    0.1142134  61.21 0.0003419789    1.231    0.188
        11  -9.9449    205.0622    243.9493   9.7215223090e+01  -4.1921342599e+00    0.3428674    0.2320449  29.72  0.001933394    1.180    0.153
        12  -8.8328    180.1827    243.6062   1.0157179508e+02  -1.8658506250e-01    0.1680324    0.1607783 -88.40 0.0004646768    1.392    0.281
        13  -9.8429    192.1693    241.5787   9.9145797379e+01  -1.8517176618e+00    0.2276148    0.1628814 -27.49 0.0007722809    1.688    0.408
        14 -15.3573     67.2209    143.4910   1.1075825808e+02   3.7895672424e+01     2.601108     1.610737  83.41   0.00855459    1.914    0.478
        15 -14.9290    150.3341    173.4851   9.6239232796e+01   1.6850957715e+01     1.157624    0.9807356  32.18  0.002721987    1.205    0.170
        16 -16.0170    128.1154    200.8477   1.0552371909e+02   1.5610824738e+01    0.8436447    0.6460745 -52.53  0.004282301    1.484    0.326
        17 -10.0004    198.5083    245.4969   9.8587991690e+01  -3.3535275022e+00    0.2040112    0.1615693  -2.48 0.0009289828    1.386    0.278
        18 -10.6703     11.7835    226.7641   1.2998410157e+02   2.6587437886e+01    0.3023923    0.1346958  54.32  0.001950778    1.684    0.406
        19  -9.1429      1.6973    185.5204   1.2961345591e+02   3.5546439628e+01     0.265133    0.1082545 -71.01  0.001506911    2.044    0.511
        20  -8.3742    242.0632    185.3476   8.0550723599e+01  -2.5706968515e+00    0.1747398    0.1446991  22.32   0.00039367    1.128    0.113
        21  -9.6801     45.7628    219.8779   1.2373364232e+02   2.4134417422e+01    0.4563749     0.166497  38.50   0.00229652    2.603    0.616
        22  -8.7539     23.2581    182.7200   1.2523989580e+02   3.4145154193e+01    0.2151186     0.136094  69.91  0.001151106    1.311    0.237
        23 -11.0779     10.6517    217.7919   1.2973292640e+02   2.8364391044e+01    0.5633091    0.1933567  78.54  0.002723911    2.997    0.666
        24  -9.8084      2.4808    212.7473   1.3086664779e+02   3.0094115115e+01    0.2123373    0.1655012  73.79  0.000568512    1.201    0.168
        25 -11.4861     10.7182    207.4147   1.2918172514e+02   3.0346117120e+01    0.5923226    0.3413758  36.21  0.003824868    1.976    0.494
        26  -8.9498     14.9046    178.6613   1.2661543750e+02   3.5810006417e+01    0.1503979    0.1410637 -69.39 0.0009830558    1.478    0.323
        27  -8.7118    220.2500    178.1495   8.3005274493e+01   2.3645486127e+00    0.2451808    0.1696953  26.78  0.001299237    1.404    0.288
        28 -10.0317     20.4157    172.8206   1.2505151511e+02   3.6546011052e+01     0.477073     0.176697 -86.23  0.002158958    2.661    0.624
        29  -9.7359     17.3513    166.2246   1.2516765524e+02   3.8269504893e+01    0.3476186    0.2033269 -77.46  0.001599431    1.375    0.273
        30 -10.1680    203.3523    171.4503   8.4839961658e+01   6.6791995837e+00    0.3591115    0.2340252 -20.83  0.001719196    1.776    0.437
        31  -8.9915    234.0052    215.9793   8.7641975815e+01  -5.3088260734e+00    0.1869033    0.1495023  15.31 0.0005087198    1.003    0.003
        32  -9.2770     35.3268    213.9390   1.2519520160e+02   2.6498259026e+01    0.3510443   0.09543748  45.55  0.001667865    2.761    0.638
        33 -10.0103    205.9699    165.0761   8.3002991766e+01   7.2439657417e+00    0.3058945    0.2966338 -37.82 0.0009272797    1.177    0.150
        34  -9.4961     40.3064    210.3681   1.2403084932e+02   2.6623850474e+01    0.2279436    0.1480291  68.36 0.0008737366    1.213    0.175
        35  -8.6563    230.5308    233.3361   9.1158726250e+01  -6.8671246874e+00    0.2061957   0.09043781  38.33 0.0009366738    1.901    0.474
        36 -10.4965    203.9574    200.7450   9.0371624725e+01   1.8706113973e+00    0.5028538    0.2969741  -3.77  0.002068335    2.826    0.646
        37  -9.3857    206.1030    194.1537   8.8758767282e+01   2.4883423488e+00    0.3213919    0.2173967   9.93  0.001347038    1.759    0.432
        38  -9.1167    215.7967    238.9453   9.4589796796e+01  -5.2626489572e+00    0.1833031    0.1318341  15.78 0.0005437208    1.257    0.204
        39 -10.6132     26.1263    200.8128   1.2598705475e+02   3.0104655055e+01    0.5377411    0.1845372  89.33  0.002267911    3.479    0.713
        40 -10.1540    249.9988    145.9145   7.0970486801e+01   1.8037171048e+00    0.8836706    0.1589039 -39.09  0.002450938    5.130    0.805
        41  -9.8838    241.2946    150.0105   7.3312707155e+01   2.8030542945e+00    0.1988984    0.1634383 -23.09 0.0005126389    1.114    0.102
        42  -9.0459    200.0693    147.2737   8.0255298878e+01   1.1596572046e+01    0.2883432    0.2124882 -45.92 0.0009295316    1.436    0.304
        43  -9.0447     26.6297    195.1803   1.2549802201e+02   3.1198084579e+01    0.1930102     0.126937 -69.05 0.0003901964    1.522    0.343
        44  -8.5580      2.4428    152.0337   1.2728359601e+02   4.2624792233e+01    0.1824075   0.08674891 -80.22 0.0007498835    1.611    0.379
        45  -8.1566    220.4075    145.4653   7.5971672456e+01   7.6626390679e+00    0.1435437    0.1306568  -7.72 0.0001084841    1.019    0.018
        46  -8.9523    192.6506    144.4488   8.1097111546e+01   1.3706743306e+01    0.3364452    0.2500263 -88.63  0.001058784    2.143    0.533
        47  -9.9980    246.3529    132.0476   6.8451211057e+01   4.6515230706e+00    0.5177764    0.1661576 -45.17  0.001647844    3.859    0.741
        48  -7.9190    239.2744    132.3129   6.9665567807e+01   6.0105485070e+00    0.1409885    0.1039335   1.60 0.0003986208    1.558    0.358
        49  -9.6650    214.8955    197.4553   8.7730032551e+01   4.1448969931e-01    0.3678769    0.3182536 -78.38  0.001786028    1.825    0.452
        50  -9.7301    249.9564    122.1450   6.5611403329e+01   5.5045329134e+00    0.2512171    0.2298777 -47.09  0.001502529    1.192    0.161
        51 -10.3594    180.8902    121.4942   7.8003014006e+01   2.0753426984e+01    0.5149483    0.3558638 -59.56  0.001659884    1.755    0.430
        52 -10.0766    214.7776    191.2353   8.6583486428e+01   1.3614887194e+00    0.3071539    0.2431476 -55.56  0.001739055    1.753    0.430
        53 -10.2282    220.6532    237.5027   9.3523091108e+01  -5.8426511918e+00    0.2814168    0.2027718  41.62  0.001854551    1.379    0.275
        54 -10.8325     34.0017    192.6674   1.2387913703e+02   3.0925746051e+01    0.3268563    0.2029836  49.96  0.002087411    1.471    0.320
        55 -11.2790    168.3106    114.0471   7.8814829139e+01   2.5169615339e+01    0.5263985    0.4229359  59.31 0.0008265124    1.311    0.237
        56  -8.7466    226.2920    231.3321   9.1564533751e+01  -5.9803874834e+00    0.1219052   0.07732542  11.04 0.0004271623    1.632    0.387
        57  -9.2210    220.8997    192.3563   8.5669534632e+01   1.0076060472e-01    0.1872685    0.1511218  21.50 0.0006884416    1.090    0.082
        58 -10.7702    153.8682    111.1862   8.1370906377e+01   2.9120060293e+01    0.5295438    0.2520336 -50.99 0.0004474129    2.330    0.571
        59  -9.4847     64.3630    112.5981   1.0598792490e+02   4.5637737500e+01    0.3151309    0.1953283 -46.48 0.0004300743    1.589    0.370
        60 -10.3058     74.0575    106.6351   1.0183685500e+02   4.5693655772e+01    0.4571833    0.3257346  14.05  0.002023959    1.930    0.482
        61  -9.3259     68.9407    108.5379   1.0378293897e+02   4.5977060586e+01    0.2618524    0.1788397  37.35 0.0006868237    1.630    0.387
        62  -9.8513     65.1650    108.1785   1.0482921037e+02   4.6579061407e+01    0.3733572    0.2277491 -57.15  0.001855802    1.434    0.303
        63  -8.6766    250.6108    190.1149   8.0027296259e+01  -4.6355039686e+00    0.1739681    0.1094169 -26.04  0.000333495    1.504    0.335
        64  -9.6094    208.9263    110.1242   6.9571728135e+01   1.6369150542e+01    0.4253988    0.2959037  20.60  0.001338149    1.902    0.474
        65 -10.6860      4.5036    231.4475   1.3136343818e+02   2.6455163415e+01    0.4133057    0.1445708  75.30   0.00181559    2.566    0.610
        66  -9.6406    152.6877    102.0725   7.9173521396e+01   3.1282313277e+01    0.3046471    0.2501553  77.44 0.0004224037    1.426    0.299
        67  -9.8556     46.8597    227.0163   1.2404900511e+02   2.2661151525e+01    0.3450535    0.1701209 -88.21  0.001897844    1.975    0.494
        68 -10.3434    246.0291    228.0462   8.7660960386e+01  -8.5819778411e+00    0.2521804    0.1414978  28.03   0.00149755    1.498    0.333
        69  -9.2678     10.5179     86.5160   1.1778938611e+02   5.6948557779e+01    0.2156216   0.09881459 -80.25   0.00103002    2.229    0.551
        70  -8.8296    232.2918     79.6511   5.7949862759e+01   1.6092428772e+01    0.1537845    0.1031474 -59.68  0.000504429    1.669    0.401
        71 -10.3997    114.8945     68.9754   7.8906039536e+01   4.6504910656e+01    0.2444529    0.2395846  -5.69  0.001359738    1.035    0.034
        72  -9.6107    213.6327     66.5092   5.7266033877e+01   2.2621305885e+01    0.4756286    0.2757423 -77.67  0.001773433    2.786    0.641
        73  -9.3761    211.1321     60.7994   5.6093038158e+01   2.4123119771e+01    0.3905213     0.212182 -26.06  0.001155659    2.000    0.500
        74  -9.9524    203.2909    185.3375   8.7621507077e+01   4.3973860806e+00    0.3426325    0.2515629   4.60  0.001183002    1.553    0.356
        75  -9.3375      6.4705     47.5248   1.1127456884e+02   6.5643906910e+01    0.1984825    0.1131954  11.30  0.001208801    2.168    0.539
        76 -10.3762    221.6371     39.9066   4.9091121257e+01   2.4508172925e+01    0.4374859    0.3037887 -68.54  0.001379666    1.499    0.333
        77  -8.7141    133.3936    248.0643   1.1052439303e+02   6.6905063592e+00    0.1824932    0.1330312  41.22 0.0004166201    1.179    0.151
        78  -9.7353     91.0656    246.9882   1.1789375844e+02   1.3251829988e+01     0.305216    0.1448905  60.83  0.001195396    1.990    0.498
        79  -9.4999     82.4515    246.6977   1.1936049105e+02   1.4517270597e+01    0.3116916    0.1636339  55.58   0.00128257    1.491    0.329
        80  -8.6968    189.5837     15.2851   4.6198157977e+01   3.5652844788e+01    0.1782005    0.1386331  -7.56 0.0007268113    1.563    0.360
        81  -9.3109     76.4040    243.0909   1.2011045314e+02   1.5961338526e+01    0.3384388    0.1274121  54.78  0.001712296    2.225    0.551
