#   1 NUMBER                 Running object number                                     
#   2 MAG_AUTO               Kron-like elliptical aperture magnitude                    [mag]
#   3 X_IMAGE                Object position along x                                    [pixel]
#   4 Y_IMAGE                Object position along y                                    [pixel]
#   5 X_WORLD                Barycenter position along world x axis                     [deg]
#   6 Y_WORLD                Barycenter position along world y axis                     [deg]
#   7 A_WORLD                Profile RMS along major axis (world units)                 [deg]
#   8 B_WORLD                Profile RMS along minor axis (world units)                 [deg]
#   9 THETA_WORLD            Position angle (CCW/world-x)                               [deg]
#  10 FWHM_WORLD             FWHM assuming a gaussian core                              [deg]
#  11 ELONGATION             A_IMAGE/B_IMAGE                                           
#  12 ELLIPTICITY            1 - B_IMAGE/A_IMAGE                                       
         1 -13.1416     68.3945    144.0053   8.6712339062e+01   3.7824380340e+01     3.590988     1.743691  81.77  0.003678428    5.124    0.805
         2 -13.0009    214.8003     52.1091   3.1080480939e+01   2.5662658616e+01      1.06746    0.9447442  10.99  0.006704682    1.301    0.232
         3 -13.5974    233.2196     38.9177   2.6153254210e+01   2.3471705629e+01     1.261017    0.9087663  28.56  0.007557887    1.865    0.464
         4 -12.1799      2.4995      3.1995   8.0044875744e+01   7.9558935123e+01    0.6974441    0.5462698 -79.96  0.004221252    1.758    0.431
         5  -8.8779     58.3034      3.6827   4.0637822487e+01   6.9837838759e+01     0.133935    0.1046733 -60.17 0.0002537028    1.624    0.384
         6 -13.5404     10.3537    206.5751   1.0737380370e+02   3.0138323848e+01     1.022672    0.7784465   8.81  0.003383275    1.632    0.387
         7  -9.9399    134.7092    249.5818   8.4300039147e+01   9.5657570296e+00    0.1571957     0.130216  62.39  0.001188814    1.751    0.429
         8  -9.6596     81.2152    250.0782   9.4740082560e+01   1.5571979653e+01    0.1901273    0.1218769  32.77 0.0008403143    1.164    0.141
         9 -11.7001     49.8521    168.3633   9.5089684216e+01   3.4450744665e+01    0.3110945    0.2752442 -17.63 0.0005545351    1.397    0.284
        10 -15.0455     18.2263    239.9496   1.0679611763e+02   2.3414814534e+01     7.107017     2.380721  17.55     0.029686    4.422    0.774
        11  -9.0762    110.7313    167.1393   7.8792816438e+01   2.6434746587e+01    0.1921805     0.173654  63.49 0.0004816539    1.217    0.178
        12  -9.7461     90.4721    167.4995   8.4031454210e+01   2.9394535802e+01    0.2858286    0.1229069  33.06  0.001197129    2.117    0.528
        13 -11.8809     76.0737    138.6487   8.3531784466e+01   3.8009933794e+01    0.3974712    0.3103334 -63.87 0.0003932954    1.309    0.236
        14 -12.4627     71.8595    153.1941   8.7057661023e+01   3.5193922922e+01    0.9781935    0.6535887  32.74  0.001867792    1.424    0.298
        15 -15.3203     24.9505    181.3589   1.0272590840e+02   3.4084203898e+01     8.170633     2.517246  81.19    0.0266758    5.229    0.809
        16 -10.1240     88.7653    140.9224   8.0179921927e+01   3.5545324049e+01    0.3146152    0.2701629 -14.53 0.0008062145    1.358    0.264
        17  -9.2375     92.8435    137.9135   7.8443233519e+01   3.5583092513e+01    0.2577173    0.1996703  -1.22 0.0006743757    1.646    0.392
        18 -10.8963     62.5240    159.2696   9.0537258522e+01   3.5017114180e+01    0.3015805    0.2314328  34.48 0.0002808916    1.232    0.188
        19 -10.3272    104.9483    130.2952   7.3450496801e+01   3.5252192884e+01    0.4696645    0.3177027  35.56  0.001540245    1.454    0.312
        20 -14.2810     16.3101    192.5718   1.0544723883e+02   3.2460991297e+01     1.832357    0.7667389  52.17  0.004763433    1.943    0.485
        21  -9.8063     90.3593    125.7725   7.6751824814e+01   3.8804817484e+01    0.2887786    0.2384724   1.55 0.0006646684    1.452    0.311
        22 -13.1848     47.9040    154.8884   9.4231565300e+01   3.7789342142e+01    0.5828873    0.4070525 -35.60  0.002047028    1.841    0.457
        23 -11.2816    128.6578    228.8017   8.3205630856e+01   1.3178922547e+01    0.2746861    0.2221137   9.83  0.001269706    1.176    0.150
        24  -8.7798    121.6702    123.3239   6.7321054527e+01   3.3687947664e+01    0.2160549    0.1720241  81.92 0.0006401627    1.700    0.412
        25 -10.1301     80.4385    210.3871   9.1585596537e+01   2.2228839881e+01    0.2564667    0.1862393  73.95  0.001026618    1.625    0.385
        26  -9.4578    102.7535    118.7311   7.1496697676e+01   3.8246250971e+01    0.2308296    0.2263357 -10.21 0.0004422455    1.034    0.033
        27 -12.0219    244.2803    114.3114   4.2309611312e+01   1.2532967574e+01    0.4785933    0.1976804 -22.67  0.002206487    2.323    0.570
        28  -9.2817    204.1391    110.8807   4.7133948308e+01   1.9809142128e+01    0.2962013    0.1740954  32.50  0.001457334    1.982    0.495
        29 -11.0452     43.5345    106.4333   8.8892213849e+01   5.0442396895e+01     0.595277    0.3105114  64.74  0.002027546    2.634    0.620
        30 -11.3822    241.8066    102.5374   4.0070579304e+01   1.4390480285e+01    0.2522498    0.2061574   1.64  0.001355632    1.233    0.189
        31  -8.3094     61.3368    100.6459   8.0984511615e+01   4.9577177823e+01    0.1595525    0.1107383  70.48 0.0007043356    1.799    0.444
        32 -10.5543     52.4203     91.0630   8.2210496398e+01   5.3285562871e+01    0.4268857    0.3447436  86.44  0.001679135    1.361    0.265
        33  -9.6674     41.5676     92.1095   8.6900675503e+01   5.4403604618e+01    0.2507319    0.2149706   6.01 0.0005884934    1.328    0.247
        34 -10.5274    166.0221     86.5394   4.7447507077e+01   3.1372776997e+01    0.3344885    0.2043296 -20.97  0.001188864    1.855    0.461
        35  -8.6070     77.1145     87.5300   7.1749828129e+01   5.0225960668e+01    0.2136078    0.1488972  41.01 0.0006976184    1.462    0.316
        36  -8.2278     81.6976     92.3046   7.1472719826e+01   4.8263968760e+01    0.1524033    0.1197039  79.50 0.0002901891    1.595    0.373
        37  -8.5206     71.7657     81.8287   7.2062944760e+01   5.2534244895e+01    0.2023983      0.17365  81.82 0.0003748788    1.339    0.253
        38  -9.0215    184.8180     76.9494   4.1552167276e+01   2.8739033978e+01    0.2171804    0.1822983   3.56 0.0006110544    1.313    0.238
        39  -8.2014     65.6583     75.3427   7.2467020538e+01   5.5139236782e+01    0.1571329    0.1181675  78.28 -0.0005363812    1.780    0.438
        40  -9.7525    148.5498     65.6597   4.4587723164e+01   3.8842623470e+01    0.3601978    0.1417916  58.02  0.001274416    2.667    0.625
        41  -9.3509     53.2431     64.4382   7.4241290106e+01   5.9771926836e+01    0.2856733    0.2064514  76.47 0.0009911201    1.975    0.494
        42  -8.7368     49.8689     61.6015   7.4840981500e+01   6.0966521788e+01    0.2302567    0.1951036  67.58 0.0005131805    1.387    0.279
        43 -10.7872      2.0028     61.4996   1.0015298068e+02   6.5675905121e+01    0.3521917    0.1416451 -76.29  0.001484476    2.165    0.538
        44 -10.4033     13.4371     60.0757   9.3517595899e+01   6.5406070219e+01    0.2609554    0.2184135 -75.04 0.0004330403    1.116    0.104
        45 -12.3060     42.2614    173.9917   9.7663458033e+01   3.4013784465e+01    0.8171373    0.4976675  -9.70   0.00149037    2.790    0.642
        46 -11.0233    101.7356    238.9694   8.9711944424e+01   1.4926544747e+01     0.289498    0.1762954 -67.87  0.001833957    2.305    0.566
        47 -10.4166     11.4987     52.8261   9.2985989524e+01   6.7390854851e+01    0.2326353    0.1965002   9.06 0.0008070617    1.315    0.239
        48  -8.3175     94.5600     46.5038   5.0961387096e+01   5.5200941595e+01    0.1484939    0.1465991 -28.11 0.0001099234    1.019    0.018
        49 -10.9414      2.1484     38.1230   9.5469393808e+01   7.1605856028e+01    0.4354168     0.155745 -75.18  0.001711886    2.699    0.630
        50  -9.1548     88.4639     54.4786   5.6245592793e+01   5.5142751850e+01     0.324713    0.2289206 -83.17  0.001107149    2.288    0.563
        51  -8.7665    115.5109     31.5042   3.9061764233e+01   5.2269492371e+01    0.1458031    0.1436356  79.92 -6.882125e-05    1.002    0.002
        52  -9.1452    116.4883     24.4543   3.5890814849e+01   5.2903854093e+01    0.2931674     0.175088 -62.12  0.001223642    2.109    0.526
        53 -10.0198    112.2195     20.2810   3.4947363474e+01   5.4509955620e+01    0.3361584    0.2357424 -55.08 0.0006168379    1.560    0.359
        54  -9.5277     11.3058     23.3395   8.3184878375e+01   7.4513336544e+01    0.1426514   0.08353665 -32.95 0.0007041331    1.679    0.405
        55  -8.8478     44.6123     20.3043   5.8181951546e+01   7.0447523722e+01    0.1353917     0.112322 -88.68 0.0001045482    1.801    0.445
        56 -10.8080      4.5125     15.4878   8.5350049241e+01   7.6801217312e+01    0.2345431    0.1603647  19.25 0.0009577056    1.568    0.362
        57  -8.6687    197.7411    223.4087   6.9521232748e+01   5.2997408498e+00     0.142698    0.0825491  19.87 0.0003206453    1.414    0.293
        58 -12.8335      7.6464    198.9360   1.0773770948e+02   3.1868787097e+01    0.4390561    0.3013036  20.53 0.0007603508    1.552    0.356
