#   1 NUMBER                 Running object number                                     
#   2 MAG_AUTO               Kron-like elliptical aperture magnitude                    [mag]
#   3 X_IMAGE                Object position along x                                    [pixel]
#   4 Y_IMAGE                Object position along y                                    [pixel]
#   5 X_WORLD                Barycenter position along world x axis                     [deg]
#   6 Y_WORLD                Barycenter position along world y axis                     [deg]
#   7 A_WORLD                Profile RMS along major axis (world units)                 [deg]
#   8 B_WORLD                Profile RMS along minor axis (world units)                 [deg]
#   9 THETA_WORLD            Position angle (CCW/world-x)                               [deg]
#  10 FWHM_WORLD             FWHM assuming a gaussian core                              [deg]
#  11 ELONGATION             A_IMAGE/B_IMAGE                                           
#  12 ELLIPTICITY            1 - B_IMAGE/A_IMAGE                                       
         1 -14.7414    106.1699    105.1189   5.8563355772e+01   4.0553697486e+01     1.373045     1.168002  59.11  0.005762178    1.248    0.199
         2 -13.9540     57.2071     64.0333   6.3178222219e+01   5.8216739321e+01     2.227361     1.279737  16.13  0.009290598    2.390    0.582
         3 -14.9105      6.4097     70.8780   8.9916728480e+01   6.3042797921e+01     1.200621    0.7781547 -42.36  0.006217981    1.338    0.253
         4 -15.4366    218.8378     16.0067   1.9603924284e+01   3.0872917057e+01     1.668057     1.037712 -37.05   0.01167882    1.731    0.422
         5 -14.4561    189.0289     23.1214   2.3173877646e+01   3.5715636568e+01     1.206132    0.7167716 -60.77  0.007649052    1.451    0.311
         6 -14.0456    122.1824     36.6114   3.5102869494e+01   4.8608733883e+01    0.9641737    0.5130175  40.45  0.003062286    2.377    0.579
         7 -13.1372     44.3677     32.5963   5.6768502130e+01   6.5615439982e+01    0.7037204    0.5213938  39.75  0.004121826    1.230    0.187
         8 -13.8404    241.8151     35.3483   2.1516675061e+01   2.4780583639e+01    0.6802199    0.3653765 -78.92  0.003312375    1.798    0.444
         9 -12.8181      7.7789      2.6623   6.2335493074e+01   7.5148147700e+01    0.6229602    0.3279481  41.99  0.003500707    2.089    0.521
        10 -15.8940     11.5998     22.8877   7.0353128084e+01   7.1890373760e+01     1.947271     1.119666 -11.25  0.008028498    1.948    0.487
        11 -13.5620     25.6555     13.4617   5.7172447008e+01   7.1244311271e+01    0.7085738    0.2015649  38.65  0.002869022    2.950    0.661
        12 -13.4127     29.9382      8.4417   5.2306115643e+01   7.1111214714e+01      0.40659    0.3102482  57.26  0.001532499    1.689    0.408
        13 -14.4508    166.6312     28.6919   2.6593602894e+01   3.9691402748e+01    0.8909916     0.696315  80.34  0.004193906    1.139    0.122
        14 -12.9841    140.5202     21.5169   2.8003355643e+01   4.6161966623e+01    0.8883394    0.2731328  67.84  0.002626331    2.772    0.639
        15 -13.0797    120.4187     25.9171   3.2284596991e+01   5.0233937748e+01    0.6368597    0.4486883  43.83  0.003444008    1.557    0.358
        16 -13.2807     55.8316     26.9538   4.9568505537e+01   6.4231499683e+01    0.6665477    0.3812947  47.70  0.002054428    1.501    0.334
        17 -14.4678    147.5955     29.7066   2.9174820038e+01   4.3701367182e+01     1.177252    0.6303355  69.08  0.004613563    1.646    0.393
        18 -13.6725     87.4463     14.9797   3.5303652024e+01   5.8804083581e+01    0.8667386    0.5429077 -65.99   0.00454507    2.260    0.558
        19 -15.3902     98.8367     11.3733   3.1656686220e+01   5.6566775330e+01     1.436476    0.7500688  63.91  0.005334554    1.546    0.353
        20 -11.8685     70.9348     16.1022   4.0012084794e+01   6.2318548117e+01    0.2786089    0.2372708  -5.28  0.001395999    1.382    0.276
        21 -12.5029     60.0321     15.2414   4.3071738262e+01   6.4696003084e+01    0.5679767    0.2575105  39.80  0.002636867    2.042    0.510
        22 -13.3707    187.9229     11.0786   2.0782464805e+01   3.7200947030e+01    0.5135497    0.4438946 -56.21  0.003151297    1.297    0.229
        23 -11.9198     46.8559     12.8470   4.6849173724e+01   6.7566134833e+01    0.2985859    0.2151856  50.56  0.001320564    1.259    0.206
        24 -13.9404     41.8801      4.4655   4.4830753730e+01   6.9331428323e+01    0.6766331     0.480057  28.12  0.004371026    1.270    0.213
        25 -12.1055     75.4437      8.5324   3.5796955819e+01   6.2033865778e+01    0.3080391    0.2380065 -19.34  0.002005402    1.587    0.370
        26 -11.6986    152.9672      8.3510   2.3228566907e+01   4.4715843547e+01    0.1908219    0.1774925 -36.55 0.0008685483    1.394    0.283
        27 -11.0763     80.2557      7.3418   3.4165739120e+01   6.1075195443e+01    0.2087839    0.1619999 -42.82 0.0009226208    1.567    0.362
        28 -10.0182     60.3104      6.3141   3.9131554944e+01   6.5465566585e+01    0.1276556     0.075374  35.40 0.0007030293    1.632    0.387
        29 -12.1999    118.8648      2.4969   2.5649153523e+01   5.2772717324e+01     0.439549    0.1998504  89.46  0.002033334    2.534    0.605
        30 -12.1315     77.5168      2.2742   3.2871513545e+01   6.2080970493e+01    0.7964013   0.06916552  57.54  0.002578307    4.313    0.768
        31 -11.0697     67.6306      2.7647   3.5517660669e+01   6.4198510063e+01     0.277925    0.1511093  38.54  0.001525125    1.782    0.439
        32 -11.3891     61.2709      1.4586   3.6735540548e+01   6.5656286061e+01      0.33535   0.09593796  60.05  0.001368854    2.770    0.639
        33 -11.5124    123.3509     10.4963   2.7339675494e+01   5.1085198026e+01    0.3150937    0.1819348 -74.37  0.001674983    1.971    0.493
        34 -13.1700     73.5111    153.2038   7.9948647173e+01   3.4576505232e+01    0.7959336    0.5733294  10.58  0.002558706    1.548    0.354
        35 -12.6784    109.4807    249.1895   8.4607385265e+01   6.7377049881e+00    0.4474213    0.2653516  30.69  0.002316831    1.477    0.323
        36 -12.4060     51.0849    248.5069   9.8761043554e+01   1.3656856289e+01    0.4796327    0.4187907  17.72  0.003039373    1.134    0.118
        37 -12.6739     57.7706    246.4584   9.6945210392e+01   1.3370345831e+01    0.6100185    0.2313874  21.34  0.002420956    2.596    0.615
        38 -13.2367     28.6257    246.0107   1.0400138717e+02   1.6502129194e+01     0.517832    0.3713715  74.05  0.002839823    1.430    0.300
        39 -12.2347      2.8140    249.4891   1.1019433982e+02   1.8077691452e+01    0.3773653    0.2637892  58.64  0.001757595    1.237    0.191
        40 -13.7906      9.6483    245.6761   1.0845214981e+02   1.8321804971e+01    0.9383631    0.4735252  47.03  0.003723708    1.675    0.403
        41 -11.5013     86.1680    152.2327   7.5712195649e+01   3.2881810849e+01    0.4984716    0.2289285 -36.78  0.001647992    2.834    0.647
        42 -11.3405     61.0291    152.0100   8.3864580480e+01   3.6661462801e+01    0.2267693     0.219559 -32.41            0    1.010    0.010
        43 -11.5432    103.3337    149.8396   7.0002851001e+01   3.0632391668e+01    0.3953466    0.2625705 -32.66  0.001418096    1.685    0.407
        44 -12.7294      8.0198    149.7377   1.0185058672e+02   4.2663429532e+01    0.6420695    0.4135876  70.02  0.003058406    1.731    0.422
        45 -12.5396     60.7893    147.0445   8.3042777519e+01   3.8024482832e+01     0.464683    0.3305822 -15.46  0.002063836    1.681    0.405
        46 -12.3064    211.2935    154.1403   4.6807312594e+01   1.1587627153e+01     0.217048    0.1415722 -30.13  0.001213713    1.471    0.320
        47 -12.5284     41.9928    137.9743   8.8060672837e+01   4.2829767897e+01     0.526195    0.3020733  44.21  0.002207923    1.905    0.475
        48 -14.0986    233.8623    129.2230   3.8959080631e+01   1.2617648313e+01    0.8106088    0.3661726 -44.49  0.004271483    1.736    0.424
        49 -12.4467    246.0712    134.2245   3.8321767589e+01   1.0149825633e+01    0.2901019    0.1813006 -68.31  0.001654104    2.320    0.569
        50 -12.3556    136.4530    132.4195   5.7178707436e+01   2.8638771004e+01     0.467354    0.2618815  35.97  0.001968287    1.928    0.481
        51 -14.1959    105.6324    120.9523   6.2741446709e+01   3.7136090044e+01     1.564665     1.209582  31.27   0.00757147    1.322    0.244
        52 -13.5573    171.8041    242.7789   6.9646216661e+01   5.6011939443e-01     0.653227    0.4163481   7.79  0.003728948    1.450    0.311
        53 -12.2673     48.9699     93.2862   7.5550040443e+01   5.3347140593e+01    0.4714122    0.3688078  52.48  0.001892985    1.528    0.346
        54 -12.6626     42.3244     90.4498   7.7627637740e+01   5.4917918081e+01     0.317614    0.2948878 -42.24 0.0003647787    1.125    0.111
        55 -11.9216     18.9575     86.3060   8.7270285721e+01   5.8470120828e+01     0.374491    0.2669175 -36.76 0.0005309178    1.277    0.217
        56 -14.4423     24.5595     93.0201   8.6206612040e+01   5.6332015142e+01     1.561823     1.129523  -1.92  0.008021454    1.402    0.287
        57 -12.2454     36.7648     92.9007   8.0697603584e+01   5.5039008387e+01    0.5007349    0.2817103  10.36  0.001312349    2.011    0.503
        58 -13.4967      2.2365     96.9279   9.7175585529e+01   5.7016867222e+01    0.9195106    0.3811793 -73.72  0.003573471    2.483    0.597
        59 -14.2633     18.4128    110.8836   9.2517407261e+01   5.2356661902e+01     1.053074    0.7882788 -27.49  0.004906834    1.308    0.236
        60 -12.9507     28.5708    121.9521   9.0340498432e+01   4.8544584401e+01    0.5031598    0.3102933 -45.26  0.002309897    1.526    0.345
        61 -11.6952     87.9061    109.0739   6.5255662655e+01   4.3212957391e+01    0.4579486    0.2741449 -55.62  0.001931515    1.808    0.447
        62 -12.3481     78.6745    110.0719   6.8632252898e+01   4.4647944609e+01    0.5351185    0.3704613 -83.63  0.002198933    2.285    0.562
        63 -11.7220     86.6407    114.8004   6.7136696922e+01   4.2113420941e+01    0.4058246     0.291323  -1.60  0.001223031    1.861    0.463
        64 -12.6287     82.2188    115.3979   6.8764098591e+01   4.2761469649e+01    0.3661883    0.2992168  20.56  0.001380776    1.255    0.203
        65 -12.2041    121.9730    112.0364   5.5979269135e+01   3.5888146326e+01    0.2309849    0.2225702  -0.16 0.0006535791    1.083    0.077
        66 -11.5756     63.5932    111.0216   7.4314854387e+01   4.6922576784e+01     0.471337    0.2483453  43.82  0.001866899    2.054    0.513
        67 -12.0834    177.4541    110.2018   4.3605578446e+01   2.5231155019e+01    0.3622024    0.3079996  35.68  0.002143855    1.392    0.282
        68 -14.0257     11.1987    102.5282   9.4137106772e+01   5.5050851197e+01    0.8619136    0.7293029 -52.21  0.004308898    1.084    0.078
        69 -10.9809     46.1917    109.9979   8.0834680203e+01   4.9663701047e+01    0.2648422    0.1488678 -34.47  0.001077189    1.966    0.491
        70 -11.1055     42.7215    106.5662   8.1456411409e+01   5.0966184823e+01     0.273634    0.1462597  17.18   0.00105558    2.029    0.507
        71 -12.5075    136.2755    102.7505   5.0129880286e+01   3.4851664261e+01    0.5652886    0.2842044  49.89  0.001793155    2.024    0.506
        72 -12.0284    181.2699    120.5670   4.5168941327e+01   2.2620458491e+01    0.2385894    0.1332176  54.30 0.0009282894    2.069    0.517
        73 -12.1277     61.3115     97.6893   7.1753451738e+01   5.0460391402e+01    0.5171182    0.3760892  72.50  0.002102233    2.088    0.521
        74 -12.0824    249.4368     98.7652   3.1793186419e+01   1.5122024108e+01    0.2316855   0.07915089 -45.73  0.001151877    2.181    0.541
        75 -11.7269    163.0749     97.0656   4.3219968272e+01   3.0410507633e+01    0.3104345    0.2433257  82.51  0.001052017    1.431    0.301
        76 -13.4827    137.0014     94.6331   4.7921695319e+01   3.6258612001e+01    0.5328174    0.4566712 -83.15  0.002443265    1.256    0.204
        77 -12.2444      4.8503    119.0935   9.9372533760e+01   5.1127461628e+01    0.6359119    0.3942208 -14.48  0.003065892    1.760    0.432
        78 -10.8398     81.0389     93.4655   6.3331096544e+01   4.7966861449e+01     0.306435     0.180583 -14.64  0.001033828    3.397    0.706
        79 -11.3779     35.2715     86.4866   7.9708110347e+01   5.6728804179e+01    0.2819284    0.2073093 -32.74 0.0006708258    1.310    0.237
        80 -13.9782    188.5763     81.8401   3.5706622886e+01   2.7929534260e+01     1.314394    0.8490186  85.87  0.007055187    1.888    0.470
        81 -13.8159    199.2646     69.7508   3.1785730986e+01   2.7732609250e+01    0.6872805    0.4702286  54.18  0.003726873    1.716    0.417
        82 -12.4510    199.8732     61.6410   3.0050564768e+01   2.8777671901e+01    0.4129069    0.3407235 -86.81  0.002312425    1.138    0.122
        83 -13.5688    212.7270     78.0011   3.1879033977e+01   2.4065903764e+01    0.8592731    0.4880697 -84.84  0.004425051    2.462    0.594
        84 -13.0630    216.2778     72.7049   3.0459184669e+01   2.4217424995e+01    0.6079293    0.3455008 -72.45  0.003350107    2.045    0.511
        85 -14.1352    163.9649     71.5302   3.7057857954e+01   3.4502462121e+01     1.208791    0.8549057  64.66   0.00683565    1.402    0.287
        86 -13.5115    161.0611     80.4972   3.9675233633e+01   3.3674217948e+01     0.753539    0.5304534  21.71   0.00329756    2.451    0.592
        87 -14.2385    169.2844     77.0313   3.7500417948e+01   3.2531972696e+01    0.7723448    0.5762886  35.08  0.002759782    1.826    0.452
        88 -13.3434    239.3926     81.5252   2.9754588953e+01   1.9128981560e+01     0.568028     0.305953 -84.68  0.003001524    2.876    0.652
        89 -11.2723    126.7495     83.4195   4.7338264645e+01   4.0516221216e+01    0.3659043    0.1882209  34.73 0.0009879932    2.760    0.638
        90 -10.8673     97.8297     84.1840   5.5237522306e+01   4.6540818387e+01    0.2083427    0.1737006  14.51  0.001075151    1.369    0.270
        91 -14.1692     97.3463    239.1911   8.6319922393e+01   1.0266184687e+01    0.7853488    0.7041318  29.60   0.00479968    1.101    0.092
        92 -13.3497     66.1822     49.1718   5.4374837491e+01   5.9104117180e+01    0.7223077    0.6519599 -34.66  0.004428291    1.249    0.199
        93 -13.4797     91.9619     57.7824   4.8854153958e+01   5.2436381298e+01    0.5331442    0.5069688  45.13  0.002277612    1.047    0.045
        94 -12.7139     54.9329     81.1436   6.9608595191e+01   5.5165884628e+01    0.6187864    0.5093697 -30.70  0.003342784    1.215    0.177
        95 -13.9866     61.3220     75.4205   6.5241449651e+01   5.5294210242e+01    0.7971341    0.5919218 -17.44  0.001292112    1.532    0.347
        96 -13.2024     71.1147     75.1090   6.1381269742e+01   5.3595519204e+01    0.6071488    0.4176628   9.44  0.001601808    1.897    0.473
        97 -12.0405     77.2117     73.4054   5.8647740309e+01   5.2760540637e+01    0.6960493    0.3333292 -34.88  0.002659432    2.512    0.602
        98 -13.6976     87.3856     65.3110   5.2676733920e+01   5.2165698166e+01    0.9961041    0.5896552  24.84  0.003787176    2.380    0.580
        99 -12.0524    114.1061     80.0294   4.9510138400e+01   4.3865760170e+01     0.424109      0.32908 -52.75  0.001613289    1.363    0.266
       100 -12.6412    135.5213     79.2346   4.4263946612e+01   3.9347194451e+01    0.6956506    0.3457853  56.12  0.002872024    1.996    0.499
       101 -11.4970     41.7198     75.9395   7.3781383495e+01   5.8252211286e+01    0.2882513     0.256126  79.46  0.001353124    1.513    0.339
       102 -13.9918     91.0190    231.5298   8.6956805772e+01   1.2708535928e+01    0.5965065    0.4971374 -64.95   0.00341425    1.374    0.272
       103 -14.1315      3.9209     63.1837   8.9354118527e+01   6.4927960659e+01    0.7737883    0.5584961  -8.72 0.0009784509    1.266    0.210
       104 -12.5448     50.2565     98.6110   7.6415068189e+01   5.1908999877e+01    0.8421358    0.4680822  10.37  0.003320318    2.318    0.569
       105 -11.2700     26.6015     74.6148   8.0557834355e+01   6.0419423387e+01    0.4931398    0.2913117 -81.87  0.001947613    3.288    0.696
       106 -11.2724    117.9906     72.2475   4.6333175750e+01   4.4380246356e+01    0.2293113    0.2035377 -44.79 0.0004961517    1.189    0.159
       107 -13.2002    133.7304     65.7478   4.1039358674e+01   4.1954411144e+01    0.7501232    0.6409634  13.01  0.003301357    1.549    0.354
       108 -12.2241    241.6161     70.6817   2.7634525418e+01   2.0300749170e+01    0.2860651      0.17089 -84.66  0.001810466    1.961    0.490
       109 -12.0455     99.9327     64.4195   4.8688035758e+01   4.9642221106e+01    0.3850519    0.3031004 -41.59  0.001844459    1.373    0.272
       110 -13.0237     79.1057     60.0911   5.3648144138e+01   5.4757314303e+01    0.6440153    0.4980569 -41.54  0.002984521    1.421    0.296
       111 -11.7447     84.0562     52.0877   4.9339500428e+01   5.5007172550e+01    0.6229064    0.3123195 -23.11  0.002435528    3.183    0.686
       112 -13.7452    177.8080     56.5399   3.1601702887e+01   3.3835423845e+01    0.8567338    0.4582481 -52.06  0.003718688    1.740    0.425
       113 -12.1785     38.8124     59.9596   6.9981550700e+01   6.1920345925e+01    0.3119935     0.214716  60.94   0.00145934    2.422    0.587
       114 -12.3198     37.2043     53.1471   6.8345682550e+01   6.3432460228e+01    0.4707435    0.2832866 -18.39  0.002217941    2.063    0.515
       115 -11.0787     34.4793     61.0076   7.2448072216e+01   6.2319335344e+01    0.2904262    0.1861804 -17.50 0.0008441369    1.764    0.433
       116 -11.7678     24.8740     58.9407   7.6660652022e+01   6.3932973974e+01     0.435311    0.2262284 -46.62  0.002086109    1.867    0.464
       117 -11.1973    111.2251     58.6067   4.3984256890e+01   4.8077514140e+01    0.2114842    0.1926863  24.75 0.0002857322    1.234    0.189
       118 -14.5835    120.2020     54.4227   4.0694991926e+01   4.6687873493e+01    0.9462247    0.6382141  55.12  0.003870128    1.359    0.264
       119 -12.6640    247.8868     54.2289   2.4292006966e+01   2.1496877420e+01    0.4303232    0.2116514 -53.21  0.002772587    1.529    0.346
       120 -12.5648    248.7341     48.8249   2.3320522077e+01   2.2045703413e+01    0.3136927    0.2359399 -70.47  0.001991413    1.122    0.109
       121 -13.6794    103.2801     50.4391   4.3426572137e+01   5.1058875056e+01    0.9183741    0.4841813 -49.84  0.001798155    2.267    0.559
       122 -13.5171     98.0100     50.0181   4.4649976305e+01   5.2289178388e+01    0.7060321    0.4234003 -46.91  0.002630887    1.899    0.473
       123 -11.4025     17.6833     55.4937   7.9419633383e+01   6.5407922434e+01    0.3018853    0.1982143 -52.55  0.001636607    1.602    0.376
       124 -11.8013    230.6799     54.9535   2.5775096200e+01   2.4184739518e+01    0.3036594    0.1583802  75.02  0.001856899    2.094    0.522
       125 -12.2048    135.6431     49.8721   3.6369302164e+01   4.3853916969e+01    0.4224225    0.2410668  44.00  0.001620283    2.033    0.508
       126 -13.1869    157.4441     43.6710   3.1312994903e+01   3.9855740886e+01    0.7405649    0.4655654  43.66  0.003957532    2.060    0.515
       127 -11.1109     38.9586     46.0253   6.4804217248e+01   6.4423043964e+01    0.2020268    0.1746868  12.87 0.0004685742    1.034    0.033
       128 -11.8670    147.5778    238.8182   7.4304970931e+01   4.1057494994e+00    0.1669057    0.1289745 -58.27 0.0009497354    1.683    0.406
       129 -14.6490    212.5954     40.8710   2.4687725495e+01   2.9144533019e+01     1.821504    0.5613193  75.18  0.007683991    4.004    0.750
       130 -11.8396     16.8200    236.1521   1.0621752348e+02   1.9814399785e+01    0.2091875    0.1534584  54.64  0.001237942    1.219    0.180
       131 -12.6376      3.7663     42.7755   8.3420981728e+01   6.9167763167e+01     0.524401    0.3359991   1.92  0.003019839    1.408    0.290
       132 -10.9749     25.6374     44.3524   7.1046053632e+01   6.6607191707e+01    0.1863068    0.1568683  51.75  0.001115462    1.642    0.391
       133 -12.1043    135.0450     39.0184   3.3517780624e+01   4.5401822762e+01    0.4476788    0.2462908  73.93  0.001246498    1.800    0.444
       134 -12.6425    109.9784     41.9062   3.9176090030e+01   5.0716510325e+01    0.5042521    0.1743357  55.11 0.0007179544    2.456    0.593
       135 -11.3754     27.8351    235.2777   1.0345372894e+02   1.8986187425e+01    0.2267242    0.1370165  45.06   0.00119089    1.468    0.319
       136 -13.1586    113.6236     37.7554   3.7121956868e+01   5.0414807765e+01    0.3729574    0.2858783  78.71  0.001338125    1.270    0.213
       137 -12.9980    131.6694     33.1570   3.2462023093e+01   4.6868175518e+01    0.4735624    0.3915407   7.51    0.0019663    1.714    0.416
       138 -12.4859     24.1467    216.5813   1.0301296505e+02   2.3769501608e+01    0.7827358    0.3474237  44.95  0.003417917    2.074    0.518
       139 -10.8379     35.0483     34.7266   6.2148358668e+01   6.6851782822e+01    0.1867667    0.1457233  22.18 0.0005037119    1.082    0.076
       140 -12.1402     40.4640     40.2520   6.1781566448e+01   6.5129410628e+01    0.4950613    0.2804942  30.00  0.002509989    1.601    0.376
       141 -12.5815     32.9882     40.4004   6.5563328329e+01   6.6265919961e+01    0.3674763    0.2542427  15.58 0.0006488132    1.345    0.257
       142 -11.5114    181.9052     38.1431   2.7052368165e+01   3.5402479713e+01    0.2475082    0.1651587 -37.13  0.001526972    1.615    0.381
       143 -12.6490     75.9451     36.9919   4.6520631899e+01   5.8860891609e+01    0.4689623     0.278266  43.98  0.001353378    1.479    0.324
       144 -11.7601     70.6594     36.1472   4.7923280608e+01   6.0076695391e+01    0.2877222    0.2691526 -23.67 0.0008080481    1.223    0.183
       145 -13.6797     26.3704    226.5665   1.0319025672e+02   2.1155753021e+01    0.8852453    0.4359584 -48.76  0.004002222    2.363    0.577
       146 -11.9441    104.4748     36.4672   3.8694069276e+01   5.2647854318e+01    0.2454991    0.1311305 -33.64 0.0009965068    2.134    0.531
       147 -13.8777     20.6268    224.0076   1.0447479814e+02   2.2300442275e+01    0.7744191    0.6031572  28.81  0.004443288    1.233    0.189
       148 -14.1924     66.2941    223.1855   9.2407311228e+01   1.7653946811e+01     1.172146    0.8888428  30.23  0.006338643    1.204    0.169
       149 -13.8369     64.3746    214.0049   9.1866907832e+01   2.0082071793e+01    0.5687314    0.4385121  37.40  0.002785095    1.215    0.177
       150 -13.1276     59.6706    212.4536   9.2978176940e+01   2.1022502645e+01    0.6254146    0.3547632 -29.19  0.001978146    2.406    0.584
       151 -12.7767     94.2307    218.2842   8.4381314225e+01   1.5277520477e+01    0.3181843      0.23887  35.38  0.001469052    1.269    0.212
       152 -10.8764    136.6132    210.8265   7.2495148897e+01   1.1139687999e+01    0.1892978    0.1366955 -61.55 0.0009464596    1.705    0.413
       153 -12.6484     72.2523    206.7597   8.8788448053e+01   2.0882965091e+01    0.3658138     0.307206  52.82  0.001963523    1.236    0.191
       154 -12.5198     41.5135    206.1399   9.7343682192e+01   2.4639478542e+01    0.3014455    0.2012136  53.66  0.001481657    1.522    0.343
       155 -12.6225     63.0079     25.4336   4.6313711891e+01   6.2979745784e+01    0.5093976    0.2874013  35.98  0.002101772    1.701    0.412
       156 -10.3688     87.7830     27.9186   3.9840050578e+01   5.7396118714e+01    0.1449037    0.1082642 -25.51 0.0006115556    1.595    0.373
       157 -12.5730     57.5911    202.3409   9.2368597002e+01   2.3792663679e+01    0.8008192    0.3452535 -75.37  0.002892972    2.916    0.657
       158 -12.4581     30.8201     25.3395   6.0168998156e+01   6.8884033544e+01     0.432614    0.1840842  29.36  0.001631576    2.336    0.572
       159 -12.1484     36.2489     23.5883   5.6600044359e+01   6.8235780691e+01    0.3371023    0.2324832 -24.89   0.00201876    1.585    0.369
       160 -13.2365     16.2223    197.7225   1.0369369544e+02   2.9216577475e+01     1.088905    0.2006841 -57.24  0.003277017    4.383    0.772
       161 -12.8966     40.3388    194.8551   9.6490203249e+01   2.7661103387e+01      0.53316    0.2930238  77.00  0.002151251    2.404    0.584
       162 -10.9563     51.5338     20.3441   4.8391920208e+01   6.5850559878e+01    0.3142408    0.1093063  51.46  0.001297898    2.558    0.609
       163 -11.8887     46.4983     19.7484   5.0173142012e+01   6.6879490751e+01     0.400749    0.1454336  37.05  0.001635593    2.731    0.634
       164 -12.6422     36.9904    194.7276   9.7454596506e+01   2.8044109803e+01    0.4118123    0.2753534  74.33  0.001960537    1.679    0.404
       165 -13.4549     29.9549    169.3695   9.6767734786e+01   3.5514915576e+01     1.126227    0.8537259 -13.76  0.005656759    1.508    0.337
       166 -13.1116     22.2426    180.8828   1.0043455008e+02   3.3117506580e+01    0.6493373    0.4258742 -66.74  0.002314205    1.450    0.310
       167 -15.3278      7.4010    181.9446   1.0498449205e+02   3.4033733285e+01      2.20202     1.351341 -78.81    0.0109011    1.535    0.349
       168 -14.0732     15.5554    174.8161   1.0189958709e+02   3.5307480468e+01    0.8770831    0.6016774  67.68  0.004038743    1.531    0.347
       169 -12.6247    245.3801     30.0038   2.0397427495e+01   2.4827883798e+01    0.3177893    0.1527892 -45.63  0.002118669    1.613    0.380
       170 -11.4782    163.6585    194.3321   6.3401362932e+01   1.0756306265e+01    0.1312971    0.1127756  76.44 0.0007051245    1.750    0.429
       171 -11.1753    201.0835    191.4897   5.5380192077e+01   6.2234467981e+00    0.2193068    0.1545126 -21.78  0.001279608    1.306    0.234
       172 -11.7537     48.7909    181.4681   9.2349979417e+01   3.0259458318e+01    0.4183405    0.2205408 -45.95  0.001716648    1.994    0.498
       173 -12.3223    198.6300    181.3949   5.4020285932e+01   8.3912916471e+00    0.2638413    0.2327261 -35.66  0.001443728    1.153    0.133
       174 -12.8395    124.1452    166.3810   6.7602469814e+01   2.3088028819e+01    0.6251848    0.4021411 -73.26  0.002520382    2.348    0.574
       175 -11.2448      1.9551    159.1807   1.0478016555e+02   4.0491593179e+01    0.3263209    0.1773794 -69.46  0.001381674    1.637    0.389
       176 -11.4508    112.3036    157.0271   6.8927891003e+01   2.7332331891e+01    0.2254468    0.2050254 -46.39  0.001169078    1.097    0.089
       177 -11.9645     11.7324     43.4055   7.8717527028e+01   6.8353046440e+01    0.4501227    0.2319986   2.98  0.001983914    2.122    0.529
       178 -12.1049     76.8771    156.8243   7.9544677670e+01   3.3123780047e+01    0.4583354    0.3575234  18.23  0.001282179    1.321    0.243
