#   1 NUMBER                 Running object number                                     
#   2 MAG_AUTO               Kron-like elliptical aperture magnitude                    [mag]
#   3 X_IMAGE                Object position along x                                    [pixel]
#   4 Y_IMAGE                Object position along y                                    [pixel]
#   5 X_WORLD                Barycenter position along world x axis                     [deg]
#   6 Y_WORLD                Barycenter position along world y axis                     [deg]
#   7 A_WORLD                Profile RMS along major axis (world units)                 [deg]
#   8 B_WORLD                Profile RMS along minor axis (world units)                 [deg]
#   9 THETA_WORLD            Position angle (CCW/world-x)                               [deg]
#  10 FWHM_WORLD             FWHM assuming a gaussian core                              [deg]
#  11 ELONGATION             A_IMAGE/B_IMAGE                                           
#  12 ELLIPTICITY            1 - B_IMAGE/A_IMAGE                                       
         1 -12.1365    238.0837     68.0860   7.1816126414e+01   1.7223728904e+01     2.224278    0.5590729 -49.23  0.006411201    4.562    0.781
         2 -12.9044    229.5005     41.7525   6.6886178846e+01   2.3138363256e+01     2.321194    0.5689115 -41.60  0.008088347    3.417    0.707
         3 -13.3300    247.8354     19.6301   6.0229322589e+01   2.1883073904e+01     2.677824     1.003438 -42.73   0.01242588    2.315    0.568
         4 -13.7859    245.9581     54.6586   6.7845112682e+01   1.7521110207e+01     6.321245    0.8799541 -46.58    0.0158827    6.419    0.844
         5 -10.3619    187.8752     11.4165   6.4631232427e+01   3.6886444431e+01    0.4296035    0.1477728 -51.24  0.001559982    3.657    0.727
         6  -8.3839    167.3228      9.6569   6.6900174374e+01   4.2070411026e+01    0.1371147   0.09145291 -70.60 0.0005220961    1.730    0.422
         7  -8.3266    160.5981      9.1976   6.7755241030e+01   4.3743071252e+01    0.1685664    0.1278469   0.40 0.0007403953    1.702    0.412
         8  -9.1733    133.1435      8.6326   7.2180447288e+01   5.0288254180e+01    0.1627281    0.1593554 -74.20 0.0006870381    1.180    0.152
         9  -8.8333      2.4499      8.4931   1.1530202772e+02   7.1254075140e+01    0.1051177   0.07267821 -21.26 0.0008084449    1.016    0.016
        10  -8.8566    117.5393      9.0175   7.5424640831e+01   5.3760718199e+01    0.1711638    0.1245469 -17.43 0.0003837002    1.535    0.349
        11 -10.1993    110.7622      4.9142   7.5461527512e+01   5.5581363058e+01    0.2735123    0.2041454 -43.03            0    1.672    0.402
        12  -8.3694     16.4906      6.4906   1.0780659986e+02   7.0391688688e+01    0.1065788   0.07820469 -11.80 0.0001807999    1.039    0.038
        13  -9.7425     97.4584      4.3414   7.8348991654e+01   5.8392014038e+01    0.3751254     0.161119  47.68  0.001849677    1.883    0.469
        14  -8.3067     64.5364      5.0166   8.8043967371e+01   6.4365726282e+01    0.1587309    0.1031031 -19.01 0.0003751959    1.511    0.338
        15  -9.0545      4.5804      4.5838   1.1262525577e+02   7.1631750826e+01    0.1528579     0.146854 -80.66  0.001255798    2.200    0.545
        16  -8.4775    153.4882      3.9387   6.7316996716e+01   4.5926418980e+01    0.1733273    0.1289748 -26.63  0.001023549    1.570    0.363
        17  -9.7732     50.9281      3.6961   9.2205377674e+01   6.6597618755e+01    0.1906802    0.1368476  -7.67 0.0002770869    1.215    0.177
        18  -8.9508     14.9613      2.0051   1.0650683187e+02   7.1089152388e+01    0.1581299    0.1090166  -9.97  0.001202695    1.062    0.059
        19  -8.3564    168.3947      2.1785   6.4708080379e+01   4.2504172674e+01    0.1696262    0.1119606 -44.30 0.0009441526    1.675    0.403
        20  -8.9863    229.6001    236.3250   1.0894800122e+02  -9.5719655634e+00    0.2364089     0.183776  84.41  0.001246402    2.870    0.652
        21 -10.4482    225.8414    248.6037   1.1168149055e+02  -1.0624863414e+01    0.3805141     0.214271  35.43  0.001012015    1.499    0.333
        22 -10.3860    193.9772    249.1925   1.1765116612e+02  -5.5636924180e+00    0.4126537    0.2669374  51.69  0.002338946    1.630    0.387
        23  -9.7652    168.0311    249.9952   1.2265902809e+02  -1.2878778170e+00    0.2617876    0.1548046  36.73 0.0003431376    1.475    0.322
        24  -9.1629    247.6897    234.3582   1.0535812696e+02  -1.2091044712e+01    0.2949696    0.2311454  66.35  0.001718801    2.432    0.589
        25  -8.2614    215.3439    234.6424   1.1129712790e+02  -7.0218684339e+00    0.1197755    0.1000076  72.30  0.000703542    1.830    0.454
        26  -7.9479    240.3221    232.6551   1.0637133448e+02  -1.0748122699e+01    0.1079473   0.09989193  76.08  0.000705003    1.733    0.423
        27  -8.9599    225.4469    231.9361   1.0895477998e+02  -8.2931369885e+00    0.2203893    0.1592422 -49.66  0.001280627    1.875    0.467
        28  -9.3067    223.3299    227.4476   1.0856437874e+02  -7.2987665193e+00    0.2906532    0.2286375 -42.70  0.001239642    1.530    0.346
        29  -8.3258    229.2820    228.6421   1.0767274543e+02  -8.4463555853e+00    0.1107694     0.102171  88.58 0.0003711611    1.668    0.400
        30  -8.7994    216.8180    228.2326   1.0992076855e+02  -6.3269094737e+00    0.1745665    0.1444195  18.22 0.0004613808    1.056    0.053
        31  -9.3201    216.9909    223.7106   1.0909494588e+02  -5.6760898988e+00    0.4049337    0.2049393 -49.01  0.001859987    2.633    0.620
        32  -8.5010    211.8229    227.9810   1.1082124072e+02  -5.4421306277e+00    0.1892623    0.1534498 -74.27  0.001074706    1.997    0.499
        33 -10.3671    247.1447    226.0148   1.0397556300e+02  -1.0894751145e+01    0.3472417    0.3021996 -37.39  0.002343617    1.465    0.318
        34  -8.8592    198.6577    226.5111   1.1309498788e+02  -2.9273494521e+00    0.2174822    0.1237327 -41.60  0.001093284    1.973    0.493
        35  -8.9388    206.5708    225.8411   1.1145337354e+02  -4.2084717521e+00    0.2305959    0.2029517  86.85  0.001402169    1.631    0.387
        36  -9.8503    239.6927    221.4846   1.0449244828e+02  -9.0989083067e+00    0.3111124    0.3029927  -3.13  0.002158755    1.348    0.258
        37  -9.7485    240.1533    215.8479   1.0337601286e+02  -8.3586464078e+00    0.3205551    0.2465318  48.33  0.001884726    1.573    0.364
        38  -9.2151    227.6118    217.7094   1.0602178082e+02  -6.5659434423e+00    0.2838182     0.149107 -26.54  0.001347455    2.172    0.540
        39 -10.3320    235.2481    147.6506   9.0388046240e+01   3.8685864201e+00     0.678376    0.4420348 -70.61  0.002798549    2.645    0.622
        40 -10.3274    242.9041    200.5387   9.9980344521e+01  -6.5082345087e+00    0.5122002    0.2553019 -33.86  0.001939886    1.962    0.490
        41 -10.9981    238.8546    160.3969   9.2515373935e+01   8.8666212490e-01      1.14814    0.6199797 -61.34   0.00402713    3.803    0.737
        42 -10.3453    250.1887    200.6029   9.8694494593e+01  -7.7194673946e+00     0.452329    0.1736362 -38.14  0.001633534    2.526    0.604
        43 -12.3544    244.6850    184.6743   9.6524292694e+01  -4.2951451613e+00      2.12946    0.8846048 -49.12  0.007973574    3.355    0.702
        44 -11.0924    244.9769    110.1490   8.0386563448e+01   8.6101844233e+00    0.9949351    0.6461091 -84.55  0.004348505    2.411    0.585
        45 -10.4622    240.5357    126.2185   8.4709543412e+01   6.6724171191e+00     1.050477    0.4313431 -44.69  0.004059755    2.285    0.562
        46 -10.4795    247.8119    217.8241   1.0236717926e+02  -9.8600850614e+00    0.4919973    0.3265757 -42.00  0.002130609    1.751    0.429
        47 -10.7214    247.9183    207.7856   1.0047186602e+02  -8.4255529251e+00    0.4710358    0.3664828 -56.27  0.002734518    1.907    0.476
        48 -10.0212    244.1286    148.8708   8.9112037587e+01   1.9074355618e+00    0.4922497    0.2736447 -48.38  0.001735957    1.870    0.465
        49 -11.0863    248.0791    120.5431   8.2231195309e+01   6.1390994853e+00     1.099045    0.6382232 -63.97  0.004564593    2.514    0.602
        50  -9.8950    242.0655    133.7397   8.6136925971e+01   5.0087580658e+00    0.4648677    0.2058774 -42.04  0.001498758    2.063    0.515
        51 -11.8654    245.9157    162.8078   9.1788793689e+01  -8.5617406221e-01     1.483404    0.5115744 -46.15  0.005209353    3.222    0.690
        52 -11.5857    247.3752    147.5947   8.8285937230e+01   1.5089289061e+00     3.352096    0.9500014 -49.86  0.007791011    7.339    0.864
        53 -10.1594    247.9567    129.9107   8.4324893938e+01   4.5101253582e+00    0.4825847    0.2800176 -51.79  0.001413276    1.815    0.449
        54  -8.4466    219.7943    217.9253   1.0752820295e+02  -5.2692333425e+00    0.1898621    0.1540062 -71.14  0.001060431    1.966    0.491
        55  -9.9341    233.3198    212.1641   1.0394008592e+02  -6.6843865824e+00    0.5588521    0.2398873 -30.79  0.002411575    2.580    0.612
        56  -9.6649    192.6261    213.8876   1.1208221898e+02   2.4871091466e-01    0.4222903    0.2836603 -26.59  0.001653946    1.769    0.435
        57  -9.3111    216.7520    212.2480   1.0706799052e+02  -3.8456403899e+00    0.3325905     0.177379 -45.04  0.001576769    2.134    0.531
        58 -11.2817    176.4511    210.6217   1.1477436427e+02   3.8557709473e+00    0.4578125    0.3868471 -63.81  0.002615507    1.398    0.285
        59  -9.0073    224.8253    208.4273   1.0482262408e+02  -4.6524849143e+00    0.2750679    0.1481657 -52.88  0.001192071    2.781    0.640
        60  -9.1612    228.2292    202.2665   1.0301059273e+02  -4.2637263584e+00    0.2631223    0.1740532 -50.91  0.001340618    1.922    0.480
        61  -9.7960    201.3690    206.3759   1.0897589543e+02  -8.0663949144e-02    0.5928698    0.2308249  43.33  0.002346295    2.396    0.583
        62 -10.3625    241.1347    209.1352   1.0194380115e+02  -7.5242387980e+00    0.3950422    0.3403373 -68.37  0.002091031    1.806    0.446
        63  -9.2803    235.1822    203.5223   1.0196122147e+02  -5.6667156921e+00    0.2890852    0.1609083 -46.65  0.001335802    2.141    0.533
        64 -10.3111    235.4013    181.4854   9.7553568203e+01  -2.1140988437e+00     0.365053    0.2603208 -27.62  0.001955355    1.358    0.264
        65  -9.8076    237.1649    187.6611   9.8481889021e+01  -3.4618702526e+00    0.4418843    0.2308565 -40.56  0.001497637    1.903    0.474
        66 -10.0013    237.0508    198.3006   1.0060831486e+02  -5.1639044508e+00    0.4575022    0.2212495 -38.21  0.002119046    2.051    0.512
        67  -8.7849    237.5181    193.0211   9.9485895638e+01  -4.3990466889e+00    0.1995607    0.1824369  81.37 0.0007084477    1.536    0.349
        68 -10.3965    172.9733    203.5365   1.1423528614e+02   5.8373962943e+00    0.2664166    0.2027854 -68.43  0.001210671    1.658    0.397
        69  -8.8008    230.8388    199.0029   1.0189196545e+02  -4.1959054365e+00    0.2409243    0.1709003 -45.16  0.001303617    1.588    0.370
        70  -9.1597    231.3701    194.2181   1.0085581124e+02  -3.5107523902e+00    0.2971236    0.1946925 -40.43  0.001272461    1.569    0.363
        71 -10.0238    230.4167    188.0329   9.9801721196e+01  -2.3118369664e+00    0.5055671    0.2325251 -48.91  0.002034793    2.729    0.634
        72  -9.2077    176.4016    199.1475   1.1272006341e+02   6.0046339424e+00    0.1976502    0.1365323 -59.56 0.0009518384    1.757    0.431
        73  -9.1640    229.3580    207.4266   1.0378419785e+02  -5.2798102696e+00    0.3173068     0.190731 -45.88  0.001315976    1.939    0.484
        74  -9.7592    224.0970    192.9254   1.0196673349e+02  -1.9845548729e+00    0.3750805    0.2213007 -55.54  0.001656274    2.471    0.595
        75  -8.7690    215.6967    192.9603   1.0358573812e+02  -4.3694741629e-01    0.1932922     0.180251 -12.20 0.0007720388    1.074    0.069
        76  -8.1740    217.3039    204.6787   1.0554488151e+02  -2.7136508027e+00     0.125125    0.1096522  85.98 0.0003060799    1.634    0.388
        77  -7.8881    219.3116    178.6543   9.9993010419e+01   1.3971372912e+00    0.1381499     0.114522 -80.27    0.0003614    1.708    0.415
        78  -9.5679    232.7302    174.6853   9.6641794584e+01  -4.5597334798e-01    0.3239661    0.1745693 -41.07  0.001200747    1.814    0.449
        79  -9.0538    227.8647    171.6100   9.6900403424e+01   1.0066145647e+00    0.3201247    0.1729606 -48.69  0.001386002    2.073    0.518
        80  -9.3244    223.4907    173.6588   9.8154002423e+01   1.4840844845e+00    0.3780118    0.2036525 -51.62  0.001085829    2.278    0.561
        81  -9.4994    218.7419    168.3740   9.7943772026e+01   3.3752025118e+00    0.4634632    0.2583865 -49.46   0.00200348    1.995    0.499
        82  -8.8670    205.0704    169.5536   1.0088246443e+02   5.9163806117e+00    0.3179651    0.1846461 -59.55  0.001257012    2.491    0.599
        83  -9.2742    178.7663    169.3866   1.0633189965e+02   1.1436122442e+01    0.2783004    0.1874129 -56.84  0.001132161    1.683    0.406
        84  -8.9362    229.1508    166.4587   9.5570844813e+01   1.6770808305e+00    0.2588711    0.1907689 -36.99  0.000892396    1.302    0.232
        85  -8.9190    191.8081    166.5125   1.0294883229e+02   9.2672272711e+00    0.2975684    0.1985502 -59.77  0.001310137    1.849    0.459
        86  -9.5546    199.6372    165.0781   1.0102257248e+02   7.9065799736e+00     0.343512    0.2455198 -59.62  0.001152565    1.684    0.406
        87  -9.5441    212.8362    163.6190   9.8067662018e+01   5.4536365852e+00    0.4023233    0.1865987 -44.21   0.00158965    2.163    0.538
        88  -8.5141    172.3167    163.8094   1.0655288355e+02   1.3965764680e+01    0.3090673      0.13622 -52.73  0.001078678    2.611    0.617
        89  -9.4310    204.8876    162.0235   9.9296293542e+01   7.4033160447e+00    0.3988115    0.2703111 -63.41   0.00175499    1.990    0.497
        90  -8.8208    221.4382    161.8307   9.6022880836e+01   4.0423790154e+00     0.268658    0.1342937 -44.02 0.0008314441    1.988    0.497
        91  -8.6207    231.0779    159.8297   9.3794678345e+01   2.4921717845e+00    0.2114077    0.1898215 -58.96 0.0006431569    1.260    0.206
        92  -9.9176    223.5921    146.9340   9.2338106211e+01   6.3765028053e+00    0.4123079    0.3311395 -54.01  0.001527271    1.319    0.242
        93  -9.3134    224.1300    140.3705   9.0761792500e+01   7.4949370779e+00    0.3524028    0.1942324 -42.36 0.0009651228    1.723    0.420
        94  -9.5018    226.6541    157.5654   9.4117924828e+01   3.7807661124e+00     0.529251    0.1930382 -43.65   0.00189362    2.695    0.629
        95  -9.7479    228.1872    150.9677   9.2388797758e+01   4.6841756121e+00    0.5210673    0.2230059 -33.72  0.001944482    2.479    0.597
        96  -8.5766    176.4153    160.2206   1.0487652399e+02   1.3840105569e+01    0.2194148    0.1449056 -56.52  0.000949889    1.692    0.409
        97  -9.7399    197.3198    157.8475   9.9916510218e+01   9.8245056041e+00    0.4128912    0.2730806 -53.73  0.001851047    1.674    0.403
        98  -8.7060    216.4703    156.5509   9.5818839128e+01   6.0422657948e+00    0.2614461    0.1316783 -50.22 0.0009814823    2.235    0.553
        99  -9.5325    221.7492    154.1816   9.4292268926e+01   5.4008949399e+00    0.6464884    0.1938524 -45.03  0.002028908    3.430    0.708
       100  -9.5600    205.6387    154.7462   9.7541928554e+01   8.6612786276e+00    0.3139689    0.2323643 -41.91  0.001272845    1.332    0.250
       101  -8.4294    211.5969    151.8668   9.5723158078e+01   7.9558355655e+00     0.216133    0.1343368 -51.81 0.0009376199    1.758    0.431
       102  -9.1695     41.1991    148.8606   1.3558254418e+02   4.0113216076e+01    0.1902415     0.151307  88.02 0.0004446105    1.161    0.139
       103  -8.1462    118.6788    148.2990   1.1588780851e+02   2.8546536566e+01    0.1554693    0.1160722  80.55 0.0003468913    1.623    0.384
       104  -8.9697    207.5229    145.5345   9.5091629743e+01   1.0059231637e+01    0.2768189     0.134896 -50.81   0.00103193    2.300    0.565
       105  -8.8301    218.4984    144.4922   9.2740251251e+01   7.9063904281e+00    0.2517237    0.2350967 -68.83  0.000730296    1.157    0.135
       106  -9.5770    214.2921    142.6539   9.3120883107e+01   9.1565369839e+00    0.3958706    0.2460031 -55.50  0.001234918    1.867    0.464
       107  -9.2978    215.6895    149.4652   9.4394040079e+01   7.5521229901e+00    0.3315305     0.229424 -52.69   0.00143037    1.559    0.359
       108  -9.8195    155.4946    143.9526   1.0596541092e+02   2.1915708161e+01    0.3574097    0.1505496 -52.34  0.001200416    2.602    0.616
       109  -9.6263    229.9945    141.4430   8.9943037063e+01   6.0715468610e+00    0.4186031    0.1975932 -44.96  0.001374724    2.056    0.514
       110  -8.5488    181.9778    142.9315   9.9763333485e+01   1.6240952218e+01     0.250667    0.1919467 -80.62 0.0009119905    1.709    0.415
       111  -8.9990    238.9556    140.5303   8.8169739110e+01   4.4132178076e+00    0.2684998       0.1837 -51.23  0.000730228    1.516    0.340
       112  -7.9842    203.6218    141.2979   9.4891282562e+01   1.1747009823e+01    0.1567653    0.1208571 -86.79 0.0007024163    1.757    0.431
       113  -8.8729    225.2606    133.6772   8.9033232753e+01   8.5108921704e+00    0.2894385    0.2641818 -43.90  0.001038897    1.043    0.042
       114 -10.1747    217.9067    138.0868   9.1392537955e+01   9.2541644134e+00    0.5820107    0.4022041 -76.73  0.002474745    2.252    0.556
       115  -9.9993    220.9321    129.4386   8.8839405509e+01   1.0243097083e+01     0.515992    0.2776552 -54.27   0.00204962    2.180    0.541
       116  -9.0842    208.5763    138.6731   9.3308350221e+01   1.1172779336e+01    0.2893686    0.1849035 -50.26     0.001276    1.616    0.381
       117  -9.0702    234.4528    136.2374   8.7989814553e+01   6.1086384902e+00     0.345994    0.2194825 -64.18  0.001422339    2.232    0.552
       118  -8.5336    198.6235    136.8139   9.4848940400e+01   1.3753388073e+01    0.2239019    0.1392809 -50.69 0.0009466115    1.673    0.402
       119  -8.5630    192.4995    137.0391   9.6155107635e+01   1.5087101604e+01    0.2425434     0.150604 -42.30   0.00103254    1.589    0.371
       120  -8.8638    162.7713    135.9920   1.0240942864e+02   2.2046693223e+01    0.2160389    0.1301253 -45.05 0.0008812324    1.661    0.398
       121  -8.4233    194.5633    143.8061   9.7308613988e+01   1.3249688874e+01    0.2203625    0.1426171 -53.55 0.0009434037    1.675    0.403
       122  -8.7172    179.3460    132.8548   9.7947412354e+01   1.8947039641e+01    0.3246053    0.1369771 -50.35  0.001080595    2.611    0.617
       123  -9.3505    205.9927    131.4344   9.2118779813e+01   1.3167098561e+01    0.2996446    0.2076723 -57.83  0.001221335    1.613    0.380
       124  -8.9626    217.9740    133.0051   9.0208970691e+01   1.0210078690e+01    0.3647236    0.2242558 -60.96  0.001172924    2.129    0.530
       125  -8.6411    186.0390    129.0400   9.5592600566e+01   1.8199669923e+01    0.2508585    0.1913973 -78.35 0.0008028946    1.672    0.402
       126  -9.3611    199.6297    126.6341   9.2226887879e+01   1.5559570797e+01     0.309042    0.2875564 -89.99  0.001034885    1.126    0.112
       127  -8.6613    227.9187    125.9676   8.6792212326e+01   9.3796491691e+00    0.2384511    0.1739187 -68.91  0.001122307    1.710    0.415
       128  -9.9070    179.9353    124.1310   9.5692219257e+01   2.0627435045e+01    0.5386832    0.3191806 -46.45   0.00220536    1.681    0.405
       129  -8.7724    188.0966    123.4256   9.3791513230e+01   1.8870267552e+01     0.329247    0.1962891 -56.76   0.00130715    1.956    0.489
       130  -8.3486    212.6007    122.7911   8.8811117271e+01   1.3360083978e+01    0.2192095    0.1348549 -49.83 0.0009425134    1.641    0.391
       131  -8.3883    220.0000    120.9727   8.7029786767e+01   1.2048255279e+01    0.2503419   0.08156819 -39.50 0.0007986269    2.916    0.657
       132 -10.4672    230.6909    115.2960   8.3851381664e+01   1.0745541609e+01     0.848235    0.1756555 -43.19  0.002298147    4.398    0.773
       133 -10.6582    230.8901     90.3443   7.7992171528e+01   1.5157477428e+01    0.8325405    0.3338597 -32.16  0.002940184    2.903    0.656
       134 -10.2601    230.1058     83.2650   7.6448427769e+01   1.6550202886e+01     0.398419    0.2592484 -39.61  0.001441828    1.469    0.319
       135  -9.5563    225.1438     81.9049   7.6873049397e+01   1.7926354164e+01      0.33767    0.3037778  22.21  0.001874177    1.400    0.286
       136  -9.9159    225.9530     88.0323   7.8207484399e+01   1.6687149787e+01    0.6080287    0.3566762 -65.92  0.002526868    2.207    0.547
       137 -11.0044    228.7403    104.2674   8.1600880501e+01   1.3179219564e+01     0.990548    0.5290292 -28.40  0.003980034    2.263    0.558
       138 -10.4087    220.7374     96.5902   8.1092629718e+01   1.6381798497e+01     1.066133    0.2408234 -43.05  0.003009274    4.017    0.751
       139 -10.2707    224.6063     93.4346   7.9706558687e+01   1.6051604760e+01    0.7547981    0.3605391 -52.77  0.002926745    2.286    0.563
       140  -9.8758    222.6831    104.4882   8.2657542913e+01   1.4505817827e+01    0.5029565    0.2509136 -41.78  0.001302709    1.874    0.466
       141  -9.4797    225.0197     99.5100   8.1085436722e+01   1.4874831274e+01    0.3237199    0.2400376 -37.61 0.0008853414    1.316    0.240
       142  -8.7429    224.0000    119.9372   8.6078338813e+01   1.1356437967e+01    0.2454082   0.08052903 -39.33 0.0007824968    2.877    0.652
       143  -8.9509    184.1203    119.1530   9.3565884039e+01   2.0669262093e+01    0.2530096    0.1913313 -76.70  0.000646224    1.661    0.398
       144  -9.4177    181.2994    115.3448   9.3205926328e+01   2.2108002268e+01     0.358151    0.2281722 -33.69  0.001425159    1.696    0.410
       145 -10.4577    249.6877    138.0936   8.5839776726e+01   2.7294039785e+00    0.6582101    0.2478615 -47.38  0.002400981    2.802    0.643
       146  -8.5018    147.3260    117.6784   1.0154405342e+02   2.9511884236e+01    0.1627953    0.1250264 -87.47 0.0007047592    1.685    0.406
       147  -9.5784    216.2953     96.4710   8.1808439886e+01   1.7436106329e+01    0.7566433    0.2080116 -43.27  0.002309882    3.383    0.704
       148  -8.8794    219.6677    115.3411   8.5758621763e+01   1.3180967934e+01    0.3014262    0.1275902 -43.24  0.001113917    2.225    0.551
       149  -9.2556    185.5926    115.3160   9.2297835894e+01   2.1098215555e+01    0.3049709    0.1449744 -45.70  0.001121515    2.094    0.522
       150  -9.5546    134.3886    116.1900   1.0438432483e+02   3.2684974858e+01    0.2257888    0.1446421 -56.35  0.000595352    1.674    0.403
       151  -8.7426    234.8029    112.0353   8.2420183116e+01   1.0443475784e+01    0.2992839    0.1862934  85.81  0.001192682    2.702    0.630
       152  -8.2275    176.5247    110.4884   9.2987585780e+01   2.4225102655e+01    0.1576957    0.1508995 -79.84 0.0001599141    1.035    0.034
       153 -11.6597    248.0416     99.5555   7.7552344259e+01   9.8074562525e+00      2.64345    0.4260005 -37.71   0.00653321    5.832    0.829
       154 -10.2285    218.7380    246.1692   1.1257986280e+02  -9.1867779404e+00    0.3805655    0.2582163 -34.82  0.002332729    1.668    0.400
       155  -9.0034    151.4542    249.5136   1.2573276238e+02   1.6294309095e+00    0.1274113    0.1048156  47.69 0.0001225081    1.005    0.005
       156  -8.4310    205.5188    105.0474   8.5821576725e+01   1.8383170864e+01     0.237237    0.1457058 -41.31  0.001020347    1.575    0.365
       157  -9.1703    182.6161    108.6772   9.1233638247e+01   2.3134468676e+01    0.3003649    0.1507249 -37.30  0.001124582    2.066    0.516
       158  -7.8516    200.6635    103.3175   8.6296100517e+01   1.9861003916e+01    0.1609682    0.1178078 -76.70  0.000704862    1.700    0.412
       159 -10.1228    217.9813     89.8552   7.9918968615e+01   1.8223288867e+01    0.7972943    0.3717272 -32.42  0.003034354    2.392    0.582
       160  -8.9394    184.9654    102.0416   8.9042717649e+01   2.3874010460e+01    0.2471117    0.1849333 -72.80 0.0008046256    1.609    0.378
       161  -7.9021    209.0000     99.9576   8.3932372296e+01   1.8512844389e+01    0.2429749   0.08361947 -38.76 0.0007846925    2.821    0.645
       162  -8.8599    160.0000    100.0424   9.3900551593e+01   3.0265106386e+01    0.2627976   0.08900444 -40.96 0.0008055578    2.964    0.663
       163  -8.4519    202.6499     98.1624   8.4635026309e+01   2.0355037132e+01    0.2159706    0.1424356 -30.58 0.0009433525    1.671    0.401
       164  -8.9134    235.1896     95.6552   7.8573476582e+01   1.3268544470e+01    0.2640737    0.1756414 -49.55  0.001239482    1.402    0.287
       165  -8.9471    188.2091     92.8945   8.6021085691e+01   2.4828353365e+01    0.3264664    0.1978285 -50.39  0.001378159    1.702    0.412
       166  -8.4559    164.6133     93.8001   9.1171750481e+01   3.0392814912e+01    0.2321431    0.1417072 -50.25 0.0009579842    1.723    0.420
       167  -9.6145    133.0034     93.9966   9.8779034222e+01   3.7687149821e+01    0.3137494    0.1929586   4.76 0.0009586862    4.130    0.758
       168  -8.8593    236.4643     90.2463   7.7130758833e+01   1.3921288652e+01    0.2608489    0.1344569 -36.05  0.001113264    1.900    0.474
       169  -8.6693    175.4845     88.0636   8.7292581170e+01   2.8840257130e+01    0.2325884    0.1508185 -41.32 0.0006790068    1.546    0.353
       170  -9.1571    206.0312     85.1623   8.0766869903e+01   2.1898883411e+01    0.3335324     0.198417 -43.82  0.001065066    1.623    0.384
       171  -8.7174      9.4933     83.9950   1.3387856913e+02   5.7359005732e+01      0.17313   0.09013731 -60.94 0.0009945682    1.479    0.324
       172  -8.5727    235.6076     79.1931   7.4701680293e+01   1.5980914186e+01    0.2212708    0.1321361 -40.07 0.0006556468    1.573    0.364
       173  -8.7310    234.2183     75.9667   7.4151192903e+01   1.6829152263e+01    0.2175043    0.1410354 -41.24 0.0007561151    1.451    0.311
       174  -8.3117    200.4923     83.0378   8.1193441270e+01   2.3617123212e+01    0.2268088    0.1449054 -40.34  0.000805656    1.544    0.352
       175  -9.2041    201.0686     77.9629   7.9796363183e+01   2.4358772709e+01    0.4009702     0.190593 -43.13  0.001173485    2.041    0.510
       176  -8.2322    218.5212    109.5345   8.4577040393e+01   1.4524398361e+01    0.1498858    0.1398573 -60.98 0.0008091961    1.022    0.021
       177  -9.7642    209.6164    248.1214   1.1457326884e+02  -7.9873886220e+00    0.3275623    0.2541334  73.43  0.001902307    2.198    0.545
       178  -8.7719     30.8344     86.5860   1.2752942214e+02   5.5244090802e+01    0.1407455    0.1150833  40.38 0.0009191121    1.510    0.338
       179  -7.9636     26.3155     81.3156   1.2783590166e+02   5.6731045352e+01    0.1275868   0.07409836 -35.61  0.000419335    1.646    0.393
       180  -8.2532    214.7709     80.0364   7.8040460947e+01   2.0689696147e+01    0.1959839    0.1170025 -40.14 0.0008702599    1.622    0.383
       181  -8.5751    183.7947     77.7957   8.2880676204e+01   2.8644059705e+01    0.2126099    0.1714922 -72.24 0.0006362295    1.341    0.254
       182  -8.5958    166.6609     77.4946   8.6226412634e+01   3.2923463388e+01    0.2686541    0.1428897 -37.61  0.001078789    1.929    0.482
       183  -8.4831    211.3304     76.7117   7.7772256583e+01   2.2079648966e+01    0.1972925    0.1357984 -32.02 0.0008190497    1.569    0.363
       184  -8.0229    174.2908     77.6647   8.4705111354e+01   3.1016574805e+01    0.1573637    0.1160802 -72.70 0.0005340767    1.636    0.389
       185  -9.6553    228.0096     74.0465   7.4584879833e+01   1.8573001367e+01    0.6980419    0.2684675 -59.38  0.001863969    5.434    0.816
       186  -8.5110    223.4774     75.9900   7.5711564434e+01   1.9310153709e+01    0.2189078    0.1361006 -39.16 0.0006320912    1.561    0.360
       187  -7.8971    219.3223     75.2848   7.6169134741e+01   2.0407988825e+01    0.1382976    0.1144373  26.58 0.0004291355    1.596    0.373
       188  -8.2907    206.2098     73.9471   7.7913116116e+01   2.3785272712e+01    0.1944806     0.114789 -39.70 0.0008537526    1.668    0.400
       189  -8.4906    123.3209     73.3304   9.5250215242e+01   4.3769186225e+01    0.1524104    0.1143704   8.63 0.0005266443    1.693    0.409
       190  -9.8092    222.2356     70.9704   7.4692899326e+01   2.0428943056e+01    0.2854784    0.1998052 -46.16  0.001000265    1.350    0.259
       191 -10.4369    223.5090     66.7596   7.3501876065e+01   2.0807222527e+01    0.5303552    0.2695563 -26.93  0.002117577    2.580    0.612
       192  -8.8341    163.1754     71.7422   8.5337485114e+01   3.4780524247e+01    0.3368851   0.09460968 -42.34 0.0009992664    3.590    0.721
       193  -8.3364     61.7658     72.3846   1.1357579399e+02   5.4790945044e+01    0.1235229   0.09876987 -69.78 0.0006909918    1.633    0.388
       194  -7.8565    210.6469     71.3471   7.6548534135e+01   2.3140071629e+01    0.1609585    0.1053764 -71.65 0.0007037132    1.827    0.453
       195  -8.4945    102.3170     69.7209   9.9966591968e+01   4.8705863249e+01    0.1331839    0.1142536  89.89 0.0001694865    1.575    0.365
       196  -8.8750    193.6303     67.7780   7.8441359715e+01   2.7900263461e+01     0.213457     0.129602 -47.42 0.0009455983    1.652    0.395
       197  -8.4796    116.6640     68.6681   9.5594557767e+01   4.6016488151e+01    0.1519358    0.1111882   9.09 0.0007052151    1.735    0.424
       198  -8.6545    203.2959     66.8201   7.6583128705e+01   2.5671548597e+01    0.2987026    0.1106337 -43.20  0.001067876    2.599    0.615
       199  -8.0402    212.4860     66.0489   7.4951052435e+01   2.3556020193e+01    0.2137048    0.1390929 -38.17 0.0009759027    1.544    0.352
       200  -9.1098    157.9707     62.1883   8.3680938468e+01   3.7640710096e+01    0.3746504    0.1662336 -45.61  0.001403923    2.459    0.593
       201  -7.8473    182.3356     61.6861   7.8802308220e+01   3.1690668934e+01    0.1556748    0.1103767 -75.33 0.0003959894    1.689    0.408
       202  -9.0594    217.3543     58.4338   7.2375977561e+01   2.3576575795e+01    0.2636441    0.1648786 -35.50 0.0006937335    1.659    0.397
       203  -7.9321    206.4962     58.5287   7.3987921176e+01   2.6195843154e+01    0.1436385    0.1320538 -87.65  0.000312371    1.030    0.029
       204  -8.1750     32.9616     57.9781   1.1949884304e+02   6.0778474112e+01    0.1420755    0.1142521 -31.34 0.0009611344    1.012    0.011
       205  -8.2998    191.6413     54.8019   7.5365930368e+01   3.0434434555e+01    0.2093057     0.123438 -47.28 0.0008470336    1.721    0.419
       206  -8.6908     53.9850     55.4513   1.1105802295e+02   5.8946005876e+01    0.1723365    0.1184045  26.44 0.0003453275    1.537    0.349
       207  -7.8278    187.3201     68.6660   7.9785771731e+01   2.9320535726e+01    0.1581962    0.1112463 -72.97 0.0004621299    1.700    0.412
       208  -9.0062    236.1913    108.1650   8.1306265211e+01   1.0837091513e+01    0.2096762    0.1570147 -60.09 0.0009108823    1.374    0.272
       209  -8.7567    214.5765     47.5940   7.0137086874e+01   2.5857639547e+01    0.2657199    0.1031905 -46.03  0.001029906    2.491    0.599
       210  -8.3080    160.4993    108.4887   9.6034235014e+01   2.8428591203e+01    0.1571989    0.1525773 -85.25 0.0008105139    1.019    0.019
       211  -8.6109    137.5596     37.8093   8.0624028268e+01   4.6075060282e+01    0.1772438    0.1299873 -44.25 0.0003079087    1.519    0.342
       212  -8.0041    179.3236     37.6622   7.2769227058e+01   3.5922457300e+01    0.1490238    0.1012311 -71.54 0.0007051005    1.719    0.418
       213  -8.6183     35.9700     43.7740   1.1390241987e+02   6.3007353715e+01    0.2023085    0.1343662 -52.02  0.001120636    1.680    0.405
       214  -8.2671     26.5938     34.1602   1.1432617094e+02   6.5493564742e+01    0.1562553    0.0819524 -33.41 0.0001345862    1.576    0.365
       215  -8.8771    110.7691     33.3665   8.5484798346e+01   5.2606862417e+01    0.1965014    0.1097975  43.53 0.0009487543    1.630    0.386
       216  -8.6848    180.7196     32.3629   7.1113278687e+01   3.6254656520e+01    0.1448316    0.0978493 -67.20 0.0007014122    1.676    0.403
       217  -8.9574    169.7156     30.8271   7.2438216925e+01   3.9171185417e+01     0.312565    0.1805253  -4.03  0.001266225    3.064    0.674
       218  -8.3946    117.3002     30.2942   8.2792686801e+01   5.1588063532e+01    0.1373205    0.0933219  26.13 0.0001807868    1.570    0.363
       219  -8.9296     53.9608     29.9062   1.0199075534e+02   6.3015757011e+01    0.1564622    0.1442036 -47.44 0.0005020794    1.581    0.367
       220 -10.2523    175.6035    246.8101   1.2076261617e+02  -2.0925941209e+00    0.3121774    0.2241238 -83.38  0.001675022    2.354    0.575
       221  -8.9183      8.9758     32.1391   1.2101059766e+02   6.7215134320e+01    0.1655312    0.1214186 -27.19 0.0005569137    1.042    0.040
       222  -9.3323    136.8227     24.7480   7.6622363053e+01   4.7819938549e+01    0.2751248    0.1815506 -12.95 0.0002403793    1.835    0.455
       223  -8.5315     68.0839     23.5077   9.4462268361e+01   6.1769809122e+01    0.1730026    0.1072734  35.76 0.0004542349    1.503    0.335
       224  -8.5612      3.5208     23.5385   1.2048736821e+02   6.8951775962e+01    0.1081755   0.07625612 -28.18 0.0001099045    1.024    0.023
       225  -9.0977     84.4359     21.6140   8.8506265010e+01   5.9192986447e+01     0.241531     0.191508  52.57  0.001505554    1.439    0.305
       226  -8.1897    160.6660     21.3389   7.1224018109e+01   4.2490241970e+01    0.1412605   0.09757314 -72.06  0.000705164    1.748    0.428
       227  -8.2442    167.6877     18.3368   6.9257428713e+01   4.1098506150e+01    0.1389668   0.09540589 -70.87 0.0007045623    1.688    0.408
       228  -8.7216    156.0000     17.0384   7.0742956432e+01   4.4079454307e+01    0.2001343   0.07772674 -26.25 0.0008038888    2.953    0.661
       229  -8.8311     23.5044     15.9030   1.0866469823e+02   6.8491609348e+01    0.1594968    0.1185544   0.45 0.0004629977    1.155    0.134
       230  -8.8730      2.4150     16.0980   1.1830209316e+02   7.0161088665e+01    0.1693343    0.1089761 -10.68 0.0006939824    1.350    0.259
       231  -8.1994     96.8464     15.3648   8.2636284083e+01   5.7495339157e+01    0.1726484   0.09673518  41.64 0.0009072422    1.548    0.354
       232  -9.0556    177.1727    243.0020   1.1989630784e+02  -1.7705118869e+00     0.248057    0.1814939 -18.25 0.0008228633    1.820    0.450
       233  -9.4618    104.9826     13.2758   7.9799964408e+01   5.6047510741e+01    0.1843184    0.1229606  15.03 0.0008506392    1.635    0.388
       234  -9.6475     29.7767     13.0650   1.0476365815e+02   6.8223112162e+01    0.1712064    0.1280809   4.99 0.0003337255    1.142    0.124
       235  -8.0628     34.3088     10.3425   1.0167746571e+02   6.8051055872e+01    0.1174339    0.0689346  -3.31 0.0006148485    1.694    0.410
       236  -8.0578    184.3028    250.6614   1.1968668354e+02  -4.1548899314e+00    0.1194862   0.09238181  66.67  0.000703838    1.670    0.401
       237  -9.7866    250.1520    245.1597   1.0678415741e+02  -1.3818506529e+01     0.244014    0.1539848 -23.72   0.00104826    1.580    0.367
       238  -8.4766    237.7794    245.2093   1.0897539122e+02  -1.2008674289e+01     0.162611    0.1326759  84.35 0.0009335203    2.681    0.627
       239  -9.2379    225.4304    243.9467   1.1099186787e+02  -9.9464119352e+00    0.2311569    0.1840747  55.98  0.001453216    1.722    0.419
       240 -10.4509    164.2244    242.8346   1.2236068231e+02   5.0986730758e-01     0.308727    0.2078994  -2.16  0.001234222    2.735    0.634
       241  -9.9747    240.5531    241.4072   1.0783993495e+02  -1.1937808870e+01    0.3606855    0.2527652 -56.93  0.002006094    2.662    0.624
       242  -8.7656    237.2269    236.3730   1.0757370730e+02  -1.0770418414e+01    0.2130354    0.1602939  56.77  0.001261079    1.983    0.496
       243  -8.1236    196.4611    107.5118   8.8151027677e+01   2.0058113444e+01      0.15512    0.1464024 -71.11 0.0002544351    1.035    0.034
       244  -8.5201    210.4853    242.4682   1.1350365656e+02  -7.3399914048e+00    0.1259887    0.1039113  24.51 0.0002039457    1.003    0.003
       245  -8.8782    214.2045    241.2541   1.1261299319e+02  -7.7782148692e+00    0.1616188    0.1416758  51.32 0.0007081014    1.396    0.284
       246  -8.7033    248.1176    240.3069   1.0631353421e+02  -1.2919324762e+01     0.163914    0.1328542  15.47 0.0006771993    1.074    0.069
       247  -9.8789    191.4955    236.8872   1.1619485487e+02  -3.3028651826e+00    0.6216219    0.3787304  72.53  0.002334822    4.484    0.777
       248  -8.8963    224.6778    237.6790   1.1008010759e+02  -8.9745119795e+00    0.2166885    0.1500699 -59.63  0.001146587    2.571    0.611
       249  -9.2353    206.6000    237.3618   1.1339544502e+02  -5.9571165547e+00    0.2546074    0.1837173  77.37  0.001261012    2.787    0.641
