#   1 NUMBER                 Running object number                                     
#   2 MAG_AUTO               Kron-like elliptical aperture magnitude                    [mag]
#   3 X_IMAGE                Object position along x                                    [pixel]
#   4 Y_IMAGE                Object position along y                                    [pixel]
#   5 X_WORLD                Barycenter position along world x axis                     [deg]
#   6 Y_WORLD                Barycenter position along world y axis                     [deg]
#   7 A_WORLD                Profile RMS along major axis (world units)                 [deg]
#   8 B_WORLD                Profile RMS along minor axis (world units)                 [deg]
#   9 THETA_WORLD            Position angle (CCW/world-x)                               [deg]
#  10 FWHM_WORLD             FWHM assuming a gaussian core                              [deg]
#  11 ELONGATION             A_IMAGE/B_IMAGE                                           
#  12 ELLIPTICITY            1 - B_IMAGE/A_IMAGE                                       
         1  -9.3939    206.2995     20.0840   6.4042755590e+01   3.1635744782e+01    0.1836233    0.1560944 -68.82 0.0005206104    1.118    0.105
         2  -9.1542     50.5400      5.4709   9.2298156097e+01   6.6680508754e+01    0.1132305   0.08903744   8.69 0.0001199274    1.033    0.032
         3  -9.2984    236.5860    248.0956   1.0897662713e+02  -1.2332934300e+01    0.2448057    0.1293605  23.60  0.001302627    1.884    0.469
         4  -8.6626    133.3246    248.3066   1.2839352805e+02   4.7331559088e+00    0.1182383   0.09671427  16.98 0.0007035173    1.647    0.393
         5  -9.2192     94.5955    247.7820   1.3560791751e+02   1.1156164046e+01    0.1668483    0.1054487 -86.01 0.0009520129    1.713    0.416
         6  -8.9827    112.8537    247.3519   1.3215770517e+02   8.3169334890e+00    0.1777815    0.1376829  71.58 0.0007266509    1.180    0.152
         7  -9.0750    147.8170    245.8454   1.2529566046e+02   2.6753431866e+00      0.25989    0.1720766  59.41   0.00144421    1.509    0.337
         8  -9.0743    146.6249    242.1917   1.2502833644e+02   3.5089671565e+00    0.2189559    0.1212188 -39.64  0.001059287    2.488    0.598
         9  -9.4526    120.5897    245.2322   1.3044198123e+02   7.4212102395e+00    0.2944082    0.1938825 -73.86  0.001671527    1.775    0.437
        10  -9.7834    103.2335    244.5470   1.3365252131e+02   1.0391435205e+01    0.3283746    0.1628961 -70.52   0.00162406    2.382    0.580
        11  -9.2372     58.3654    243.2430   1.4173134660e+02   1.7317506956e+01    0.1616396   0.09273407 -88.08 0.0006219284    1.643    0.391
        12  -9.8211     49.5699    242.3151   1.4319810142e+02   1.8668216545e+01    0.2129441   0.09744883 -80.22  0.001132313    2.125    0.530
        13  -9.9161      9.7477    241.7497   1.4979248429e+02   2.3468282394e+01    0.1745358   0.06585901  88.68 0.0009002739    2.449    0.592
        14  -9.5656    243.3225    240.7987   1.0655439150e+02  -1.2389029879e+01    0.2941592     0.125209  26.58   0.00127538    2.624    0.619
        15  -9.5842     89.4479    239.2411   1.3567451044e+02   1.3571809838e+01    0.2202836    0.1125967 -61.18  0.001147723    2.110    0.526
        16  -9.0617    234.2501    239.2028   1.0790364869e+02  -1.0812428418e+01    0.1855572   0.08430403  45.98 0.0008696241    2.421    0.587
        17  -8.6003    129.2411    236.9965   1.2772830243e+02   7.4561415643e+00    0.1544365    0.1099676 -61.54 0.0008783894    1.591    0.371
        18  -9.5243    204.1343    235.7314   1.1290254669e+02  -5.4473201070e+00    0.2467436    0.1957851  75.59  0.001405474    1.971    0.493
        19  -9.8397     99.7664    233.9878   1.3311992098e+02   1.2963775078e+01    0.4076689    0.1604198 -68.77  0.001680358    3.175    0.685
        20  -9.5751    160.7918    241.0799   1.2211327564e+02   1.2217744706e+00    0.3156247     0.205129 -76.18   0.00156367    2.475    0.596
        21  -9.8882    217.0301    234.5564   1.1027466727e+02  -7.4236964470e+00    0.2720848    0.2287658  51.57  0.001493198    1.432    0.302
        22  -9.5800    174.9256    234.7787   1.1839846189e+02  -2.1761402217e-01    0.3182828    0.2062057  41.15  0.001729927    1.330    0.248
        23  -9.8281    195.1427    233.1890   1.1420476489e+02  -3.5128099816e+00    0.3223495    0.2258173  27.21  0.001822165    1.357    0.263
        24  -9.8791    109.2703    233.1607   1.3116579944e+02   1.1569571023e+01    0.2960448    0.1756839 -59.99  0.001581872    1.850    0.459
        25  -9.9330    187.5362    231.7699   1.1544856994e+02  -1.9540277941e+00    0.3018938    0.2388814 -75.41  0.001715273    1.834    0.455
        26  -9.3698    157.9723    231.6881   1.2127854969e+02   3.3432374171e+00    0.2350077    0.1795754  78.50  0.001304391    1.631    0.387
        27  -8.9952    226.8502    231.5068   1.0792888860e+02  -8.5783448929e+00    0.1836223    0.1098606  36.92 0.0007405761    1.506    0.336
        28  -9.2205     67.6841    231.3465   1.3896843993e+02   1.8368906853e+01    0.1342443   0.07496725  70.91 0.0007047958    1.721    0.419
        29  -9.1079     43.7739    230.9875   1.4332093645e+02   2.1648957666e+01    0.1525463     0.082076 -76.76  0.000879788    1.669    0.401
        30  -8.7465    249.7995    230.4075   1.0360512045e+02  -1.1973685256e+01    0.1702546   0.09805685  25.53 0.0006932586    1.645    0.392
        31 -10.1576    150.4478    226.5758   1.2201815004e+02   5.6261678870e+00    0.3815972    0.2395169  55.42  0.001833976    1.555    0.357
        32  -8.4217    120.3127    228.6781   1.2840239019e+02   1.0572417360e+01    0.1384417   0.09093487  70.66 0.0006051529    1.654    0.396
        33  -9.1424    207.5082    226.4867   1.1069230812e+02  -4.5990340392e+00     0.210572    0.1198617 -27.40 0.0009555548    2.117    0.528
        34  -9.4144    161.8877    225.8929   1.1959978475e+02   3.6694030571e+00    0.2011105     0.178139  21.29 0.0008445417    1.219    0.180
        35  -9.2700    127.9916    225.7920   1.2646042840e+02   9.7962110899e+00    0.2207447    0.1918178 -75.20 0.0008651005    1.235    0.190
        36  -9.4204    217.6704    224.5545   1.0842210087e+02  -6.0342209399e+00    0.4026086    0.2906585  69.69  0.002043241    2.453    0.592
        37 -10.3981    181.0003    224.4884   1.1553713413e+02   4.3330303785e-01    0.5114875    0.2551752  45.80   0.00205856    1.828    0.453
        38  -9.2193    113.5966    223.0280   1.2900983274e+02   1.2842095750e+01    0.2823523    0.1266424 -58.94  0.001149344    2.408    0.585
        39  -9.7207    230.1361    221.9942   1.0564003829e+02  -7.7201205380e+00    0.2874376    0.2304738  -9.53  0.001428383    1.198    0.165
        40  -9.4017    140.4309    221.6273   1.2331639563e+02   8.3782670857e+00    0.2930146    0.1688785 -59.78  0.001209329    1.997    0.499
        41  -9.5857    173.7657    221.4397   1.1648120460e+02   2.2885687806e+00    0.2764038    0.2070563  -7.06  0.001441453    1.841    0.457
        42 -10.3453    192.8432    220.9378   1.1258444329e+02  -1.1075688225e+00    0.3968117    0.2400894  47.66  0.001996365    1.604    0.376
        43  -9.7607    103.7210    220.0700   1.3063515645e+02   1.5109528892e+01    0.2464455    0.1626286 -61.58  0.001337666    1.605    0.377
        44 -10.5135    213.3173    218.6769   1.0820201565e+02  -4.3702190875e+00    0.4556121    0.2530254  19.20  0.001994034    2.480    0.597
        45 -10.2003    178.7081    217.7961   1.1486907929e+02   2.0240528017e+00    0.3513018    0.2093887 -65.48  0.001527835    2.698    0.629
        46  -9.3326    250.2905    217.4794   1.0118450250e+02  -1.0259214473e+01    0.2391798     0.157753 -29.36  0.001403646    1.454    0.312
        47  -9.8432    223.2874    216.4961   1.0591656023e+02  -5.7407316437e+00    0.4629661    0.1834804  40.89   0.00197744    2.365    0.577
        48 -10.3636    169.3318    216.4025   1.1654094745e+02   4.0218380187e+00    0.3512416    0.1980998  58.36  0.001539588    2.160    0.537
        49  -9.9344    161.9256    210.1596   1.1701631435e+02   6.5921244718e+00    0.2537839    0.2163952  37.12  0.001315694    1.121    0.108
        50 -10.8303    132.1832    213.8324   1.2385478122e+02   1.1418089678e+01    0.5485486    0.3412373 -68.88  0.002659901    1.908    0.476
        51  -9.4130    233.1763    215.7341   1.0393996933e+02  -7.2791036085e+00    0.2091956    0.1719554 -40.77  0.001288544    1.406    0.289
        52 -10.7940    185.8847    213.7274   1.1271317396e+02   1.4144921994e+00    0.4402472    0.3069879 -46.27   0.00185304    1.589    0.371
        53  -9.2598     61.4913    216.0257   1.3864066267e+02   2.2411155412e+01    0.1880026    0.1091384 -73.70  0.001034792    1.596    0.373
        54  -9.9501    120.9880    215.0146   1.2637705229e+02   1.3185424132e+01    0.2220505    0.1897809  64.69  0.001313906    1.019    0.019
        55  -9.2831     51.7670    213.9483   1.4033247719e+02   2.4157801027e+01    0.1630753   0.08882914 -72.83 0.0008856999    1.659    0.397
        56 -11.3914    228.9705    209.5671   1.0357059796e+02  -5.6208446292e+00    0.6747779    0.4043006 -11.78  0.003161406    2.271    0.560
        57 -12.4660    215.5463    208.4235   1.0589445500e+02  -3.0965635528e+00     1.002417     0.824653 -80.24  0.005546423    1.879    0.468
        58 -13.7029    196.8664    202.9252   1.0853368875e+02   1.2820688480e+00     1.974585     1.454719  48.43   0.01051976    1.361    0.265
        59 -12.3854    216.9014    196.2893   1.0331448807e+02  -1.2901900418e+00      1.00875    0.4859854 -49.17  0.004229604    2.498    0.600
        60 -12.4230    208.9700    192.2652   1.0407035359e+02   9.0074925452e-01    0.6594548    0.5875857 -43.21  0.003837358    1.206    0.171
        61 -10.5050    249.6569    178.7656   9.3793358125e+01  -4.1864225534e+00    0.5985865    0.2722078 -35.94  0.002660709    2.051    0.512
        62 -11.5869    248.1373    192.9162   9.6886931168e+01  -6.2175792505e+00    0.6160572    0.4320817 -37.41  0.003496439    1.396    0.284
        63 -10.9326    245.5424    182.8682   9.5342575842e+01  -4.1521813601e+00    0.7284716    0.4649653 -60.53  0.003335289    2.586    0.613
        64 -12.7381    225.1995    192.9674   1.0107939408e+02  -2.2357234950e+00     1.214392    0.7701347 -54.60  0.005811106    2.090    0.521
        65 -11.9887    176.2762    209.5516   1.1393390252e+02   3.9790127266e+00     0.591818    0.4775928  73.70  0.003025655    1.517    0.341
        66  -9.4085     72.4277    211.4389   1.3596707631e+02   2.1841386267e+01       0.3558    0.1653747  71.15  0.001431934    2.976    0.664
        67  -9.4001    147.3138    210.0901   1.2007540115e+02   9.3694578205e+00    0.1934912    0.1776433  83.58 0.0006790911    1.117    0.105
        68 -11.2444    125.7449    206.8297   1.2415104652e+02   1.4031834864e+01    0.4856232    0.3653822  70.55  0.002598681    1.352    0.261
        69 -10.3173    130.7353    202.5907   1.2240802530e+02   1.4008596562e+01    0.3739522    0.2448626 -49.68  0.001846529    1.679    0.405
        70 -10.0669    249.9275    206.6927   9.9232892084e+01  -8.6286519487e+00    0.2657783    0.1920152 -31.41 0.0008704801    1.333    0.250
        71 -12.0502    231.9418    186.3307   9.8496299992e+01  -2.3254606969e+00    0.8495956    0.6468943 -22.48  0.004725701    1.291    0.225
        72  -9.3941     85.8160    206.3547   1.3259123779e+02   2.0920741189e+01    0.1893895    0.1489219  84.16 0.0005748371    1.134    0.119
        73 -10.9699    163.0414    201.9843   1.1535906841e+02   7.9721750156e+00     0.473397     0.350486 -84.52  0.002312639    1.847    0.458
        74  -9.9477     97.5923    204.8839   1.2990141128e+02   1.9347197544e+01    0.2705303     0.164212 -80.18  0.001156182    1.841    0.457
        75 -11.9500    241.4123    199.5370   9.9377045000e+01  -6.1410847667e+00    0.7916447    0.7699975  54.38  0.005216923    1.335    0.251
        76 -12.1426    238.6989    189.7005   9.7935404691e+01  -4.0895328630e+00     1.129457    0.5298048 -29.83  0.004851918    2.310    0.567
        77 -10.0948    139.8386    203.0139   1.2050765804e+02   1.2216538364e+01    0.3367507    0.2557166 -13.32  0.001467346    2.085    0.520
        78 -10.0904    141.0308    198.4579   1.1948354450e+02   1.2941245472e+01    0.3725345    0.3067276 -27.29  0.001481989    1.560    0.359
        79  -9.2877    108.9435    204.0250   1.2734420196e+02   1.7613337210e+01    0.2153131    0.1860292  76.68 0.0008208018    1.034    0.033
        80 -11.3984    177.3208    198.9936   1.1180619298e+02   5.7734750801e+00    0.5148519    0.4028997 -62.16  0.002670376    1.498    0.332
        81 -10.2058    150.5061    199.8759   1.1767136966e+02   1.0825787025e+01    0.3186945    0.1769444  57.32  0.001346575    2.015    0.504
        82  -9.9409    148.4075    195.6023   1.1737735437e+02   1.2117144506e+01    0.2829675    0.2261772  53.91  0.001495632    1.175    0.149
        83  -9.0731    123.5138    196.5093   1.2300673068e+02   1.6646101955e+01    0.1440609    0.1291552  69.77 0.0005244426    1.000    0.000
        84  -8.6375     53.0000    195.9998   1.3824797393e+02   2.7925854507e+01    0.2063252   0.06354431 -68.02 0.0008002056    2.927    0.658
        85  -9.8478    111.6553    194.1422   1.2525910718e+02   1.9308183345e+01    0.2887871    0.1669027 -35.45  0.001151744    2.921    0.658
        86  -9.4782     60.5635    194.3345   1.3646742204e+02   2.7297931351e+01    0.2397566    0.1141215 -73.21  0.001017422    1.990    0.497
        87  -9.5745    104.5729    192.8804   1.2664190392e+02   2.0827930756e+01    0.3060527    0.2258516 -44.65  0.001587258    1.646    0.393
        88  -8.7397     36.3846    193.7578   1.4144060632e+02   3.0455878813e+01    0.1734892    0.0934246 -64.85  0.000812683    1.683    0.406
        89  -8.9065     42.5063    190.9936   1.3990145409e+02   3.0356806394e+01    0.1725265   0.08342431 -51.79 0.0008099488    2.487    0.598
        90  -9.2941     72.9258    201.0121   1.3464375968e+02   2.4054066665e+01    0.2642922     0.166623 -70.40  0.001427262    1.485    0.327
        91  -9.2689     78.1887    188.9959   1.3196050695e+02   2.5987542693e+01    0.3209856    0.1999647   6.61  0.001107464    5.056    0.802
        92  -8.6890    108.3311    182.3214   1.2410852090e+02   2.2571059027e+01    0.1381947    0.1167618 -17.61 0.0003388989    1.696    0.411
        93  -9.1645    147.1792    179.8142   1.1474485723e+02   1.5737134321e+01    0.2039095    0.1840447  -7.81  0.001076034    1.350    0.259
        94  -8.7786     79.3225    180.6701   1.3053690463e+02   2.7742772907e+01    0.1474057   0.09493254  75.16 0.0007049445    1.696    0.410
        95  -9.4569    143.1133    213.1772   1.2145671376e+02   9.5402101198e+00    0.2128591    0.1896126  28.20  0.001238659    1.248    0.199
        96  -8.6113     25.6911    178.6496   1.4217957187e+02   3.5007981928e+01    0.1191407    0.0809744 -52.38  0.000704402    1.713    0.416
        97  -9.1650     92.3641    212.4547   1.3199790708e+02   1.8564432471e+01    0.2487599   0.09606348 -49.60 0.0009507757    3.341    0.701
        98  -9.0212     35.3067    175.3472   1.3976491832e+02   3.4743413001e+01    0.1225828    0.0853158 -50.04  0.000704288    1.700    0.412
        99  -8.3677      9.3435    166.3240   1.4447971789e+02   3.9308537536e+01    0.1161238   0.07518735 -51.98 0.0007050614    1.734    0.423
       100  -9.1132     44.6897    165.6646   1.3649716020e+02   3.5932893316e+01    0.1271943   0.09021369 -46.26 0.0007043894    1.680    0.405
       101  -9.9070    200.8608    162.0291   9.9419118993e+01   8.2523966317e+00    0.2460968    0.1740434 -70.84 0.0006017946    2.009    0.502
       102  -9.4855    196.7141    155.5549   9.8839297407e+01   1.0429489901e+01    0.2713141    0.1852736 -62.44  0.001186088    1.818    0.450
       103  -9.4409    189.4084    155.8923   1.0043192348e+02   1.1938586295e+01    0.2848928     0.245287  -3.66  0.001437068    1.351    0.260
       104  -9.0120    240.5692    153.4798   9.0080635009e+01   1.8280663968e+00    0.2159077     0.138206  43.71 0.0009488733    1.681    0.405
       105 -10.2614    240.8756    149.3148   8.9128093451e+01   2.5158963668e+00    0.3391605    0.2426099 -50.16  0.001002102    1.426    0.299
       106  -9.9927    229.6023    153.1865   9.1960246202e+01   4.0313573515e+00    0.2609426    0.2012563  36.43 0.0005920763    1.383    0.277
       107  -9.7998    249.9796    148.4966   8.7418986743e+01   9.2454643009e-01    0.1947915    0.1378914  46.21 0.0008102516    1.562    0.360
       108  -8.7288    209.6102    148.7329   9.4729555940e+01   9.0208062690e+00    0.1530062    0.1161043  13.41 0.0006984025    1.709    0.415
       109  -9.0045    132.3243    149.6721   1.1210625621e+02   2.5590519619e+01    0.1619427    0.1199665  84.36 0.0007049546    1.696    0.410
       110  -9.4531    248.4942    143.4972   8.6589161970e+01   2.0863058734e+00    0.1396448    0.1254534 -31.24 -7.755364e-05    1.019    0.019
       111  -8.8150    241.6773    138.2975   8.6586209613e+01   4.3462233005e+00    0.1402628    0.1086796 -71.67 0.0002522428    1.623    0.384
       112  -9.0285     48.7118    138.6602   1.3161213690e+02   4.1863822043e+01    0.1342119   0.09009754 -42.98 0.0007021024    1.641    0.390
       113  -8.7938    215.8121    135.5794   9.0548187966e+01   1.0250886184e+01    0.2071224    0.1450182  64.50 0.0009472559    1.687    0.407
       114  -9.2930     95.9981    134.6662   1.1819380739e+02   3.6030204024e+01    0.2083175    0.1886002  54.70  0.001142161    1.151    0.131
       115  -9.7482    236.2700    130.3526   8.5728940089e+01   6.8922244069e+00    0.2920844    0.2128933 -88.97  0.001024836    1.956    0.489
       116  -9.1793    186.4753    128.7370   9.4737389306e+01   1.8228201983e+01    0.3585208    0.1509208 -33.60  0.001131634    3.042    0.671
       117  -9.2016    249.5129    129.5182   8.3386650227e+01   4.3687887457e+00    0.1406553     0.125463 -43.59 2.828169e-05    1.016    0.016
       118 -10.7019    201.3540    125.3550   9.0908362645e+01   1.5492293190e+01    0.4729663    0.2872279 -40.04  0.001462641    1.612    0.380
       119  -9.5636    214.5173    122.4553   8.7727786593e+01   1.3076634161e+01    0.2740383    0.1353625  40.93  0.001033139    2.415    0.586
       120  -9.3762    232.2363    121.0202   8.4293118461e+01   9.4609649437e+00    0.2083141    0.1770635 -43.29 0.0004116335    1.088    0.081
       121  -9.9211    213.5701    119.1836   8.7126159923e+01   1.3920228416e+01    0.2175314    0.1423576 -28.71 0.0009469359    1.728    0.421
       122  -9.1307    193.3239    118.9406   9.0941488119e+01   1.8635378759e+01    0.3565769    0.2122446 -87.14  0.001081102    3.989    0.749
       123  -8.6292    226.6139    116.8270   8.4275503109e+01   1.1457486142e+01    0.2136896    0.1262557 -49.70 0.0004317363    1.650    0.394
       124  -8.3507    178.5093    115.5046   9.3150289464e+01   2.2824127053e+01    0.1549575     0.153815 -59.83 0.0008099962    1.055    0.052
       125  -9.0947    209.6774    114.0874   8.6618664946e+01   1.5789661104e+01    0.2160192    0.1881856 -46.29 0.0005278733    1.099    0.090
       126  -9.0836    153.4324    113.5058   9.8286554232e+01   2.9123904499e+01    0.1563631    0.1526311 -70.98 0.0001098611    1.015    0.015
       127  -8.9350    241.5108    112.0278   8.0756464390e+01   9.1263517587e+00      0.21343    0.1302995 -39.53 0.0006893374    1.500    0.333
       128  -8.8172     26.3246    111.3144   1.3321561038e+02   5.0460831897e+01    0.1288777   0.07822797 -41.22 0.0007042261    1.665    0.399
       129  -9.4261    236.9844    107.6939   8.0479126724e+01   1.0869700752e+01    0.2015169     0.190337  86.40  0.001169601    1.110    0.099
       130  -8.8324    197.4339    106.7688   8.7118719492e+01   2.0070856934e+01    0.2107864    0.1484789 -29.13 0.0009372481    1.601    0.376
       131  -9.0627    214.1337    104.8114   8.3581352897e+01   1.6520836495e+01     0.196021    0.1795736  16.66 0.0004961093    1.304    0.233
       132  -9.9112    246.7799    102.7647   7.7887090346e+01   9.6553348934e+00    0.2987356    0.2128379 -38.89 0.0007378478    1.304    0.233
       133  -9.6737    228.4677    104.4541   8.1086173945e+01   1.3325308695e+01    0.2505418    0.1422114  70.16 0.0007286288    2.278    0.561
       134  -9.5949    205.8313     97.9603   8.3372306283e+01   1.9748103235e+01    0.2725233    0.2198727 -18.23  0.001185404    1.520    0.342
       135  -9.2801    218.5177     86.4768   7.8416806109e+01   1.8824714995e+01    0.1469211    0.1358604 -68.93 0.0002660864    1.024    0.024
       136  -8.4867    192.6707     83.6885   8.2134845619e+01   2.5542169432e+01    0.1507483    0.1208081  21.32 0.0007042376    1.668    0.401
       137  -9.4859    158.2520     74.7597   8.6566203351e+01   3.5592195902e+01    0.2704757    0.1967339 -42.45  0.001287061    1.402    0.287
       138 -10.4941    229.8974     72.6752   7.3441801646e+01   1.8517578268e+01    0.3785863    0.2774738 -10.19  0.001810752    2.119    0.528
       139  -8.2014    176.6475     67.6843   8.0850086005e+01   3.2273796373e+01    0.1537033    0.1155321  27.05 0.0007046452    1.736    0.424
       140  -9.5249    245.3700     65.9130   6.9884499634e+01   1.6111806800e+01    0.2189346    0.1716944 -79.56  0.000480295    1.207    0.171
       141  -8.8778    239.5329     68.0123   7.1084120403e+01   1.7078475603e+01    0.2049954    0.1269793 -39.83 0.0006636409    1.540    0.351
       142  -9.3521    214.3272     62.0011   7.3117225455e+01   2.3909226398e+01    0.2021278    0.1720274 -54.12 0.0005879822    1.131    0.116
       143  -9.4316    202.4789     61.4824   7.4769552153e+01   2.6872898397e+01    0.1476453     0.130592 -80.48 0.0001511579    1.042    0.040
       144  -9.0169    231.5102     58.5214   6.9957283881e+01   2.0393387558e+01    0.1400647    0.1210561 -73.30 0.0001830931    1.001    0.001
       145  -8.9499    147.5108     56.5322   8.3558442045e+01   4.1206534846e+01    0.1454792     0.136448  48.50 0.0001948763    1.035    0.033
       146  -8.9809    220.9625     44.7680   6.8106414441e+01   2.4905119097e+01    0.1796856    0.1058808  68.13 0.0007420167    1.613    0.380
       147  -8.9573    214.1566     42.8385   6.8513968366e+01   2.6805424024e+01    0.1790921    0.1623029  51.80 0.0006063639    1.308    0.236
       148  -9.2374    173.7571     40.2024   7.3775502499e+01   3.7121633225e+01    0.1930933    0.1596372  40.90  0.001057268    1.327    0.246
       149  -9.4626    248.6189     37.8392   6.3479482692e+01   1.9542802792e+01    0.1811693    0.1592572 -37.50 0.0006649938    1.386    0.278
       150  -8.3558    242.6838     37.6718   6.4046422475e+01   2.0881992901e+01    0.1192125    0.1020308  37.10 0.0005134662    1.677    0.404
       151  -9.2963    229.4947     37.0424   6.5327085226e+01   2.3976894004e+01    0.1882348    0.1245629 -40.18 0.0004909655    1.522    0.343
       152  -9.0367    218.1804     34.1963   6.5977848016e+01   2.7021439616e+01    0.1915026    0.1361397 -67.50 0.0004159902    1.322    0.244
       153  -9.6822    163.8904     30.9314   7.2827467777e+01   4.0745760415e+01    0.3898561    0.1742863 -47.40  0.001592576    2.579    0.612
       154  -9.3686     91.3108     23.6602   8.6495276903e+01   5.7854755518e+01    0.1167983    0.1008852 -69.28 0.0007045246    1.692    0.409
       155  -8.8895    244.7729    248.3957   1.0757893078e+02  -1.3566177974e+01    0.1717609   0.09083539  27.01 0.0009504379    1.710    0.415
       156  -9.1612    240.5370     18.5012   6.0209905570e+01   2.3856497721e+01    0.1284075    0.1018819 -77.02 8.715355e-05    1.006    0.006
       157  -8.1361    160.6722     10.6917   6.7576948600e+01   4.3737474056e+01    0.1361203   0.08742459  41.86 0.0003167102    1.658    0.397
