#   1 NUMBER                 Running object number                                     
#   2 MAG_AUTO               Kron-like elliptical aperture magnitude                    [mag]
#   3 X_IMAGE                Object position along x                                    [pixel]
#   4 Y_IMAGE                Object position along y                                    [pixel]
#   5 X_WORLD                Barycenter position along world x axis                     [deg]
#   6 Y_WORLD                Barycenter position along world y axis                     [deg]
#   7 A_WORLD                Profile RMS along major axis (world units)                 [deg]
#   8 B_WORLD                Profile RMS along minor axis (world units)                 [deg]
#   9 THETA_WORLD            Position angle (CCW/world-x)                               [deg]
#  10 FWHM_WORLD             FWHM assuming a gaussian core                              [deg]
#  11 ELONGATION             A_IMAGE/B_IMAGE                                           
#  12 ELLIPTICITY            1 - B_IMAGE/A_IMAGE                                       
         1 -15.2447    136.7697     76.3042   7.2598322083e+01   4.0127910211e+01     3.163631     2.200855  16.92   0.01335394    1.980    0.495
         2 -16.1108     24.7179     75.7816   1.0905818976e+02   5.8260579473e+01     3.183709     2.101264 -57.22   0.01892681    1.214    0.176
         3 -14.2901      8.2633     52.3712   1.1006299943e+02   6.4421587747e+01     1.544445    0.7551808 -50.89  0.008095942    1.498    0.333
         4 -15.4092     45.9297     99.5629   1.0682087076e+02   5.0817334294e+01     2.814481     1.520173 -41.60   0.01347074    1.891    0.471
         5 -15.9060     66.4054     47.5924   8.4611177146e+01   5.9409220303e+01     2.826581     2.116199  33.46   0.01515585    1.418    0.295
         6 -15.3824    131.8864     96.8550   8.0012546400e+01   3.7081834498e+01     2.925394     2.445344 -41.60   0.01447823    1.176    0.149
         7 -12.2953    249.3349     50.8107   4.6024955259e+01   1.7076867424e+01     1.152398      0.38658 -32.15  0.004405826    2.807    0.644
         8 -14.6615     17.9317     11.6004   9.1244075535e+01   7.1353228637e+01     1.503894     1.054902  -7.68  0.007530853    1.244    0.196
         9 -13.5185     82.6909     49.8031   7.9562280505e+01   5.6311169019e+01    0.8681172    0.6269293 -16.47  0.004030686    1.444    0.308
        10 -14.3421    186.0173     12.4802   4.3478536503e+01   3.7005131024e+01     1.976654    0.7222778  65.69   0.00784964    2.378    0.580
        11 -14.1280    164.0028      5.8287   4.4345113674e+01   4.3246685714e+01     1.729588    0.9179661  80.65  0.007822954    1.955    0.488
        12 -13.8296    194.8470      4.4956   4.0296238791e+01   3.5596955856e+01     1.725275    0.6013762  75.88  0.006569057    2.820    0.645
        13 -12.2500     56.2569     12.2338   7.3450223305e+01   6.6459761627e+01    0.5727665    0.4108275  17.01  0.002527305    1.254    0.203
        14 -12.5591     56.1746      4.4146   6.9580610464e+01   6.7396363319e+01    0.8353873    0.4379267  32.72   0.00344583    1.765    0.433
        15 -11.5968     64.7033      9.0220   6.8616157713e+01   6.5436299547e+01    0.4793021    0.3796144  13.79  0.002127935    1.057    0.054
        16 -11.3098     89.3887      3.2905   5.7985950174e+01   6.1251836120e+01    0.5903991    0.3180422  40.16  0.003026815    1.625    0.385
        17  -9.5894    235.4066    197.2053   8.0755454260e+01  -3.1507853819e+00    0.1721209    0.1144611 -40.06 0.0009521241    1.711    0.416
        18 -10.7151    240.9437    249.6667   8.8821761666e+01  -1.0555223938e+01     0.209835    0.1537652 -14.66  0.001510104    1.362    0.266
        19 -11.2136    238.6087    244.0958   8.8344325130e+01  -9.6189500011e+00    0.4884702    0.1686789  34.67  0.002355712    2.422    0.587
        20 -12.6650    186.1880    248.1911   9.8302010201e+01  -2.3688085276e+00    0.5800264    0.3303682  34.13  0.003389311    1.411    0.291
        21 -11.9185      8.9377    186.7462   1.2673657535e+02   3.4024394060e+01    0.3715503     0.263228 -62.16  0.002306753    1.587    0.370
        22 -10.8066    151.9753    208.7895   9.9139808800e+01   9.4504884021e+00    0.3630414    0.2394082 -59.03  0.001904792    1.857    0.462
        23  -9.4457    135.3048    168.6615   9.5948267759e+01   2.0454286546e+01    0.1500194    0.1128712  79.23 0.0007040182    1.674    0.403
        24 -12.1991     20.0080    153.9245   1.2181191805e+02   4.0335067238e+01    0.6315874     0.572738 -72.39  0.004007442    1.255    0.203
        25 -11.5374    107.8693    147.8513   9.8689496075e+01   3.0214095302e+01    0.4886104    0.3882041  33.50  0.002413939    1.358    0.264
        26 -11.6278    104.4935    143.0245   9.8613498829e+01   3.1945142498e+01    0.5042362    0.4488524 -50.62  0.001955734    1.147    0.128
        27 -11.7990    108.5269    141.5287   9.7255049153e+01   3.1580504011e+01    0.6452757    0.4676336  64.28   0.00307686    1.564    0.361
        28 -14.4030    148.5189    132.6737   8.5115404400e+01   2.5653731347e+01     2.447619     1.739782  66.47   0.01072405    1.759    0.431
        29 -10.8956    174.0422    249.0427   1.0065334611e+02  -5.9496814741e-01    0.3110054    0.1441067  44.57  0.001607196    1.842    0.457
        30  -9.8422      1.4505    121.4982   1.2331122278e+02   4.9209100837e+01    0.2537349   0.09074727 -74.40  0.001043485    2.125    0.529
        31 -10.0922    180.6458     85.6964   6.5438847839e+01   2.7741529894e+01    0.1612656    0.1216571  18.83  0.000338373    1.710    0.415
        32 -10.7101     90.0438     83.7517   8.8397327074e+01   4.8268511104e+01     0.559021    0.3291363 -22.81  0.002195787    2.510    0.602
        33 -12.2390     93.2792     74.6987   8.4595432376e+01   4.9609552307e+01    0.8229982    0.5808868 -35.03  0.004041358    1.374    0.272
        34 -13.4924    104.7233     75.4350   8.1264613703e+01   4.7269851066e+01     1.456005     1.027404 -35.25  0.006139737    1.390    0.280
        35 -10.5397    168.1351     83.8500   6.7513854278e+01   3.1151568550e+01    0.2496421    0.2204473 -74.02 0.0008843365    1.243    0.195
        36 -13.4586     92.4524    192.1026   1.0953011224e+02   2.2761246380e+01     1.855213     1.051935 -84.46  0.008546577    2.271    0.560
        37  -9.9717      7.2901    241.4618   1.2981978028e+02   2.3494573936e+01    0.2266342     0.099275  68.36  0.001224183    1.764    0.433
        38 -10.2983    184.2058     69.1493   6.0064996930e+01   2.9747948210e+01    0.5408601    0.3390931  -3.01  0.002015474    2.774    0.639
        39 -11.7085    176.8612     71.6788   6.2189552682e+01   3.1159952184e+01    0.5427581    0.3906632  77.23  0.001733366    1.644    0.392
        40 -11.4345    176.9827     65.5524   6.0377392393e+01   3.2159749700e+01    0.7968343    0.3599946  58.98    0.0029679    2.245    0.555
        41 -14.8405    147.5709    106.0484   7.8556684859e+01   3.1614220181e+01     2.781336     1.565952 -57.62   0.01038349    2.253    0.556
        42 -11.9774     99.1062     69.5864   8.1100836882e+01   4.9544253669e+01    0.5720208    0.4481152  53.69  0.002226784    1.455    0.313
        43 -11.7012    182.2829    239.0662   9.7723305436e+01  -5.0320978061e-01    0.2742277    0.2579133  79.46   0.00194635    1.442    0.306
        44 -10.7471    200.4034    238.2306   9.4228802307e+01  -3.2519654514e+00    0.3785622    0.1640031 -30.08  0.001765726    3.026    0.669
        45 -10.3458    194.2467     55.3528   5.4425973530e+01   2.9418387570e+01    0.2655715      0.19029  79.38  0.001031641    1.520    0.342
        46 -13.5420    185.6207    111.9919   7.1508700854e+01   2.1580257094e+01     1.572561     1.123751  24.93    0.0069605    1.728    0.421
        47  -9.5088     81.3223    114.6472   9.9083476211e+01   4.2579423356e+01     0.151105     0.110741  81.83 0.0007047437    1.754    0.430
        48 -12.3770    125.3544     42.4780   6.4163533209e+01   4.8564665580e+01    0.6491981    0.5483823  81.87  0.003381473    1.426    0.299
        49  -9.3274      1.4913    250.4857   1.3107150363e+02   2.2482020216e+01    0.1021093   0.06645916  68.85 0.0008104169    1.014    0.014
        50 -10.9377    176.0360     91.9863   6.8141119864e+01   2.7699434831e+01    0.2632913    0.1966853  13.50  0.001145787    1.793    0.442
        51 -10.0491    250.5356     63.4675   4.8820737315e+01   1.5009780418e+01    0.4204557    0.1115329 -35.01  0.001447703    3.176    0.685
        52  -9.7576    192.3221     30.1509   4.7636672067e+01   3.3384283061e+01     0.211166    0.1834303   3.28  0.001068187    1.405    0.288
        53 -11.8533     14.3557    236.3818   1.2845087897e+02   2.3705742897e+01    0.3197733    0.2546088  51.67   0.00260166    1.390    0.281
        54 -12.2103      9.9882    228.9954   1.2882965566e+02   2.5498880988e+01    0.3039486    0.2929953  84.34  0.002641011    1.615    0.381
        55  -9.7731    137.1716     26.9995   5.5940675415e+01   4.7780910605e+01    0.2408016    0.1524964 -54.07  0.001092645    1.984    0.496
        56 -10.1332     94.0312     22.5097   6.4981317387e+01   5.8228695333e+01    0.2542547    0.1807445 -40.26  0.001313036    1.616    0.381
        57 -12.5818    204.7079    229.4098   9.2050968011e+01  -2.7355646289e+00     0.613418    0.3106642  27.03   0.00307038    1.939    0.484
        58 -10.4237      1.9883    226.4512   1.3004887111e+02   2.6732642557e+01    0.1724329    0.1044192  86.83  0.001253732    1.283    0.220
        59 -11.1351    223.7968    219.2236   8.6841024513e+01  -4.3621627206e+00     0.248246    0.1914073  30.91  0.001589381    1.208    0.172
        60 -14.8082     71.1731    193.9720   1.1441192179e+02   2.5464306494e+01     2.715985     1.741336  63.59   0.01518887    1.462    0.316
        61 -10.7464    147.9459    209.9786   1.0015821582e+02   9.9402922647e+00    0.3290995    0.2056782  58.73  0.001631851    1.832    0.454
        62 -10.5176    218.0316    207.5239   8.5837276802e+01  -1.7977730230e+00    0.2022233    0.1627295 -17.55  0.000992497    1.229    0.187
        63  -9.1329    117.2976     15.6622   5.6103710955e+01   5.3844517561e+01    0.1335368    0.1047992 -63.66 0.0005076167    1.657    0.396
        64 -10.4621      2.2717    206.8806   1.2910584094e+02   3.0476598479e+01    0.2473128   0.07163734 -77.02  0.001202572    2.798    0.643
