#   1 NUMBER                 Running object number                                     
#   2 MAG_AUTO               Kron-like elliptical aperture magnitude                    [mag]
#   3 X_IMAGE                Object position along x                                    [pixel]
#   4 Y_IMAGE                Object position along y                                    [pixel]
#   5 X_WORLD                Barycenter position along world x axis                     [deg]
#   6 Y_WORLD                Barycenter position along world y axis                     [deg]
#   7 A_WORLD                Profile RMS along major axis (world units)                 [deg]
#   8 B_WORLD                Profile RMS along minor axis (world units)                 [deg]
#   9 THETA_WORLD            Position angle (CCW/world-x)                               [deg]
#  10 FWHM_WORLD             FWHM assuming a gaussian core                              [deg]
#  11 ELONGATION             A_IMAGE/B_IMAGE                                           
#  12 ELLIPTICITY            1 - B_IMAGE/A_IMAGE                                       
         1 -14.5910    139.9791    130.1281   1.0918616173e+02   2.8627576220e+01     4.334549     1.094547  38.33   0.01010903    5.636    0.823
         2 -15.0790      8.5972     24.8366   1.2499765218e+02   6.9980836852e+01     1.650467    0.8833878 -45.56  0.009269089    1.398    0.285
         3 -12.5754     83.6849     22.5224   9.1044103723e+01   6.0622408338e+01     0.458904    0.3900527  -1.59  0.001674744    1.081    0.075
         4 -11.7322     63.8437     17.3969   9.5927227688e+01   6.4891250084e+01    0.4529417    0.2667821  45.25  0.002120516    1.830    0.453
         5 -12.6372    112.1961      6.3619   7.6033963668e+01   5.6165087954e+01    0.8062343     0.494573 -46.83  0.003908477    2.128    0.530
         6 -12.3535    103.8632      3.9074   7.6998297108e+01   5.8323560502e+01    0.5818529    0.4100221 -27.37  0.003237259    1.566    0.361
         7 -11.8550     75.3201     13.3807   8.9767619691e+01   6.3357441013e+01    0.3220486    0.2466658 -15.89 0.0008453856    1.254    0.203
         8 -14.0741     85.5594      8.6609   8.4190825648e+01   6.1861355968e+01      1.22965    0.9405544  37.11  0.006949055    1.150    0.131
         9 -12.7294     96.0724      3.3807   7.8768964880e+01   6.0122762159e+01    0.6126088    0.3800231  51.52   0.00231798    1.422    0.297
        10 -11.6983    123.8674     10.1852   7.4964444021e+01   5.2993189485e+01    0.2836106    0.2410396  22.43 0.0004041879    1.164    0.141
        11 -11.3291    137.5610      5.6001   7.0574009306e+01   4.9962497299e+01    0.3367761    0.2339352  80.77  0.001214233    1.534    0.348
        12 -11.5869     33.6034      4.1555   1.0274702154e+02   7.1039771219e+01    0.2917702    0.2135579  14.57  0.001212538    1.246    0.197
        13 -12.0220     73.3107      1.5657   8.4751880855e+01   6.5000567158e+01    0.2624326    0.1509601  48.83 0.0003997832    1.633    0.388
        14 -10.0791    173.4504    184.4576   1.1283201584e+02   1.0995554756e+01    0.1419315    0.1244821  33.71 0.0005414236    1.009    0.009
        15 -11.3177    191.5137    217.0161   1.1484245223e+02   2.4665511146e+00    0.2136008    0.1494428  37.17   0.00100371    1.172    0.147
        16 -10.8068     89.5412    168.0406   1.2905958176e+02   2.9658431720e+01    0.2023397    0.1279995 -64.55  0.001031002    1.595    0.373
        17 -10.4957    212.9820    164.4849   1.0083291017e+02   6.4907079684e+00    0.2211007    0.1308138  43.15  0.001028831    1.600    0.375
        18 -10.8446     46.5719    159.2917   1.3818791198e+02   3.7422819976e+01    0.2408702    0.1098321 -75.78  0.001137986    2.099    0.524
        19 -11.9846    190.2884    156.0958   1.0358354949e+02   1.2588173241e+01    0.5993336    0.4209958 -44.35  0.002923771    1.561    0.360
        20 -12.4395    193.6580    149.6637   1.0146879564e+02   1.3016703997e+01    0.6191894    0.4159423 -19.43  0.002826207    1.777    0.437
        21 -11.2905    199.9752    154.1359   1.0117022640e+02   1.0886143926e+01    0.3172739    0.2599995 -64.88  0.001624507    1.631    0.387
        22 -14.0429     47.9339    132.3663   1.3437758213e+02   4.3413437608e+01    0.9785641    0.3901459 -57.83  0.004375347    2.183    0.542
        23 -12.5778     58.7581    145.4129   1.3339666572e+02   3.9118570415e+01    0.7396371    0.4324007  61.30  0.003712805    1.873    0.466
        24 -13.0172     51.5426    143.6306   1.3500862916e+02   4.0400548940e+01     0.424586    0.3272102  75.02  0.001956592    1.243    0.195
        25 -15.0666    133.6835    118.5380   1.0798054218e+02   3.2462829229e+01     1.509237     1.179203  20.89  0.006674482    1.517    0.341
        26 -13.5021    141.0896    137.9141   1.1070253451e+02   2.6735655689e+01      0.80713    0.6284739 -13.76   0.00379864    1.687    0.407
        27 -14.6182    148.3059    133.1305   1.0784001222e+02   2.6192585342e+01     1.873717     1.513861 -54.86  0.009263852    1.328    0.247
        28 -11.4559     20.4896    245.0104   1.4956717210e+02   2.3397021845e+01    0.1216232   0.07027773 -58.44 0.0008103702    2.542    0.607
        29 -13.0745     96.3134    126.9195   1.2001185643e+02   3.7855253547e+01    0.5183709    0.3936758 -21.41  0.002531546    1.782    0.439
        30 -14.9882    110.0504    112.9666   1.1298141593e+02   3.8522069444e+01     1.149384    0.8918107   1.17  0.005427377    1.755    0.430
        31 -14.3774    120.3257    103.7174   1.0772901829e+02   3.8491622619e+01    0.8956077    0.5745563 -40.23  0.003952173    1.600    0.375
        32 -11.2006     75.4285    121.1937   1.2473922975e+02   4.2501503887e+01    0.1913881     0.127506 -72.48 0.0004066245    1.578    0.366
        33 -15.0451    104.7156    103.2913   1.1205906022e+02   4.1694548228e+01      1.55959    0.6492425 -40.51  0.005501247    2.671    0.626
        34 -12.0870     15.0027    118.2452   1.4154349415e+02   4.9659850103e+01    0.1660423     0.141216 -79.70 0.0006983982    1.067    0.063
        35 -12.5329     68.7145    114.1902   1.2530262567e+02   4.5084350046e+01    0.2708997    0.2412021  48.65  0.001406878    1.194    0.163
        36 -11.3630      7.2299    117.6033   1.4359798558e+02   5.0328323916e+01    0.1372005    0.1106918 -13.36 0.0007263643    1.684    0.406
        37 -14.4643    113.9013     99.3580   1.0835747438e+02   4.0752665842e+01     1.079341    0.4809501 -53.30  0.003857027    2.538    0.606
        38 -14.0721     79.6671    105.4655   1.2009797924e+02   4.5509760433e+01    0.8231575    0.5903682  76.58  0.003981705    1.881    0.468
        39 -15.4908     82.3917     96.2648   1.1701158570e+02   4.7171018354e+01     1.830133    0.8756177  52.68  0.006966083    2.863    0.651
        40 -12.7351    131.6657    103.6071   1.0461881418e+02   3.6081370739e+01    0.3903993    0.2894242  17.71  0.001087846    1.722    0.419
        41 -13.3274     17.2010    100.9242   1.3866698533e+02   5.3434406917e+01    0.4160101    0.3932917 -61.81   0.00196783    1.184    0.155
        42 -12.1968     32.4602    102.6147   1.3421823372e+02   5.1850745693e+01    0.2572815    0.2159762 -84.51  0.000805922    1.147    0.128
        43 -14.4782     72.2303     75.1887   1.1459370281e+02   5.3354747681e+01    0.7399287    0.5399588  18.79  0.003910603    1.560    0.359
        44 -12.9321     77.1648     70.6821   1.1152344909e+02   5.3531150163e+01    0.4274078    0.2408351 -33.56  0.001583039    1.893    0.472
        45 -14.4950     55.7885     76.2140   1.2067070273e+02   5.5377756289e+01     1.104942    0.6838079 -69.78   0.00536589    1.997    0.499
        46 -14.4663     60.5820     73.9163   1.1832519118e+02   5.5264360618e+01    0.8845025    0.5707688 -58.00  0.003560353    1.540    0.351
        47 -12.9230     54.5614     94.9135   1.2564760649e+02   5.1349142715e+01    0.4355763    0.3224146 -36.66  0.001352184    1.396    0.284
        48 -10.8392      2.0062     99.7253   1.4309508558e+02   5.4625125890e+01    0.1910457    0.1307224 -73.10  0.000396503    1.131    0.116
        49 -11.1855     75.9996    141.6707   1.2831185426e+02   3.7656495765e+01    0.2990517    0.2766256  21.04  0.001818749    1.290    0.225
        50 -11.7368     20.8349    116.6146   1.3971934714e+02   4.9597275063e+01    0.2802134    0.1764018 -69.78 0.0009556456    1.290    0.225
        51 -14.2913     91.0106     86.1364   1.1155006124e+02   4.7951742286e+01    0.7649813    0.4167852  33.88   0.00328703    2.006    0.501
        52 -12.2916     22.5279     87.9813   1.3489830541e+02   5.5981202579e+01    0.4453578    0.2679112  69.42  0.002244589    2.281    0.562
        53 -11.2918    128.9724     83.0376   9.9418569884e+01   4.0880416547e+01    0.2328782    0.2272144  22.58 0.0004068014    1.007    0.007
        54  -9.7363    249.5113     86.4397   7.6631030753e+01   1.1150640806e+01    0.1374548    0.1256107 -41.35 0.0001039878    1.031    0.030
        55 -11.2316     35.6373     80.0518   1.2880367536e+02   5.6682761146e+01    0.1846683    0.1701005  57.14 0.0004067878    1.283    0.220
        56 -11.4327     42.2937     78.0616   1.2597264085e+02   5.6483773247e+01    0.2528334    0.1773249  -5.56  0.001276377    1.790    0.441
        57 -14.0933     95.7370     72.3978   1.0588729537e+02   4.9944593201e+01    0.8412569    0.4850658  33.76  0.001870401    1.873    0.466
        58 -12.2976     83.3044     68.5366   1.0874243772e+02   5.2952703903e+01    0.2657148    0.2281729 -19.93  0.000491986    1.134    0.118
        59 -15.2551     43.9935     92.7386   1.2866159380e+02   5.3014701697e+01     1.399703    0.9976915 -31.18   0.00798727    1.561    0.359
        60 -10.1727     20.9969     66.5163   1.3116851046e+02   6.0825245059e+01    0.1469589   0.09153002  53.22 0.0004252372    2.256    0.557
        61 -10.9821    130.1806     65.1903   9.3421721788e+01   4.3931722731e+01    0.2307083    0.2020387   9.18 0.0005857215    1.204    0.169
        62 -10.0575    250.0474     74.5187   7.3728409393e+01   1.2769354238e+01    0.1811298    0.1358887  62.93 3.045488e-05    1.442    0.307
        63 -12.0213    120.6803     72.9155   9.8544614294e+01   4.4699980628e+01    0.2843708    0.2553888 -56.37 0.0004646393    1.223    0.183
        64 -10.2928    214.5178     62.5156   7.5596724777e+01   2.2876566308e+01    0.1450606    0.1399424 -71.18 8.111622e-05    1.006    0.006
        65 -12.8341    125.5905     57.6886   9.2114870706e+01   4.6303893697e+01    0.3598619    0.2903398  36.41 0.0005500279    1.207    0.171
        66 -12.7523     68.5562     55.3702   1.0957469958e+02   5.7913915315e+01    0.3839326    0.3491142  49.00  0.001816428    1.342    0.255
        67 -10.5994     52.6899     56.9537   1.1616101169e+02   5.9787593811e+01    0.1854426    0.1523316 -40.74 0.0005288504    1.093    0.085
        68 -11.5639    133.8300     54.1366   8.8755131725e+01   4.4913813524e+01    0.5604289    0.2939557  63.65  0.002124866    2.314    0.568
        69 -10.6469    210.8261     54.3949   7.3962511133e+01   2.4977942554e+01    0.1932402    0.1716228  58.97 0.0004009802    1.135    0.119
        70 -11.0961    145.4374     50.8981   8.4875497354e+01   4.2524404916e+01    0.2852506    0.2132376  46.25 0.0008096522    1.269    0.212
        71 -12.4867      2.6032     46.3398   1.3399334038e+02   6.6108824698e+01    0.4298719    0.3089404 -54.93  0.001601544    1.075    0.070
        72 -11.0868    232.0806    237.3661   1.1070890445e+02  -6.7731721579e+00    0.1928509    0.1380411   7.65  0.001267469    1.253    0.202
        73 -12.8912     42.4553     47.6744   1.1723669369e+02   6.2808009874e+01    0.3860474    0.3016471  29.34 0.0006343412    1.458    0.314
        74 -12.7159     41.5187     42.9813   1.1601099472e+02   6.3808431782e+01    0.6757791    0.3734936  -0.49  0.003165735    2.666    0.625
        75 -11.6910    156.9279     43.8173   8.0053710390e+01   4.0587463722e+01    0.2352054    0.2248329  30.05 0.0004442871    1.063    0.059
        76 -10.5970    102.0526     43.3484   9.3668157384e+01   5.3896444082e+01    0.1988639    0.1709431  35.05 0.0003498011    1.118    0.106
        77 -10.5557    197.4996     41.0259   7.2208242738e+01   3.0242910045e+01    0.2222654     0.180929  68.75  0.001162865    1.170    0.145
        78 -11.9740     41.6637     32.8905   1.1216213793e+02   6.5628578787e+01    0.4290583    0.2513009  35.83  0.002371617    1.961    0.490
        79 -11.1459     81.9811     34.5040   9.6727654660e+01   5.9253501314e+01    0.3082126    0.2408368  16.57  0.001583669    1.230    0.187
        80 -12.0203     79.2943     30.9153   9.6177805712e+01   6.0288090786e+01    0.3929804    0.3748734 -68.82  0.001488074    1.436    0.303
        81 -10.3662    176.1535     33.4924   7.3274414677e+01   3.6854206603e+01    0.2123049    0.1358766  61.86 0.0003766972    1.436    0.304
        82  -9.7546     56.7539     29.3382   1.0417898586e+02   6.4248653498e+01    0.1138496     0.098171 -52.11 0.0002185577    1.560    0.359
        83 -13.2458    244.7139    232.8787   1.0781240242e+02  -8.1791492277e+00    0.8333457    0.4906641  42.67  0.005020852    1.750    0.429
        84 -10.6272    242.1235     23.4686   6.2459568790e+01   2.1284137358e+01    0.2835331    0.1714688 -59.28  0.001416216    1.591    0.372
        85 -10.3244    151.1844     19.7974   7.3111839850e+01   4.5060102317e+01    0.2006806    0.1523012  39.56 0.0003315554    1.303    0.232
        86 -13.3717    246.7959    221.6359   1.0556882260e+02  -7.2508127577e+00    0.8311736    0.6371102 -21.44  0.005697031    1.429    0.300
        87 -12.7456    215.0168    229.1124   1.1241537392e+02  -3.1232732202e+00    0.4970978    0.2564715  34.19  0.002695481    1.563    0.360
        88 -13.9573    214.4354    217.8699   1.1067254654e+02  -1.5999064356e+00     1.302505     0.885206 -50.99  0.007291658    2.288    0.563
        89 -14.0404    217.9972    199.5768   1.0679274311e+02   2.5858233624e-01      1.51425    0.6309996  46.02  0.006563946    2.353    0.575
        90 -13.5430    187.7187    195.5157   1.1191685998e+02   6.4092235431e+00     1.578006     0.863148  21.96  0.006677648    2.477    0.596
        91 -12.4626    237.7949    191.6429   1.0169866252e+02  -2.1038261037e+00    0.8267241    0.3094366 -41.15  0.003372682    3.289    0.696
        92 -12.1039    231.1837    192.5151   1.0304914849e+02  -1.0806810812e+00    0.3982113    0.3778211  -2.40  0.002653146    1.309    0.236
        93 -11.7178    173.1568    192.2508   1.1430321579e+02   9.7099570436e+00    0.3316797     0.267562  44.92  0.001140123    1.134    0.118
        94 -14.2464    197.0890    198.7386   1.1063845400e+02   4.1618873565e+00     2.310206     1.086614  22.83   0.00825005    3.586    0.721
