#   1 NUMBER                 Running object number                                     
#   2 MAG_AUTO               Kron-like elliptical aperture magnitude                    [mag]
#   3 X_IMAGE                Object position along x                                    [pixel]
#   4 Y_IMAGE                Object position along y                                    [pixel]
#   5 X_WORLD                Barycenter position along world x axis                     [deg]
#   6 Y_WORLD                Barycenter position along world y axis                     [deg]
#   7 A_WORLD                Profile RMS along major axis (world units)                 [deg]
#   8 B_WORLD                Profile RMS along minor axis (world units)                 [deg]
#   9 THETA_WORLD            Position angle (CCW/world-x)                               [deg]
#  10 FWHM_WORLD             FWHM assuming a gaussian core                              [deg]
#  11 ELONGATION             A_IMAGE/B_IMAGE                                           
#  12 ELLIPTICITY            1 - B_IMAGE/A_IMAGE                                       
         1 -17.1501    209.5913     52.7377   4.4363462375e+01   2.6470088170e+01     3.714809     2.487304  48.28    0.0192822    1.748    0.428
         2 -16.8828    244.3652    121.6718   5.5451841556e+01   8.1254306302e+00     6.956883     4.019448  23.29   0.02897715    3.210    0.689
         3 -18.3774    243.5147     69.2812   4.4111672581e+01   1.6710450329e+01     8.438135     6.930753 -68.01   0.04464813    1.131    0.116
         4 -17.5732    229.0607     95.4673   5.1835721948e+01   1.5504533128e+01     8.916365     2.765999  63.48   0.02590422    5.598    0.821
         5 -16.9384    222.7010     81.8809   4.9585203426e+01   1.9080675485e+01     5.249771     2.445164 -66.28   0.01593586    4.886    0.795
         6 -12.1822    113.2028     29.4108   5.4165462639e+01   5.2694090054e+01    0.5846058     0.435894 -35.54  0.001227428    1.459    0.315
         7  -9.4372    163.4913     24.8048   4.3243860531e+01   4.1117942923e+01    0.4624044     0.255881 -26.30  0.002214323    2.044    0.511
         8 -10.2654    167.9996     21.7253   4.1732828912e+01   4.0357436847e+01    0.3266591     0.270138 -28.09 0.0009451718    1.368    0.269
         9 -11.5686     14.6678     15.4185   8.5292538679e+01   7.1453955278e+01    0.4910496    0.3416743  43.65   0.00278058    2.320    0.569
        10 -10.7364    249.2271     17.3887   3.2699642203e+01   2.2467363082e+01    0.3238578     0.164304  64.81  0.001811016    2.078    0.519
        11 -10.5211     51.4441     14.1235   6.6994896738e+01   6.6803805986e+01     0.372828    0.2743284 -64.80  0.001935623    3.068    0.674
        12 -10.6760     68.0408     14.5038   6.0996163556e+01   6.3846995206e+01    0.2858183    0.2483332  83.73  0.001549066    1.742    0.426
        13  -9.8988    168.3159     10.1129   3.8457758916e+01   4.1473481532e+01     0.411002    0.2790806 -19.82  0.001900841    1.789    0.441
        14  -9.3935     91.1200     11.5819   5.2822184587e+01   5.9491164523e+01    0.2750417     0.169883 -43.20  0.001218165    2.040    0.510
        15 -10.5798     86.5635      5.2871   5.1402185057e+01   6.1020257714e+01    0.5060812    0.2834764 -47.36   0.00249584    2.583    0.613
        16 -10.7504    250.5617      8.9877   3.0955054751e+01   2.3152028786e+01    0.2369133   0.09401043 -44.04 0.0006923099    1.991    0.498
        17  -7.9043    248.5122      4.0784   3.0128372078e+01   2.4095416835e+01    0.1878943    0.1079294 -47.54 0.0007691497    1.443    0.307
        18  -9.9122    244.3959      7.0518   3.0971274245e+01   2.4605461047e+01    0.2423419    0.1298221 -67.16 0.0008042416    1.638    0.389
        19  -9.2660    244.6010      3.2150   3.0200417847e+01   2.4975223665e+01    0.1587009    0.1171995 -82.92 0.0002766285    1.148    0.129
        20  -8.6767    234.1935      9.4215   3.2148469426e+01   2.6460309162e+01    0.1003017   0.08896459  -6.33 0.0006745088    1.651    0.394
        21  -9.2619    202.1023      8.6826   3.4563743344e+01   3.3620300957e+01    0.1935836    0.1460522 -67.78 0.0009715318    1.171    0.146
        22 -10.1099     60.6123      9.2661   6.1173423013e+01   6.5758936383e+01    0.2123504    0.1487772  56.08  0.001110505    1.694    0.410
        23 -10.5208     51.4771      6.5983   6.3308301556e+01   6.7624597815e+01    0.2516673    0.2156871  62.43  0.001679881    1.711    0.415
        24 -10.4263     92.6455      3.5534   4.9165347948e+01   5.9859390247e+01     0.522072    0.3276618  86.07  0.002597381    2.407    0.584
        25 -10.5313    107.8319      3.9446   4.5965485500e+01   5.6445836909e+01     0.412748    0.3175606  59.68  0.001499197    1.143    0.125
        26 -10.6628    101.9982      3.3055   4.6943253670e+01   5.7815069337e+01    0.3522317    0.3169512  38.66 0.0008140139    1.072    0.067
        27 -10.7876     71.9429      4.0937   5.5003841553e+01   6.4107982793e+01     0.363561    0.3143165 -27.29  0.001145722    1.378    0.274
        28  -9.6327    201.6846      2.4707   3.3141779991e+01   3.4334673384e+01    0.3590394    0.2848136  77.54  0.002355458    1.173    0.147
        29 -10.0892     65.6533      4.7471   5.7301996830e+01   6.5263206029e+01    0.2216696    0.1565808  23.70 0.0008723896    1.250    0.200
        30  -9.1925    176.2121      2.7596   3.5594949280e+01   4.0262927097e+01    0.2744598    0.1324079 -40.10  0.001370626    2.069    0.517
        31  -9.3375    162.3019      3.7225   3.7400670330e+01   4.3512832787e+01    0.2599493    0.1455003  64.53 0.0007799335    1.531    0.347
        32  -9.2480     11.4192      4.1989   8.1516936833e+01   7.3367643423e+01     0.138758   0.09368471 -38.25  0.000571539    1.610    0.379
        33 -10.3359     78.6703      2.6436   5.2391871795e+01   6.2880371270e+01    0.2779191    0.2305988 -52.79  0.001277814    1.638    0.390
        34  -8.9716    144.0175    209.0463   9.2968691586e+01   1.0227665875e+01    0.2082087    0.1884665  32.93 0.0004048121    1.015    0.015
        35  -8.0487    161.0108    250.0220   9.5558472192e+01   2.7326549105e-01    0.1453579    0.1197636  28.68 0.0009509713    1.001    0.001
        36  -9.3743    183.4787    194.4797   8.1891927168e+01   6.1185439388e+00    0.1399126    0.1265761   6.76 0.0008099261    1.012    0.012
        37  -8.9490      1.6395    194.1615   1.2319974692e+02   3.2870520405e+01    0.1722018    0.0839128 -70.19  0.000951918    1.784    0.440
        38  -9.8968    162.5505    193.0282   8.6098538368e+01   1.0128132340e+01    0.2216239    0.1829654  33.34 0.0003744674    1.146    0.128
        39  -9.7814    135.3431    193.0952   9.2253048128e+01   1.4998938754e+01    0.2883341    0.1987033  46.19  0.000917219    1.399    0.285
        40  -9.2158    228.0142    191.7590   7.2702913491e+01  -8.6503585033e-01    0.2585406    0.1622338 -57.79  0.001183512    2.768    0.639
        41  -8.6594     85.4371    192.2816   1.0394451290e+02   2.3478837683e+01    0.1840684    0.1282089 -81.42 0.0006022352    1.533    0.348
        42  -9.3140    250.3331    188.1659   6.8152445217e+01  -3.6706169656e+00    0.4626201    0.1488052 -41.49  0.001848102    3.024    0.669
        43  -8.6850     71.1844    188.1523   1.0681719716e+02   2.6518455671e+01    0.1966741    0.1459845  73.27 0.0005620802    1.338    0.252
        44  -9.0228     65.8041    188.0159   1.0809724732e+02   2.7293839381e+01    0.2186206    0.1647969  76.38  0.001080678    1.285    0.222
        45  -8.7753    108.9751    187.4681   9.7547928866e+01   2.0813328096e+01    0.2147149    0.1341214  40.66 0.0004414303    1.525    0.344
        46  -9.7589    168.2098    185.9928   8.3529780903e+01   1.0491531893e+01    0.2481186    0.2010992  32.50 0.0003973215    1.186    0.157
        47 -10.7463     25.3943    232.8708   1.2087040239e+02   2.2351413790e+01    0.2001143    0.1607692 -59.64 0.0009950878    1.609    0.378
        48 -17.0814    241.8293    107.1324   5.2644558952e+01   1.1029021300e+01      5.08284     1.081706  48.67   0.01549771    5.425    0.816
        49 -10.3735    171.4630    181.4199   8.1927286868e+01   1.0798708151e+01    0.3271084    0.2949699  11.96    0.0010784    1.079    0.073
        50 -10.1605    165.3102    181.4481   8.3284547192e+01   1.1939981834e+01    0.2591717    0.2321935 -23.83  0.000634564    1.126    0.112
        51  -8.7549     52.6785    181.3569   1.1046706230e+02   3.0580001320e+01    0.1466407   0.08890827  69.58 0.0001784729    1.763    0.433
        52  -9.5890     92.4627    178.4924   1.0017218280e+02   2.5608040698e+01    0.4967173    0.2527555  70.54  0.001582188    4.058    0.754
        53  -9.7620    160.0465    176.8645   8.3556731294e+01   1.3871261178e+01    0.4637305    0.2628454  47.88  0.001948162    1.847    0.458
        54 -10.5310    171.7502    171.7282   7.9907797034e+01   1.2693895344e+01    0.4462496    0.3184479 -21.31  0.001305841    1.637    0.389
        55  -9.8288     87.6145    171.5136   1.0028210333e+02   2.8043796758e+01    0.4671218    0.2931525 -51.70  0.002205795    1.619    0.382
        56 -10.9895    165.2493    168.6866   8.0720045814e+01   1.4574819657e+01    0.4418221     0.369137 -78.67  0.001265242    1.528    0.345
        57 -10.3761    165.3819    164.1041   7.9727241305e+01   1.5506516684e+01    0.3385864    0.2797046  32.86  0.001220935    1.212    0.175
        58  -9.8140    151.6130    149.8496   7.9803712357e+01   2.1344389308e+01    0.5063501    0.3330105  79.44  0.001553676    2.837    0.647
        59  -9.6520    154.8160    156.2298   8.0458837384e+01   1.9296088672e+01    0.3289213    0.2103187 -58.57  0.001298738    1.816    0.449
        60  -9.0938     78.2633    162.9931   1.0133651317e+02   3.1555595257e+01    0.2540624    0.1951533  15.23  0.001282529    1.658    0.397
        61  -9.4062    179.9025    159.6450   7.5578646988e+01   1.3556540770e+01    0.2289693    0.1905769 -29.22  0.000351835    1.185    0.156
        62 -10.2981    181.0344    155.0430   7.4328304173e+01   1.4262181884e+01    0.2998901    0.2626801 -53.86 0.0004668605    1.219    0.180
        63 -11.0432    179.1602    150.5095   7.3717900313e+01   1.5561821284e+01    0.4128854    0.3882797  72.47  0.001272525    1.202    0.168
        64 -10.7346    124.7203    157.6758   8.8143094425e+01   2.4887048812e+01    0.8417015      0.51921   4.16  0.002770582    3.702    0.730
        65  -8.4729     15.4938    159.4768   1.1734058380e+02   3.9757095208e+01    0.1281383     0.103399 -89.17 0.0008100813    1.025    0.024
        66 -10.6732    143.5554    155.3275   8.2951855880e+01   2.1752863508e+01    0.5303587    0.4298568  72.98  0.002565969    1.493    0.330
        67 -10.4697    136.1073    151.3499   8.3922427980e+01   2.4136893096e+01    0.4534416    0.4107842  42.78 0.0009970393    1.106    0.096
        68 -11.8948    132.5975    139.8260   8.2218668308e+01   2.7489799435e+01     1.058313    0.5473401 -57.73  0.003934612    2.243    0.554
        69 -10.8277    137.9623    139.1169   8.0689884029e+01   2.6556022896e+01    0.5247787    0.3217724 -54.24  0.001817649    1.706    0.414
        70  -9.2678     94.5904    156.8549   9.5887699601e+01   3.0480816050e+01    0.3075325    0.1923743 -75.21  0.001311416    1.928    0.481
        71  -8.5585     78.4927    157.4826   1.0035136657e+02   3.2881842405e+01    0.1459201    0.1335783  89.70 0.0001358325    1.031    0.030
        72 -10.3611    154.6411    162.3386   8.1813959845e+01   1.8004083038e+01     0.514718    0.3122855 -59.26  0.001898383    1.992    0.498
        73  -9.7336     52.0826    150.7519   1.0652785654e+02   3.8162941322e+01    0.3544402    0.1919179 -70.09  0.001466873    1.724    0.420
        74 -12.0276     44.2180    142.3825   1.0748091204e+02   4.1176896649e+01    0.5691501    0.4137661 -81.60  0.003092892    1.304    0.233
        75 -11.2243     61.8965    149.1387   1.0353233721e+02   3.7318247435e+01    0.7597823    0.3421685 -40.42  0.002758285    3.116    0.679
        76  -9.8506     86.2333    149.8315   9.6849732307e+01   3.3576225973e+01    0.3379837    0.2336263  51.04  0.001610296    1.515    0.340
        77  -9.7930    154.1957    146.0400   7.8327808347e+01   2.1650675744e+01    0.2653683    0.2359381  64.82 0.0006674153    1.230    0.187
        78  -9.6456    142.1265    137.1907   7.9194591454e+01   2.6129233278e+01    0.2805315    0.2178543 -47.07 0.0003103071    1.271    0.214
        79 -10.9398    140.6898    132.8616   7.8518087274e+01   2.7404625136e+01    0.5814607    0.3619536  63.56  0.001872739    2.204    0.546
        80 -10.3526    142.4287    145.3172   8.1005801430e+01   2.4234065822e+01    0.3847962    0.2579979 -38.73  0.001696444    1.548    0.354
        81 -10.8495    145.9084    143.8575   7.9818172230e+01   2.3847578749e+01    0.6277248    0.3600691 -52.23  0.002071678    1.810    0.447
        82  -9.4072    104.5141    145.7953   9.1004309804e+01   3.1462412076e+01    0.2748424    0.2363618  63.38 0.0003885234    1.222    0.181
        83 -12.4060     54.6032    142.4756   1.0451022712e+02   3.9928103440e+01    0.8702556    0.5234639 -76.57  0.004080176    1.705    0.414
        84 -10.0215    145.8203    125.3407   7.5394355379e+01   2.7984327819e+01    0.3896254    0.3099886  51.08 0.0009403611    1.299    0.230
        85  -8.2327    250.2206    134.6255   5.7353887137e+01   4.9296930972e+00     0.132327    0.0879434 -51.85 0.0002882676    1.593    0.372
        86  -8.9567    104.5432    133.7019   8.8359965612e+01   3.4388226922e+01    0.3045959    0.1425909 -48.57  0.001141602    2.067    0.516
        87  -9.8806     84.3617    143.5550   9.6167046551e+01   3.5432141266e+01    0.3040892     0.178113 -56.26  0.001337939    1.611    0.379
        88  -9.5136    151.0168    139.7023   7.7615819777e+01   2.3707714949e+01      0.28061    0.2216548 -76.55 0.0008110044    1.590    0.371
        89 -10.3067    120.2580    141.5321   8.5830735312e+01   2.9542108556e+01    0.5578572    0.3503779  71.99  0.002064642    2.652    0.623
        90 -10.0023     85.7506    133.9046   9.3799787959e+01   3.7600773114e+01    0.5624503    0.3566425 -64.46  0.002517044    1.616    0.381
        91  -9.9913     89.9927    131.5096   9.2043985536e+01   3.7487519001e+01    0.4711966    0.2903471  17.21  0.001900857    2.351    0.575
        92  -9.2888    153.2969    134.3518   7.5798113477e+01   2.4400384597e+01    0.2748042    0.1935735 -22.63 0.0008148692    1.769    0.435
        93  -9.4225    127.8062    125.0697   7.9925725315e+01   3.1865476255e+01    0.2480465    0.2145026 -85.77 0.0009864848    1.329    0.248
        94 -11.0157    147.9881    130.3882   7.6113616107e+01   2.6406043688e+01    0.8349623    0.4439334  62.43  0.002613217    2.992    0.666
        95 -10.6275     27.4704    124.1088   1.0966577272e+02   4.7414835976e+01    0.3210378    0.1845983  47.16   0.00161444    1.984    0.496
        96  -8.3053    108.3201    124.6929   8.5178945986e+01   3.5838209383e+01    0.1568011    0.1225627  81.94 0.0005482811    1.638    0.389
        97 -10.5880    139.0210    119.2282   7.5539131525e+01   3.0802345278e+01      0.53195    0.3516019 -47.13  0.002321699    1.492    0.330
        98 -10.5993    134.9420    120.9962   7.7034106090e+01   3.1286437764e+01    0.3708516    0.3605875   6.22 0.0009957273    1.062    0.059
        99  -9.9429    134.9612    116.3146   7.5821940451e+01   3.2322747818e+01    0.2936554    0.2875456  68.44 0.0002097257    1.046    0.044
       100 -11.8015      6.4901    118.7671   1.1534354815e+02   5.0309766863e+01    0.4552825    0.4129997 -24.19  0.003159207    1.322    0.244
       101  -9.0217     36.2904    120.3640   1.0630635904e+02   4.7510803645e+01    0.1450015   0.08804637 -41.80 0.0004747439    1.702    0.412
       102  -9.0367     82.2366    119.3751   9.1626058318e+01   4.1738262185e+01    0.2097533    0.1362037  46.68 0.0008267726    1.673    0.402
       103 -10.0971    113.2745    121.0510   8.2884185765e+01   3.5734385837e+01    0.2876479    0.2046741  56.73 0.0007682981    1.593    0.372
       104  -9.3012    112.6804    113.9882   8.1249003295e+01   3.7487184431e+01      0.23045    0.2007833 -46.24  0.001161198    1.118    0.105
       105  -9.2025     70.9804    109.7295   9.2901674547e+01   4.5824573188e+01    0.1987865    0.1963228  -4.77  0.001040819    1.082    0.075
       106 -10.4551     15.0004    108.8617   1.1126973163e+02   5.2137456378e+01    0.2956853    0.1425605 -22.41  0.001260074    3.193    0.687
       107  -9.0391    192.4013    199.7525   8.1051008537e+01   3.6257659336e+00    0.1870726    0.1219881 -28.35 0.0006771372    1.596    0.373
       108  -8.5632     90.8277    102.8183   8.4798649220e+01   4.4196934762e+01    0.2030199     0.179972 -88.94 0.0005773146    1.314    0.239
       109 -10.4914      5.3411     99.8614   1.1310274227e+02   5.4904042012e+01    0.2862795    0.1381298 -82.25  0.001264467    2.171    0.539
       110  -8.9940     95.0177     95.5317   8.1471931097e+01   4.5073610949e+01    0.2526443    0.1959627 -44.19  0.001249226    1.241    0.194
       111  -8.7102     44.2535     94.9800   9.8494037092e+01   5.2827636936e+01    0.1896222    0.1564451 -50.78 0.0004005171    1.060    0.057
       112 -11.2913    105.0253     86.0646   7.5628451813e+01   4.5149909440e+01    0.5052189    0.4142057 -84.29  0.001988122    1.611    0.379
       113  -8.4520     49.0171     88.9506   9.5297189034e+01   5.3675640391e+01    0.1761297    0.1408756 -49.56 0.0009392875    1.112    0.101
       114  -9.6413      2.1659    226.9562   1.2487552169e+02   2.5872817849e+01    0.2486431    0.1183178 -74.04  0.001456754    1.899    0.474
       115  -8.9778     68.1702     98.1883   9.0955131577e+01   4.8972724827e+01    0.1997551    0.1731178  89.26   0.00107831    1.382    0.277
       116  -9.8287     81.6658     77.2070   8.0311882208e+01   5.1405222618e+01    0.4063129    0.3178101  88.14  0.001748562    1.979    0.495
       117  -9.3470     98.4147     76.4204   7.4638119267e+01   4.8423940449e+01    0.2874046    0.2399652 -84.84 0.0007670258    1.608    0.378
       118  -9.9129     84.9863     72.2098   7.7591580010e+01   5.1815345587e+01    0.3186764    0.2448605  32.32 0.0006115263    1.320    0.242
       119  -9.1238    105.0584     71.6470   7.1085324695e+01   4.7988645355e+01    0.2105732    0.1842578  38.52 0.0005862853    1.135    0.119
       120  -9.4440    100.0777     68.2582   7.1465876307e+01   4.9647678824e+01     0.360159    0.2548215  -4.27  0.001647818    1.871    0.466
       121  -9.6522    100.9342     62.1760   6.9155531987e+01   5.0566851755e+01    0.3689099     0.237551 -48.80  0.001714378    1.741    0.426
       122  -9.9430     85.5356     54.9928   7.1483865377e+01   5.4881969259e+01    0.2891008     0.262278  56.95   0.00119472    1.298    0.229
       123 -10.8536     94.1565     60.7563   7.0747283797e+01   5.2197619162e+01    0.8325786    0.3336104 -51.39  0.002687953    3.856    0.741
       124  -8.7891     84.0160     65.6756   7.5737691539e+01   5.3250651296e+01    0.1980347    0.1744099  23.63 0.0004715713    1.118    0.106
       125 -10.4805     79.4636     62.9896   7.6366841231e+01   5.4578095058e+01    0.3870164    0.2306059  36.26  0.001571977    1.699    0.412
       126  -9.3538     53.5753     62.6678   8.5847996671e+01   5.8735000810e+01    0.2753952    0.1997201  69.56   0.00132228    2.531    0.605
       127  -9.1392     57.0202     55.0507   8.1856822785e+01   5.9706223249e+01    0.1894303    0.1685939 -83.09 0.0005505906    1.638    0.390
       128  -8.7953     21.0615     50.9669   9.5858998460e+01   6.4657398299e+01    0.1696732    0.1487801  82.81 0.0005748702    1.683    0.406
       129  -9.1486     59.3377     46.6980   7.7846849175e+01   6.0842976926e+01     0.180486    0.1613197 -85.01 0.0008335603    1.710    0.415
       130 -11.5795     68.0616     41.7348   7.2580178079e+01   6.0228885234e+01    0.6630753    0.3405373 -48.66  0.002927718    2.536    0.606
       131  -8.5515     75.3111     44.3101   7.0975804499e+01   5.8541351636e+01    0.1395798   0.09799775   6.15 0.0003156241    1.625    0.385
       132  -8.6812    132.8767     42.6672   5.4266731563e+01   4.6380982343e+01    0.1969113    0.1706316  63.60 0.0005406911    1.115    0.103
       133 -10.0301     55.0781     39.7516   7.6818067281e+01   6.2650533238e+01    0.3068324     0.207917  -5.53 0.0006437629    1.605    0.377
       134  -8.0735     33.6433     41.3168   8.6711498842e+01   6.5230732966e+01    0.1113319    0.1007925  70.96 0.0007044989    1.750    0.429
       135 -11.6605    123.4641     34.7669   5.3685094530e+01   4.9653500893e+01    0.6518365    0.3760199 -25.33  0.003071342    1.924    0.480
       136 -10.5088     72.6982     36.9727   6.8995790854e+01   6.0131541534e+01     0.352094    0.2840742 -47.85  0.001156784    1.545    0.353
       137  -8.8589     45.5039     39.0489   8.0543130300e+01   6.4144914381e+01     0.183763    0.1138273 -38.63 0.0004210838    1.517    0.341
       138 -12.4311     20.0579    223.1759   1.2128835193e+02   2.4895527577e+01    0.5707452    0.3353369  39.96  0.003544256    1.629    0.386
       139 -10.0778    107.2129     20.6138   5.2351547071e+01   5.5046300863e+01    0.2367588    0.2216571  27.70 0.0002736404    1.073    0.068
       140  -9.6995     55.8152     32.9481   7.3711146605e+01   6.3593282567e+01    0.3377569    0.1705894  45.66  0.001617515    2.252    0.556
       141 -11.9614     26.6028    206.9938   1.1884972336e+02   2.7668753875e+01    0.7049469    0.6379632 -89.02  0.002396923    1.238    0.192
       142  -8.7914     86.7014    221.7210   1.0737145524e+02   1.6848467098e+01    0.2570511    0.1448987  85.12  0.001163407    2.495    0.599
       143  -9.6373    164.7634     18.7882   4.1343664673e+01   4.1462391764e+01    0.3073216    0.1948689 -54.57 0.0009723924    1.673    0.402
       144  -9.9499     53.4881     27.6061   7.2353177023e+01   6.4734799459e+01    0.2784834    0.1438669  29.99 0.0009810111    1.931    0.482
       145 -10.5654     24.1847     27.5104   8.5693770635e+01   6.8607444045e+01    0.1978545    0.1810985 -40.36 0.0006048126    1.463    0.317
       146  -8.6999      7.3492     28.6535   9.4895144315e+01   6.9896447401e+01    0.1004159    0.0909325  68.13 0.0007041078    1.813    0.448
       147  -9.7384     77.1882     24.2332   6.2191703807e+01   6.0990623641e+01    0.2373218     0.214645  -9.99  0.001533524    1.164    0.141
       148  -8.8956     48.3357     25.0113   7.3348398459e+01   6.5892431653e+01    0.1958821    0.1751178  50.69 0.0006883622    1.593    0.372
       149  -9.5771     43.6545    221.2787   1.1643304943e+02   2.2670249839e+01    0.2932097    0.2430302  21.63  0.001926543    1.609    0.379
       150  -9.2760     11.4708     23.5073   9.0632529433e+01   7.0459223281e+01    0.1718938   0.09702547  31.25 0.0006370203    2.085    0.520
       151  -9.5503     31.9969     22.4919   7.9624968663e+01   6.8495872102e+01    0.1760892    0.1072552  28.27  0.001039456    1.614    0.381
       152  -9.7877     51.0497     19.1675   6.9537514655e+01   6.6251820595e+01    0.2113154     0.160363 -52.80  0.001094671    2.090    0.522
       153 -12.3312     15.2376    217.3693   1.2186949809e+02   2.6597503089e+01    0.4989112     0.356677 -56.71   0.00329191    1.743    0.426
       154 -10.0937     78.9746     31.5781   6.4654040865e+01   5.9709655583e+01     0.324524    0.2587065 -38.28  0.001667071    1.423    0.297
       155  -9.7296     63.1650     16.2677   6.3511411761e+01   6.4545701791e+01    0.3041737    0.1518962  43.62  0.001550875    1.812    0.448
       156  -9.2076    136.4606    225.0099   9.7058374109e+01   8.4253786152e+00    0.3146231    0.1552416  32.50  0.001421185    1.958    0.489
       157 -10.9500    236.3219    212.4523   7.5082498274e+01  -5.2781935756e+00    0.3370689     0.311986  49.30  0.001713762    1.630    0.386
       158 -10.6647      6.3157    213.1164   1.2336652373e+02   2.8349194756e+01    0.1752091    0.1588525  45.43  0.001335569    1.406    0.289
       159  -9.4486     44.1610     13.7550   6.9870846271e+01   6.7996825142e+01    0.2400688    0.1334443  34.26  0.001352379    1.651    0.394
       160 -11.5231     15.6439    209.3695   1.2128068735e+02   2.8264489972e+01    0.3441021    0.2481444 -71.63  0.001929755    1.383    0.277
       161  -8.6911     57.8421    209.4692   1.1234342133e+02   2.3459948579e+01    0.2166722    0.1507939  73.60 0.0007033102    1.345    0.257
       162 -10.5118    248.7775    205.5805   7.1680489727e+01  -6.0227741652e+00    0.2944307    0.1753442 -32.44  0.001439919    1.508    0.337
       163 -10.7070    228.3146    206.0148   7.5337529021e+01  -3.1519700185e+00    0.3487778    0.2633272  23.00  0.001523444    1.254    0.203
       164 -10.8638    231.1597    199.5070   7.3613204905e+01  -2.5747724072e+00    0.3341364    0.2426876 -39.38  0.001972903    1.459    0.315
       165  -9.9931    225.4718    202.0097   7.5110544703e+01  -2.1015393245e+00    0.2312929     0.188835 -48.33 0.0007008337    1.582    0.368
       166 -11.0574    222.1856    199.3961   7.5223037454e+01  -1.1797117088e+00    0.4494419    0.2201644  45.43  0.002069774    2.411    0.585
       167 -10.2044    226.0235    198.4775   7.4346240206e+01  -1.6291138655e+00    0.2670178    0.1953799  37.61   0.00111717    1.473    0.321
       168 -10.1290    188.1583    207.9826   8.3413934339e+01   2.9001661227e+00    0.4234583    0.2589538  56.18  0.001932418    2.425    0.588
       169  -9.6518    186.0327    201.4738   8.2666903010e+01   4.4049864106e+00    0.2347493    0.1984668 -58.40   0.00085798    1.496    0.331
       170  -9.2328    245.6609    242.3154   7.8608401465e+01  -1.0541700661e+01    0.0960944   0.09035152  25.91 0.0004056438    1.701    0.412
       171  -9.8185    249.6924    236.1012   7.6890460187e+01  -1.0264029633e+01    0.1669857    0.1334836 -29.43  0.001180711    1.488    0.328
       172 -15.2314    248.3952     98.3689   4.9848584503e+01   1.1217126874e+01     0.650641    0.4790543 -24.85  0.003683018    1.450    0.311
       173 -16.6769    239.8240     87.3025   4.8528982030e+01   1.4659873614e+01     1.628005     0.851527 -56.90  0.007377062    2.115    0.527
       174 -10.3726    201.1638    197.2823   7.8836906768e+01   2.5783253085e+00     0.438811    0.3419432  79.87  0.002203403    2.358    0.576
       175  -8.8996    102.4064    232.7866   1.0531222959e+02   1.2296670581e+01    0.1688463    0.1184362 -50.28 0.0009604761    1.688    0.408
       176 -10.4264    170.2097    196.4890   8.5073004675e+01   8.0856795419e+00    0.4185121    0.3365611 -12.76  0.002279616    1.352    0.260
       177  -8.9373     46.4726    197.9660   1.1372761001e+02   2.7456803289e+01    0.1961143    0.1144393 -76.68  0.001031217    1.600    0.375
       178 -10.4466    243.7293    195.2047   7.0603062256e+01  -3.7782766887e+00    0.3836198    0.2351914  38.27  0.001542658    1.780    0.438
       179  -9.1411    249.8742    194.8421   6.9497913375e+01  -4.6064685670e+00    0.2740039    0.1732695  45.71  0.001213872    2.060    0.515
