#   1 NUMBER                 Running object number                                     
#   2 MAG_AUTO               Kron-like elliptical aperture magnitude                    [mag]
#   3 X_IMAGE                Object position along x                                    [pixel]
#   4 Y_IMAGE                Object position along y                                    [pixel]
#   5 X_WORLD                Barycenter position along world x axis                     [deg]
#   6 Y_WORLD                Barycenter position along world y axis                     [deg]
#   7 A_WORLD                Profile RMS along major axis (world units)                 [deg]
#   8 B_WORLD                Profile RMS along minor axis (world units)                 [deg]
#   9 THETA_WORLD            Position angle (CCW/world-x)                               [deg]
#  10 FWHM_WORLD             FWHM assuming a gaussian core                              [deg]
#  11 ELONGATION             A_IMAGE/B_IMAGE                                           
#  12 ELLIPTICITY            1 - B_IMAGE/A_IMAGE                                       
         1 -14.5376    177.0033     35.7976   6.9852730344e+01   3.6642490991e+01     1.253424     1.038104  21.67   0.00404174    1.562    0.360
         2 -13.1194    181.4471     28.6949   6.7341175292e+01   3.6446361873e+01    0.5009689    0.4878324 -50.73  0.001268492    1.204    0.169
         3 -12.5297    189.7989     14.7359   6.2758271038e+01   3.6033858625e+01    0.3476699    0.2680581 -67.69  0.001259787    1.266    0.210
         4 -13.7292    196.4824      4.4461   5.9576963371e+01   3.5526070218e+01    0.9081749     0.508376  72.44  0.004156337    1.495    0.331
         5 -10.5888    198.7063    222.7038   1.0909160993e+02  -2.7968710824e+00    0.2219046    0.1814304  15.74 0.0003690914    1.173    0.148
         6 -18.7800     59.0148    246.4346   1.4015665742e+02   1.5947815258e+01     6.650265     4.797718  40.52   0.04317481    1.536    0.349
         7 -10.9106    167.9389    189.1040   1.0931079719e+02   9.2931422600e+00    0.3511588    0.2239056 -50.99 0.0009943246    1.663    0.399
         8 -13.4903     11.5005    205.8437   1.4568197528e+02   2.9985949507e+01     0.344929    0.2980819  52.78  0.001946207    1.404    0.288
         9 -11.5256    205.7532    180.5715   9.9602777666e+01   3.5431681546e+00    0.4793132    0.2836444  45.69  0.001548061    1.733    0.423
        10 -11.3524    208.6889    178.6714   9.8622093282e+01   3.3390559905e+00    0.3666546    0.3060122  21.28  0.001985031    1.233    0.189
        11 -11.8604    136.2604    179.5803   1.1467774206e+02   1.7636295878e+01    0.3526048    0.1813753  43.76  0.001018766    1.882    0.469
        12 -11.4693     23.4218    205.5036   1.4337301001e+02   2.8842658567e+01    0.3301317    0.1504058  54.19  0.001046443    2.027    0.507
        13 -10.6595      1.2010    177.5110   1.4551316892e+02   3.7123563382e+01    0.1168327   0.07137759 -78.64 -1.872429e-05    1.250    0.200
        14 -19.1796     40.5298     92.5659   1.2287033086e+02   5.3174180591e+01     19.54325     1.906767 -58.13   0.03784709   11.267    0.911
        15 -11.8919    195.9844    170.9612   9.9589792691e+01   7.3649258962e+00    0.6663866    0.3943725 -48.63  0.002542113    1.750    0.429
        16 -10.6251    193.8060    164.9449   9.8754022967e+01   9.0287926150e+00    0.3449945    0.2777672 -56.68  0.001382567    1.340    0.254
        17 -12.9217    193.8181    193.3498   1.0461609859e+02   3.3914517734e+00     1.121388    0.6019011 -57.39  0.002960114    2.613    0.617
        18  -9.2855     17.9820    167.7566   1.4100765104e+02   3.7899836816e+01    0.1543952    0.1363471  80.60  0.001081379    1.179    0.152
        19 -10.6394    158.7096    204.7147   1.1422841967e+02   7.8820285775e+00    0.3801401    0.2253782  63.69  0.001558649    2.389    0.581
        20 -10.6685    120.5790    164.0458   1.1543904880e+02   2.4274979300e+01    0.3079443    0.2277087  77.23 0.0006526441    1.627    0.385
        21 -10.3333    163.4664    204.1760   1.1310215851e+02   7.0853382735e+00    0.2914323    0.1964222  36.73 0.0004715499    1.428    0.300
        22 -11.3449    104.5063    163.4551   1.1933235007e+02   2.7375771734e+01    0.3155302     0.249172  78.46 0.0007887033    1.373    0.272
        23 -10.1309     13.0405    160.1255   1.4133396420e+02   4.0095454093e+01    0.1807393    0.1420701 -86.16 0.0004447767    1.045    0.043
        24 -13.1066    134.0564    146.0025   1.0826162920e+02   2.5850737244e+01     1.425208    0.3514656 -54.62  0.003217713    5.880    0.830
        25 -10.4516     11.1169    153.0440   1.4102548999e+02   4.1888192895e+01     0.216487    0.1793255   3.18  0.001131218    1.715    0.417
        26 -10.9621    174.4365    148.8063   9.9340094717e+01   1.6555595766e+01    0.3591352    0.2835676 -67.26  0.001554863    1.442    0.306
        27 -12.2831    145.4193    146.3571   1.0553894382e+02   2.3389351961e+01    0.5767409    0.3416705  55.86 0.0005755996    1.891    0.471
        28 -10.3958      2.3506    146.9566   1.4244734012e+02   4.3943165737e+01    0.1712735     0.158677 -56.73 0.0004279692    1.306    0.235
        29  -9.7622      7.3427    144.2617   1.4095837065e+02   4.4201518652e+01    0.1155914   0.07686342 -47.15 0.0002113145    1.594    0.373
        30 -11.8997    139.5831    200.5937   1.1771842222e+02   1.2364819487e+01    0.3300152    0.2779898 -76.65  0.001421862    1.284    0.221
        31 -12.4178    101.7708    139.1886   1.1514351314e+02   3.3712152169e+01    0.3064713    0.2836043 -38.39 0.0003737755    1.142    0.125
        32  -9.5592     12.7688    215.3343   1.4613087567e+02   2.7840814443e+01    0.1141727    0.1040994  46.56 0.0005174989    1.518    0.341
        33 -11.9414    106.0853    130.7511   1.1209351028e+02   3.4938030866e+01    0.4175623    0.3539265 -69.57  0.001185975    1.204    0.169
        34 -11.2658    106.4039    125.7875   1.1084771592e+02   3.6045310198e+01    0.3378368    0.2459678 -34.58 0.0006924241    1.512    0.339
        35 -11.0877      9.0510    132.2126   1.3909332743e+02   4.6846743649e+01     0.191428    0.1357937 -53.18 0.0009235567    1.305    0.234
        36 -12.2581    118.4129    129.7277   1.0853714248e+02   3.2818180304e+01    0.4177071    0.4007967   6.56  0.001154075    1.134    0.118
        37 -11.8352      2.4759    126.4687   1.4008444140e+02   4.8597160691e+01    0.3242148    0.1188952 -68.47  0.001559282    2.028    0.507
        38 -12.3516    135.4070    122.3455   1.0230045037e+02   3.0996416956e+01      0.67434    0.2472896 -49.05  0.002177213    2.763    0.638
        39 -11.2675    160.6249    127.9599   9.7546472251e+01   2.4173974459e+01     0.426876    0.3101202 -68.33  0.001704797    1.661    0.398
        40 -12.4379    123.6988    126.0472   1.0625264064e+02   3.2607956127e+01     0.674589    0.4214598  78.55  0.002350592    3.066    0.674
        41 -10.3037    141.5716    126.7347   1.0183726456e+02   2.8678946080e+01    0.2174559    0.1491873 -58.38 0.0005371493    1.566    0.361
        42 -10.8968    112.4680    118.8106   1.0748760570e+02   3.6503744383e+01    0.2954066    0.2601062  65.21 0.0005252565    1.225    0.184
        43 -11.0788    208.8655    197.3678   1.0234915688e+02  -1.7158198519e-01    0.2282441    0.1903978 -47.31 0.0004623706    1.319    0.242
        44 -10.7996    168.4938    113.2560   9.2072397093e+01   2.5498338400e+01    0.3985579    0.2867475 -76.22  0.001120059    1.841    0.457
        45 -11.0713    134.7501    111.8738   9.9788276832e+01   3.3450955709e+01    0.3748465    0.1311771 -47.09  0.001184825    2.868    0.651
        46 -11.0183      2.4162    112.6976   1.3828227877e+02   5.1697272070e+01    0.2247925     0.164314 -52.69 0.0006741644    1.194    0.162
        47 -10.6541    205.2540    110.4464   8.3917677282e+01   1.7514462466e+01    0.3630086    0.2590074  32.23  0.001129543    1.783    0.439
        48 -10.7838    130.0404    109.9438   1.0049958727e+02   3.4885929879e+01    0.2457401    0.1936237  -5.92  0.000698003    1.669    0.401
        49 -12.0109     85.4446    108.1678   1.1255431754e+02   4.3767128489e+01    0.4435424    0.3730056 -23.40  0.001596216    1.270    0.213
        50 -11.9219     67.0147    104.5733   1.1726556371e+02   4.7351082097e+01    0.3196498    0.2500011   5.18  0.001740376    1.526    0.345
        51  -9.6163    154.2182    104.0025   9.2925335725e+01   3.0730585513e+01    0.2095546    0.1966813 -47.33  0.001086029    1.067    0.063
        52  -9.5725    124.6553     92.2634   9.7094767240e+01   3.9742687596e+01    0.1492766    0.1199944  83.37 0.0003820542    1.602    0.376
        53 -10.7886     85.3697     77.1054   1.0403794173e+02   5.0309361540e+01    0.2242022    0.1836513  18.45  0.000440661    1.254    0.202
        54  -9.9811    104.4581     73.5123   9.7175450487e+01   4.7493647380e+01    0.2448781    0.1381818  44.29 0.0006635063    1.770    0.435
        55  -9.7994    101.3080     71.6619   9.7522797727e+01   4.8441637480e+01    0.2339035    0.1341245  51.61 0.0009560327    1.955    0.488
        56 -10.7175    163.1232    210.6462   1.1432055027e+02   5.8682087379e+00    0.2352342    0.1957602 -61.71 0.0006879135    1.357    0.263
        57 -13.7377    163.8768     52.3356   7.6603946261e+01   3.7575135641e+01     0.962958    0.8013489 -50.33  0.002044355    1.259    0.206
        58  -9.9326     13.5009     59.9446   1.2441330676e+02   6.2094645153e+01    0.1628477    0.1290986 -34.47 0.0003983663    1.045    0.043
        59 -11.2067    154.4402    196.5811   1.1370141619e+02   1.0376687712e+01    0.3030177    0.2446817  85.72  0.001138625    1.502    0.334
        60 -10.4796      1.9746    246.1546   1.4982344442e+02   2.2757767371e+01    0.1213412   0.09708926  79.84 0.0009710419    1.266    0.210
        61 -12.5432     16.0238    206.4665   1.4487313010e+02   2.9401936968e+01    0.2531994    0.1723204 -74.70 0.0008934125    1.296    0.229
