#   1 NUMBER                 Running object number                                     
#   2 MAG_AUTO               Kron-like elliptical aperture magnitude                    [mag]
#   3 X_IMAGE                Object position along x                                    [pixel]
#   4 Y_IMAGE                Object position along y                                    [pixel]
#   5 X_WORLD                Barycenter position along world x axis                     [deg]
#   6 Y_WORLD                Barycenter position along world y axis                     [deg]
#   7 A_WORLD                Profile RMS along major axis (world units)                 [deg]
#   8 B_WORLD                Profile RMS along minor axis (world units)                 [deg]
#   9 THETA_WORLD            Position angle (CCW/world-x)                               [deg]
#  10 FWHM_WORLD             FWHM assuming a gaussian core                              [deg]
#  11 ELONGATION             A_IMAGE/B_IMAGE                                           
#  12 ELLIPTICITY            1 - B_IMAGE/A_IMAGE                                       
         1 -10.6318     32.7972     63.4193   1.2195701012e+02   6.0327671725e+01     1.341176    0.5063934 -34.73  0.003673235    3.456    0.711
         2  -9.6993    103.3491     19.4459   8.1007174331e+01   5.6335050193e+01    0.9014184    0.3323255 -16.19  0.002147915    4.065    0.754
         3 -10.7430     36.8962      9.0325   9.9220533579e+01   6.9444534640e+01    0.8495917    0.3913411 -36.54  0.002401907    2.036    0.509
         4 -10.8184     19.5676      7.0717   1.0664871650e+02   7.1747384633e+01     1.098947    0.9101152  80.67  0.006618168    3.210    0.688
         5 -10.2893      9.8174     19.0886   1.1723534018e+02   7.0722416464e+01     1.123238    0.4132098 -21.59  0.003729328    6.230    0.839
         6  -9.9973     25.4730     25.3448   1.1212363020e+02   6.8298833215e+01     1.037656    0.3557086 -29.16  0.003594718    4.747    0.789
         7 -10.2460      4.7744     42.8536   1.2773601153e+02   6.6644201255e+01    0.8948947    0.3157466 -63.94  0.004099828    2.695    0.629
         8  -9.4253      2.2174     14.5218   1.1935686635e+02   7.2028890708e+01    0.4419916    0.2026569 -60.54  0.001984662    2.886    0.654
         9 -10.4272      5.1808      4.6519   1.1325745783e+02   7.3404976858e+01    0.4267775    0.3302608 -18.86  0.001491544    1.096    0.088
        10 -10.1169      7.1141     28.3073   1.2209511147e+02   6.9283200475e+01    0.3031017    0.2647745 -83.56  0.001034387    1.673    0.402
        11 -10.6073    133.9306     31.0858   7.8273561440e+01   4.7876572822e+01    0.4162259    0.2857391  -1.58            0    1.783    0.439
        12 -10.2381     69.4923     40.4287   1.0012335314e+02   5.9980802465e+01     1.368571    0.4140497 -36.71  0.004937661    3.204    0.688
        13 -10.2644     76.1703     31.8201   9.4284675964e+01   6.0177622005e+01    0.5916542    0.4328491 -72.20  0.001277456    2.720    0.632
        14  -9.4077    100.8859     31.7612   8.6605423723e+01   5.5340111905e+01    0.6002403    0.3137829 -29.14  0.001849765    1.919    0.479
        15  -8.9568     67.9945      9.2567   8.6999615051e+01   6.4542113918e+01     0.385331    0.1917977  54.39  0.001610753    2.332    0.571
        16  -9.6559     63.0482     21.4157   9.4432246395e+01   6.3905257888e+01    0.4431974     0.275911 -44.41  0.001742219    1.964    0.491
        17 -10.0683     64.5117     13.4309   9.0202700923e+01   6.4678197614e+01    0.4278626    0.3019259 -12.10  0.001849158    1.314    0.239
        18  -9.3478    110.1748     31.8346   8.4129942304e+01   5.3313871572e+01    0.7632885    0.2099801 -32.54  0.002220823    3.491    0.714
        19  -9.1654    110.2951      6.7024   7.4206488961e+01   5.6065852298e+01    0.5808572    0.2531182  -6.42  0.002203367    3.237    0.691
        20  -8.9246    115.1161      4.1586   7.2181434963e+01   5.5176753779e+01    0.3440608    0.1900715 -26.00 0.0004853352    1.918    0.478
        21  -8.7920    112.1716     15.6475   7.7334092415e+01   5.4772671168e+01    0.3222476    0.1901054 -35.02  0.000874998    1.821    0.451
        22  -9.2841    114.0620     10.0599   7.4714407532e+01   5.4892829619e+01    0.4120369    0.2262349  34.69 0.0003170686    1.871    0.466
        23  -9.7234     63.6499      2.9645   8.5422944797e+01   6.5978223806e+01    0.3647362     0.254505 -35.09  0.001622987    1.671    0.402
        24 -10.4090     50.6304     15.2424   9.6381620379e+01   6.6690055420e+01     1.323279    0.6523145   2.38  0.004675891    4.747    0.789
        25 -10.0761    132.8360     15.8072   7.3044068301e+01   4.9874870375e+01    0.7730846    0.4387569  -3.50  0.003448317    2.310    0.567
        26  -8.4630    136.0844      1.4534   6.7363835170e+01   5.0389506895e+01    0.4052728    0.1901702  37.18  0.001055188    2.351    0.575
        27  -9.6753    118.9766     21.4971   7.8037560529e+01   5.2570436453e+01    0.6560614    0.2555301 -23.04  0.002536769    2.823    0.646
        28  -8.6432    121.0024      6.2625   7.1814041726e+01   5.3616456170e+01    0.3332157    0.2475347 -76.47  0.001795867    1.747    0.427
        29  -9.2535    124.9366     13.1359   7.3616751376e+01   5.2044331407e+01    0.4094435    0.3041092 -82.86  0.001236885    1.731    0.422
        30  -9.1194    126.9041      8.8765   7.1652350206e+01   5.1977239051e+01    0.3412676    0.2204453  57.96  0.001035219    1.383    0.277
        31  -8.3022    125.6280      5.1508   7.0513294065e+01   5.2612863971e+01    0.3061782    0.2173643  17.70  0.001008973    1.547    0.354
        32  -8.6056     71.9847      8.5038   8.5309956567e+01   6.3892529092e+01    0.2642372    0.1723774 -13.00 0.0008664154    1.491    0.329
        33 -10.3512     73.7763     16.8053   8.8560006209e+01   6.2621287382e+01     1.206554    0.3799787 -22.25  0.003993191    4.444    0.775
        34  -8.7254     78.6473      3.0874   8.0693017639e+01   6.3150576258e+01    0.2785526    0.2108656  -3.33  0.000828162    1.260    0.207
        35  -8.4027    141.5826     11.7706   7.0041856651e+01   4.8126896880e+01    0.3469488    0.1374907 -22.22   0.00133448    2.758    0.637
        36  -8.7481     97.1401     12.0222   7.9542364539e+01   5.8476612010e+01    0.3928401    0.2528045   1.98  0.002042051    1.733    0.423
        37  -8.1503     97.6472      5.7241   7.6743534562e+01   5.8971083518e+01    0.2429564    0.1759798   6.37  0.001132718    1.411    0.291
        38  -8.7808     95.8416      2.8631   7.5963538902e+01   5.9613566441e+01    0.2764594    0.2207087   1.93  0.001067806    1.241    0.194
        39  -9.7228    232.7142     12.6328   5.9361434170e+01   2.5589320230e+01    0.3818066    0.2545152 -30.11  0.001439878    1.551    0.355
        40  -9.5535     85.1677     13.0563   8.3304211134e+01   6.0856738729e+01    0.3931904    0.2551416 -52.19  0.001525291    2.329    0.571
        41  -7.8788     80.4663     12.5479   8.4490248531e+01   6.1842103922e+01    0.2407209     0.133233 -43.90  0.001142901    2.391    0.582
        42  -9.6532    131.4440      6.4599   6.9934888678e+01   5.1098307038e+01    0.3456636     0.308802  17.14  0.002129586    1.160    0.138
        43  -8.5334    102.0213      8.2742   7.6748981469e+01   5.7779639916e+01    0.2692068    0.2069791 -50.08  0.000632002    1.646    0.392
        44  -8.8541    103.9444      2.6960   7.3987897435e+01   5.7846815435e+01    0.4271758    0.2115893  26.57  0.001901145    2.370    0.578
        45  -7.6042    205.2539      7.0324   6.0435471576e+01   3.2672865044e+01    0.1719871     0.156619 -64.63 0.0003995021    1.086    0.079
        46  -8.7648     85.8534      5.2976   7.9644818690e+01   6.1498028468e+01    0.3872873    0.2615457  -7.98  0.002211533    1.496    0.332
        47  -8.6581     89.1243      2.5238   7.7520049760e+01   6.1071025121e+01    0.4636846    0.2469047 -34.53  0.001956127    2.103    0.525
        48  -7.8627    143.3386      5.0998   6.7468208575e+01   4.8299958866e+01    0.1860328    0.1128414 -36.31 0.0006009194    1.775    0.437
        49  -7.7244    151.2383      2.5038   6.5421337379e+01   4.6557484485e+01    0.2804022    0.0546042 -34.62 0.0008911148    4.367    0.771
        50  -7.6572    234.4585    116.5267   8.4287103977e+01   1.0343935417e+01    0.1414696    0.1278802 -30.69 0.0008084505    1.028    0.027
        51  -9.9387    220.4374    248.8513   1.1255642541e+02  -6.5628357140e+00    0.4272166    0.2018654  48.24  0.002179407    2.593    0.614
        52 -10.1876    201.7502    250.2379   1.1597774018e+02  -3.9743037767e+00    0.4740451    0.1272506  41.07  0.001976749    3.033    0.670
        53 -10.2035    196.4019    247.2275   1.1648433620e+02  -2.7943474428e+00    0.2993819    0.2457618  71.02  0.001993086    1.925    0.481
        54 -10.7075    161.7202    249.4282   1.2296914203e+02   2.2773547093e+00    0.5507893    0.1889521  35.16  0.002359004    2.793    0.642
        55  -7.5798    167.2851    114.3206   9.6383392835e+01   2.5622586670e+01    0.2446665     0.156693  43.42 0.0004171996    1.598    0.374
        56 -10.2036     78.0188    113.0291   1.1922631508e+02   4.3617344312e+01    0.5250783    0.3246569 -78.95   0.00180873    2.203    0.546
        57  -7.7516      1.1464    115.8305   1.4188892648e+02   5.0902101112e+01    0.2562659   0.07143121 -79.28 0.0009570121    3.509    0.715
        58  -6.8980    181.2849    115.3296   9.3663622449e+01   2.2228306785e+01    0.1545284    0.1207205   3.20 0.0003158708    1.612    0.380
        59  -8.7197    152.6917    115.3593   9.9959944753e+01   2.8707017922e+01    0.2389852    0.1867235 -83.07 0.0008877438    1.680    0.405
        60 -10.3683     62.9059     95.7063   1.1980503547e+02   4.9783173957e+01    0.8396056    0.4964566  84.78  0.002770965    3.780    0.735
        61  -8.8368     63.6565     86.7697   1.1731815861e+02   5.1699249376e+01    0.6920805    0.4022286  -2.44    0.0026224    3.626    0.724
        62  -9.4508     59.0976    109.6329   1.2409178061e+02   4.7047216360e+01    0.4698577    0.2210198 -66.56  0.001432528    2.184    0.542
        63 -10.1210     65.7226    110.9562   1.2239120017e+02   4.5867491849e+01    0.6824846    0.4570706  78.06  0.001293198    2.073    0.518
        64  -9.3071     65.1625    103.8548   1.2100191089e+02   4.7601509331e+01    0.4563424    0.3362841  88.08  0.002357758    1.701    0.412
        65  -9.6323     14.1859    111.5069   1.3771662841e+02   5.1031321659e+01    0.3727178    0.2011236  78.97  0.001611414    2.246    0.555
        66  -8.6269     13.9454    105.1420   1.3689716300e+02   5.2515597403e+01    0.2359519    0.1517425 -48.66 0.0007783129    1.476    0.322
        67  -8.5550    158.6885    111.9538   9.7689849925e+01   2.8053523249e+01    0.2635178     0.233654 -50.48  0.000567747    1.134    0.118
        68  -9.3759     36.4824    111.9436   1.3127847263e+02   4.9039707855e+01    0.2361964    0.2053539  36.82  0.001049971    1.353    0.261
        69  -8.4970    149.8288    110.0295   9.9240114850e+01   3.0446432175e+01    0.2392765    0.2076011 -70.54 0.0005612049    1.279    0.218
        70 -10.9153     44.5558    102.4331   1.2707142174e+02   5.0437431959e+01    0.8251907    0.4407282  71.67  0.003103455    3.730    0.732
        71  -8.3483     40.0211    106.9767   1.2933868704e+02   4.9851008967e+01    0.1965133    0.1414867  78.76 0.0003453334    1.620    0.383
        72 -10.6775    183.2308    246.7840   1.1875860938e+02  -7.1092202479e-01    0.4746893    0.1938293  29.73  0.002105977    2.755    0.637
        73 -10.9255     20.7845    101.3857   1.3425318022e+02   5.2875562102e+01     1.226478    0.5770009  87.75  0.003316033    3.398    0.706
        74 -10.0398     20.2524     84.0854   1.3134377899e+02   5.6863222260e+01    0.6096702    0.1823098 -58.44  0.002617724    2.375    0.579
        75 -10.5034     25.6231     78.0625   1.2823033150e+02   5.7787885645e+01    0.6056563    0.4020101 -86.81  0.001872087    1.887    0.470
        76 -10.0612     34.4082     90.7061   1.2793487834e+02   5.4166941099e+01    0.6328312     0.299793 -78.68  0.001734713    3.071    0.674
        77 -10.2506     37.6881     80.4464   1.2453972742e+02   5.6165445644e+01     1.121894    0.5449976 -13.55  0.003706923    5.555    0.820
        78  -8.0344     78.0736    105.3113   1.1743074543e+02   4.5401048770e+01    0.3680318    0.2334199  -4.15  0.001451652    3.080    0.675
        79  -9.4611     81.4734    100.2938   1.1517955455e+02   4.6020496550e+01    0.4036417    0.2544807 -68.96 0.0008623466    1.913    0.477
        80  -7.8826     82.6941     93.7096   1.1310112903e+02   4.7307116473e+01    0.3436084    0.1877013  19.08  0.001295622    3.076    0.675
        81  -9.4976      6.3686    103.7894   1.3895450611e+02   5.3327050716e+01    0.3966315    0.2176574  75.01  0.001761335    2.208    0.547
        82  -8.5978    165.9965    104.0053   9.3943634542e+01   2.7950724947e+01    0.2958029    0.2100387 -39.37 0.0004025668    1.386    0.278
        83  -9.7058    149.4628    103.2976   9.7516808475e+01   3.1904903896e+01    0.4532056    0.2863388 -51.91 0.0009410824    1.690    0.408
        84  -7.6441     73.8583    102.0574   1.1792529142e+02   4.6784639615e+01    0.3846788     0.125877 -49.03  0.001093802    2.731    0.634
        85  -8.9255    159.0509    101.2041   9.4726794822e+01   3.0116991102e+01     0.318845    0.2128204 -45.98 0.0004444599    1.499    0.333
        86  -9.3553     94.2467     97.2765   1.1057570874e+02   4.4554826002e+01    0.3248492    0.2610084 -69.68 0.0005446022    1.384    0.278
        87  -8.7017     95.8831     91.1753   1.0841250952e+02   4.5600017227e+01    0.5377712    0.3307832  -5.05   0.00184819    3.685    0.729
        88 -11.1502    134.5783    109.9952   1.0295598056e+02   3.3805641462e+01    0.9089319    0.7629699 -75.89    0.0032535    1.375    0.273
        89  -9.3335    240.6867     96.1402   7.8521249777e+01   1.2327491709e+01      0.35118    0.2211038  64.71  0.001703611    1.905    0.475
        90  -8.0214    170.6588     96.1482   9.0800048614e+01   2.8359560966e+01    0.2231228     0.143629 -27.58 0.0004283228    1.714    0.417
        91 -10.2825      4.6739     90.0492   1.3752089499e+02   5.6543063477e+01    0.6795403    0.3081292  88.34  0.002005163    3.068    0.674
        92  -7.1689    202.2617     94.9994   8.4367104023e+01   2.1079184293e+01    0.1803018    0.1255224 -35.87 0.0002627106    1.374    0.272
        93  -9.7837    164.2912     93.8268   9.1520845168e+01   3.0311663366e+01    0.5248812     0.348428 -22.65  0.001718225    1.799    0.444
        94  -8.7805    163.2905     87.0667   8.9823205977e+01   3.1818555543e+01    0.2864748    0.2041065 -54.69 0.0006888263    1.539    0.350
        95  -9.0595    140.3618     82.4087   9.3714440105e+01   3.8118255081e+01     0.625938    0.2770989 -40.75  0.001195122    2.216    0.549
        96  -9.1500    140.0269     75.0395   9.1545612604e+01   3.9573828956e+01    0.6006935     0.316134 -37.41  0.001615247    1.885    0.469
        97  -9.4379    138.6394     92.5036   9.7111188899e+01   3.6536879923e+01    0.4522048    0.3061443 -66.38 0.0009225476    2.009    0.502
        98  -8.2074    139.5099     87.5082   9.5440916234e+01   3.7328712819e+01    0.3809628    0.2111396  35.92  0.001476042    2.139    0.532
        99  -9.4498    157.5959     90.8647   9.2163547956e+01   3.2463477124e+01    0.4225836    0.2400934 -26.17  0.001625333    2.154    0.536
       100  -8.5181    174.4911     88.9987   8.8021097037e+01   2.8765759966e+01    0.2385344    0.1490458 -38.23 0.0005606945    1.564    0.361
       101  -9.4235    150.6461     88.7546   9.3143331090e+01   3.4506098909e+01    0.3491518    0.2381382 -42.09  0.001129764    1.447    0.309
       102 -10.0884     85.1722     86.5921   1.1037376691e+02   4.8462382748e+01    0.4473191    0.3416576 -81.80 0.0009742453    1.781    0.439
       103  -9.4577     87.4922     78.6782   1.0732234633e+02   4.9747267908e+01    0.5700376    0.3658869  11.49   0.00163336    2.403    0.584
       104 -10.3577     74.3285     55.5850   1.0409010120e+02   5.6529232441e+01      1.38076    0.5505127 -31.13  0.004464455    3.343    0.701
       105 -10.4378     48.1799     82.8321   1.2149881474e+02   5.4515684703e+01    0.9720753     0.430269 -51.33  0.002504311    1.877    0.467
       106 -10.4544     85.4503     48.2740   9.7689229037e+01   5.5890472424e+01    0.5600007    0.4101388 -71.56  0.001063724    2.330    0.571
       107 -10.4740     89.6637     38.1637   9.2458451070e+01   5.6710705199e+01    0.9425601    0.3854143  33.00   0.00335246    3.345    0.701
       108  -9.8448    163.0750    244.3362   1.2206536104e+02   2.7846808123e+00    0.2303507    0.1859139 -49.27  0.001584532    1.558    0.358
       109 -10.1992     62.6511     60.7633   1.0998751974e+02   5.7329461148e+01    0.7025521    0.2704849  32.57  0.002804927    2.989    0.665
       110 -10.3285    103.8971     82.6075   1.0354371915e+02   4.5906280195e+01    0.5666111     0.321047 -53.67 0.0008792973    1.938    0.484
       111  -9.3588    105.2606     72.2004   9.9893430698e+01   4.7718425570e+01    0.7281533     0.515027   3.55  0.003280775    1.974    0.493
       112  -9.5464    109.7464     63.9281   9.5871288665e+01   4.8351292260e+01    0.4696952    0.3597046 -46.13 0.0009058541    1.348    0.258
       113  -9.1091    110.5515     58.2550   9.3704986713e+01   4.9187433174e+01     0.376536    0.2772464  10.56  0.001032672    1.665    0.399
       114  -9.4135    242.2235     83.2329   7.5231167312e+01   1.4006351826e+01    0.3539408    0.1617191 -28.10  0.001436499    2.266    0.559
       115  -8.1191    156.4907     70.4394   8.6373824138e+01   3.6445284503e+01    0.3661861    0.1706518 -43.56  0.001221625    2.187    0.543
       116  -9.1743    157.7382     82.7597   8.9787142920e+01   3.3947757877e+01    0.5418678    0.2355995 -34.96  0.001742307    2.357    0.576
       117  -8.6779    156.9481     76.5016   8.8106317215e+01   3.5271728696e+01    0.4444921    0.2352613 -43.70  0.001585906    1.904    0.475
       118  -8.3906    170.3847     83.3100   8.7252516782e+01   3.0787829862e+01    0.2207408    0.1383303 -46.12 0.0009249479    1.618    0.382
       119  -8.9724     74.1238     80.3426   1.1210741687e+02   5.1587108660e+01    0.3768826    0.2316437 -62.57  0.001142973    1.912    0.477
       120  -7.7405     75.4083     74.3747   1.0991012703e+02   5.2648410613e+01    0.2768901    0.1786107   6.66  0.001223003    2.353    0.575
       121  -7.6115     63.4484     81.9498   1.1609631332e+02   5.2792125425e+01    0.1825773     0.117401 -77.20 0.0005817587    2.351    0.575
       122  -8.5896    149.7598     80.6954   9.0974721515e+01   3.6235829141e+01    0.3225018    0.2527837 -46.72  0.000591725    1.290    0.225
       123  -8.5240    149.4582     75.6263   8.9514196860e+01   3.7233755582e+01    0.2994864    0.2474258 -62.74 0.0006809696    1.354    0.262
       124  -8.7880    118.9252     80.4324   9.8636822482e+01   4.3277763901e+01    0.3247743    0.2394799 -60.71 0.0005311119    1.604    0.377
       125  -8.0616    119.5306     75.9944   9.7090253854e+01   4.4013342606e+01    0.2898392    0.2253386  -5.48 0.0006332634    1.566    0.362
       126  -8.0010     68.5896     79.4142   1.1366875531e+02   5.2615461258e+01    0.2719333    0.1258632 -54.53  0.001132532    2.101    0.524
       127  -9.6541      6.5959     77.8426   1.3486289449e+02   5.9158031843e+01    0.6991951    0.2772963 -30.76  0.002698038    3.501    0.714
       128  -9.9437     15.7836     70.9072   1.3020616429e+02   6.0103992998e+01    0.4987718    0.1765984 -57.81  0.001453045    2.055    0.513
       129  -9.4930     16.7733     61.8172   1.2772957976e+02   6.1989050959e+01    0.4503703    0.3117279 -57.20  0.001952652    1.178    0.151
       130  -8.5789     17.3675     57.2134   1.2632698533e+02   6.2913229675e+01    0.3441358    0.1279715 -62.42  0.001506776    2.441    0.590
       131  -8.9538    166.1606     78.7227   8.6799601806e+01   3.2634412387e+01    0.2631323     0.202301 -48.87 0.0006433739    1.328    0.247
       132  -7.9963    184.1300     78.0952   8.3084744406e+01   2.8338591914e+01    0.2308765    0.2019989  14.08  0.000573997    1.306    0.234
       133  -7.2827    174.2983     78.7187   8.5147684385e+01   3.0642813359e+01     0.152035    0.1183817 -72.81 0.0002856442    1.543    0.352
       134  -8.5042    130.4515     64.0195   9.0382335555e+01   4.3766622385e+01    0.4270848    0.2217912 -45.11  0.001135725    2.030    0.507
       135  -9.5193    127.2680     75.1709   9.4778917398e+01   4.2470860754e+01    0.4328607    0.2880864 -58.62 0.0007456492    1.869    0.465
       136  -8.7524    129.4503     69.0096   9.2256814613e+01   4.3113649059e+01    0.5318802     0.267412  28.55  0.001716283    3.484    0.713
       137  -8.7906    162.6171     72.9891   8.5844464929e+01   3.4504707185e+01    0.3440087    0.2361601 -54.20 0.0007248173    1.619    0.382
       138  -9.0014    115.3797     71.9423   9.6935230686e+01   4.5675678156e+01    0.5764293    0.2606223 -35.80  0.001577444    2.268    0.559
       139  -9.8684     81.4282     72.3602   1.0730821604e+02   5.2084110448e+01    0.4213109    0.2979047 -67.95  0.001122013    1.919    0.479
       140  -9.1058     83.5366     64.2833   1.0399529057e+02   5.3327105940e+01    0.5255244    0.3292587 -15.26  0.002292707    2.244    0.554
       141  -9.5741    146.9658     68.4871   8.7878167977e+01   3.9093813500e+01    0.6743311    0.2977051 -38.65   0.00167624    2.226    0.551
       142  -9.8592     94.7144     68.0346   1.0169685372e+02   5.0576558086e+01    0.6970937    0.2507015 -42.54     0.001076    2.649    0.622
       143  -8.1630     95.2963     61.3107   9.9251033387e+01   5.1733799129e+01    0.2631821    0.2020797   1.90  0.000843548    1.518    0.341
       144  -8.9783     98.2299     57.1769   9.6915884800e+01   5.1907622026e+01     0.490401     0.327093  -9.14  0.001764155    1.979    0.495
       145  -7.8571     23.1050     69.1095   1.2708805656e+02   5.9953192543e+01    0.1824058    0.1331851 -42.66  0.001149798    1.180    0.152
       146  -9.0368    121.0408     65.9067   9.3429472093e+01   4.5560644757e+01    0.4416691    0.2614206 -50.14   0.00120965    1.908    0.476
       147  -8.1371    121.9984     61.4991   9.1708540969e+01   4.6125138600e+01     0.277778    0.1375342  44.48 0.0008622482    2.034    0.508
       148  -9.2523    138.1314     65.1967   8.8890701768e+01   4.1769742715e+01    0.6069328    0.2498613 -33.95  0.001434694    2.493    0.599
       149  -8.2285    169.5835     71.7111   8.4045387542e+01   3.3006398394e+01    0.2882833    0.1826689 -44.27 0.0008158594    1.584    0.369
       150  -8.0599    170.2307     65.2107   8.1991881518e+01   3.3923106461e+01    0.2134467     0.178441 -76.27  0.000744589    1.340    0.254
       151  -9.9389    241.7862     61.0879   6.9984132146e+01   1.7380668943e+01    0.2831312    0.2435508 -46.87 0.0004754552    1.037    0.035
       152  -9.8318    246.2188     57.0115   6.8506111622e+01   1.6986586142e+01    0.2664738    0.2308046  -3.78 0.0008065987    1.414    0.293
       153  -8.7639      9.8061     60.7085   1.3017973527e+02   6.2683191233e+01    0.3307117    0.2239715  61.24  0.001977083    2.170    0.539
       154  -8.1935    164.5000     60.8752   8.1801941259e+01   3.6049635147e+01    0.2255677    0.1473153 -34.25 0.0007088449    1.535    0.348
       155  -8.2679    152.7591     60.7749   8.4177537169e+01   3.8976948070e+01     0.205315    0.1753646 -74.66  0.000539218    1.330    0.248
       156  -8.3499    127.3414     59.7323   8.9741422801e+01   4.5216272352e+01    0.2400394    0.1993194  60.42 0.0003999778    1.283    0.221
       157  -9.1047    129.8483     57.8561   8.8486597781e+01   4.4951153823e+01    0.5459827    0.2517544 -32.51   0.00157122    2.232    0.552
       158  -7.2163    116.6560    243.2838   1.3044446204e+02   1.0174925981e+01    0.1225571   0.07477104  61.48 0.0003633526    1.641    0.390
       159  -7.2690    121.7798    237.9693   1.2890768724e+02   1.0260379076e+01    0.1362145   0.09833043 -60.94 0.0004549022    1.646    0.392
       160 -10.7786     21.9307     53.7165   1.2352505060e+02   6.3286461130e+01     0.726173    0.4129265 -84.29  0.003057517    3.897    0.743
       161  -9.6002    188.3593    234.3022   1.1603761258e+02   1.6731443385e-01    0.2186633     0.193525  40.40  0.001034928    1.207    0.171
       162 -10.6096     23.3608     34.2862   1.1659951862e+02   6.6929259416e+01    0.6387398    0.4162609 -15.16  0.002591704    1.564    0.361
       163  -8.6586     26.6605    231.1509   1.4552131378e+02   2.4175788780e+01    0.1712313    0.1421318  67.07 0.0003972609    1.249    0.199
       164 -10.1484     13.3238     45.4445   1.2474657680e+02   6.5593381755e+01    0.7345185    0.3420676 -18.31  0.002669096    3.011    0.668
       165  -7.6924     46.6928    208.8985   1.4033598094e+02   2.6173635601e+01    0.1607023    0.1240039  83.87  0.001112971    1.092    0.084
       166  -9.7240     11.3823    207.2461   1.4682790479e+02   3.0278455024e+01    0.5093672    0.2316649  28.83  0.002848174    2.855    0.650
       167 -10.0621    172.0977    205.7213   1.1462090776e+02   7.2572317701e+00    0.2164159    0.2067208 -37.92  0.000410688    1.195    0.163
       168  -9.3222      6.7171     32.5748   1.2373632752e+02   6.8516860836e+01     0.203819    0.1790273  10.95  0.000577947    1.394    0.283
       169  -8.9631    192.0450    194.5298   1.0875342736e+02   5.5388449518e+00    0.5764856    0.3191965 -62.50  0.002133592    4.150    0.759
       170  -8.1600    147.6302     53.1602   8.2836530557e+01   4.1441725876e+01    0.3283803    0.2120591 -15.15  0.001026703    1.915    0.478
       171  -8.8424     87.3497     58.2969   1.0070475691e+02   5.3774726161e+01    0.3085366    0.2192304 -55.83 0.0006282979    1.696    0.410
       172  -9.1969    139.0544     57.0447   8.6017768426e+01   4.2910787909e+01    0.4260086    0.3109351 -56.97 0.0006457369    1.611    0.379
       173  -8.2345    138.4959     52.4985   8.4637703063e+01   4.3765115597e+01    0.2434592    0.2223584  37.91  0.001145157    1.075    0.070
       174  -8.6759    141.8815     48.7591   8.2632094856e+01   4.3515402452e+01    0.3687767    0.2386711 -21.57 0.0008003746    1.718    0.418
       175  -9.2769    118.3101     55.4645   9.0621651730e+01   4.7972479790e+01    0.3380896    0.2824628 -74.37  0.000672834    1.532    0.347
       176  -8.1920    119.2291     51.3081   8.8929440704e+01   4.8444515650e+01     0.317332    0.1893925  35.41  0.001389208    1.835    0.455
       177  -8.7941    121.0409     46.9148   8.6910815451e+01   4.8720346708e+01    0.2782531    0.2141006 -41.97 0.0004254707    1.366    0.268
       178  -8.4616    122.4995     41.4978   8.4609608256e+01   4.9188022258e+01    0.4723633    0.2724619   9.80  0.001744393    3.079    0.675
       179  -9.0606     53.2669     38.4305   1.0544999820e+02   6.2774255108e+01    0.5655313    0.2104396 -36.16   0.00234982    2.565    0.610
       180 -10.0839     49.9264     54.1309   1.1250117103e+02   6.0336626405e+01    0.5962334    0.3127245 -56.58   0.00227204    2.137    0.532
       181  -9.6580     55.7354     43.5878   1.0648215172e+02   6.1531646347e+01    0.7409872    0.3920283 -10.49  0.002745119    3.884    0.743
       182  -9.1202    163.0846     54.4815   8.0112411463e+01   3.7398618716e+01    0.2875914    0.2260734 -66.78 0.0007001589    1.452    0.311
       183  -7.2833    157.3188     55.7023   8.1632743399e+01   3.8652300753e+01    0.1522182    0.1154431 -71.68 0.0003037601    1.615    0.381
       184  -9.5766     44.4501     53.0839   1.1427667564e+02   6.1202901875e+01    0.3679866    0.1731884 -39.17 0.0008879718    1.906    0.475
       185  -7.8575    152.9831     53.9946   8.1978420617e+01   3.9992656574e+01    0.1756684     0.173186 -23.26 0.0004658581    1.031    0.030
       186  -9.3298    105.3240     51.6352   9.2849569228e+01   5.1412096512e+01    0.6267094    0.2735463 -34.43  0.001987709    2.281    0.562
       187  -8.5788    157.2543     62.9201   8.3899903088e+01   3.7519567314e+01    0.3057241    0.1895615 -46.34   0.00077236    1.686    0.407
       188  -9.3343    242.6241     50.3009   6.7316499463e+01   1.8699974433e+01    0.3026255    0.1680653  51.08  0.001139739    2.077    0.518
       189  -7.7231    163.5183     50.4803   7.8788054690e+01   3.7888028659e+01    0.1464922     0.142454  50.43  0.000809885    1.030    0.029
       190  -9.6070    157.1799     47.7074   7.9129105434e+01   3.9884559644e+01    0.4314481    0.3146293  -6.70  0.002047742    1.685    0.407
       191  -9.5930    130.3156     46.4155   8.4465195668e+01   4.6641584356e+01    0.8182115     0.315614 -23.31  0.001142236    3.651    0.726
       192  -9.0944    132.8405     36.0754   8.0269914339e+01   4.7496496178e+01     0.450971    0.2212793 -39.46 0.0006733629    2.130    0.530
       193  -7.4404    246.2776    191.6897   9.8376603222e+01  -3.3116794252e+00    0.1074183   0.09927245 -48.09 0.0002990183    1.559    0.358
       194  -9.4193    149.8518     47.8011   8.0624683327e+01   4.1697778562e+01    0.3769525    0.1838715 -38.78 0.0009433542    2.060    0.514
       195  -8.7503    142.7333     44.1544   8.0906356271e+01   4.3979623694e+01    0.4603213    0.1571854  49.56  0.001405722    2.742    0.635
       196  -8.7082    112.0139     46.9223   8.9279050572e+01   5.0736894071e+01    0.2920431    0.1974538 -41.52 0.0005389609    1.544    0.352
       197  -8.7523    113.1494     42.2475   8.7265852996e+01   5.1196485526e+01    0.4512578    0.2559071  18.56  0.001719854    2.858    0.650
       198  -8.8237     40.4697     35.0000   1.0933830232e+02   6.5014543919e+01    0.3907381    0.1623432  27.32  0.001722876    2.778    0.640
       199 -10.1776     37.5145     41.9970   1.1323954309e+02   6.4098799661e+01    0.4954315    0.3269935 -71.95  0.001597336    2.785    0.641
       200 -10.2751     35.8617     38.0046   1.1246541373e+02   6.5009197007e+01    0.4045755    0.2456624 -31.95  0.000399002    1.441    0.306
       201  -8.0388    162.3796     46.2728   7.7687236456e+01   3.8783150047e+01    0.2030727     0.132524 -41.16 0.0005107895    1.555    0.357
       202  -7.2404    172.9636    190.9776   1.1189588182e+02   9.6261322081e+00    0.1577109    0.1457764  26.57            0    1.023    0.022
       203  -9.8120    100.9986    176.0011   1.2497274082e+02   2.5478501539e+01    0.1917444    0.1730794  75.19  0.001154369    1.003    0.003
       204 -10.0887     79.3006     24.0678   8.9950019128e+01   6.0680919194e+01    0.6873482    0.2895029  33.11  0.002492968    2.843    0.648
       205  -9.1543     84.7041     21.9464   8.7321519567e+01   5.9915294014e+01    0.2887689    0.2214873 -19.38 0.0007456843    1.263    0.208
       206  -9.3304    153.5321     41.2234   7.7748709538e+01   4.1711300913e+01    0.3245252    0.2450405 -46.14 0.0008181905    1.393    0.282
       207  -9.0324    104.7828     40.9188   8.9049259294e+01   5.3212225724e+01    0.3692527    0.2352881 -46.53  0.001143389    1.809    0.447
       208  -8.5153    106.0478     36.4503   8.6999597710e+01   5.3588529394e+01    0.3423244    0.1906411  33.17  0.001494774    1.996    0.499
       209  -8.1147    230.2813    167.4721   9.6310697033e+01   2.9235484703e+00    0.2230698    0.1575191 -50.75 0.0008781442    1.809    0.447
       210  -8.7508    139.5361     40.5368   8.0363478826e+01   4.5269469244e+01    0.2868335    0.2204581 -46.12 0.0007046923    1.398    0.285
       211  -9.7717    138.1227     36.5542   7.9296341762e+01   4.6153289378e+01    0.2624601    0.2507293 -46.88 0.0004520923    1.112    0.101
       212  -8.0142    160.0000     39.0278   7.5834314847e+01   4.0380479859e+01    0.2368837    0.0829922 -28.94 0.0008056492    2.965    0.663
       213  -8.8781    144.0080     36.5129   7.8065467679e+01   4.4713688222e+01    0.2605833    0.2116424 -33.28 0.0005319272    1.274    0.215
       214  -8.6075    153.3461     35.0387   7.5766514361e+01   4.2577845571e+01    0.2834086    0.1971356 -59.90 0.0007757735    1.710    0.415
       215  -8.9793    118.6280     34.4153   8.2972351470e+01   5.1061983467e+01    0.3662467    0.2071518 -34.11 0.0009354393    1.798    0.444
       216  -7.6170     47.8037    167.2289   1.3604267912e+02   3.4935139040e+01    0.1566246    0.1374907 -59.18  0.000448432    1.318    0.241
       217  -9.5859     60.0507     33.1382   1.0066104716e+02   6.2656451047e+01    0.5365263    0.2511993 -41.48  0.001833131    2.075    0.518
       218  -8.7572     63.0139     26.5558   9.6730633078e+01   6.3188950744e+01    0.3264242    0.2137276  32.00  0.001778137    1.513    0.339
       219  -7.5022      1.3660    155.8489   1.4546406888e+02   4.1899980801e+01    0.1595341   0.07891252 -68.70   0.00039759    1.648    0.393
       220  -7.4876    188.0224    155.0109   1.0165433559e+02   1.3225569799e+01    0.1770572    0.1642305 -21.31 0.0008166499    1.069    0.064
       221  -7.4826     50.2666     35.3189   1.0540470792e+02   6.3713020640e+01    0.1281767   0.08521913 -14.84 0.0006958466    1.556    0.357
       222  -8.5010    118.7421    150.4689   1.1627628178e+02   2.8032511424e+01    0.2239682    0.2100241 -56.75 0.0002434491    1.090    0.083
       223  -9.6032     66.9454    144.3727   1.2824527559e+02   3.7807197417e+01    0.4520807    0.3016486  64.72  0.002246281    1.642    0.391
       224  -8.3027    111.3316     21.5438   7.9847758929e+01   5.4320399515e+01    0.3260309     0.196276 -12.10  0.001293927    1.887    0.470
       225  -7.9521    133.3474    144.1570   1.1142847786e+02   2.6628660437e+01    0.2146951    0.1370983 -59.92 0.0009388923    1.731    0.422
       226  -8.2597    184.0349    142.9256   9.9773104359e+01   1.6327204363e+01    0.2123306    0.2043429 -16.18 0.0002990988    1.025    0.025
       227 -10.2427    230.1756    135.8585   8.9458479378e+01   8.0288206428e+00    0.2588607     0.230938  35.07 0.0003650137    1.184    0.156
       228  -9.0901    146.5632     58.5342   8.4807587978e+01   4.0856069907e+01    0.4252139    0.2721984 -23.77  0.001879061    1.734    0.423
       229  -8.4421    141.6169     30.8810   7.6625138007e+01   4.6022768014e+01    0.2791839    0.1418103 -14.62  0.001095602    2.591    0.614
       230  -8.7665     45.0260     15.9117   9.9036265882e+01   6.7411645272e+01    0.2121822    0.1476495  12.61  0.001195887    1.380    0.275
       231  -7.0322     95.6825    136.3123   1.1927763015e+02   3.5344772564e+01    0.1482265    0.1088028  79.31 0.0003224184    1.643    0.392
       232  -8.5430    112.9963    134.3597   1.1436719704e+02   3.2730876422e+01    0.5328938    0.2556305  59.03  0.001809893    3.205    0.688
       233 -10.1337     46.2550     29.6583   1.0471037436e+02   6.5182268216e+01    0.4547123    0.3072689 -48.83 0.0009911787    1.726    0.420
       234  -8.3343     42.0476     28.0271   1.0579799674e+02   6.5989343850e+01    0.1695518    0.1225528 -11.28            0    1.286    0.222
       235  -8.9469    154.9869     27.0027   7.2846334494e+01   4.3151842875e+01    0.4215026    0.1621574  63.68  0.001579667    2.459    0.593
       236  -9.3560    134.4031    131.6668   1.0837403142e+02   2.9146770064e+01    0.4660189    0.4202463   2.31  0.002449523    1.271    0.213
       237  -9.4908     98.6253    128.8927   1.1695364859e+02   3.6567269291e+01    0.5940087    0.3579213  75.59  0.002241866    2.926    0.658
       238 -10.6044     70.0350    126.3123   1.2424832990e+02   4.1649988477e+01    0.6488883    0.5665392 -31.37  0.001714181    1.330    0.248
       239  -9.9887     58.1508    124.6205   1.2725592641e+02   4.3625232732e+01    0.6348776    0.3539899  77.70  0.002502098    2.926    0.658
       240  -8.1637    244.3261    129.3282   8.5670281188e+01   6.3243430551e+00    0.1417875    0.1013613   4.06 0.0007050289    1.701    0.412
       241  -8.5388    159.5017    126.4015   1.0116972907e+02   2.4923728185e+01    0.4058987    0.1503328 -42.87  0.001049396    2.685    0.628
       242 -10.0261    117.1773    124.6565   1.1109144687e+02   3.4136720999e+01    0.8259799    0.4456495 -56.21  0.002065897    1.941    0.485
       243  -9.2991     91.4620     26.6093   8.7240570540e+01   5.7975491492e+01    0.4900477    0.2251795 -41.61  0.001448805    2.511    0.602
       244  -8.6559     92.4647     20.5245   8.4409254284e+01   5.8526191389e+01    0.2799329    0.1923137  25.47 0.0008717377    1.451    0.311
       245  -8.7521    144.1375     25.7017   7.4365901834e+01   4.6019180031e+01    0.2355593    0.1845599 -40.24 0.0005564604    1.356    0.262
       246  -8.9035    128.4865     25.2221   7.7329979328e+01   4.9896867593e+01    0.3632349    0.2474659 -22.84  0.001245184    1.548    0.354
       247  -7.5752    149.6245     25.2512   7.3210559432e+01   4.4702659217e+01    0.1857352    0.1365141  -9.99 0.0008683142    1.561    0.360
       248 -10.9605     55.0807     69.6940   1.1550390493e+02   5.6531712252e+01    0.9910892    0.6431904 -71.96  0.002527538    2.177    0.541
       249  -8.5998    140.2210     23.0157   7.4180817506e+01   4.7294688032e+01    0.2323859     0.143887 -53.25 0.0004605165    1.979    0.495
       250  -9.2953    110.7477     89.9710   1.0376117755e+02   4.3022156046e+01    0.8359182    0.4135733  27.48  0.002782712    3.387    0.705
       251 -10.1727    128.5218    100.7060   1.0199811292e+02   3.7074517942e+01      1.04759     0.487483 -30.60  0.002576113    3.128    0.680
       252 -10.0350    108.4932    114.4770   1.1095799445e+02   3.8092526751e+01     0.587553    0.3734506 -75.86  0.001571078    2.383    0.580
       253  -8.9616     40.9768     20.6952   1.0302382046e+02   6.7268127985e+01    0.2040407    0.1505981 -30.61 0.0003065203    1.228    0.185
       254 -10.3839    123.7505     90.2433   1.0027994932e+02   4.0271872395e+01      1.21492    0.5662814 -33.07  0.003036956    2.572    0.611
       255  -8.5603     95.9450     16.9455   8.1933643430e+01   5.8208795172e+01    0.2516554    0.1996261 -37.56  0.000488923    1.428    0.300
       256 -11.0475    121.2629    109.8923   1.0636587502e+02   3.6612555066e+01     1.401329     0.587788 -50.39  0.003922365    2.424    0.587
       257  -9.1299    110.3124    106.9319   1.0854978834e+02   3.9435944198e+01    0.7102419    0.4090064  19.13  0.002485954    3.254    0.693
       258 -10.3548    107.9854     99.5653   1.0723731345e+02   4.1507866730e+01      0.80548    0.5863702  81.64  0.002208215    2.022    0.506
       259  -9.3936     41.2531    121.9899   1.3156409036e+02   4.6190080732e+01    0.4731243    0.2277275 -78.56   0.00172936    2.310    0.567
       260  -9.5802     27.0566    122.7689   1.3564390149e+02   4.7377850103e+01    0.5151883    0.2514904  70.70  0.001900242    2.997    0.666
       261 -10.1583    139.6196    103.7261   1.0001579856e+02   3.4026344464e+01    0.7739956    0.4223097 -48.61  0.001065781    1.870    0.465
       262  -9.4271    134.7316    122.2618   1.0604193235e+02   3.1129823333e+01    0.4729811    0.2609018 -43.64  0.001937328    1.805    0.446
       263 -10.0432    130.2939    118.7544   1.0628651105e+02   3.2817939397e+01    0.4686511    0.3616884 -84.31   0.00141231    1.679    0.404
       264  -9.7780    140.5954    118.4892   1.0365459120e+02   3.0699587979e+01    0.4644083    0.3278635 -68.33  0.001186584    1.804    0.446
       265  -9.2157    248.1999    117.1984   8.2328504775e+01   7.4871193836e+00    0.2235733    0.1994448 -35.45 0.0002609899    1.076    0.070
       266  -7.7209    100.7518    118.3973   1.1401954868e+02   3.8617864752e+01    0.1978361    0.1435193  27.65 0.0009413803    1.621    0.383
       267 -10.0981     92.0017    113.0625   1.1520956776e+02   4.1366450672e+01    0.5964649    0.4129524 -87.80   0.00176545    2.054    0.513
       268  -8.9730     92.7175    103.7733   1.1272303428e+02   4.3366444749e+01    0.6560571    0.3768278  16.99  0.002420473    3.169    0.684
