#   1 NUMBER                 Running object number                                     
#   2 MAG_AUTO               Kron-like elliptical aperture magnitude                    [mag]
#   3 X_IMAGE                Object position along x                                    [pixel]
#   4 Y_IMAGE                Object position along y                                    [pixel]
#   5 X_WORLD                Barycenter position along world x axis                     [deg]
#   6 Y_WORLD                Barycenter position along world y axis                     [deg]
#   7 A_WORLD                Profile RMS along major axis (world units)                 [deg]
#   8 B_WORLD                Profile RMS along minor axis (world units)                 [deg]
#   9 THETA_WORLD            Position angle (CCW/world-x)                               [deg]
#  10 FWHM_WORLD             FWHM assuming a gaussian core                              [deg]
#  11 ELONGATION             A_IMAGE/B_IMAGE                                           
#  12 ELLIPTICITY            1 - B_IMAGE/A_IMAGE                                       
         1 -16.2463    135.8717    117.7164   7.3413585610e+01   3.1790038581e+01     2.461401    0.8587062 -38.57  0.007265282    3.509    0.715
         2 -11.9183    210.6215      7.1977   3.2336277652e+01   3.2289202717e+01    0.1478291    0.1148077 -23.50 0.0009491493    1.694    0.410
         3 -10.8711     32.5747    249.5173   1.1869317004e+02   1.7656662637e+01    0.1159976   0.08872917  65.09 0.0008056221    1.011    0.011
         4 -11.0907    172.3754    249.7925   9.0337079515e+01  -1.7414207762e+00    0.1592526    0.1089575 -26.97 0.0004893288    1.646    0.393
         5 -19.1620     71.8184    201.6738   1.0606067091e+02   2.2976757443e+01     5.361848     4.897979 -46.78   0.03274587    1.293    0.227
         6 -11.8785    116.7830    239.5011   1.0051419092e+02   8.3682039906e+00    0.2883464    0.2223535  77.08  0.001640091    1.552    0.356
         7 -11.2921     18.9981    205.7449   1.1855989694e+02   2.8292019262e+01    0.1704968     0.132258  59.71 0.0005080949    1.144    0.126
         8 -12.2792     14.4053    201.9224   1.1929108947e+02   2.9592862593e+01    0.3020056    0.1742345 -88.54  0.001050554    1.514    0.339
         9 -11.3095      6.4255    202.6127   1.2105313946e+02   3.0162869714e+01     0.316667    0.1226599 -87.86  0.001457862    2.437    0.590
        10 -11.9137    212.9769    200.9677   7.4228826086e+01   1.8073353146e-01    0.1945266    0.1714674  87.15  0.001146177    1.812    0.448
        11 -12.7803    138.5011    199.4978   8.9825002888e+01   1.2900585118e+01    0.2385436    0.2302727  49.63 0.0006779494    1.062    0.059
        12 -14.0517    140.8318    196.6410   8.8797255828e+01   1.3101468686e+01    0.5097913    0.3277066  35.87    0.0019082    1.474    0.322
        13 -12.1727    156.2449    198.0398   8.5513914883e+01   1.0133885656e+01    0.1926482    0.1832851  -4.44 0.0004080468    1.052    0.050
        14 -14.5481    125.3309    195.7968   9.2311451852e+01   1.5952685636e+01    0.6918312    0.4095237  47.62  0.002177128    1.679    0.405
        15 -14.4379    189.5802    193.9243   7.7560128430e+01   5.2050016535e+00     0.594256    0.3205293  33.51  0.001528222    1.847    0.459
        16 -13.9828    190.9384    190.4844   7.6632037391e+01   5.6166660629e+00    0.5076358    0.2410221  47.44  0.002041764    2.474    0.596
        17 -13.1488    159.5514    192.5814   8.3789091890e+01   1.0665030015e+01    0.2891173    0.2389002 -15.04 0.0007834868    1.315    0.239
        18 -11.3489      9.8009    191.9531   1.1961910743e+02   3.2282839659e+01    0.3053586    0.1178482 -81.50  0.001391503    2.322    0.569
        19 -11.8638    228.0223    192.2552   6.9823236108e+01  -6.4783244799e-01    0.1745415    0.1512324  -1.92 0.0002144941    1.066    0.062
        20 -14.9707    151.2106    188.9639   8.5027562696e+01   1.2895074924e+01      0.74347    0.5034635 -41.22  0.003613807    1.542    0.352
        21 -11.1652    165.4420    238.8964   9.0155069666e+01   1.0529180826e+00    0.1737166    0.1267163 -45.26  0.001016766    1.571    0.363
        22 -14.4450    143.1775    189.3860   8.6973831084e+01   1.4236016946e+01    0.5761961    0.3336016  38.15  0.002586167    1.648    0.393
        23 -13.8867    135.4297    188.0336   8.8567782025e+01   1.5903142790e+01    0.5374496    0.3614302  76.65  0.002268763    2.385    0.581
        24 -14.3453    124.2886    188.3316   9.1308566732e+01   1.7788994782e+01    0.4758412    0.3603857 -87.70  0.001608683    1.685    0.407
        25 -13.4088    128.5442    184.3152   8.9570381660e+01   1.7946451366e+01    0.3272037    0.2996438  42.20 0.0004519475    1.050    0.048
        26 -10.4062    153.6716    239.2750   9.2655383285e+01   2.7790406338e+00    0.1259698   0.09279538  55.11 0.0002495525    1.590    0.371
        27 -11.1839    107.6810    234.9984   1.0192397223e+02   1.0600824403e+01    0.4355316    0.2188644 -78.94  0.001734858    3.578    0.721
        28 -12.1279    103.8197    233.1763   1.0254385419e+02   1.1536866456e+01    0.5357614    0.2860237  57.87  0.001966431    2.154    0.536
        29 -11.4265    180.3180    244.1308   8.7917883098e+01  -2.0052761500e+00    0.1623021    0.1468752  -4.08 0.0006347302    1.158    0.136
        30 -12.4232    185.0062    236.2536   8.5771879550e+01  -1.4396258583e+00    0.1780202    0.1426597  20.96 0.0002017201    1.072    0.067
        31 -13.7382     32.3593    181.6098   1.1344780012e+02   3.2563531069e+01    0.4523337    0.2001844  40.57  0.001750686    2.134    0.531
        32 -12.5948    173.3981    235.8922   8.8066788340e+01   3.5282684451e-01    0.2673681    0.1717682  25.27  0.001131726    1.422    0.297
        33 -12.7623     20.3176    179.7938   1.1621879071e+02   3.4186814390e+01    0.3691134    0.1779736  59.11  0.001367737    2.117    0.528
        34 -14.1421    167.0803    180.9366   7.9906462910e+01   1.1701605315e+01    0.4284206    0.2895399  37.27  0.001341567    1.452    0.311
        35 -14.5613    143.8386    181.8311   8.5433140817e+01   1.5753147571e+01    0.6815326     0.310744  44.69  0.002641464    2.198    0.545
        36 -14.0376    180.1093    179.1600   7.6711123237e+01   9.6974709824e+00    0.4099059    0.3022094 -50.84  0.002058718    1.458    0.314
        37 -14.9893    174.9721    174.9250   7.6979063075e+01   1.1485103748e+01    0.5551229    0.5006956  30.67  0.001796131    1.104    0.094
        38 -12.1917     16.1462    242.2202   1.2137575183e+02   2.0854074399e+01    0.2262028    0.1717858 -78.84  0.001503728    1.367    0.269
        39 -11.2812    128.3265    234.6297   9.7403921586e+01   7.5257208250e+00    0.2565003    0.1813405  -7.52 0.0009343942    2.080    0.519
        40 -12.7653    113.8786    228.8549   9.9797943971e+01   1.0872330885e+01    0.3949286    0.2844956  43.72  0.001647781    1.221    0.181
        41 -13.8003    160.8030    169.8263   7.9121763907e+01   1.5197383326e+01    0.3802961    0.2678128 -57.57  0.001789361    1.594    0.372
        42 -11.4806      9.3961    172.1547   1.1823014514e+02   3.6963628822e+01    0.1748849    0.1559533 -74.79 0.0004419607    1.182    0.154
        43 -12.5368     27.8211    171.0877   1.1353156479e+02   3.5575405339e+01    0.1979842    0.1538556  77.45 0.0004207229    1.170    0.146
        44 -11.6287    187.3365    170.3097   7.3407201073e+01   1.0137156288e+01    0.1491814    0.1096333  -2.65 0.0004493864    1.681    0.405
        45 -13.4480     32.4939    167.9802   1.1199681647e+02   3.5871678018e+01    0.3804655    0.2105772 -71.63  0.001902484    1.598    0.374
        46 -12.3464     10.1277    229.1084   1.2182260591e+02   2.4113181191e+01    0.4240847    0.2075402  57.88  0.001794215    1.680    0.405
        47 -14.5070    149.9488    165.0506   8.0687963974e+01   1.8305016329e+01    0.5108197    0.4270847   1.80  0.002580649    1.379    0.275
        48 -11.6175     27.0648    166.6393   1.1326714056e+02   3.6738749552e+01    0.2344898    0.1618961  87.31  0.001306604    1.339    0.253
        49 -11.6631     16.1673    228.6581   1.2061625228e+02   2.3611942221e+01    0.2125198    0.1628927  42.45   0.00133091    1.339    0.253
        50 -11.1271      4.7508    250.6483   1.2386126518e+02   2.0346316809e+01   0.09448851   0.07516375 -67.09 0.0006944528    1.591    0.371
        51 -11.1685     15.7669    225.5763   1.2051471583e+02   2.4297442154e+01    0.2294638    0.1370415  73.43  0.001396188    1.421    0.296
        52 -13.9422     44.4981    153.1148   1.0688929172e+02   3.8299568360e+01     0.419217    0.2788025  32.20  0.001208698    1.619    0.382
        53 -14.6813     46.6315    158.2980   1.0700355500e+02   3.6752432725e+01      0.88617    0.4941681   9.25   0.00374731    2.828    0.646
        54 -17.6882    109.1654    145.8425   8.7165125844e+01   3.0512593731e+01     2.682546     1.994691  82.92   0.01187126    1.764    0.433
        55 -11.7477     28.3334    160.1141   1.1222570074e+02   3.8227722219e+01    0.1881824    0.1824718 -12.29 0.0003659778    1.265    0.210
        56 -14.2562    155.4872    158.0776   7.7918783570e+01   1.8767090277e+01    0.5155526    0.2700799 -48.94  0.002079944    1.927    0.481
        57 -11.1691      2.0109    159.0790   1.1900869387e+02   4.0656651713e+01    0.2134924    0.1183602  63.78  0.001135467    1.813    0.448
        58 -13.7523     49.4829    153.9816   1.0560115509e+02   3.7507008676e+01    0.3468115    0.2745182 -81.35  0.001926385    1.183    0.154
        59 -14.0904     34.5524    149.0295   1.0916181531e+02   4.0385645521e+01    0.6031376    0.2379387 -52.75  0.002487257    2.372    0.578
        60 -12.4297     10.4457    149.3677   1.1592153462e+02   4.2405307645e+01    0.5073231    0.1593052  34.91  0.001412116    3.076    0.675
        61 -13.7098     30.4313    147.7364   1.1016891301e+02   4.1113825298e+01    0.5167732    0.2234434 -60.82  0.002249818    1.957    0.489
        62 -14.6440     26.1160    144.2736   1.1096739039e+02   4.2380555756e+01    0.7326119    0.3123805 -64.06  0.003278965    1.943    0.485
        63 -12.7065     19.8608    147.4945   1.1312586073e+02   4.2121764453e+01    0.3454775    0.2215769  44.23  0.001437421    1.650    0.394
        64 -13.0974     17.0760    154.1397   1.1461041408e+02   4.0710619720e+01    0.5002591    0.2214704 -62.28  0.002003492    1.902    0.474
        65 -14.2234     27.6434    154.5693   1.1178007995e+02   3.9670918409e+01    0.5681607    0.3520197  26.25  0.002989174    1.838    0.456
        66 -13.6750     21.9366    153.2079   1.1319051169e+02   4.0526918497e+01    0.4618313    0.3961906 -40.48  0.001977922    1.343    0.256
        67 -14.3472    149.9023    146.7265   7.6782015630e+01   2.2392402724e+01    0.7389439    0.2739714 -54.25   0.00227339    3.318    0.699
        68 -14.6841    144.4041    149.9187   7.8828337655e+01   2.2778068317e+01     0.572436    0.3576063  44.66  0.002360146    1.613    0.380
        69 -14.5038    133.5857    146.4230   8.0780942947e+01   2.5724437966e+01    0.4697931    0.3789067  -1.20  0.002163862    1.561    0.359
        70 -13.2711    180.6185    150.9048   7.0727814585e+01   1.5330802097e+01    0.3323949    0.2527494  71.30   0.00153925    1.778    0.438
        71 -14.2251    164.8624    148.7766   7.3727749989e+01   1.8921853176e+01    0.4842508    0.3311984  59.09  0.002159318    1.764    0.433
        72 -13.0147    159.2134    149.3023   7.5144169200e+01   1.9945837174e+01    0.2676561    0.1904035  37.91 0.0004919151    1.437    0.304
        73 -12.2910    186.4223    225.2175   8.3713189144e+01   1.6124566553e-01    0.1677852    0.1254259 -52.15 0.0007733567    1.678    0.404
        74 -12.6606    125.5820    221.8347   9.6241798720e+01   1.0441041774e+01    0.4933396    0.2372902 -58.56  0.002177493    2.420    0.587
        75 -11.4056    154.7675    230.7735   9.1177938901e+01   4.1096397156e+00    0.1771857    0.1428663  50.01 0.0004515403    1.328    0.247
        76 -12.7055    188.6641    221.2034   8.2591668832e+01   4.9511064989e-01    0.1847245    0.1592648  25.28  0.001149807    1.129    0.114
        77 -13.7647    154.8371    144.5573   7.5114859367e+01   2.1871819969e+01     0.346879    0.2990598 -52.35  0.001769141    1.169    0.144
        78 -10.2412      2.2142    221.3690   1.2295964004e+02   2.6467953674e+01    0.1054121    0.0729793 -66.10 0.0003861873    1.575    0.365
        79 -12.4510    171.9615    144.4611   7.1176548842e+01   1.8402927268e+01    0.2275522    0.1489423  43.27 0.0004100102    1.569    0.363
        80 -12.9825    121.1189    218.3678   9.6753102073e+01   1.1854311814e+01    0.3548668    0.2738245 -63.80  0.001985468    1.454    0.312
        81 -13.4040    159.8577    137.6555   7.2362996190e+01   2.2345171569e+01    0.4748475    0.2055659 -42.69   0.00151759    2.299    0.565
        82 -14.6190    138.1946     90.1582   6.5498364410e+01   3.7062379744e+01     1.092375    0.7330401 -64.33  0.004709865    1.912    0.477
        83 -10.9105    104.5982    249.6978   1.0426938518e+02   8.2639277053e+00    0.1235999   0.09422712   2.39  0.000699551    1.835    0.455
        84 -13.5727     20.0367    134.1428   1.1146809171e+02   4.5424826147e+01    0.3849307    0.2277591 -39.78 0.0005976828    1.884    0.469
        85 -13.9297    116.3024    130.8102   8.1853474231e+01   3.2777759244e+01    0.4256576    0.3162209  59.11  0.001699409    1.522    0.343
        86 -14.6005     83.1453    134.0245   9.2185798692e+01   3.7889684706e+01    0.5927981    0.3464872  36.82  0.002591992    1.758    0.431
        87 -13.9398     52.4096    124.2548   9.9809981524e+01   4.4660121889e+01    0.5593398    0.1991215 -57.33  0.001993813    2.400    0.583
        88 -15.2884     73.1444    121.8037   9.2677165646e+01   4.2464134217e+01     1.006676    0.6117834  77.96  0.003611844    3.027    0.670
        89 -15.1292     68.0296    124.4092   9.4852357596e+01   4.2565454391e+01     1.662595    0.7368635 -77.80  0.003985466    6.805    0.853
        90 -15.3568     59.7752    121.5878   9.6915494339e+01   4.4395622940e+01    0.8720169    0.6114918 -69.20  0.003354635    1.434    0.303
        91 -14.9162     71.3487    129.8087   9.4919128971e+01   4.0742283425e+01    0.7759842    0.3314877  28.92  0.002897512    2.649    0.623
        92 -14.7824     55.7769    127.8453   9.9412004057e+01   4.3346152505e+01    0.5773676    0.3993931 -33.06  0.001906106    1.659    0.397
        93 -16.0222    147.4912    106.8168   6.7718863136e+01   3.1602281184e+01     1.713769     1.162755  68.91   0.00731534    1.902    0.474
        94 -12.7085     43.4318    244.9500   1.1629227957e+02   1.7302288836e+01    0.3864928    0.2850452 -57.60  0.002532178    1.692    0.409
        95 -14.4238     61.9059    128.9211   9.7687129343e+01   4.2282943328e+01      0.57672    0.3310357  17.30  0.002467767    2.270    0.559
        96 -13.4998     46.5418    128.4060   1.0243068870e+02   4.4306348376e+01    0.4155544    0.2426623   0.08  0.001752913    2.706    0.631
        97 -12.6691     21.0062    128.2860   1.1040027357e+02   4.6801085854e+01    0.1779693    0.1653357 -69.98 0.0006388903    1.091    0.084
        98 -13.3542    137.7007    130.9331   7.6179978478e+01   2.8446884528e+01    0.4801336    0.2917307  37.35 0.0005692808    1.727    0.421
        99 -14.7494     90.7459    121.2251   8.7058479098e+01   3.9772251789e+01    0.6978524    0.4682249  57.15  0.003096424    1.791    0.442
       100 -13.7870     81.9168    113.3252   8.7946209166e+01   4.3153488540e+01    0.3742811    0.2609467 -61.07  0.001764805    1.472    0.321
       101 -14.5241     30.0928    118.4718   1.0603645817e+02   4.8459085710e+01     0.580717    0.3584397  49.96  0.002938984    1.893    0.472
       102 -13.9887     46.2514    118.1369   1.0065666955e+02   4.6902491791e+01    0.5255952    0.3316573   7.61  0.002485908    2.080    0.519
       103 -12.5384     24.6834    123.4489   1.0856064853e+02   4.7698363349e+01    0.2536242    0.1226247 -51.30  0.001179582    1.841    0.457
       104 -13.1963    120.0144    120.7515   7.8408652272e+01   3.4391679696e+01    0.3415248    0.2217105 -42.70 0.0008621162    1.553    0.356
       105 -15.2546    141.8114    133.7553   7.5806929325e+01   2.6959020110e+01     1.118582    0.7009152  11.72  0.003925011    3.033    0.670
       106 -11.1765     11.7331    220.5444   1.2102697413e+02   2.5758135944e+01     0.151691   0.08972017  49.96 0.0005770149    1.444    0.307
       107 -11.6523    139.1198    217.8293   9.2624874825e+01   9.0539739816e+00    0.1929336    0.1729412  54.19   0.00037451    1.158    0.137
       108 -12.3466     19.1722    114.1798   1.0894802396e+02   5.0420709885e+01     0.174969    0.1429118  72.15  0.000423554    1.351    0.260
       109 -13.0139     75.5260    132.9939   9.4279825100e+01   3.9327572233e+01    0.2536824    0.2161395  35.18 0.0003128224    1.234    0.189
       110 -13.1843     54.0439    109.6516   9.6320674655e+01   4.8062847233e+01    0.4013598    0.2520987 -38.73  0.001373278    1.637    0.389
       111 -14.5853     89.5201    110.2260   8.4779128228e+01   4.2605728082e+01    0.5235691    0.4564672 -50.68  0.001961651    1.115    0.103
       112 -13.3694     48.4800    122.8520   1.0081368216e+02   4.5475469458e+01    0.3113072    0.2642064  -5.09 0.0004167261    1.365    0.268
       113 -12.8088    176.9740    215.2143   8.3988393000e+01   3.3795416452e+00    0.2322076    0.1950002 -31.86  0.001020407    1.233    0.189
       114 -12.8690     78.4190    105.2317   8.7094253459e+01   4.5638365114e+01    0.2675616    0.1850194  19.33 0.0005909204    1.694    0.410
       115 -13.7724    184.6886    212.9623   8.1999321058e+01   2.5463199286e+00    0.3581832    0.2322879  30.49  0.001550971    1.442    0.307
       116 -13.4262     60.7185    108.6298   9.3827694600e+01   4.7445644911e+01    0.3058282    0.2502293  44.90  0.001654068    1.338    0.253
       117 -12.8832     58.7018     91.3454   9.0345527300e+01   5.1776459436e+01    0.3116287    0.2713444 -41.97  0.001164773    1.058    0.055
       118 -12.9790     58.1844    100.3594   9.2774812477e+01   4.9756488258e+01    0.3766364    0.3034937 -75.26  0.001182524    1.397    0.284
       119 -14.1602     60.0256     96.0261   9.1064290222e+01   5.0521838664e+01    0.6782254     0.319135 -44.41  0.002483768    2.023    0.506
       120 -12.8068    144.0484    210.7484   9.0409380180e+01   9.6485244832e+00    0.4543293    0.3110168 -22.17  0.001641714    1.926    0.481
       121 -14.1173     75.5049    111.0612   8.9473904175e+01   4.4717008690e+01    0.4437778    0.3580799 -60.77  0.001364106    1.232    0.189
       122 -13.7930     72.5028     97.9756   8.7222551385e+01   4.8256643148e+01    0.4191793    0.2472642  24.13  0.001843931    1.957    0.489
       123 -15.0065    147.0395    202.8271   8.8424856764e+01   1.0745735800e+01    0.9533253    0.4686521  49.34 0.0008691483    2.288    0.563
       124 -12.8879    155.3360    213.7130   8.8382341262e+01   7.1918027745e+00     0.339119    0.2101769  37.21  0.001087092    1.478    0.324
       125 -14.0096    153.3628    210.7436   8.8329442895e+01   8.0950951098e+00    0.7066789    0.4231932  -9.10  0.002718566    3.252    0.693
       126 -11.3590     37.4736    244.4343   1.1742449122e+02   1.8098601435e+01    0.3584706     0.215259  24.63  0.001951529    2.087    0.521
       127 -11.9425     71.4762     87.4981   8.4752974585e+01   5.0772533753e+01    0.1437336    0.1328619 -23.66 1.929322e-05    1.017    0.017
       128 -16.9888    152.8891    126.0307   7.1251784467e+01   2.6334863946e+01      1.75933      1.63454 -89.27  0.005284889    1.154    0.133
       129 -13.7256     52.7876     84.6794   9.0769833445e+01   5.4055641559e+01    0.5568537    0.3588814  38.87  0.002815059    1.710    0.415
       130 -11.0589    153.0022     80.3106   5.9309162600e+01   3.5518718406e+01    0.2087678    0.1875318  58.53 0.0004149809    1.095    0.087
       131 -11.2607    105.2156     79.4094   7.1338795200e+01   4.6324922079e+01      0.19405    0.1398557  54.08 0.0002550319    1.494    0.331
       132 -12.1834     58.9835     76.7096   8.6208578748e+01   5.4956954029e+01    0.1925107    0.1742253  10.79 0.0005235387    1.115    0.103
       133 -14.7907     35.1312    132.5474   1.0666378828e+02   4.4472448803e+01    0.6290443     0.335861 -51.55  0.002989036    1.724    0.420
       134 -12.6081    114.9008     74.9245   6.7172672089e+01   4.5148974565e+01    0.4507731    0.2783727   3.53  0.001544276    3.558    0.719
       135 -12.8164     75.4995     75.7185   7.9879134466e+01   5.2617996816e+01    0.2662557    0.2494373   2.41 0.0005806409    1.036    0.035
       136 -11.0129    172.1891     80.1748   5.5350003246e+01   3.1063602622e+01    0.1980284    0.1650587 -79.82  0.000370509    1.274    0.215
       137 -11.7519    125.2030     73.2164   6.3879454106e+01   4.3195863590e+01    0.2214483    0.2030899  24.03     0.001205    1.130    0.115
       138 -10.7546    120.3043     72.2946   6.4891053717e+01   4.4453681886e+01    0.1472525     0.114951  13.27 0.0003590466    1.579    0.367
       139 -13.4172     98.8048     66.8363   6.9346582421e+01   5.0009108668e+01     0.468125    0.2805167 -54.42  0.002043975    2.094    0.522
       140 -12.2764     87.0493     68.6746   7.3698719378e+01   5.1957087915e+01     0.200473    0.1809396  22.66 0.0004516938    1.070    0.065
       141 -11.9655    136.5631    210.2887   9.2029676962e+01   1.0988364700e+01    0.4634278    0.1916815 -44.67  0.001823238    2.716    0.632
       142 -10.9321    188.0050     65.0078   4.8687523156e+01   2.9908317842e+01    0.1695351    0.1546218 -80.54 0.0004218752    1.009    0.009
       143 -11.8255     45.1546     60.6259   8.6765800999e+01   6.0073360332e+01    0.2179447    0.1742592 -50.92 0.0006936511    1.323    0.244
       144 -11.0243      1.5948     60.7226   1.0580101990e+02   6.3776715144e+01    0.1469187    0.1013005 -66.76 0.0002233946    1.397    0.284
       145 -11.7759     13.8152    237.8497   1.2158280664e+02   2.1964358663e+01    0.2927181    0.1505395  85.16  0.001560855    1.756    0.430
       146 -11.5546    138.8102     56.5812   5.5577069838e+01   4.2858799762e+01    0.1950567    0.1339736  68.48 0.0003475818    1.548    0.354
       147 -13.9937    169.0474    205.9229   8.4077063855e+01   6.4002615968e+00    0.4378686    0.2911348  40.00   0.00208936    1.449    0.310
       148 -10.9800     65.5208     52.5153   7.5863172700e+01   5.8665330544e+01    0.1339147    0.1206148  -0.70 -3.81479e-05    1.026    0.026
       149 -10.9198    153.3313     44.2955   4.9021042804e+01   4.1198768929e+01    0.1405973    0.1027984  34.21 0.0003231668    1.637    0.389
       150 -11.8671     11.8215     36.5227   9.4173754275e+01   6.7950664207e+01    0.2247764    0.1457313 -45.95  0.001412717    1.351    0.260
       151 -11.6755     27.0163     35.9688   8.6374739071e+01   6.6690177093e+01     0.210171     0.121976 -20.08  0.001140672    1.763    0.433
       152 -11.1212     43.6963     34.3244   7.7955269439e+01   6.4956000197e+01    0.1082509    0.1025324  80.73 0.0003619981    1.640    0.390
       153 -11.5110    106.5451     32.0318   5.5257882153e+01   5.3717446185e+01    0.1934904    0.1327701 -29.55  0.001028339    1.591    0.372
       154 -11.3487     39.1844     28.8500   7.7758567596e+01   6.6411856333e+01    0.1735577    0.1238696  -4.89 0.0004956973    1.314    0.239
       155 -10.6754     20.5043     23.4776   8.4706183552e+01   6.9418039237e+01    0.1203091   0.09125818 -12.82 -3.182545e-05    1.057    0.054
       156 -11.8611    172.5954     21.8186   3.9814586620e+01   3.9387949233e+01    0.1826967    0.1092544 -46.85 0.0007081269    1.693    0.409
       157 -11.2672    191.5044     21.4781   3.7444674176e+01   3.5010803714e+01    0.1279402    0.1088196 -86.71 0.0008101915    1.020    0.019
