#   1 NUMBER                 Running object number                                     
#   2 MAG_AUTO               Kron-like elliptical aperture magnitude                    [mag]
#   3 X_IMAGE                Object position along x                                    [pixel]
#   4 Y_IMAGE                Object position along y                                    [pixel]
#   5 X_WORLD                Barycenter position along world x axis                     [deg]
#   6 Y_WORLD                Barycenter position along world y axis                     [deg]
#   7 A_WORLD                Profile RMS along major axis (world units)                 [deg]
#   8 B_WORLD                Profile RMS along minor axis (world units)                 [deg]
#   9 THETA_WORLD            Position angle (CCW/world-x)                               [deg]
#  10 FWHM_WORLD             FWHM assuming a gaussian core                              [deg]
#  11 ELONGATION             A_IMAGE/B_IMAGE                                           
#  12 ELLIPTICITY            1 - B_IMAGE/A_IMAGE                                       
         1 -13.6434     22.2375     72.8716   6.1875506614e+01   6.1153570390e+01     1.815881    0.6810421 -69.79  0.006418941    3.834    0.739
         2 -13.7712     46.2832     81.0675   5.2872395801e+01   5.6136208225e+01     1.654142    0.6896006 -54.44  0.006741999    2.497    0.599
         3 -12.6956      5.4088     52.3931   6.6057179384e+01   6.7181776718e+01     1.354101    0.8593604 -68.82  0.007457449    1.892    0.471
         4 -15.5009     37.1802     15.9108   3.6021610270e+01   6.8881685188e+01     2.748766     1.269614  36.82    0.0118197    2.243    0.554
         5 -14.3356     21.5964     30.6709   4.9666998855e+01   6.9265829517e+01     1.398449     1.053404  89.97  0.008278139    2.157    0.536
         6 -15.2742     11.1697      7.5379   4.6550749851e+01   7.4098030753e+01     2.140599     1.231435  28.70   0.01203419    1.493    0.330
         7 -12.9508    121.9626     22.6131   1.5920683080e+01   5.1130008733e+01    0.5433383    0.2804692  78.70  0.002837878    1.742    0.426
         8 -14.4338     19.5043     44.5168   5.5547373975e+01   6.7177028424e+01      1.59612     1.158027  74.88  0.008890482    2.105    0.525
         9 -12.0148    130.7525     17.0610   1.3355679034e+01   5.0001762128e+01    0.2566949    0.2009991 -58.39  0.001882561    1.341    0.254
        10 -11.8473    124.9851     11.5213   1.2773625523e+01   5.1773549234e+01     0.319161    0.1833005 -61.47  0.002019156    1.638    0.390
        11 -11.6463    156.3728    225.7464   4.7949420412e+01   6.8439314105e+00     0.334825    0.1844203 -36.40  0.001793722    1.669    0.401
        12 -11.0674    100.3179    250.3463   6.3396455049e+01   7.1162247027e+00     0.362569    0.1558138  21.73  0.001385896    2.132    0.531
        13 -10.3797     90.0110    247.0000   6.5534713822e+01   8.8134762336e+00     0.309004    0.1691339  25.97  0.001382771    1.663    0.399
        14 -10.5675     89.0338    250.5025   6.6141639884e+01   8.1408540316e+00    0.3351235    0.1940622  14.64  0.001341809    1.634    0.388
        15 -11.5356     83.6053    247.4586   6.7170286959e+01   9.3233818995e+00    0.4487809    0.3696768 -84.56  0.002327301    1.458    0.314
        16 -13.5673    107.8580    216.1922   5.7467206133e+01   1.3957909308e+01     5.589958     1.258567 -63.90   0.01480036    5.823    0.828
        17 -13.1357    104.2226    242.6021   6.1597676474e+01   8.4043591735e+00     1.737804    0.4018411  36.59  0.005654922    4.201    0.762
        18 -12.5609     66.6555    246.6358   7.1391554520e+01   1.1117992354e+01    0.7337722    0.6155897 -75.01   0.00433275    1.336    0.252
        19 -11.9089     59.2648    237.0427   7.2439986224e+01   1.4077436625e+01     0.925043    0.6592571 -60.71   0.00490863    1.471    0.320
        20 -14.3418     78.9529    220.7540   6.5471919554e+01   1.6039353502e+01     2.171751    0.8512214  22.09  0.007488313    2.473    0.596
        21 -13.0994    110.5168    189.2042   5.3010902648e+01   2.0043323930e+01     1.358716    0.5332108 -61.12  0.005114272    2.545    0.607
        22 -13.4381    119.0093    185.5122   5.0355468806e+01   1.9826308042e+01     1.397084     0.865787 -73.81  0.006412016    1.961    0.490
        23 -14.6487     76.9582    205.9232   6.4243209970e+01   1.9969426938e+01     1.601003      1.02935  38.64  0.006198911    1.538    0.350
        24 -13.3372     90.4743    204.3732   6.0362657192e+01   1.8791818586e+01    0.8926294     0.643026  64.18  0.003364051    1.703    0.413
        25 -14.3396     92.3214    192.8159   5.8285557805e+01   2.1460386541e+01     1.226833     1.028611  71.46  0.004603447    1.350    0.259
        26 -13.2118     82.1341    191.9964   6.0979771622e+01   2.2932958970e+01    0.7784147    0.5934425  54.86  0.002837602    1.429    0.300
        27 -14.0129     81.0227    234.5951   6.6472760488e+01   1.2509742739e+01     1.213097    0.5546664  38.44  0.004601155    2.144    0.533
        28 -13.8241     71.1031    233.4200   6.8939656123e+01   1.3784551589e+01    0.9793172    0.5637338  56.71  0.003392864    2.157    0.536
        29 -10.0798     48.3647    249.3883   7.6377218466e+01   1.2166486549e+01    0.2419163    0.1675236 -78.76  0.001122115    1.630    0.387
        30  -9.0285     62.1002    194.6441   6.7121676339e+01   2.4615184301e+01     1.299476    0.5475446 -61.73  0.004463819    2.256    0.557
        31 -15.2883     11.2972    241.5833   8.5686918124e+01   1.7167575032e+01     1.738176     1.061186  13.28  0.008694574    1.621    0.383
        32 -11.6624     45.3653    220.3786   7.4735376808e+01   1.9579933948e+01      1.18196     0.740052  37.29  0.005639507    1.489    0.328
        33 -13.1396      2.3279    175.2038   8.4355402896e+01   3.5653273216e+01    0.7606069    0.4407869 -80.39  0.002529635    1.678    0.404
        34 -13.5501     29.8628    200.6893   7.7542034673e+01   2.6295605853e+01    0.9549158    0.5734725  33.63  0.003368441    1.551    0.355
        35 -14.0235     26.8240    231.0173   8.0813259913e+01   1.8541038469e+01     1.791844    0.4921094  41.69  0.006054904    3.145    0.682
        36 -13.0526     33.2829    225.7756   7.8617623241e+01   1.9313048689e+01     1.046415    0.5111819  41.11  0.003730919    1.886    0.470
        37 -13.7078     20.9591    214.5141   8.1319186390e+01   2.3331667860e+01     1.062373    0.4891834  33.05   0.00443439    1.916    0.478
        38 -15.3399     45.9404    195.5117   7.2099917644e+01   2.6142854916e+01     2.394706     1.591242  64.67   0.01087747    1.682    0.405
        39 -14.0393     28.6778    188.0645   7.6754537003e+01   2.9905822689e+01     1.244664    0.4664262 -67.94  0.004162958    2.500    0.600
        40 -16.3042      7.8073    207.4158   8.4741451172e+01   2.6283258858e+01     2.662658     1.039236 -73.48   0.01018628    2.468    0.595
        41 -15.0444     17.4035    185.4916   8.0163484200e+01   3.1614467210e+01     1.711907     1.112727 -40.34  0.007816804    1.690    0.408
        42 -10.6543     61.8011    221.3638   7.0212351705e+01   1.7689452685e+01    0.4170567    0.2577751 -81.81  0.001913715    1.886    0.470
        43 -11.3627    137.2286    222.5770   5.1514011518e+01   9.3897513099e+00    0.2958346    0.1253887  20.78  0.001282705    2.576    0.612
        44 -11.2129    130.4219    221.3057   5.2845373060e+01   1.0367646904e+01    0.3507907    0.2825741  12.90   0.00157024    1.250    0.200
        45 -11.8416    171.3987    211.6719   4.3108477980e+01   8.1447646372e+00    0.3361327     0.259398 -34.91  0.001308597    1.104    0.094
        46 -11.9891    176.0765    216.1189   4.2870330257e+01   6.8374779458e+00    0.4435228    0.1372325 -49.69  0.001939838    2.549    0.608
        47 -13.2139    121.8181    210.4087   5.3328588918e+01   1.3713826909e+01    0.9636457    0.7706107 -32.18  0.003666331    1.201    0.168
        48 -12.8644    118.9236    201.0355   5.2688712787e+01   1.6199155505e+01    0.7308206    0.6044385  51.14  0.002647527    1.376    0.273
        49 -12.5578    127.8875    197.9118   5.0129403361e+01   1.5838424383e+01    0.9435735    0.2524781 -49.84  0.003262677    3.177    0.685
        50 -10.9009    138.0368    216.8865   5.0562962767e+01   1.0510542797e+01    0.3090179    0.2715956  28.50    0.0014371    1.247    0.198
        51 -10.9802    147.3614    214.0186   4.8177391184e+01   1.0129212988e+01    0.3891652    0.2187937 -46.60  0.001890155    1.560    0.359
        52 -13.3928    134.1984    203.2861   4.9486009723e+01   1.3888664969e+01     1.031175    0.6346326 -51.56  0.005355082    1.475    0.322
        53 -14.4117     48.3611    179.4172   6.9494220985e+01   3.0319336652e+01       1.6309     0.915653  73.74  0.006122707    2.359    0.576
        54 -11.8969    187.0434    204.1638   3.9258581409e+01   8.0428542438e+00    0.3014758    0.1448756 -47.92  0.001329554    1.658    0.397
        55 -10.9228    146.3167    195.3097   4.5685813342e+01   1.4215303345e+01    0.2717228    0.2195368  79.61   0.00156717    1.648    0.393
        56 -12.8336    204.9413    193.8755   3.4901059166e+01   8.1985824408e+00    0.5071737    0.3346667  -9.41  0.003188883    2.040    0.510
        57 -10.8305    143.8795    189.2106   4.5277649387e+01   1.5831717374e+01    0.3150762    0.2185505  38.94  0.001735144    1.606    0.377
        58 -12.1469    150.2794    185.6943   4.3399110944e+01   1.5807560720e+01    0.4520453    0.3754195  46.30  0.002406993    1.395    0.283
        59 -11.8746    140.0490    179.9233   4.4654209695e+01   1.8363815459e+01    0.5946628    0.4204372 -85.56  0.002990192    1.917    0.478
        60 -11.6752    130.0812    186.2944   4.7872134468e+01   1.8213719782e+01    0.6147141    0.2388165 -46.98  0.002438736    2.394    0.582
        61 -11.3432    131.3948    177.3928   4.6172129869e+01   2.0077102657e+01     0.509437    0.3494811 -80.65  0.002500684    1.869    0.465
        62 -13.9796     68.2705    178.9813   6.3227118582e+01   2.8086913420e+01     1.746947     0.869594  53.02  0.006315601    2.450    0.592
        63 -10.8054    193.1421    184.3265   3.5370012489e+01   1.1144659718e+01    0.2791991    0.1628751 -48.47  0.001669328    1.357    0.263
        64 -11.2634    162.1854    179.3504   4.0051839569e+01   1.5682508983e+01    0.2696596    0.1920545  47.71  0.001564234    1.693    0.409
        65  99.0000     30.6601    147.0805   7.1454232818e+01   4.1300351071e+01    0.9008436    0.7057011  58.06  0.004450879    1.324    0.245
        66 -13.6778     65.2775    106.9710   5.1638875875e+01   4.7259913009e+01     1.408475    0.8986624 -87.40  0.006051375    2.175    0.540
        67 -15.5096     50.7451    135.8657   6.2409240327e+01   4.2041011235e+01     3.375326     1.814472 -68.29   0.01380716    1.916    0.478
        68 -13.4015     69.2147    127.6914   5.4515651368e+01   4.1549036325e+01     1.338855     1.002533  79.60  0.006426999    1.550    0.355
        69 -14.5475    113.3801    147.3961   4.5379543413e+01   2.9717774982e+01     2.570627     1.927228  57.91   0.01328724    1.447    0.309
        70 -15.4187    130.6511    131.3426   3.8303882009e+01   3.0586247796e+01     2.183937     1.723138 -71.98  0.008476778    1.216    0.178
        71 -13.2225     96.8127    136.1764   4.7697425369e+01   3.5058681432e+01    0.8561867    0.6622974  85.30   0.00291966    1.457    0.313
        72 -13.8552     93.8719    147.7298   5.0658183458e+01   3.2677919778e+01     1.438497    0.8106452 -75.26  0.005527627    2.232    0.552
        73 -14.0471     82.2407    144.8186   5.3546072808e+01   3.5192554602e+01     1.340934    0.9594152  74.08  0.004397565    1.682    0.405
        74 -14.1610     91.4995    171.0639   5.5258223388e+01   2.7105226814e+01      1.88297     1.001158 -69.93  0.007565689    2.097    0.523
        75 -15.0119     72.0658    162.3385   5.9606791320e+01   3.2061226493e+01     2.277806     1.562392  74.19   0.01009893    1.794    0.443
        76 -13.7289    175.1803    170.6590   3.6306334343e+01   1.5851359804e+01    0.9723738    0.4507165 -46.55  0.004829946    1.829    0.453
        77 -12.4189    193.9784    169.0235   3.2938863395e+01   1.3925658831e+01    0.4865674    0.2010846 -40.94  0.002316381    2.353    0.575
        78 -10.9872    119.0052    169.9894   4.7884291086e+01   2.3507463457e+01    0.3346204     0.272164 -57.47  0.001683319    1.152    0.132
        79 -11.2473    116.2978    166.9947   4.8052799392e+01   2.4605971942e+01    0.4052129    0.3390625  23.04  0.002236152    1.314    0.239
        80 -11.2775    134.8976    166.8509   4.3663505279e+01   2.1995392865e+01    0.4352079    0.3037305 -49.28  0.001911606    1.313    0.238
        81 -11.8871    148.2597    164.0839   4.0349442973e+01   2.0743969298e+01    0.5733736    0.3994718 -43.85  0.002491964    1.356    0.263
        82 -11.9395    165.9954    162.6964   3.6680238020e+01   1.8633946116e+01    0.4262626    0.3656813  49.55  0.001734879    1.360    0.265
        83 -11.3061    172.5050    160.5118   3.5157210544e+01   1.8220449461e+01    0.2661575    0.1894054  28.16  0.001583099    1.798    0.444
        84 -15.0164      7.4759    155.0869   8.0923692546e+01   4.1036445478e+01      1.22693     1.017404  56.40  0.005393058    1.211    0.174
        85 -10.8062     21.1636    156.5590   7.6081726461e+01   3.9525033416e+01    0.4749144     0.361712  76.71  0.001862361    1.376    0.273
        86 -12.1478    170.6793    152.5761   3.4177885400e+01   2.0055926685e+01    0.3289122    0.2855179  66.27  0.001390048    1.331    0.248
        87 -11.7691    180.8703    151.0742   3.2206403553e+01   1.8980225066e+01    0.3727452    0.2306871 -59.58   0.00201121    1.429    0.300
        88 -12.9941     10.4055    140.3413   7.8342335861e+01   4.5000659753e+01     1.676136    0.4765648  46.22  0.004842357    4.083    0.755
        89 -13.6260      9.6615    133.6186   7.7886825914e+01   4.6936161365e+01    0.7459555    0.4829723  61.06  0.003216622    1.703    0.413
        90 -14.0204      4.5348    127.9401   7.9337604869e+01   4.8868759280e+01     1.024486    0.5357812  87.68  0.004170038    2.198    0.545
        91 -10.2287    197.3191    141.6708   2.8168222421e+01   1.8594538792e+01     0.117872   0.08028384 -76.17  0.000406714    1.686    0.407
        92 -10.1255     23.3577    138.0983   7.3028152202e+01   4.4531279795e+01    0.2437753    0.2100915  -1.87  0.001014076    1.221    0.181
        93 -13.0828    147.6783    132.3954   3.4939064558e+01   2.7596812831e+01    0.7755363     0.540299 -38.40  0.003885546    1.645    0.392
        94 -10.5138     82.4000    132.2325   5.1168763934e+01   3.8347857176e+01    0.2058975    0.2000251  20.29  0.001151282    1.117    0.105
        95  99.0000     16.0296    101.2850   7.0618737594e+01   5.5053063166e+01     1.036488    0.4643452  72.46   0.00308979    4.851    0.794
        96 -10.6945     56.3972     84.2534   4.9629061156e+01   5.3852320645e+01    0.6644605    0.3850323  53.64  0.002859165    1.867    0.465
        97 -11.1182     20.7708    111.2806   7.0160953579e+01   5.2036377987e+01    0.4424485    0.3707558 -17.59  0.001261492    1.243    0.196
        98 -13.5546     40.4676     90.7331   5.7619242639e+01   5.4810326643e+01      1.65118     0.999795  77.03  0.006464063    2.662    0.624
        99 -12.4479    117.2976    245.4291   5.8867307147e+01   6.5572533554e+00    0.8119729    0.4157855 -46.28  0.004064705    1.832    0.454
       100 -12.8573     27.9354    123.1240   6.9048001048e+01   4.8176189302e+01    0.8148413    0.5573571  67.94  0.003318062    1.706    0.414
       101 -13.6626     29.5099    111.5115   6.6459588047e+01   5.1067394291e+01     2.128891    0.8041933 -74.45  0.007011885    3.385    0.705
       102 -11.2712     15.8446    126.2010   7.4450139273e+01   4.8490663340e+01     0.493403    0.2962099  64.14  0.001685245    1.975    0.494
       103 -11.1610     13.1866    118.3210   7.4494718520e+01   5.0847288107e+01    0.5341572    0.3418128 -72.04   0.00224261    1.569    0.362
       104 -11.7587    181.3315    126.0923   2.7967546069e+01   2.3678175322e+01    0.2519974    0.2216404 -45.46  0.001753533    1.286    0.223
       105 -14.0673     84.9411     97.5503   4.3085146858e+01   4.6032274497e+01     2.275702      1.27482  48.52    0.0100515    1.720    0.419
       106 -12.5694     93.6474    121.8779   4.5781543238e+01   3.8999865395e+01    0.5906222    0.4838977 -52.91  0.001804917    1.239    0.193
       107 -13.3100     88.7917    113.1320   4.5376082861e+01   4.1867658499e+01     1.010512    0.6506826 -50.98  0.004225795    1.586    0.369
       108 -13.1901    146.3440    114.7836   3.1900396508e+01   3.1410736498e+01    0.6236717    0.3633592  66.61  0.003035111    2.125    0.529
       109  -9.0065     43.3050    110.0110   6.0517398068e+01   4.9761766371e+01    0.3948975    0.2889272  53.97  0.001863663    1.442    0.307
       110 -11.4176     41.9936    105.4538   6.0135513324e+01   5.1072975322e+01    0.4298941    0.3050773  55.72  0.001604056    1.530    0.346
       111 -11.7781    104.6280    107.6142   3.9783580529e+01   4.0288249717e+01    0.6652446     0.334789 -55.24  0.002912831    1.954    0.488
       112 -10.4847     53.2724    108.6519   5.6372288568e+01   4.8703239695e+01    0.3679166    0.1429439 -52.29  0.001344825    2.565    0.610
       113 -12.4143    169.1208    110.1289   2.7058689130e+01   2.8527460187e+01    0.4298511    0.2580704 -54.31   0.00183593    1.414    0.293
       114 -10.2497     32.1625    248.6382   8.0571654353e+01   1.3763082736e+01    0.2675013    0.1614384  41.42  0.001082204    1.501    0.334
       115 -10.5576    178.0020     96.7101   2.3300512479e+01   2.9491323993e+01    0.1704083    0.1384839 -78.05 0.0008663342    1.079    0.073
       116 -13.2599    113.8591     91.5140   3.3961487320e+01   4.1898205368e+01    0.5086868    0.3757459 -40.01   0.00275619    1.654    0.395
       117 -12.1661     98.9567     87.8366   3.6838749338e+01   4.5451891055e+01    0.3563266    0.2893126 -39.65  0.002000832    1.496    0.331
       118 -11.9253      8.0201     80.3949   7.0774921538e+01   6.0842415169e+01    0.9468258    0.5247957 -88.51  0.004172175    2.510    0.602
       119 -13.0403    129.1413     78.8280   2.7853765014e+01   4.1348629168e+01    0.5772759    0.3117527 -55.02  0.002931535    1.773    0.436
       120 -12.7063    134.3314     78.0725   2.6694478073e+01   4.0490352496e+01    0.3455812    0.3296168  62.75  0.001983291    1.373    0.272
       121 -11.5931     77.8679     80.8006   4.1249884644e+01   5.0816606246e+01    0.5292628    0.3197509  41.70  0.002496294    1.605    0.377
       122 -12.0942     86.7329     78.3721   3.7942073289e+01   4.9632692682e+01    0.4887643     0.329489  45.07  0.002561715    1.447    0.309
       123 -12.5860    146.2060     78.6167   2.4701561379e+01   3.8163594532e+01    0.4351598    0.3749523  85.70  0.002426153    1.136    0.120
       124 -10.1823     58.5308     76.0002   4.6712130283e+01   5.5226341290e+01       0.1997    0.1365279 -56.62  0.001002742    1.582    0.368
       125 -11.7383    122.8367     85.0801   3.0523525866e+01   4.1419823134e+01    0.3151088    0.2029083 -72.10  0.001631762    1.666    0.400
       126 -12.3001    102.6743     67.5873   3.0992619401e+01   4.8504346071e+01    0.2952523    0.1979826  55.80   0.00162767    1.384    0.278
       127 -10.5019     61.1446     67.1349   4.3348714327e+01   5.6517654071e+01    0.2942771      0.19432 -71.98  0.001465369    1.962    0.490
       128 -13.0658     96.2766     75.0196   3.4458017930e+01   4.8428692949e+01    0.4669149    0.3546731 -80.29  0.002627351    1.384    0.278
       129 -12.6800     26.5529     83.4049   6.2205222082e+01   5.8287543620e+01    0.5806983    0.4329541  74.45  0.001702005    1.685    0.407
       130 -12.3009     30.4185     60.6834   5.4634604251e+01   6.2665694650e+01    0.5981858    0.4181562  37.77  0.002374022    1.301    0.231
       131 -11.2251    205.1133     61.3436   1.3963443785e+01   3.0720868730e+01    0.1761922    0.1227134 -54.69 0.0007772132    1.294    0.227
       132 -12.8137    212.8847     56.6281   1.2484981077e+01   3.0181004380e+01    0.4262898    0.2277144 -52.28  0.002905993    1.461    0.315
       133 -12.1473    127.6167    244.4628   5.6429058247e+01   5.7943579010e+00    0.4042702     0.345783  22.49  0.001673729    1.223    0.182
       134  -9.8854     75.5031    246.5156   6.9115770760e+01   1.0306981450e+01    0.1341366    0.1221136  17.11 0.0001375421    1.031    0.030
       135 -10.6679    195.9774    241.5065   4.2780050600e+01   6.0680649255e-01    0.1502092    0.1005078  12.39  0.001027851    1.608    0.378
       136 -10.6003     46.5761     49.3445   4.3833534957e+01   6.2271349061e+01    0.3020197    0.1901378  41.03   0.00163917    1.389    0.280
       137 -10.3269     41.1022     48.2406   4.5864268445e+01   6.3371760807e+01    0.3206572    0.1720909  54.44  0.001510937    2.132    0.531
       138 -13.5660    229.7298     45.7910   9.4649530005e+00   2.9125140367e+01    0.5022258    0.4314173 -73.41  0.004533457    1.521    0.343
       139 -11.3717     55.5890     47.3719   3.9601072689e+01   6.1019892673e+01    0.4407087    0.3082768  41.36  0.002406441    1.299    0.230
       140 -12.1565    138.8007    234.9281   5.2799925948e+01   6.6805213025e+00    0.4191812    0.2606186 -49.58  0.002349298    1.483    0.326
       141 -11.5958    138.6663     26.9276   1.4608605338e+01   4.7259787312e+01    0.2738616    0.1517036 -85.53  0.001586458    1.746    0.427
       142 -11.1708     47.9855    235.4925   7.5339785937e+01   1.5524209185e+01    0.6327958    0.2762688  23.72  0.002555601    2.037    0.509
       143 -11.4024    105.5310    231.5684   5.9979848548e+01   1.0701813934e+01    0.4630456    0.3156181  14.74  0.002203021    1.439    0.305
       144 -11.7524    148.1287    225.9832   4.9658312598e+01   7.5934252491e+00    0.3795065    0.2563806 -81.64  0.001956947    2.376    0.579
