#   1 NUMBER                 Running object number                                     
#   2 MAG_AUTO               Kron-like elliptical aperture magnitude                    [mag]
#   3 X_IMAGE                Object position along x                                    [pixel]
#   4 Y_IMAGE                Object position along y                                    [pixel]
#   5 X_WORLD                Barycenter position along world x axis                     [deg]
#   6 Y_WORLD                Barycenter position along world y axis                     [deg]
#   7 A_WORLD                Profile RMS along major axis (world units)                 [deg]
#   8 B_WORLD                Profile RMS along minor axis (world units)                 [deg]
#   9 THETA_WORLD            Position angle (CCW/world-x)                               [deg]
#  10 FWHM_WORLD             FWHM assuming a gaussian core                              [deg]
#  11 ELONGATION             A_IMAGE/B_IMAGE                                           
#  12 ELLIPTICITY            1 - B_IMAGE/A_IMAGE                                       
         1 -13.2877    168.7356     55.6895   6.3170305249e+01   3.5691796362e+01     1.876726     1.196887  19.90  0.005716803    2.205    0.547
         2 -13.4919    183.1636     40.5716   5.5836378179e+01   3.4136599086e+01     1.084911    0.9714538  -5.47  0.003489356    1.194    0.163
         3 -12.7242    188.0508     34.1537   5.3113511346e+01   3.3700481658e+01    0.6008665    0.5769371  -7.92  0.001467125    1.097    0.088
         4 -13.9114    205.2168      9.2815   4.3736346616e+01   3.2095326564e+01     1.110536      1.02771  29.99   0.00389832    1.232    0.188
         5 -11.8185    190.5265     14.9628   4.7029385506e+01   3.5263855099e+01    0.5511239    0.3370712  67.93  0.001846563    1.536    0.349
         6 -12.0437    235.0364      2.4572   3.9280389533e+01   2.5509603331e+01     1.427989     0.251105  74.58  0.003983418    5.986    0.833
         7  -9.7088    184.3041    212.6065   9.7910920871e+01   4.1560517544e+00    0.2063576    0.1597485 -55.15  0.001230684    1.707    0.414
         8 -13.4575    248.0580    244.3215   9.1846570769e+01  -9.8899797481e+00     1.533882    0.7263957 -26.66  0.009044263    2.278    0.561
         9 -17.6478     45.3313    242.0641   1.2633662648e+02   2.0336426347e+01     6.262861     4.653646  36.78   0.04765419    1.720    0.419
        10 -11.5313     63.6553    206.7676   1.2045611337e+02   2.4479058851e+01    0.2749948    0.2048154  88.87  0.000900386    1.182    0.154
        11 -12.6989     11.2893    206.1552   1.2982850961e+02   3.0403839254e+01    0.3734881    0.1667351  44.52  0.002365383    1.989    0.497
        12  -9.5922     87.7612    203.5000   1.1547968009e+02   2.1808478925e+01    0.2813981    0.2209476  87.65  0.001483633    1.193    0.162
        13 -10.9727    193.3081    195.4147   9.3225768352e+01   5.1700966025e+00    0.8609559    0.4575326 -61.88  0.002813226    5.572    0.821
        14 -13.2799     75.2626    248.7943   1.2196196053e+02   1.5513559664e+01     0.306846    0.1713943 -63.20  0.002028662    2.084    0.520
        15 -12.1081    151.1677    195.8446   1.0164703622e+02   1.2809019872e+01    0.4851168    0.3464838  40.45  0.002640691    1.262    0.208
        16 -11.6721     67.6181    194.8738   1.1851674175e+02   2.6316364894e+01    0.3213864    0.2304571 -46.22   0.00119379    1.917    0.478
        17 -10.2797     81.5534    195.8960   1.1584462154e+02   2.4199510638e+01    0.3128591    0.2010884 -53.73  0.001055747    1.790    0.441
        18 -10.9189    153.1197    184.3324   9.9294532496e+01   1.4545185852e+01     0.270463    0.1952365 -62.70  0.001411784    1.673    0.402
        19 -12.6251    145.4744    181.9846   1.0048872617e+02   1.6406687728e+01    0.8662673    0.5414599 -84.70  0.003472624    3.168    0.684
        20 -11.6208    141.6758    188.3202   1.0236182761e+02   1.5900055569e+01     0.316809    0.2708784 -29.88  0.001525748    1.388    0.279
        21 -19.1914     29.0650    102.1165   1.1551575641e+02   5.1404015897e+01     17.40155     1.348722 -65.75   0.03384726   11.402    0.912
        22 -10.4139    238.1835    185.1989   8.2986281526e+01  -1.3709852834e+00    0.1639305    0.1583132   0.66  0.001022561    1.362    0.266
        23 -10.0933    189.2572    178.3813   9.0789392608e+01   8.7001411537e+00    0.4117086    0.3201407  85.67  0.001279756    2.090    0.522
        24  -9.8874    188.0162    173.7084   9.0106131648e+01   9.7394748566e+00    0.3098952    0.2233068 -62.56  0.001505687    1.992    0.498
        25 -12.1992    142.4952    172.8803   9.9502568372e+01   1.8732798319e+01    0.6176515    0.5430988 -74.48  0.002955093    1.240    0.194
        26  -8.7238    195.0000    172.9554   8.8560817426e+01   8.4996350287e+00    0.2220649   0.07945552 -39.17 0.0008005913    2.930    0.659
        27  -8.8611     69.3354    173.0447   1.1566064280e+02   3.0663937488e+01    0.1727446    0.1393128  84.18 0.0005365363    1.079    0.074
        28  -9.1094     65.5053    170.9479   1.1623589060e+02   3.1626780674e+01    0.1821402     0.148383  58.32  0.001159829    1.189    0.159
        29  -9.7124    186.9170    165.8073   8.8705881668e+01   1.1339816421e+01     0.339854     0.202794 -47.38  0.001544708    1.890    0.471
        30 -10.1930     60.6718    164.5849   1.1651294777e+02   3.3646343124e+01    0.3086524    0.1439183  54.76  0.001447896    2.258    0.557
        31  -8.8979    117.4787    161.9434   1.0311303946e+02   2.5578681673e+01    0.2017544     0.135879 -59.22 0.0007530018    1.515    0.340
        32 -10.1218      5.7274    161.6439   1.2803432412e+02   3.9877418169e+01    0.1622217    0.1302938  88.46  0.000279216    1.123    0.110
        33 -11.1498     95.0913    157.3304   1.0752339019e+02   3.0360023105e+01    0.2569772    0.2377309  84.37 0.0003201527    1.037    0.036
        34 -11.9619    100.1499    150.9686   1.0521735254e+02   3.0963719945e+01    0.6081246    0.4420986 -33.27   0.00210564    1.784    0.440
        35  -9.2531      2.4432    155.2045   1.2823749556e+02   4.1504542896e+01    0.1966683    0.1112959 -46.10  0.001167055    2.395    0.582
        36 -11.0147    133.8960    145.6226   9.6082651999e+01   2.6032990592e+01     1.196598      0.30099 -54.12  0.002914918    5.832    0.829
        37 -10.1541    174.5771    149.1873   8.7681834902e+01   1.6955340290e+01    0.2759438     0.208618  45.28 0.0006411689    1.301    0.231
        38  -9.5547    113.1743    151.3351   1.0216233503e+02   2.8652328062e+01    0.2717538     0.179483 -84.68 0.0008784711    2.090    0.521
        39 -10.8965    110.1494    137.3235   1.0011630863e+02   3.2325309286e+01    0.5308548    0.3043432 -33.85  0.002152655    2.407    0.585
        40 -11.8450     98.9270    136.8507   1.0284881962e+02   3.4373910754e+01    0.3168119    0.2964443 -38.97 0.0005068064    1.176    0.150
        41 -10.9196    105.8403    130.7799   9.9826959138e+01   3.4576695792e+01    0.3726532    0.3165388 -75.48  0.001150683    1.197    0.165
        42  -9.7716    136.0000    129.4975   9.1960802963e+01   2.9098686956e+01    0.3358514   0.08530838 -46.48 0.0009292315    3.890    0.743
        43  -9.8895    116.4758    128.6637   9.6637974373e+01   3.3120924823e+01    0.2893059    0.2453575  -2.61 0.0006065297    1.480    0.324
        44 -10.0871    160.4894    127.4437   8.5673584984e+01   2.4314176567e+01     0.328696    0.2848527 -79.32  0.001640578    1.377    0.274
        45 -10.4765    104.5222    124.4098   9.8772092786e+01   3.6265485786e+01    0.2730837    0.2341073 -26.83 0.0006274828    1.328    0.247
        46  -8.8202    135.0000    119.9891   8.9892287936e+01   3.1367259998e+01    0.2584714   0.08590817 -45.47 0.0008027831    2.945    0.660
        47  -9.4144    111.3523    118.0959   9.5503471210e+01   3.6464069147e+01    0.2282642    0.2016571  29.06 0.0003167353    1.239    0.193
        48  -9.7734    231.2592    113.6734   6.8120626776e+01   1.0971830146e+01    0.2613686    0.2320294   0.87 0.0007493459    1.107    0.097
        49 -10.0853    168.1537    113.0456   8.0241784827e+01   2.5484610223e+01    0.3512384    0.2782463 -86.16  0.001237331    1.721    0.419
        50 -10.1759    134.5731    105.3118   8.6156016892e+01   3.4612220996e+01    0.4360054    0.1508787 -43.82  0.001391445    2.802    0.643
        51 -10.9600    119.2213    110.2559   9.1461504277e+01   3.6708691796e+01    0.5476513    0.3622597  61.69  0.002373102    1.918    0.479
        52  -9.7155    205.6231    110.0969   7.1762304980e+01   1.7318350960e+01    0.2829743    0.2239535  38.22 0.0006438905    1.304    0.233
        53  -9.6769     74.9945    104.0243   1.0230783959e+02   4.5732599440e+01    0.2196115    0.1595505 -27.78 0.0004732128    1.650    0.394
        54  -9.6990    128.4489     95.3482   8.4940079181e+01   3.8028904842e+01    0.2916182    0.1976504  49.71 0.0007988421    1.564    0.361
        55 -11.3677     71.7301    244.1403   1.2218663942e+02   1.6732284739e+01     0.248482    0.1734258 -78.72  0.001145671    1.490    0.329
        56  -8.6873    167.6226    229.5400   1.0359602525e+02   4.5078905633e+00     0.119777    0.1004775  39.94 0.0001532885    1.038    0.037
        57 -11.3142     71.3839    209.4447   1.1925489540e+02   2.2949482843e+01    0.4024818    0.2666458  25.41  0.001633696    2.227    0.551
        58 -11.7705    198.2502     23.5477   4.8566553077e+01   3.2339032906e+01    0.4249569    0.3044005  -4.82  0.001731952    1.706    0.414
        59  -8.6613     73.2000    218.3087   1.1975612803e+02   2.1042656917e+01   0.09498971   0.08167739 -64.12 0.0001502989    1.458    0.314
        60 -10.4553      2.3626    218.5520   1.3191733135e+02   2.8928443046e+01    0.1156008   0.06469459  64.61  0.000209256    1.320    0.242
