#   1 NUMBER                 Running object number                                     
#   2 MAG_AUTO               Kron-like elliptical aperture magnitude                    [mag]
#   3 X_IMAGE                Object position along x                                    [pixel]
#   4 Y_IMAGE                Object position along y                                    [pixel]
#   5 X_WORLD                Barycenter position along world x axis                     [deg]
#   6 Y_WORLD                Barycenter position along world y axis                     [deg]
#   7 A_WORLD                Profile RMS along major axis (world units)                 [deg]
#   8 B_WORLD                Profile RMS along minor axis (world units)                 [deg]
#   9 THETA_WORLD            Position angle (CCW/world-x)                               [deg]
#  10 FWHM_WORLD             FWHM assuming a gaussian core                              [deg]
#  11 ELONGATION             A_IMAGE/B_IMAGE                                           
#  12 ELLIPTICITY            1 - B_IMAGE/A_IMAGE                                       
         1 -12.1976    100.1092     58.7405   9.6329081604e+01   5.1229854812e+01     3.373567     1.848698  10.24   0.01051105    4.893    0.796
         2 -12.3044     85.2635     51.6499   9.8449687414e+01   5.5115862465e+01     3.044086     1.666655  22.09   0.01329922    2.476    0.596
         3 -11.8864    156.5506     25.4925   7.2507472917e+01   4.3179926476e+01     2.620839      0.49473  61.87    0.0076022    4.398    0.773
         4 -12.8785     81.8173     76.5372   1.0756277298e+02   5.1258081181e+01     2.799767     1.109909 -53.31            0    3.078    0.675
         5 -13.3974     18.6095     41.4517   1.1938679667e+02   6.5243112280e+01    0.7019904    0.5995057 -65.23   0.00514923    1.618    0.382
         6 -12.2039     57.9821     69.0214   1.1316938135e+02   5.6186841660e+01     1.732697    0.8987408 -59.87  0.007705328    2.570    0.611
         7 -12.3392     91.0743     22.8770   8.6268593664e+01   5.7989166913e+01     1.721059    0.5205997 -22.62  0.005700503    4.887    0.795
         8 -11.8042    148.6576     14.1871   7.0504169163e+01   4.6280565745e+01    0.8233369    0.6297161 -39.20  0.003359519    1.471    0.320
         9 -12.3937    163.8995     10.6609   6.7092843313e+01   4.2960459592e+01     1.215976     1.008469  21.38  0.007436403    1.477    0.323
        10 -12.2310    134.6013      4.8506   7.0058807775e+01   5.0429961236e+01     1.095988    0.6554644  60.58  0.005995779    1.400    0.286
        11 -12.7152     72.0126     30.8071   9.5187890450e+01   6.0406955069e+01     1.627567    0.7168591  42.71  0.007830415    2.212    0.548
        12 -12.0402     70.2551     19.3514   9.1277096912e+01   6.2113674876e+01     1.266613    0.4648248  34.02  0.005366848    2.948    0.661
        13 -12.1354    130.4675     20.1046   7.5740648441e+01   4.9940760785e+01     1.210453    0.5830573  56.16  0.005687325    1.776    0.437
        14 -12.1289    116.4828      7.2735   7.4346808425e+01   5.4295691250e+01     1.218867    0.3862349  41.46  0.002983092    3.206    0.688
        15 -12.5815     39.7035     63.7625   1.1806939524e+02   5.9306955894e+01     1.406525     1.138848  58.59  0.008903622    1.821    0.451
        16 -12.1650    121.8123     67.7505   9.3194293851e+01   4.5249899286e+01     1.214085     1.081778  81.80  0.004711299    1.311    0.237
        17 -12.3329     37.8908     46.0204   1.1321578230e+02   6.2697694922e+01     1.121264    0.7581792  53.34  0.006272527    2.629    0.620
        18 -11.8872    124.0626      9.9018   7.3679934182e+01   5.2385656253e+01    0.6592335    0.4984252 -59.24  0.002834067    1.695    0.410
        19 -12.1858    112.3904     21.5333   8.0217717062e+01   5.3803874511e+01    0.6535159    0.5921496 -65.73   0.00195946    1.377    0.274
        20 -12.2309    117.2457     15.5423   7.7024943243e+01   5.3366291094e+01    0.3081308    0.2746733  68.47 0.0002270801    1.206    0.171
        21 -10.8358    181.0359     37.4711   7.1853037213e+01   3.5676283181e+01    0.7604469     0.451809 -18.01  0.002948625    2.354    0.575
        22  -9.4716    177.9212     20.3285   6.7719966542e+01   3.8529243054e+01    0.3374743    0.2533721 -49.86  0.001105084    1.404    0.288
        23 -10.1160    184.7215     14.3963   6.5252203363e+01   3.7511334608e+01    0.4827884    0.3394423  44.70  0.001814859    1.601    0.375
        24 -10.0352    186.9352     22.3079   6.6998168575e+01   3.6090444914e+01    0.5564957    0.3006267 -49.75  0.002672638    1.947    0.486
        25 -10.5950     78.3128      7.6551   8.4031671205e+01   6.1929383775e+01    0.6440352    0.4499793  -8.24  0.004105484    1.431    0.301
        26  -9.8725     26.4648      4.5254   1.0162476827e+02   6.9868076051e+01    0.5795645    0.3304191  -4.88  0.003694386    1.712    0.416
        27 -11.7617     54.2036     17.0454   9.5928309561e+01   6.4874443852e+01    0.3858701    0.2478812 -11.20  0.002398804    1.477    0.323
        28 -10.5043     17.8761      3.2669   1.0493425179e+02   7.0910183467e+01    0.5920776    0.3046301  32.65  0.003844063    2.110    0.526
        29 -12.3435     19.0770     13.5948   1.0892171120e+02   6.9483671345e+01     1.131348    0.6075888  35.21  0.007121206    2.308    0.567
        30 -11.8973     41.3668     17.1433   1.0090502191e+02   6.6593042913e+01     1.252798    0.6144903 -33.09  0.007215474    1.880    0.468
        31 -11.2573     50.4090     10.7807   9.4673799479e+01   6.6136063607e+01    0.4689518      0.30744  22.91  0.002055785    1.336    0.252
        32 -10.9272     68.6897      4.5937   8.5704054144e+01   6.3898492173e+01    0.6405114    0.2948495  33.41   0.00335828    2.000    0.500
        33 -10.9221      9.7823     19.2581   1.1543995812e+02   6.9461115522e+01    0.4032482    0.2689824  14.78  0.002399558    1.547    0.354
        34 -12.0642      3.1637     17.3094   1.1776618129e+02   7.0215521009e+01    0.4503781    0.1743883 -34.75  0.001349303    2.018    0.504
        35 -12.7267      3.4668     10.2651   1.1485402981e+02   7.1212291769e+01    0.9592885    0.2761572 -40.71  0.005005697    2.596    0.615
        36 -12.0433     29.6617     24.1963   1.0861033137e+02   6.6976112190e+01    0.4774341    0.2635477 -31.83  0.001597306    1.522    0.343
        37 -10.0381    243.5936     12.6520   5.8744652738e+01   2.3883082493e+01    0.3139398      0.26176 -80.16  0.001545605    1.103    0.093
        38  -9.6894    232.2335     19.0857   6.1102327285e+01   2.5660966966e+01     0.579693    0.2862542 -47.95  0.002485857    1.845    0.458
        39 -10.7540    232.8678     11.2497   5.9379721482e+01   2.6445400111e+01    0.3879332    0.2700527 -57.47 0.0006349696    1.287    0.223
        40 -10.5225    245.2513     19.7730   6.0052311805e+01   2.2653213406e+01    0.5374958    0.2766879  80.34  0.002780914    1.825    0.452
        41 -10.2386    239.5715     17.4941   6.0087328798e+01   2.4195283753e+01    0.4905388    0.1862154 -50.18  0.001201628    2.358    0.576
        42  -9.1993    212.5078     12.9875   6.1711777810e+01   3.0968820103e+01    0.2746421     0.239725 -49.89 0.0009541113    1.268    0.212
        43 -11.0886    202.3670     19.6509   6.4395859099e+01   3.2634845794e+01      0.44386    0.3121315  72.63 0.0009615473    1.249    0.200
        44 -13.5996     99.1197      7.1654   7.8246330329e+01   5.7971677355e+01    0.8103295    0.5888384  48.38  0.002317035    1.193    0.162
        45 -11.9981      8.8440     26.4343   1.1850337864e+02   6.8432515333e+01     1.285456    0.4788595  18.03  0.006864887    3.020    0.669
        46 -11.9566     58.1604      3.9601   8.8909772170e+01   6.5677825572e+01    0.7716407    0.3701162  50.32  0.004149455    2.326    0.570
        47 -10.5450    222.0553     11.4865   6.0426248503e+01   2.8899172733e+01    0.6107274    0.3857673  69.28  0.002310732    1.432    0.302
        48  -9.8027    218.2929     13.1538   6.1162304946e+01   2.9587513588e+01    0.2961335    0.2561592  67.67  0.001455249    1.268    0.211
        49  -9.0850    242.0000      2.0151   5.6738559659e+01   2.5449922778e+01    0.2130947    0.1272857 -42.31  0.001019098    1.646    0.392
        50 -10.3649    245.7114      3.3301   5.6715453958e+01   2.4493283988e+01      0.39962    0.2285977  82.39 0.0004715911    1.510    0.338
        51  -8.7770    250.7669     11.6618   5.7962261498e+01   2.2435805466e+01    0.1920952   0.09845629 -38.75 0.0001436382    1.921    0.480
        52 -10.2186    248.3660      7.2111   5.7274864457e+01   2.3476190230e+01    0.3830349    0.1934625 -68.04  0.002016722    1.845    0.458
        53  -9.9782    189.6404      8.5112   6.3162826625e+01   3.6929995235e+01    0.4000591    0.2015565  53.98  0.001408461    1.922    0.480
        54 -10.2892    195.5331      5.2532   6.1700043656e+01   3.5840516600e+01    0.5666794    0.3674236  45.36  0.003110659    1.828    0.453
        55 -10.3606    200.5552      6.6682   6.1496954117e+01   3.4494374260e+01    0.4560814    0.2466236 -31.55  0.001941585    2.084    0.520
        56 -10.8954    204.1518      6.8069   6.1151548221e+01   3.3622297507e+01    0.3067327    0.2589589 -87.83 0.0003956936    1.043    0.041
        57 -11.3254    207.7035      3.0108   5.9919485439e+01   3.3172485117e+01    0.6052075    0.3503676 -89.01  0.003234994    1.604    0.376
        58 -10.4421    175.0753      3.9256   6.3759540554e+01   4.0897648689e+01     0.595906    0.3257261 -83.50  0.002819386    2.156    0.536
        59  -8.2776    180.7233      8.3444   6.4200465165e+01   3.9106677274e+01    0.2454265    0.1511552 -78.95 0.0006119786    1.771    0.435
        60 -10.0565    180.6293      4.7690   6.3292759925e+01   3.9477274377e+01    0.3579455    0.2556815 -30.20  0.001671371    1.638    0.389
        61 -12.0405     52.0178     36.7292   1.0452917887e+02   6.2519402943e+01     1.628033     1.054719 -49.84  0.009328673    1.981    0.495
        62 -10.8152    222.9526      2.3394   5.8363302410e+01   2.9692912607e+01    0.4730897    0.2502544  70.65   0.00191606    1.636    0.389
        63  -8.9236    229.7888      3.2592   5.7972052373e+01   2.8036287079e+01     0.157115    0.1339908  64.52  0.001027751    1.377    0.274
        64  -8.3993    236.3689      1.7719   5.7128847722e+01   2.6720694664e+01    0.1476875    0.1164143 -25.70 0.0009443955    1.719    0.418
        65 -10.3169    173.8194      8.6425   6.5166823489e+01   4.0752369768e+01    0.2577755    0.2019976 -75.59 0.0006960036    1.283    0.221
        66  -8.5517    189.5099      1.4507   6.1436347541e+01   3.7655585258e+01    0.1285378    0.1056513  76.35 5.393356e-05    1.067    0.063
        67 -11.4740     47.6615    100.5228   1.2469306736e+02   5.0824376473e+01     1.213026    0.5872513 -45.33  0.005761763    1.863    0.463
        68  -8.6814    125.3272    250.3100   1.3015489064e+02   5.7286335982e+00    0.1157405   0.09653506  17.20 0.0006805655    1.660    0.398
        69 -11.0982     22.0046     96.2514   1.3178313085e+02   5.4161375194e+01    0.4663957    0.3193095 -33.59  0.002278826    1.512    0.338
        70 -11.3270     35.3468     91.1018   1.2650343626e+02   5.4145222848e+01    0.7698996    0.5766675  49.56  0.004724916    1.688    0.408
        71 -11.3902     26.2207     85.9390   1.2833910503e+02   5.6049546349e+01     0.676862    0.4763554 -84.64  0.003993365    1.801    0.445
        72 -10.9618     29.3305     81.9378   1.2641199686e+02   5.6632820849e+01     0.482521    0.2832959 -54.99  0.001655939    1.390    0.281
        73 -11.8460     16.2805    104.7590   1.3503128676e+02   5.2713903984e+01    0.8718857    0.4549899   0.09   0.00438134    3.085    0.676
        74 -10.7199     15.7060     98.7454   1.3417056651e+02   5.4079401409e+01    0.3637484    0.2436038 -44.61  0.001341458    1.345    0.257
        75 -11.0210     51.9106     88.4265   1.2050848610e+02   5.2983411351e+01    0.7266613    0.3915618 -58.65  0.003569673    1.772    0.436
        76 -10.7324     56.8025     85.6544   1.1820833622e+02   5.2982898071e+01    0.3792242    0.2906911  -6.45    0.0016405    1.505    0.336
        77 -10.9271    100.0910    115.4274   1.1266068598e+02   3.9813161667e+01     1.047706    0.3341206  47.36  0.003261749    3.673    0.728
        78 -10.0369     40.8329    117.2831   1.3009676757e+02   4.7739646011e+01    0.4327188     0.242758  74.96  0.001847878    3.053    0.672
        79  -9.8521     13.0604    117.3266   1.3789983142e+02   5.0133826957e+01    0.2140352    0.1991388  58.93  0.000845455    1.303    0.233
        80  -8.6185     27.9629    115.7192   1.3349420395e+02   4.9319277401e+01    0.1641551    0.1368942 -64.26 0.0003371759    1.030    0.029
        81 -10.0971    132.4877    111.6347   1.0297261072e+02   3.4217935393e+01    0.4454998    0.4380997 -55.81  0.001808775    1.025    0.024
        82  -9.8000    133.5456    103.1603   1.0044466365e+02   3.5811171595e+01    0.5340303     0.256064 -44.75  0.001809571    2.064    0.516
        83  -8.0879     85.3147    113.3216   1.1635057301e+02   4.2815556072e+01     0.146251    0.1092595 -23.14 0.0007040562    1.658    0.397
        84 -10.3030     42.5203     87.2663   1.2328978820e+02   5.4262457577e+01    0.4750101    0.3316571 -51.56  0.002530669    1.206    0.171
        85  -9.6448    105.1786    109.6706   1.0979557415e+02   4.0182572917e+01    0.3258193    0.3184406 -24.57  0.001837158    1.057    0.054
        86 -11.0342     67.3493    107.8005   1.2033711377e+02   4.6754602280e+01    0.6517918    0.3805524 -28.04  0.002839833    2.402    0.584
        87 -10.2115     73.8485    107.9853   1.1844229733e+02   4.5793640989e+01    0.3568429    0.2967776  47.90 0.0007820129    1.337    0.252
        88  -9.5588     35.5336    109.1564   1.3013186148e+02   5.0123794329e+01    0.4242714    0.2752479   1.74  0.002293891    2.207    0.547
        89  -9.1099    120.6817    109.0680   1.0539515364e+02   3.7270407550e+01    0.2187827    0.1977613 -46.39 0.0006696239    1.082    0.076
        90 -11.2779      5.3534    118.0037   1.4007756181e+02   5.0503500681e+01     0.927121    0.2411652 -63.67  0.004036124    2.549    0.608
        91  -8.7403     97.2645    103.9339   1.1055873460e+02   4.2904815777e+01    0.3017178    0.1850318  66.65  0.001184754    2.668    0.625
        92  -9.7067     75.4994    102.2661   1.1656315818e+02   4.6836496116e+01    0.3400766    0.2200232 -58.13  0.001020107    1.501    0.334
        93  -8.9513    105.8978    102.8382   1.0780836215e+02   4.1557169038e+01    0.2175064    0.1940305 -17.76 0.0004775086    1.209    0.173
        94  -8.7850    140.7597    101.9557   9.8296667321e+01   3.4457898382e+01    0.2203438    0.2087922 -48.26 0.0008285044    1.052    0.049
        95  -9.2771     81.4942    102.1862   1.1474176382e+02   4.5937684557e+01    0.2429063    0.2041657  37.03 0.0009335265    1.289    0.224
        96 -11.3679      5.0215     79.7455   1.3405129919e+02   5.8796972236e+01    0.6245328    0.2706583 -61.43  0.002336201    1.742    0.426
        97 -10.8088      4.2288     99.7392   1.3776189760e+02   5.4596925622e+01    0.4757514    0.2787169 -74.69  0.002525435    1.491    0.329
        98  -9.3489      9.6002     99.8304   1.3618824921e+02   5.4250470498e+01    0.1905288    0.1664114  38.35  0.001290701    1.444    0.307
        99 -10.9011      3.2949     89.2135   1.3632281455e+02   5.6908447303e+01    0.5868269    0.2571996 -45.59  0.003082789    1.907    0.476
       100 -11.1439     13.4083     88.6869   1.3304403348e+02   5.6408979850e+01    0.3436207     0.283187 -55.41  0.001003811    1.056    0.053
       101 -11.0951    116.1666     98.2541   1.0370793132e+02   4.0526117604e+01    0.6731281    0.5047361 -59.42  0.002566095    1.447    0.309
       102 -11.6792     14.4960     61.6850   1.2674820427e+02   6.1841446951e+01     1.150077    0.9495661   2.81     0.008519    1.371    0.271
       103  -9.5496    234.5033    248.5074   1.0941608393e+02  -1.2075842895e+01    0.2332333    0.1898428  76.44  0.001396676    2.452    0.592
       104  -8.5794      3.6085    246.1689   1.5098386324e+02   2.3275412275e+01     0.139255   0.07536617 -74.99 0.0009453993    1.678    0.404
       105 -10.0731    142.2659    243.7527   1.2608551556e+02   3.9940234189e+00    0.3167167    0.1846126  34.97 0.0009618931    1.718    0.418
       106  -9.0230    211.1751    241.1833   1.1247477991e+02  -7.4247516051e+00    0.1554681    0.1449264  46.97 0.0006512984    1.307    0.235
       107 -11.5671     27.0617     51.6751   1.1921228697e+02   6.2747498774e+01    0.5914594    0.2544166 -29.88  0.002797813    2.584    0.613
       108  -9.4933     38.1924    241.6091   1.4510370339e+02   2.0247415761e+01    0.1410387    0.1002998  41.46 0.0007326496    1.654    0.395
       109  -9.2349    113.6058    239.1949   1.3105430109e+02   9.6973256812e+00    0.1668449    0.1174809 -50.64 0.0009549953    1.767    0.434
       110 -11.0779     69.1576     74.2605   1.1096806983e+02   5.3645217151e+01     1.149387    0.6785409 -49.44  0.005787817    1.627    0.385
       111  -9.9937     13.5873    237.6876   1.4894467723e+02   2.3838198735e+01    0.2573774     0.145882 -62.25  0.001656109    2.083    0.520
       112  -9.1207     12.5977    232.4922   1.4879834042e+02   2.4953802452e+01    0.2582343      0.11126  65.10  0.001468713    1.946    0.486
       113  -8.8742    137.3197    228.3254   1.2493003246e+02   7.6590172370e+00    0.1268224    0.1054367   7.12 0.0007046297    1.679    0.404
       114  -8.7096     52.4657    224.4774   1.4117664457e+02   2.1856482059e+01     0.122971   0.09471649  77.18 0.0001901814    1.015    0.015
       115  -8.8589     40.6469    221.6855   1.4312732124e+02   2.3938232567e+01    0.1049709   0.08938161 -51.83 0.0007045914    1.735    0.423
       116  -8.3426    244.6261    204.6828   9.9790104459e+01  -7.4723928717e+00    0.1381704   0.09069457   4.87 0.0007031609    1.799    0.444
       117  -8.4266    234.3052    200.3548   1.0082833979e+02  -5.0652195687e+00    0.1391336   0.09568737  -0.18 0.0007040949    1.715    0.417
       118 -10.8668     17.9794    186.1518   1.4446435067e+02   3.4100641003e+01    0.4575004    0.3172118 -37.37  0.002751089    2.338    0.572
       119 -10.8721      5.6078    185.4755   1.4685821397e+02   3.5396714308e+01    0.5911331    0.1777938  56.30  0.002533478    3.577    0.720
       120  -9.0247    188.1349     93.9362   8.5648366541e+01   2.4766732160e+01    0.2492072    0.2037328 -76.02  0.001217804    1.319    0.242
       121 -10.0677    121.1993     91.5229   1.0045309410e+02   4.0883084036e+01    0.3620469    0.2676722  60.02  0.001035446    1.522    0.343
       122 -10.5935    110.7556     58.6025   9.3259030089e+01   4.9128827544e+01      1.65397    0.6406457  30.85  0.004037021    6.895    0.855
       123 -11.2171    119.7344     86.4388   9.9384785327e+01   4.2211263847e+01    0.7507393    0.3428609  48.29  0.002110742    2.242    0.554
       124 -10.0933    123.3242     81.3111   9.6915677788e+01   4.2446749851e+01    0.5035438    0.3109929  27.04  0.002088173    2.141    0.533
       125  -9.8734    104.3902     93.3045   1.0563176825e+02   4.3881170675e+01    0.3555813    0.2881696  53.91 0.0008229569    1.347    0.258
       126 -11.3963    118.9584     58.9785   9.1172655424e+01   4.7340018568e+01     1.200581    0.5848062  31.25  0.004400561    2.944    0.660
       127 -11.0002    109.3803     66.6610   9.6232150746e+01   4.8045032968e+01    0.8811323    0.5268801 -13.24  0.003527853    2.666    0.625
       128  -9.3365     11.8538    184.6938   1.4556582614e+02   3.5004416588e+01     0.208381    0.1260999 -70.97  0.001022328    1.384    0.278
       129  -9.8508    126.7929     63.8966   9.0706129252e+01   4.4815890739e+01    0.3073272    0.1945931  41.51 0.0007977059    1.570    0.363
       130 -11.5265    106.7184     86.4902   1.0302064415e+02   4.4833015591e+01    0.7318548    0.6124666  12.44  0.003167004    1.338    0.253
       131 -11.8680    100.7157     78.3833   1.0235843229e+02   4.7580052008e+01    0.9587466    0.7391371 -39.16   0.00414197    1.259    0.206
       132 -10.8663    101.9622     70.5547   9.9585735270e+01   4.8812522202e+01    0.4867977    0.3405481 -43.62  0.001206123    1.439    0.305
       133  -9.2676      8.4750     94.0814   1.3556053988e+02   5.5567142080e+01    0.2472165    0.1352054  48.85  0.001370619    2.506    0.601
       134  -8.8645    206.3796     92.1929   8.1843865855e+01   2.0679888807e+01    0.2279946    0.1293866 -49.47 0.0009533378    1.742    0.426
       135  -8.8155    194.5184     89.9666   8.3413962791e+01   2.3951202644e+01    0.2331042    0.1480256 -39.62 0.0009124319    1.568    0.362
       136  -9.4276      1.6431    178.0134   1.4706136768e+02   3.7360425041e+01    0.1717719    0.1124551 -85.88 0.0009981643    1.134    0.118
       137 -10.0740      9.4063     86.1970   1.3385176630e+02   5.7192096434e+01    0.2497882    0.1470788 -76.65 0.0008141763    1.768    0.434
       138  -9.6935    152.7847     87.3647   9.1364751629e+01   3.4588261593e+01    0.3327353     0.256226  34.93 0.0008392028    1.433    0.302
       139  -9.4500    238.5903     86.6208   7.5427927897e+01   1.4215345664e+01    0.2697328    0.1332031 -24.89 0.0009597616    3.244    0.692
       140  -9.9153    161.4708     82.3165   8.8001099860e+01   3.3448958079e+01    0.4985627    0.3734557 -85.46   0.00227505    1.686    0.407
       141  -9.8277    217.6341     80.0811   7.7010196241e+01   2.0142135874e+01    0.6410812    0.3263773 -21.59  0.002160895    3.643    0.725
       142 -10.6947    134.5091     80.8807   9.3900652593e+01   4.0061733055e+01    0.6028908     0.362766 -34.96  0.002612014    1.749    0.428
       143 -10.5944    138.8987     76.5412   9.1537222918e+01   3.9862870947e+01    0.5734981    0.2243729 -44.74  0.002007239    2.674    0.626
       144  -9.9465     17.7958     81.8818   1.3025272117e+02   5.7546022216e+01     0.227138    0.1836519 -15.18  0.001127942    1.369    0.270
       145  -8.4871    188.6629     80.3109   8.1990645199e+01   2.7129030960e+01    0.1598922    0.1141187 -76.59 0.0004818305    1.686    0.407
       146 -10.3013    150.1635     75.8100   8.8668255615e+01   3.7352176637e+01    0.7130857    0.4261086 -29.32  0.003011222    1.929    0.482
       147 -10.6626    144.0589     77.2536   9.0507667168e+01   3.8534561940e+01    0.5389772    0.2384428 -31.54  0.001892963    2.742    0.635
       148 -10.3013    151.6364     67.3084   8.5857600263e+01   3.8475227146e+01    0.8022621    0.2840379  44.78  0.002489802    3.051    0.672
       149 -10.3291    132.4221     68.3758   9.0676507588e+01   4.2790898796e+01    0.5104086    0.3319877  72.48  0.002020086    2.129    0.530
       150 -10.8242    140.2465     68.1981   8.8726072316e+01   4.1023158792e+01    0.6960365    0.4690062  66.02  0.003189157    1.678    0.404
       151  -9.8790     90.1161     78.1748   1.0547408605e+02   4.9542050119e+01     0.523578    0.2396922  39.92  0.002074809    2.276    0.561
       152 -10.6546     36.8090     75.8672   1.2239045902e+02   5.7206531218e+01    0.2442015     0.182383 -36.66 0.0003830458    1.158    0.137
       153  -8.9224     25.7388     74.2787   1.2583031331e+02   5.8511435685e+01    0.3040193    0.1574739 -16.67  0.001464687    2.782    0.640
       154 -10.3972     18.9957     73.0090   1.2787682233e+02   5.9286664153e+01     0.404983    0.2406849 -31.39  0.002416802    1.641    0.391
       155  -9.0058    192.9088     74.1181   7.9604164349e+01   2.7157487070e+01    0.2340429    0.1914646 -71.06 0.0004986181    1.243    0.195
       156  -9.4001    215.0666     71.8176   7.5398098184e+01   2.2145620668e+01    0.3035065    0.2165857 -25.78  0.001053025    1.696    0.411
       157  -8.7432    155.4274     71.0479   8.6114937761e+01   3.6923704843e+01    0.2286577    0.1465432 -39.20  0.000962387    1.602    0.376
       158 -10.4982    250.2474     67.3550   6.9608344750e+01   1.4819090678e+01    0.4839896    0.1879274 -34.13  0.001884353    2.763    0.638
       159 -11.5102    164.1862     62.8403   8.1922476345e+01   3.6152693889e+01    0.6813598    0.6171952  34.68  0.003733591    1.195    0.163
       160 -10.7501    164.5510     57.1339   8.0220398222e+01   3.6964011487e+01    0.6090875    0.4822479   4.29  0.002180123    1.677    0.404
       161  -8.9870    178.0337     60.3399   7.8580943489e+01   3.3117156408e+01    0.4774096    0.3393767   7.58  0.001770678    2.268    0.559
       162 -11.6857    174.6944     56.2702   7.8066511994e+01   3.4581011547e+01    0.9873857    0.6995072  -9.93  0.002496181    2.008    0.502
       163  -9.6121    159.3894     97.0901   9.2538075346e+01   3.1117029453e+01    0.3495526    0.2651286  49.58   0.00139983    1.315    0.239
       164 -10.1829    221.3506     58.3458   7.1253739701e+01   2.2799998999e+01     0.489015    0.3735367  38.13  0.002556265    1.732    0.423
       165  -9.6586    185.9550     61.0161   7.7361152216e+01   3.1037400692e+01     0.234083    0.1652194 -74.18  0.000433558    1.635    0.388
       166  -9.7639    149.1572     59.0794   8.3964058298e+01   4.0413620741e+01    0.4971606    0.1856233 -43.77  0.001749027    2.884    0.653
       167 -11.3106    140.0846     51.6619   8.3713411563e+01   4.3707195351e+01    0.8619206    0.3473954  50.21  0.003262837    2.277    0.561
       168 -10.4726    158.3956     50.3926   7.9477246613e+01   3.9491513486e+01    0.5529618    0.4642637  46.21  0.003021376    1.182    0.154
       169  -8.7437    152.5647     56.4993   8.2466177126e+01   3.9994837117e+01    0.3174719    0.2387943  38.10 0.0006741646    1.409    0.290
       170 -10.6843    150.2982     51.9943   8.1598490791e+01   4.1224773059e+01    0.4634424    0.4522162  53.20  0.002728016    1.047    0.045
       171 -10.2139    201.1318     57.9366   7.4080110074e+01   2.7757330812e+01    0.4513039    0.3617066  14.04  0.002291803    1.809    0.447
       172  -9.2076    158.6800     58.4224   8.1763618056e+01   3.8207147151e+01    0.3458839    0.2338154  23.76  0.001518002    2.091    0.522
       173 -10.1614      2.9229     57.4344   1.3000599434e+02   6.3353866678e+01    0.3173655    0.2306876 -66.47  0.002240931    1.416    0.294
       174  -9.0827     38.3446    176.1006   1.3918187049e+02   3.4232451819e+01    0.1863429   0.09840694 -83.04 0.0004739831    1.763    0.433
       175  -8.8134    236.2816     55.3368   6.8641198237e+01   1.9782603263e+01    0.1235196    0.1093899  19.56 0.0004762025    1.620    0.383
       176 -10.2644    186.1925     53.4823   7.5311222241e+01   3.2138192380e+01    0.3959789    0.2627538  11.90  0.001546073    2.815    0.645
       177  -8.7510    193.0103     54.0225   7.4345918819e+01   3.0361769069e+01    0.2350504    0.1597833 -75.32 0.0006524824    1.684    0.406
       178  -8.8901     65.9681     51.6088   1.0482018620e+02   5.8223324184e+01    0.3205864    0.1522233 -54.15  0.001294094    3.297    0.697
       179  -9.0525    237.7389     51.2154   6.7546636292e+01   2.0066118808e+01    0.3931309     0.176676 -63.22  0.001183226    2.866    0.651
       180  -9.1869      7.5624     49.7765   1.2627742569e+02   6.4524825222e+01    0.3070104    0.2786147  83.45  0.002382868    1.603    0.376
       181  -8.9837     16.2571     50.9329   1.2319271636e+02   6.3740137861e+01    0.1860361   0.08316563 -37.92 0.0006427197    1.852    0.460
       182  -8.0878    219.6884     50.2743   6.9564238130e+01   2.4411006399e+01    0.1430238     0.095429 -73.05  0.000316328    1.555    0.357
       183  -8.5211    126.6869     50.7165   8.6554246799e+01   4.6926392508e+01    0.1432401    0.1042734  23.58 0.0005911359    1.575    0.365
       184  -8.5525    125.5008     47.5690   8.5827265819e+01   4.7653631165e+01    0.1833348     0.132788 -44.03 5.643107e-05    1.516    0.340
       185  -9.3951    171.2982     48.8867   7.6621869083e+01   3.6523956178e+01    0.2435553    0.1684264 -39.92 0.0006699721    1.510    0.338
       186  -8.7670    125.7210     28.1346   7.9391945208e+01   5.0134892084e+01    0.2954277    0.1796201 -51.18  0.000704308    2.146    0.534
       187  -9.5879    129.6513     46.3713   8.4445383501e+01   4.6889615276e+01    0.2647587    0.2292878  -9.09 0.0006963876    1.246    0.198
       188 -10.3187    130.2781     40.2792   8.2336817556e+01   4.7586290443e+01    0.6066454    0.3889149  62.73  0.002986838    1.600    0.375
       189 -10.7966    135.0154     34.1100   7.9304783692e+01   4.7289294369e+01    0.4660962    0.3443738 -28.46   0.00188944    1.478    0.323
       190 -11.0660    147.4856     35.0927   7.7052722325e+01   4.4220335631e+01     1.238359     0.262866  50.04  0.001470274    4.021    0.751
       191 -10.0347    124.8895     37.1820   8.2574120564e+01   4.9212453943e+01    0.3409573    0.2743199  55.85  0.001329986    1.188    0.158
       192  -9.7550    125.4638     32.9891   8.1056468280e+01   4.9612539125e+01    0.3005044    0.2282614   1.70  0.001059077    1.535    0.349
       193 -10.6934    140.1656     42.3544   8.0801560549e+01   4.5012258801e+01    0.7088103     0.318887  63.69  0.002765716    2.430    0.589
       194  -9.7696    142.4144     38.7505   7.9203656745e+01   4.4960927542e+01    0.3097174    0.2262294 -30.75 0.0007896305    1.488    0.328
       195  -9.6633    221.8837     45.8888   6.8253104878e+01   2.4526406792e+01    0.2052156    0.1840895  66.05  0.001232331    1.230    0.187
       196  -9.9141    206.7452     45.1047   7.0051140378e+01   2.8282038379e+01    0.6051593    0.3749309  88.35   0.00285821    1.773    0.436
       197  -8.9740    203.2072     27.3358   6.6157720181e+01   3.1508217713e+01    0.4178733     0.258748 -79.61  0.001637074    1.731    0.422
       198  -9.7477    199.1225     31.3329   6.7665366905e+01   3.2002532462e+01    0.3891917    0.2508819  78.57  0.001622376    1.459    0.314
       199 -10.9061    202.7372     37.8815   6.8811502445e+01   3.0260105784e+01    0.5359804    0.4165148  56.54  0.002118486    1.329    0.248
       200 -10.4011    210.0588     33.0169   6.6680911850e+01   2.9124483228e+01     0.389668    0.3188701  84.70  0.001378412    1.077    0.072
       201 -10.1470    231.7767     44.2416   6.6683214147e+01   2.2445053655e+01     0.359833    0.2203401  41.92  0.001169114    2.383    0.580
       202  -9.3772     67.2466     44.4630   1.0187546041e+02   5.9186145130e+01    0.2436705    0.1446342 -23.28  0.001267863    1.739    0.425
       203  -8.9862     62.9880    168.0221   1.3252090201e+02   3.3073746634e+01    0.2150827    0.1775648 -88.38 0.0007654273    1.048    0.046
       204  -8.6015    248.6516     44.6707   6.4916055218e+01   1.8577089195e+01    0.1216447     0.102359  34.17 0.0007049143    1.761    0.432
       205  -9.1435     27.6511    166.9971   1.4054175446e+02   3.7468142291e+01    0.3282223    0.1153072 -63.92  0.001485535    2.255    0.557
       206  -9.2036    214.6976     42.5428   6.8373787457e+01   2.6716729031e+01    0.2406431    0.2067041   4.57 0.0008573499    1.666    0.400
       207  -9.2355      9.0792    167.6708   1.4465968118e+02   3.9028988610e+01    0.1925582    0.1609139 -72.69 0.0008419593    1.238    0.192
       208  -9.9492     14.1630    165.3562   1.4334742428e+02   3.9111828052e+01    0.2768209    0.1986893  66.82  0.001831702    1.340    0.254
       209 -10.2680      2.5511    160.6078   1.4541709195e+02   4.1133380736e+01    0.4662534    0.1729116 -73.45  0.002199666    2.027    0.507
       210 -10.5948     16.9200    158.8550   1.4207534002e+02   4.0347068452e+01    0.3674326     0.270089 -40.63  0.002344864    1.771    0.435
       211 -10.6903    177.5068     31.4100   7.0762974654e+01   3.7326254573e+01    0.5191744    0.4606908 -43.60  0.001898231    1.230    0.187
       212 -11.0373    183.5462     27.2525   6.8756493557e+01   3.6341387554e+01    0.5125616    0.3136871  68.53   0.00163159    1.460    0.315
       213 -10.1446    182.8774     22.3222   6.7554692890e+01   3.7085794881e+01    0.3411288    0.2153506 -59.28  0.001124264    1.717    0.418
       214  -9.5340    196.9490     42.0189   7.0656992850e+01   3.1118745125e+01    0.2117209    0.1833321 -87.34 0.0003382001    1.041    0.039
       215 -10.0135    194.5762     31.1880   6.8237080661e+01   3.3136727923e+01     0.346272    0.2672063  -1.65    0.0012175    1.888    0.470
       216  -9.1040    190.8299     40.8116   7.1242696671e+01   3.2797836494e+01    0.3250515    0.2172515  -9.70  0.001273739    2.309    0.567
       217  -9.8383    193.0169     36.7988   6.9886357419e+01   3.2795366727e+01    0.3734442    0.2708735  87.02  0.001960289    1.345    0.256
       218 -10.3651    162.0432     39.6804   7.5668321250e+01   4.0088051001e+01    0.4568755    0.2321846 -33.50   0.00155025    2.107    0.525
       219  -9.3949     77.3649     41.4767   9.7393825753e+01   5.8029159144e+01     0.243808    0.2075292  57.81  0.001159671    1.560    0.359
       220  -8.2547      4.5371     41.3402   1.2512996814e+02   6.6217818849e+01    0.1090345   0.07745663 -31.62 0.0003720205    1.105    0.095
       221 -11.0691    107.0700     29.9407   8.4497645146e+01   5.3969697798e+01    0.9682045    0.4287108  53.89  0.001856133    2.148    0.534
       222  -8.8384    173.4649     38.9849   7.3486956872e+01   3.7356440429e+01    0.1922175    0.1743308 -72.77  0.000823636    1.109    0.098
       223  -9.9429    169.0282     37.4369   7.3800990059e+01   3.8659252223e+01    0.3612556    0.2724864 -52.90  0.001856385    1.409    0.290
       224  -8.4525    221.9759     35.9698   6.5942677240e+01   2.5884005933e+01    0.1642574    0.1395074 -78.97 0.0005384683    1.013    0.012
       225 -10.2439    246.6595     33.2661   6.2714974215e+01   2.0597108612e+01    0.5040708    0.2059609  60.89  0.001598019    2.435    0.589
       226 -10.8486    236.9068     32.2937   6.3485066916e+01   2.2912971347e+01    0.4878234    0.3675799  58.64  0.002752411    1.494    0.331
       227  -9.6656    242.1083     31.4788   6.2785498282e+01   2.1847960608e+01     0.219052    0.1875492  85.52 0.0007179374    1.166    0.142
       228  -8.8351    152.6783     45.9228   7.9291954164e+01   4.1525872131e+01    0.1921725    0.1810895 -39.91 0.0004706725    1.140    0.123
       229  -9.0825     10.1671    157.7355   1.4347569127e+02   4.1175473279e+01    0.2260141    0.1074087 -54.89 0.0007898908    2.024    0.506
       230  -9.4563     33.0755    156.2569   1.3803583666e+02   3.9409139665e+01     0.251465    0.1103272 -49.30 0.0007516096    2.511    0.602
       231 -12.0454     19.0543    147.9258   1.4036040016e+02   4.2668159289e+01    0.6897789    0.5336202 -60.13   0.00307918    1.251    0.200
       232 -11.0265     37.7340     28.1763   1.0683350784e+02   6.5529158187e+01    0.5565846    0.3911155   1.09  0.002282714    1.308    0.235
       233  -8.9246     23.1579    134.1595   1.3759284632e+02   4.5492395762e+01    0.1835077    0.1651069 -40.34 0.0008106515    1.326    0.246
       234 -11.0798     25.1716    128.4545   1.3625784174e+02   4.6636143730e+01    0.4945456    0.4187433   9.11  0.002966102    1.557    0.358
       235  -9.4815     28.1338    120.7730   1.3427561623e+02   4.8146696577e+01    0.3621556    0.1535819 -70.64 0.0009418195    2.157    0.536
       236  -8.3013     53.2961    151.6561   1.3247158903e+02   3.8222514576e+01    0.1391468   0.09204777  79.41 0.0006022144    1.667    0.400
       237 -10.2278     34.6854    150.2351   1.3687305773e+02   4.0654147007e+01    0.3078021    0.2042458 -70.97 0.0009808346    1.235    0.190
       238 -10.9392     39.0600    146.0788   1.3521902577e+02   4.1175468288e+01    0.5367959    0.3062499 -66.93   0.00198189    1.451    0.311
       239 -10.1160     66.9789    148.4513   1.2848986853e+02   3.7209110109e+01    0.3294572    0.2468554 -83.96  0.001419988    1.303    0.233
       240  -9.4536      1.4484    144.5923   1.4413653777e+02   4.4798790693e+01    0.4294325    0.1185422 -76.05  0.001730646    3.089    0.676
       241 -11.8481     28.1880     29.1088   1.1111865297e+02   6.6399313039e+01    0.6314334    0.3265593 -16.45  0.002678093    2.227    0.551
       242  -9.3920      5.3854    146.8352   1.4345473806e+02   4.4011684528e+01    0.3055048    0.1325362 -60.79  0.001556098    1.840    0.456
       243 -10.5489    226.7341     28.6932   6.3761389239e+01   2.5726375439e+01    0.5568586    0.2819295 -53.66  0.002260597    1.879    0.468
       244 -10.1392     48.9007     25.7347   1.0147445034e+02   6.4502530053e+01     0.378927     0.167593  33.48  0.001705664    2.241    0.554
       245  -9.0356     54.1393     25.0000   9.9205897483e+01   6.3888155738e+01    0.2228047    0.1243859  36.05  0.001274467    1.767    0.434
       246  -9.0241    193.3439     24.4987   6.6709370357e+01   3.4261125970e+01    0.2360853    0.1590638  23.93    0.0011309    2.385    0.581
       247 -10.0965      6.9195    142.9387   1.4268193210e+02   4.4779090158e+01    0.3858316    0.2331432  64.29  0.002160657    1.788    0.441
       248  -9.4548    241.3759     23.8374   6.1245742425e+01   2.3003722971e+01    0.2697214    0.1570319 -66.20 0.0005995528    1.597    0.374
       249  -8.8987     60.7714    147.4386   1.2991353988e+02   3.8284801868e+01    0.1683841    0.1368429  14.24 0.0009460403    1.653    0.395
       250 -10.4079     21.5041    138.5320   1.3859729949e+02   4.4624367981e+01     0.389227    0.2520402 -20.78   0.00213759    2.450    0.592
       251  -8.5474     46.1897    144.1602   1.3313042946e+02   4.0846435239e+01    0.1751473    0.1333182 -89.30 0.0002941597    1.251    0.200
       252  -9.3718     32.0899    141.2103   1.3628951604e+02   4.3029916706e+01    0.1804243    0.1510551 -59.78 0.0003544109    1.179    0.152
       253  -9.9344    213.8185     23.9892   6.4106450982e+01   2.9364989766e+01    0.5860716    0.3864991  24.83  0.002751216    2.817    0.645
       254 -10.5055    209.9437     18.7031   6.3306790685e+01   3.0923713848e+01    0.5897184    0.2302621  61.76  0.001875921    2.255    0.557
       255  -8.8992     80.6270    140.1671   1.2342091819e+02   3.7215750912e+01    0.2142236    0.1175768 -49.59 0.0009448552    1.757    0.431
       256  -9.4441     98.1399     22.2165   8.4070657011e+01   5.6681734479e+01    0.2148727    0.1961992  14.60 0.0008013392    1.089    0.082
       257  -8.1562    190.7500     17.6496   6.5314958657e+01   3.5685660676e+01    0.2044428    0.1176384  66.73 0.0007471352    1.509    0.337
       258  -8.5099    193.7227     16.2986   6.4609429295e+01   3.5111886544e+01    0.2032302    0.1508333  77.20  0.000469267    1.162    0.140
       259 -11.3468     56.0174    127.8077   1.2775652757e+02   4.3568353508e+01     1.162543    0.3312525 -49.58   0.00405243    3.245    0.692
       260  -9.4284    197.9121     17.0000   6.4278660808e+01   3.4016579267e+01    0.3232618    0.1576779  68.14  0.001530446    1.779    0.438
       261 -10.3396     54.6240    137.6286   1.2987880177e+02   4.1407125930e+01     0.366432    0.2547682 -45.90  0.001993245    1.490    0.329
       262  -9.2055     47.4520    137.5056   1.3175658646e+02   4.2282159357e+01    0.3080201    0.2006375  84.84  0.000945312    1.770    0.435
       263  -9.1689    178.6477     14.9115   6.6182975090e+01   3.8939513258e+01    0.2270949    0.1541044  59.85 0.0004823715    1.324    0.245
       264 -10.9800      6.4616    134.8945   1.4188973738e+02   4.6631793061e+01    0.6119711    0.3342457  22.90  0.003437713    2.417    0.586
       265 -11.3894     13.8516    130.9037   1.3954651787e+02   4.6996275508e+01    0.5451683     0.379981  73.68  0.002349841    1.533    0.348
       266  -9.9417     11.8940    125.1295   1.3929547766e+02   4.8454517423e+01    0.2287603    0.1969451  47.80 0.0009467173    1.404    0.288
       267 -11.0722     65.1963    130.4352   1.2571797253e+02   4.1765958333e+01    0.7108362    0.3716881  55.77  0.003042665    2.499    0.600
       268 -11.0350     67.4516    122.9201   1.2359676188e+02   4.3238691902e+01    0.7350385    0.3360328 -39.93  0.002861073    2.720    0.632
       269 -10.1753     65.7891    114.7242   1.2234526106e+02   4.5377909034e+01    0.5295032    0.2206444  46.83   0.00207948    2.960    0.662
       270 -10.5841     72.1367    128.7736   1.2347544077e+02   4.1198712896e+01    0.4836691    0.4114192  36.81  0.002778946    1.318    0.241
       271  -9.9068     74.6543    125.0736   1.2201394945e+02   4.1711222048e+01    0.5270332     0.280426  52.11  0.002272445    2.286    0.563
       272  -9.4885     45.0910    132.5085   1.3156556396e+02   4.3728639765e+01    0.2847179      0.17532 -65.15  0.001285843    1.371    0.271
       273  -9.0212     95.4418    130.6765   1.1747955059e+02   3.7073579423e+01     0.274641    0.1389882 -57.97 0.0008419661    1.931    0.482
       274 -10.8951     46.7912    121.0832   1.2909706524e+02   4.6222872058e+01    0.6546031    0.3230482  12.74  0.002056357    3.723    0.731
       275  -8.8308     50.6788    126.7067   1.2903439219e+02   4.4465023680e+01    0.2151369    0.1378079  23.27 0.0005021293    1.979    0.495
       276 -10.3073     47.5761    125.6765   1.2971027062e+02   4.5060910721e+01    0.4082457    0.1990009 -55.94  0.001947669    1.715    0.417
       277 -10.1289     38.8150    126.9500   1.3234465317e+02   4.5699198306e+01    0.2043436    0.1523659 -46.83  0.001216481    1.332    0.249
       278 -10.2983     18.8710    120.9340   1.3684317580e+02   4.8881776797e+01     0.491588    0.1836361 -49.98  0.001332659    2.363    0.577
       279 -10.3057     92.2927    120.9124   1.1614844159e+02   3.9906876728e+01    0.6517607    0.2150764 -47.23  0.002182687    2.907    0.656
       280  -9.7541     37.0526     98.2535   1.2750234972e+02   5.2420821611e+01    0.4954222     0.298068 -12.65  0.002472003    2.477    0.596
       281  -9.8609     23.7851    108.1589   1.3340973068e+02   5.1382094141e+01    0.8379139    0.4063292   0.50  0.003594596    4.004    0.750
       282 -10.2472     41.9288     80.5876   1.2184460873e+02   5.5726962585e+01    0.7736436    0.3890342 -21.30  0.003208616    3.304    0.697
       283 -10.2759     28.0293    102.0067   1.3102892479e+02   5.2404865344e+01    0.4528378    0.3365406 -84.03  0.002140008    1.463    0.316
