#   1 NUMBER                 Running object number                                     
#   2 MAG_AUTO               Kron-like elliptical aperture magnitude                    [mag]
#   3 X_IMAGE                Object position along x                                    [pixel]
#   4 Y_IMAGE                Object position along y                                    [pixel]
#   5 X_WORLD                Barycenter position along world x axis                     [deg]
#   6 Y_WORLD                Barycenter position along world y axis                     [deg]
#   7 A_WORLD                Profile RMS along major axis (world units)                 [deg]
#   8 B_WORLD                Profile RMS along minor axis (world units)                 [deg]
#   9 THETA_WORLD            Position angle (CCW/world-x)                               [deg]
#  10 FWHM_WORLD             FWHM assuming a gaussian core                              [deg]
#  11 ELONGATION             A_IMAGE/B_IMAGE                                           
#  12 ELLIPTICITY            1 - B_IMAGE/A_IMAGE                                       
         1 -14.7351    159.2157     52.0875   7.6781317271e+01   3.8908562725e+01     1.033465    0.9288027 -20.11  0.003394508    1.266    0.210
         2 -14.1509    174.4263     23.3131   6.6363114917e+01   3.8910454338e+01    0.7142068    0.4721324 -26.99  0.003864715    1.796    0.443
         3 -14.3622    168.7527     22.4951   6.6966826872e+01   4.0366408987e+01    0.7696618    0.5209039 -25.57  0.004216244    1.765    0.434
         4 -12.3273    189.6876     15.0041   6.2290090773e+01   3.6171281056e+01    0.1787545    0.1585211 -79.23 0.0008340835    1.107    0.096
         5 -14.7620    187.1621    242.0560   1.1417448004e+02  -3.8617344662e+00    0.7903701    0.3041583  40.43  0.003394014    2.272    0.560
         6 -16.9912     44.1606    150.9246   1.3211056700e+02   3.9540507501e+01     5.155856     2.386963 -51.26   0.02346172    2.060    0.515
         7 -10.7017     35.4593    244.4871   1.4379112880e+02   1.9522365389e+01    0.1206654   0.08372525  72.87 0.0005855853    1.085    0.078
         8 -12.1276     17.6640    187.8417   1.4260622759e+02   3.3617952905e+01    0.2796975    0.1714403 -70.75  0.001040829    1.370    0.270
         9 -11.0192     27.1113    225.5170   1.4387656214e+02   2.4370010412e+01    0.1697267    0.1178227  88.59 0.0004572203    1.142    0.124
        10 -12.3863      6.3416    221.9739   1.4736413113e+02   2.7316183950e+01    0.3096035    0.1104815 -75.35  0.001585474    2.266    0.559
        11 -13.0519    193.5184    170.4664   9.9507855078e+01   8.1601896492e+00    0.5920467    0.3245826 -56.87  0.001980868    2.311    0.567
        12 -11.3977    161.2678    236.7647   1.1849977837e+02   1.4782197190e+00      0.24345    0.1799807  59.79  0.000706912    1.473    0.321
        13 -12.2560    207.8159    220.3104   1.0641533188e+02  -3.8007887157e+00    0.2122466    0.1801122 -42.18 0.0006154092    1.323    0.244
        14 -11.5732    141.5773    236.8514   1.2250824758e+02   4.9014894559e+00    0.3279075    0.1928141  31.16 0.0008069469    1.842    0.457
        15 -12.7806    187.0647    154.5668   9.7383097970e+01   1.2795536758e+01    0.7124638    0.3599997  38.45  0.002734646    2.197    0.545
        16 -11.5915    191.7019    151.5873   9.5740809112e+01   1.2424295664e+01    0.2971834    0.2318089 -68.48 0.0008219971    1.517    0.341
        17 -12.0151     18.5699    153.8475   1.3890037475e+02   4.1407446007e+01    0.2844703    0.1574942 -47.18   0.00125651    1.973    0.493
        18 -13.7073    164.0708    152.6329   1.0200427584e+02   1.8175499622e+01    0.4438581    0.4032581  -9.72  0.001214774    1.244    0.196
        19 -12.7910    174.4195    148.8842   9.8826936814e+01   1.6746062914e+01    0.3879028    0.2975867 -63.85  0.001217758    1.450    0.310
        20 -11.8945     20.4212    147.9572   1.3772926340e+02   4.2630589778e+01    0.3949372    0.2103436 -28.40   0.00176908    3.358    0.702
        21 -19.1273     75.3992     92.7520   1.1091161324e+02   4.9032485648e+01      19.3335    0.7477046 -50.09    0.0249003   21.794    0.954
        22 -12.0927     13.0134    142.9397   1.3896277590e+02   4.4423534867e+01    0.2029722    0.1658136 -63.77 0.0003375901    1.147    0.128
        23 -19.9178     89.7977    213.0974   1.3007169744e+02   1.8518853667e+01     7.950293     6.731361  46.94   0.04258588    1.232    0.188
        24 -11.0771      9.5548    212.9468   1.4618520591e+02   2.8893163408e+01     0.161299   0.08880618 -78.38 0.0005201939    1.464    0.317
        25 -11.7014      8.6960    136.8749   1.3931412340e+02   4.6159224108e+01    0.3282698    0.1608959 -23.48   0.00141451    4.005    0.750
        26 -10.6851     17.0064    209.1813   1.4451476927e+02   2.8949855304e+01     0.212556    0.1245419 -59.36  0.001260415    1.849    0.459
        27 -13.1080     11.6226    206.1596   1.4530944936e+02   3.0146793717e+01    0.4579062    0.3156563  28.08  0.002775415    2.000    0.500
        28 -13.4576    160.2833    128.0321   9.7065999529e+01   2.4447168333e+01     0.505218    0.3602026 -56.98  0.001833974    1.472    0.321
        29 -12.9643     36.3316    117.3645   1.2869415456e+02   4.8363470376e+01    0.3209925    0.1941469 -51.80  0.001098738    1.404    0.288
        30 -11.2589    231.1603    113.8216   7.9788388647e+01   1.1378663359e+01    0.2449119    0.2211728 -61.57 0.0007505966    1.043    0.041
        31 -11.4744    167.9962    113.0019   9.1540858394e+01   2.5873780734e+01    0.2612338     0.193499 -81.25  0.001134675    1.750    0.429
        32 -14.1016    117.8757    109.1184   1.0285892536e+02   3.7847743796e+01    0.6267236    0.4247891  30.42  0.002790364    1.707    0.414
        33 -11.0189    205.6695    110.1509   8.3277691970e+01   1.7680910640e+01    0.2501565    0.2059643  74.36 0.0006291455    1.298    0.230
        34 -11.9031     15.7994    194.7110   1.4358571585e+02   3.2255392210e+01     0.184395    0.1404204 -74.39 0.0005365614    1.227    0.185
        35 -10.9677     31.6635    104.6747   1.2767517205e+02   5.1712619262e+01    0.1576578     0.121188  38.72  0.000960644    1.552    0.356
        36 -11.8413     34.8559    103.3808   1.2641209791e+02   5.1705892270e+01    0.2400761    0.1801998 -16.34 0.0009454469    1.560    0.359
        37 -11.3826     23.2485    191.5032   1.4177993452e+02   3.2226753116e+01    0.1946088    0.1440283 -75.13 0.0003882241    1.188    0.159
        38 -12.3358     51.9263     91.7116   1.1822584406e+02   5.2452438164e+01    0.2477435    0.2262554  -7.95 0.0006290092    1.150    0.131
        39 -13.7588    148.3793     65.8230   8.2956893979e+01   3.9391966833e+01    0.5336952    0.4373341  71.27 0.0009506678    1.262    0.207
        40 -11.2966     45.3542    246.9999   1.4224153982e+02   1.7790786216e+01    0.3392901    0.1457172  69.09  0.001628227    2.480    0.597
        41 -13.4906    163.4887     43.2556   7.3508127520e+01   3.9106271310e+01    0.4597772    0.4501507 -44.47 0.0007710096    1.140    0.123
        42 -11.2407     13.6423     59.9713   1.2362603125e+02   6.2469232411e+01    0.1657133    0.1183885 -45.96 0.0004350014    1.129    0.114
        43 -10.6543     23.8962     59.5197   1.1955444136e+02   6.1768391660e+01    0.1609071    0.1104599   9.47  0.001020008    1.577    0.366
        44 -10.4700    125.4631    246.1951   1.2701094984e+02   5.9239376936e+00    0.1530018    0.1175861  89.33 0.0005538383    1.474    0.322
        45 -11.2781     40.3098    245.2408   1.4299688043e+02   1.8775217204e+01    0.1541008   0.09755218  78.05 0.0005416779    1.292    0.226
