#   1 NUMBER                 Running object number                                     
#   2 MAG_AUTO               Kron-like elliptical aperture magnitude                    [mag]
#   3 X_IMAGE                Object position along x                                    [pixel]
#   4 Y_IMAGE                Object position along y                                    [pixel]
#   5 X_WORLD                Barycenter position along world x axis                     [deg]
#   6 Y_WORLD                Barycenter position along world y axis                     [deg]
#   7 A_WORLD                Profile RMS along major axis (world units)                 [deg]
#   8 B_WORLD                Profile RMS along minor axis (world units)                 [deg]
#   9 THETA_WORLD            Position angle (CCW/world-x)                               [deg]
#  10 FWHM_WORLD             FWHM assuming a gaussian core                              [deg]
#  11 ELONGATION             A_IMAGE/B_IMAGE                                           
#  12 ELLIPTICITY            1 - B_IMAGE/A_IMAGE                                       
         1 -14.5115    137.9166     72.0798   9.3841547732e+01   4.0669863660e+01     2.453072     1.744571  25.28   0.01105629    1.713    0.416
         2 -15.6061    137.4290    105.1609   1.0362081507e+02   3.4272492829e+01     3.943124     3.015923 -86.82   0.01795305    1.764    0.433
         3 -15.3809     26.9908     90.8695   1.3258536443e+02   5.4663083183e+01     3.750421     1.909055 -74.02   0.01881606    1.924    0.480
         4 -13.8330     50.1272     98.2432   1.2676683436e+02   5.0703826680e+01     1.601282    0.8652086 -52.10  0.008052735    1.594    0.373
         5 -13.9518     61.8083     43.9326   1.0709826424e+02   6.0560575511e+01     2.285417     1.349425  -8.04   0.01020374    2.607    0.616
         6 -13.7513     72.7110     50.9500   1.0576336129e+02   5.7625052234e+01     1.805371    0.7223657 -42.05  0.007463811    2.295    0.564
         7 -13.2672     82.8579     51.1454   1.0239184323e+02   5.5882693802e+01      1.48691     0.840688 -36.01   0.00707547    1.668    0.400
         8 -12.3926     57.1511      6.1032   9.2224036325e+01   6.6874800099e+01    0.6158981    0.3901473  11.11  0.003535083    1.608    0.378
         9 -11.3274     85.3454    109.6331   1.1879387973e+02   4.3258138418e+01     0.452823    0.3204375 -53.99  0.002322177    1.305    0.234
        10 -11.4597     93.7432    247.5295   1.3688069906e+02   1.3525797683e+01    0.3710838    0.2249091  81.50   0.00231448    1.880    0.468
        11 -11.8866     73.1544    243.6301   1.4009381102e+02   1.6991292887e+01    0.3515982    0.1914482  73.80  0.002131025    1.868    0.465
        12 -11.0281     61.3485    248.7118   1.4245287460e+02   1.7673712487e+01    0.3469765    0.1171525  50.36  0.001852038    2.187    0.543
        13 -11.2679    203.0865    228.4156   1.1487931047e+02  -9.1256121096e-01    0.2392434    0.1647378 -39.82  0.001486889    1.768    0.434
        14 -11.1799     55.9054    227.0415   1.4181316873e+02   2.2109744585e+01    0.3193761    0.1904912  60.70  0.002092179    1.333    0.250
        15 -11.6916    108.2202    213.1552   1.3065182424e+02   1.7276190255e+01    0.5959007    0.3565724 -63.14  0.003355171    1.855    0.461
        16 -11.5152    121.8274    210.3939   1.2762295702e+02   1.5589887321e+01    0.4570169    0.2421145 -40.34  0.002147652    2.817    0.645
        17  -9.8581    134.2939    215.3484   1.2583493817e+02   1.2644741844e+01    0.1182516   0.09772319   4.98 0.0004046791    1.673    0.402
        18 -15.7819     72.6817    193.0049   1.3546510748e+02   2.6482189857e+01     2.716191     1.794008  63.32   0.01615867    1.363    0.266
        19 -10.6613    175.6169    200.6387   1.1549875390e+02   7.8817877421e+00    0.3169116    0.2068506 -23.51  0.001617329    2.027    0.507
        20  -9.8561    152.8169    199.3920   1.1981529223e+02   1.2212310324e+01    0.1935269     0.113787  34.12  0.000944798    1.703    0.413
        21 -10.2610    188.6046    198.1841   1.1256415564e+02   5.9216699673e+00    0.1786288    0.1222942 -24.44 0.0007706995    1.716    0.417
        22  -9.8745    131.4622    193.4750   1.2326279222e+02   1.7090802018e+01    0.1338869    0.1174692  57.93 0.0001864518    1.022    0.021
        23 -10.4362    248.5064    192.4812   1.0073890809e+02  -3.6432419995e+00    0.1260144    0.1023075   6.78 0.0002613775    1.011    0.011
        24 -11.2315     37.5991    187.2533   1.4205931752e+02   3.2033128298e+01    0.4023722     0.230504 -62.22  0.002408443    1.780    0.438
        25 -14.3471     94.1349    190.4041   1.3067226733e+02   2.3878130400e+01     1.476129     1.062754  77.07  0.008570815    1.394    0.282
        26 -11.1379    139.9534    188.3112   1.2067239091e+02   1.6557761101e+01    0.4187456    0.2075312 -51.10  0.001900503    2.222    0.550
        27 -12.2240    152.6657    210.9573   1.2162583112e+02   1.0253987126e+01    0.7535554    0.3966952  52.30    0.0036802    1.865    0.464
        28 -11.7822      9.7637    187.0993   1.4749674496e+02   3.4844940519e+01    0.3758651     0.290144  74.58  0.002887004    1.100    0.091
        29 -11.8397    205.4124    185.4382   1.0703347048e+02   4.8420673976e+00    0.5494722     0.442641  17.71  0.003229873    1.179    0.152
        30 -10.8683    130.2554    184.5699   1.2211975695e+02   1.9022625276e+01    0.4133334    0.2714576  56.19  0.002124144    1.498    0.332
        31 -10.4594    120.6474    181.5229   1.2370366961e+02   2.1324070544e+01    0.2383774    0.2188267 -66.09  0.001464035    1.170    0.145
        32 -11.6141    166.9351    178.7694   1.1337081142e+02   1.3277901374e+01    0.5204435    0.4009713 -45.07  0.002331936    1.413    0.292
        33 -11.8732     19.3965    178.3633   1.4501083951e+02   3.5754492488e+01     0.514539    0.1826237 -74.93  0.002561032    2.342    0.573
        34 -10.3348    131.3948    178.4449   1.2086564086e+02   2.0030320879e+01    0.3139082    0.2205231  -4.20  0.001384897    2.702    0.630
        35 -11.2794     98.3102    173.4800   1.2739982120e+02   2.6750997529e+01    0.3885477    0.2712505  41.51  0.001554563    1.425    0.298
        36 -10.8151    195.7629    173.2062   1.0649557723e+02   8.6515370321e+00    0.2696063    0.2408734 -32.17  0.001586967    1.189    0.159
        37 -10.1267    191.5077    207.9777   1.1369334030e+02   3.9002325498e+00    0.1791974    0.1273162 -37.87   0.00103494    1.599    0.374
        38 -11.2818    107.7488    171.2477   1.2492691315e+02   2.5669948298e+01    0.4957894    0.3647093  61.54  0.002702657    1.328    0.247
        39 -10.5197    116.6492    171.7302   1.2300093405e+02   2.4036999857e+01     0.253288    0.1715546  31.16  0.001261795    1.698    0.411
        40 -10.8444     26.7841    169.1387   1.4272560376e+02   3.6998595273e+01    0.2774689    0.1872766 -73.74  0.001809682    1.293    0.227
        41 -10.7334    215.7165    168.4107   1.0173409159e+02   5.5867793952e+00    0.3115996    0.2489201  62.81  0.001702251    1.628    0.386
        42 -11.1836    148.0866    166.8581   1.1513731656e+02   1.9200967980e+01    0.3332375    0.2856584  74.89  0.001700023    1.271    0.213
        43 -10.1381    140.4368    168.6900   1.1716311018e+02   2.0306508913e+01    0.2504413    0.1394169 -54.66  0.001113969    1.962    0.490
        44 -10.9083    125.3506    167.3424   1.2028902560e+02   2.3397858278e+01    0.3620009    0.2297679 -44.16  0.001748269    1.765    0.434
        45 -10.1166     86.2385    168.2309   1.2936182583e+02   2.9773766151e+01    0.1901772    0.1409505  75.35  0.001060148    1.342    0.255
        46 -10.7117    217.9882    205.2166   1.0835870928e+02  -2.8063846366e-01    0.2224471    0.1797535 -17.30  0.001417077    1.266    0.210
        47 -10.7640    175.5403    167.2110   1.0935574441e+02   1.3698611494e+01    0.4489504    0.2503777  45.69  0.002022138    1.701    0.412
        48 -11.3607    176.0076    163.2712   1.0845995252e+02   1.4329115442e+01    0.3342439    0.2810288 -27.93  0.001676599    1.264    0.209
        49 -11.0058    201.6970    164.3150   1.0353020286e+02   8.9847835043e+00    0.3302176    0.2837804  59.40  0.001854249    1.351    0.260
        50 -11.9001    197.4679    160.1603   1.0347942383e+02   1.0540599674e+01     0.975684    0.4159994  36.21  0.003658147    2.614    0.617
        51 -11.1009     88.9411    163.5962   1.2804551021e+02   3.0377521001e+01     0.458713    0.2656871  59.70  0.002199015    1.857    0.462
        52 -11.9719    102.6301    157.7444   1.2387313373e+02   2.9458074101e+01    0.7489089    0.2808567 -51.26  0.002873505    2.694    0.629
        53 -12.0506     58.5510    160.5852   1.3471095015e+02   3.5323025113e+01     0.392426    0.3682377  59.63  0.002666747    1.238    0.192
        54 -10.7285    230.0037    159.9971   9.7403179188e+01   4.1901350000e+00    0.3375319    0.1907869  57.85  0.001488523    2.465    0.594
        55 -10.7908     91.6814    158.1096   1.2653552558e+02   3.1164956604e+01     0.358974    0.2165585  50.46  0.001778613    1.627    0.385
        56 -10.0211     90.4944    154.4858   1.2622604064e+02   3.2162677500e+01    0.2096311    0.1270113 -73.04 0.0002321239    1.778    0.437
        57 -12.1454     19.5863    154.1241   1.4294847064e+02   4.0946738650e+01    0.6006497    0.3662071  82.89  0.003673506    1.445    0.308
        58 -11.6058     13.9914    145.3833   1.4341738364e+02   4.3355731322e+01     0.435304     0.284328  84.82  0.002796508    1.300    0.231
        59 -10.5772    188.0079    154.5290   1.0415758171e+02   1.3471575728e+01    0.2878358    0.2059662 -55.42  0.001391244    1.680    0.405
        60 -11.3722    179.0496    152.9919   1.0566304163e+02   1.5615399091e+01    0.3054222    0.2075473 -40.13  0.001094148    1.520    0.342
        61 -11.8442    114.6521    147.8749   1.1918270591e+02   2.9534043764e+01    0.5288314    0.3655246  82.95  0.002439355    1.924    0.480
        62 -11.4794    104.8407    148.2507   1.2164186966e+02   3.1189761522e+01    0.6275543    0.3130586  34.61  0.002609852    2.289    0.563
        63 -12.6437    106.8102    142.3026   1.2001988303e+02   3.2178733271e+01     0.841809    0.5679091  47.84  0.004166536    1.479    0.324
        64 -10.9182    126.7576    150.5078   1.1680505262e+02   2.6707361507e+01    0.3636859    0.3044621 -39.87  0.001950664    1.310    0.237
        65 -12.3218    248.4790    148.2069   9.1762047332e+01   2.5290583217e+00    0.7130316    0.4364612 -15.00  0.003517983    1.781    0.439
        66  -9.9793      2.4809    151.5034   1.4653329656e+02   4.2911878806e+01    0.1135569   0.08538853 -87.01 6.917752e-05    1.039    0.038
        67 -10.1493     61.0471    150.5059   1.3276388180e+02   3.7282046258e+01    0.1892297    0.1245613  39.94  0.001040645    1.613    0.380
        68 -11.2164    138.4742    144.2344   1.1275304808e+02   2.5755844288e+01    0.5216786    0.4298207   2.66  0.002627236    1.577    0.366
        69 -10.7378     81.4929    145.9864   1.2701595469e+02   3.5474114365e+01    0.3287357    0.1683323 -79.60 0.0009249118    2.797    0.642
        70 -10.4370     82.7182    141.9655   1.2601790825e+02   3.6210759834e+01    0.3012007      0.21687  11.81  0.001482519    2.139    0.533
        71  -9.9502      3.3143    145.6497   1.4588885017e+02   4.4121743075e+01    0.1215812   0.06612912  71.50 0.0007046609    1.727    0.421
        72 -12.6441    129.4121    239.9635   1.2980155935e+02   9.3998236419e+00    0.6212966    0.3095526  64.05   0.00290554    2.867    0.651
        73 -12.8560    121.9122    237.2394   1.3085479664e+02   1.0997824176e+01    0.4745969    0.2976258 -57.78  0.002937144    1.925    0.481
        74 -10.4389     52.9733    133.6837   1.3232260511e+02   4.2152258095e+01    0.3065878    0.1704085 -65.99  0.001566444    1.568    0.362
        75 -11.7573    186.4722    131.6125   9.9264898069e+01   1.8029124352e+01     0.742828    0.4099185  25.46  0.002655756    2.892    0.654
        76 -10.7516    111.7152    130.9067   1.1643290043e+02   3.3854544396e+01    0.2760874    0.2584375   4.81  0.001285928    1.243    0.195
        77 -12.2766    245.5111    128.3381   8.7834054979e+01   6.0981115336e+00    0.4513101    0.3616076 -36.97  0.002568539    1.206    0.171
        78  -9.6434    116.2543    138.3378   1.1686964897e+02   3.1352013535e+01    0.1410098    0.1140206 -23.46 0.0005790275    1.572    0.364
        79 -10.8494    117.1748    126.8765   1.1414541837e+02   3.3729112625e+01    0.5261023    0.2473426 -54.25  0.002045152    2.177    0.541
        80 -11.1135    233.5172    127.3774   8.9554203544e+01   8.6515448548e+00    0.3685072    0.2780715  65.87  0.001905358    1.687    0.407
        81 -10.9143    209.8856    122.7927   9.2596659076e+01   1.4443170675e+01    0.5569108    0.3017713 -52.53  0.002202502    2.349    0.574
        82 -10.6031    198.7105    121.7099   9.4435035095e+01   1.7119033152e+01    0.3386514    0.2113624 -30.85  0.001398216    1.639    0.390
        83 -10.4739    106.2604    116.1463   1.1452059029e+02   3.8180227472e+01    0.3507282     0.225143  33.28  0.001322401    1.774    0.436
        84 -10.6443     97.4991    120.4959   1.1788091234e+02   3.8754146998e+01    0.2599448    0.2333308 -28.94  0.001155046    1.252    0.202
        85 -12.0386     99.6545    116.0502   1.1628651355e+02   3.9390209944e+01    0.5517842    0.4837799 -21.60  0.002749152    1.325    0.246
        86 -13.2239    186.1697    111.9328   9.4453137183e+01   2.1773736076e+01     1.343221     1.118018   4.08  0.006677219    1.391    0.281
        87 -11.0044     66.0199    117.2056   1.2590875748e+02   4.4345184601e+01    0.4066629    0.2509561 -62.53  0.002063891    1.460    0.315
        88 -11.8510     84.5427    237.2269   1.3757636767e+02   1.6523279644e+01    0.2002004    0.1454327  69.01  0.001395839    1.161    0.139
        89 -10.8392    219.7428    110.2865   8.7793191134e+01   1.4398222094e+01      0.35505    0.2285781 -16.76  0.001572615    1.854    0.461
        90 -10.5905    106.3953    109.8934   1.1297002014e+02   3.9555555117e+01    0.3053929    0.2587402 -26.97  0.001427142    1.317    0.241
        91 -13.4943     47.7004     83.6223   1.2427179885e+02   5.4281214826e+01     1.172154    0.8365184 -60.58  0.006774794    1.244    0.196
        92 -10.8036    144.0608    234.9943   1.2654050904e+02   7.8380439028e+00    0.2932341    0.1766714  43.41  0.001725816    1.338    0.252
        93 -12.2381    242.0042    108.0042   8.3657749713e+01   9.9697604901e+00    0.4483214    0.2531085 -46.82  0.002037916    1.841    0.457
        94 -10.3238     88.1318    134.0610   1.2317682933e+02   3.7189264509e+01    0.2994331    0.2048177 -24.58  0.001362493    2.300    0.565
        95 -11.4072    107.4942    103.2687   1.1098563236e+02   4.0816026124e+01    0.3802477    0.2621863  19.27  0.001688505    2.006    0.501
        96 -10.8404    211.2814     95.5934   8.5536581032e+01   1.8793840728e+01    0.3997402     0.188512 -43.70  0.001553443    2.101    0.524
        97 -11.2528    237.5089    117.4877   8.6595567360e+01   9.4089937156e+00    0.3189849    0.2233919  22.95  0.001572662    1.721    0.419
        98 -11.9689    153.3967     89.5997   9.5442203597e+01   3.3747868136e+01    0.8912964    0.5158827 -57.53  0.003416692    2.255    0.557
        99 -11.8256     94.4842     88.2022   1.1063352179e+02   4.6486263128e+01    0.6209319    0.4054112 -48.15  0.002979415    1.441    0.306
       100 -12.5328    104.4611     86.0127   1.0708353555e+02   4.5103926484e+01    0.6665427    0.5899842   5.98   0.00361522    1.250    0.200
       101 -13.0940    105.6264     77.7516   1.0426659331e+02   4.6572965805e+01     1.335137     0.681987  51.88  0.005394046    2.257    0.557
       102 -13.2574    101.7790     69.7729   1.0287025077e+02   4.8902670506e+01     1.791967    0.7424447  43.36  0.006822477    2.516    0.602
       103 -11.0645     82.5192     85.5662   1.1352898688e+02   4.9089901441e+01    0.4887303    0.3600723  22.49  0.002521836    1.607    0.378
       104 -11.3085     71.5053    133.9171   1.2750280741e+02   3.9704322109e+01    0.3912194    0.3320305  40.10  0.002332481    1.306    0.234
       105 -11.3166    247.0002     75.5989   7.5186556256e+01   1.3837760404e+01    0.4394245    0.2563513 -17.35   0.00195448    2.127    0.530
       106 -10.8105     61.5209     72.8587   1.1676481477e+02   5.4927940659e+01     0.238674    0.1946759  29.53  0.001409815    1.373    0.272
       107 -10.4886    235.0014     69.5158   7.5261941957e+01   1.7409301599e+01    0.2000102    0.1193186 -82.54   0.00081029    2.598    0.615
       108 -10.6852     58.7157     68.2488   1.1638719830e+02   5.6268852090e+01    0.2634093    0.1972394 -27.33  0.001493139    1.353    0.261
       109 -12.4265    170.6673     63.6178   8.4027787455e+01   3.4100675548e+01    0.5559399    0.4344484 -77.03  0.002654989    1.538    0.350
       110 -12.3975    249.7225     47.3326   6.8093108918e+01   1.7196640160e+01    0.8967682    0.2973165 -27.81  0.003233848    3.185    0.686
       111 -11.0047     73.4395    233.2171   1.3919856492e+02   1.8736076488e+01    0.1909783   0.09986882 -65.37  0.001138256    2.077    0.519
       112 -12.6910     13.5102    228.3656   1.4911154560e+02   2.6616651794e+01    0.5992212    0.3497712  57.65  0.004422585    1.300    0.231
       113 -10.7417    130.3839    231.8220   1.2867379165e+02   1.0535587057e+01    0.1507166    0.1134041 -43.37  0.000958934    1.734    0.423
       114 -12.2412    250.0000     57.3414   7.0444155968e+01   1.5782066192e+01     1.003391    0.1616931 -32.90  0.002831194    4.782    0.791
       115 -11.5860    129.1160     55.9988   9.0752521770e+01   4.5514797424e+01    0.5154856    0.3938812  22.95  0.002524717    1.474    0.321
       116 -12.3789      6.3568     49.5917   1.3118137289e+02   6.5009575537e+01    0.8250288    0.3496355 -34.98  0.004268582    2.351    0.575
       117 -10.0611    120.1891     47.8028   9.0165749317e+01   4.8879645447e+01    0.2082369    0.1672773  17.74 0.0008941594    1.337    0.252
       118 -13.8217    149.5791    131.7478   1.0736103216e+02   2.6079474936e+01     1.614326     1.062024  36.02   0.00723341    1.632    0.387
       119 -11.1405    126.4018     42.2032   8.6598928404e+01   4.8297762014e+01    0.3757101    0.2273525 -41.95  0.001703701    1.753    0.429
       120 -10.2797    113.4418     42.2870   8.9936211658e+01   5.1235424520e+01    0.2704728    0.1396178 -26.61  0.001129346    2.060    0.515
       121 -10.9429     86.6132    117.3039   1.2015746096e+02   4.1295115687e+01    0.2731753    0.2351338 -46.21 0.0008913649    1.168    0.144
       122 -11.6446     81.3723    231.5817   1.3763789753e+02   1.7939349660e+01    0.2093707    0.1584186  76.94  0.001407503    1.175    0.149
