#   1 NUMBER                 Running object number                                     
#   2 MAG_AUTO               Kron-like elliptical aperture magnitude                    [mag]
#   3 X_IMAGE                Object position along x                                    [pixel]
#   4 Y_IMAGE                Object position along y                                    [pixel]
#   5 X_WORLD                Barycenter position along world x axis                     [deg]
#   6 Y_WORLD                Barycenter position along world y axis                     [deg]
#   7 A_WORLD                Profile RMS along major axis (world units)                 [deg]
#   8 B_WORLD                Profile RMS along minor axis (world units)                 [deg]
#   9 THETA_WORLD            Position angle (CCW/world-x)                               [deg]
#  10 FWHM_WORLD             FWHM assuming a gaussian core                              [deg]
#  11 ELONGATION             A_IMAGE/B_IMAGE                                           
#  12 ELLIPTICITY            1 - B_IMAGE/A_IMAGE                                       
         1 -13.9273      2.3676     82.9270   1.3763585606e+02   5.6710933127e+01     2.611162    0.3605959 -74.35  0.008342134    5.131    0.805
         2 -14.6286      3.1643    136.0782   1.4178554598e+02   4.5235677703e+01     3.382878    0.7443122 -81.81   0.01339648    4.058    0.754
         3 -13.6478    198.1041     27.3595   6.7273937656e+01   3.2106676149e+01     2.024329     1.452109  16.17  0.007723168    1.566    0.361
         4 -13.4871    213.3293      8.1130   5.9538060881e+01   3.0144728317e+01     1.081169     0.910085  39.44  0.004143028    1.238    0.192
         5 -11.0097      3.7713      3.5948   1.1955889648e+02   7.3763301213e+01    0.3731621    0.2107324 -31.86  0.002341774    1.541    0.351
         6 -11.4775     19.8158    243.0861   1.4369752158e+02   2.5129671073e+01    0.2866859   0.09629887  61.82  0.001870269    2.270    0.559
         7 -12.4765    238.5932    247.5590   1.0985253130e+02  -3.0364128722e+00    0.5539649    0.2755634  37.25  0.003764945    1.491    0.329
         8 -12.0423    245.0089    246.4930   1.0875311243e+02  -3.8029427820e+00    0.4454831    0.2714719   0.71   0.00331736    1.619    0.382
         9 -11.0872     46.5619    249.3175   1.4001149724e+02   2.1649562225e+01    0.3287385    0.1299932  50.59  0.001913228    1.715    0.417
        10 -11.3432     49.9562    245.1695   1.3930267274e+02   2.1876605409e+01    0.3516084    0.1845583  30.76  0.002413675    2.344    0.573
        11 -10.5895     28.7286    249.9746   1.4265273737e+02   2.3324763828e+01    0.2053114    0.1191459  52.17  0.001073743    1.198    0.166
        12 -12.1327     34.4132    246.1496   1.4167244873e+02   2.3311826967e+01     0.465901    0.3069112  85.97  0.004169019    1.422    0.297
        13 -11.5814     11.8913    249.1232   1.4502497314e+02   2.4987768073e+01    0.4155918    0.1734662  32.07  0.002828398    2.784    0.641
        14 -10.2949      3.3304    249.3217   1.4622524229e+02   2.5699836821e+01    0.1985628    0.1166759  44.87   0.00152613    1.436    0.304
        15 -10.6338      2.5194    246.4829   1.4626585565e+02   2.6165897424e+01    0.1648392    0.1197949  80.72   0.00151378    1.302    0.232
        16 -10.9857     22.4561    237.3239   1.4310124640e+02   2.5721773688e+01    0.2012482    0.1304059 -57.91  0.001636674    2.355    0.575
        17 -11.9346     12.4203    240.3116   1.4468154691e+02   2.6193766847e+01    0.2275107    0.1887009 -55.42  0.002072621    2.049    0.512
        18 -12.9125     47.2925    216.2929   1.3816908631e+02   2.6493331248e+01    0.6941342    0.5593386 -84.25  0.004794973    1.354    0.261
        19 -12.9908     32.4110    234.2042   1.4146794118e+02   2.5237298358e+01    0.2341641    0.1997197  87.33 0.0007975414    1.412    0.292
        20 -14.0704     37.1004    227.7863   1.4044290549e+02   2.5741882580e+01    0.7518253    0.4093037  54.95   0.00238234    1.326    0.246
        21 -11.1190    170.7332    247.0378   1.2032705332e+02   6.3990839294e+00    0.2011606    0.1701315 -56.90  0.001681543    1.750    0.429
        22 -12.2196    139.8378    248.2768   1.2539665666e+02   1.0522628740e+01    0.3822282    0.3013619  69.06  0.003143292    1.483    0.326
        23 -12.5312    123.5568    231.9975   1.2650485505e+02   1.4796217938e+01     1.002713    0.1236115  39.93  0.003100193    6.431    0.844
        24 -13.4110     99.6472    229.3705   1.3028961482e+02   1.8337638847e+01     1.915602   0.03617994  45.32   0.00520566    8.785    0.886
        25  -9.8957     54.3913    229.1528   1.3775063647e+02   2.3738867782e+01    0.2199763    0.0941627  59.59  0.001205738    1.971    0.493
        26 -10.1538    173.7148    222.5204   1.1691393791e+02   8.7559331083e+00    0.2664966    0.1709591  55.26  0.001687094    1.780    0.438
        27 -11.6952     58.1678    212.5679   1.3608353359e+02   2.5914892254e+01     1.294392    0.1902439  52.62  0.003743256    8.709    0.885
        28 -10.6820     59.2184    207.7005   1.3556424738e+02   2.6592475703e+01    0.3185861    0.1259795  55.53  0.001522088    2.190    0.543
        29  -8.7429     92.2210    214.2869   1.3026170632e+02   2.1544415284e+01    0.1766254   0.09417135  65.34  0.001042469    2.049    0.512
        30  -8.1484    221.6980    213.7074   1.0764505102e+02   2.4366444970e+00    0.1157711   0.06921759  18.02 0.0002461896    1.571    0.363
        31  -8.8751    152.5279    213.0475   1.1938873885e+02   1.3177911750e+01    0.1323046    0.1149076 -49.01 0.0003540537    1.458    0.314
        32 -12.3038     10.1573    207.0090   1.4387783894e+02   3.1539670285e+01    0.5317955    0.3017741  33.42  0.003176431    1.937    0.484
        33 -11.7629     59.3887    200.0299   1.3497567366e+02   2.7859573334e+01    0.2110313    0.1840529  78.04 0.0005632635    1.198    0.165
        34 -10.9473     98.9555    248.9029   1.3194851325e+02   1.5756417009e+01    0.2423233    0.1896997  -9.02  0.001814724    2.518    0.603
        35 -11.5008    198.9771    248.1029   1.1598735174e+02   2.3368346621e+00    0.2933702    0.2085248  55.65   0.00213579    1.896    0.472
        36 -13.1696     62.9818    176.6410   1.3233528817e+02   3.1621972130e+01    0.4051116    0.2445743 -47.53  0.001586142    2.275    0.560
        37 -10.8613     76.5014    178.3358   1.2978387473e+02   2.9662848944e+01    0.2028309    0.1742744  66.33 0.0002927481    1.054    0.051
        38  -9.5720     97.4299    174.3170   1.2506278748e+02   2.7597769302e+01    0.2234358    0.1561431  60.92 0.0007850947    1.356    0.262
        39 -12.0173     84.5325    168.8355   1.2708111265e+02   3.0393956109e+01    0.6494737    0.5471687  33.67  0.004469451    1.340    0.254
        40 -10.5487     12.7968    196.1242   1.4299381400e+02   3.3145831828e+01    0.3279476    0.1067567  49.69   0.00185398    2.223    0.550
        41 -10.3219     96.8645    153.2550   1.2235029672e+02   3.1680016017e+01    0.2752267     0.244892  69.66  0.000806293    1.024    0.024
        42  -9.4926     99.9083    148.8455   1.2100167275e+02   3.2100180678e+01    0.2230293    0.1972878 -23.96 0.0003683969    1.431    0.301
        43 -12.0639     85.4458    152.2485   1.2477174299e+02   3.3502815560e+01    0.2554558    0.2214476 -49.02   0.00107323    1.339    0.253
        44 -12.1104     67.4439    143.5218   1.2773995424e+02   3.7631885780e+01    0.6004996    0.3440183  61.10  0.002663195    1.856    0.461
        45 -10.0851    109.2580    137.5844   1.1696810131e+02   3.2896557173e+01    0.3849378    0.2713904 -12.48  0.001646633    2.423    0.587
        46 -10.5165     96.0422    135.2387   1.1970848605e+02   3.5445305807e+01    0.2101798    0.1884153 -49.55 0.0003072537    1.202    0.168
        47 -12.0417     65.9515    191.4185   1.3307132277e+02   2.8593836748e+01    0.2183645    0.1925043  89.10 0.0004181442    1.215    0.177
        48 -10.8778     30.0541    130.8558   1.3516244155e+02   4.4255812251e+01    0.2719539    0.1699465  62.42 0.0006165837    1.535    0.348
        49  -8.5174     79.4561    131.5129   1.2314312718e+02   3.8608445397e+01    0.1280072    0.1119926  83.98 0.0008080512    1.065    0.061
        50  -8.9364    115.2991    130.0207   1.1412431599e+02   3.3422412399e+01    0.2143215   0.09665096 -34.15 0.0007022181    4.093    0.756
        51 -11.8574     21.3061    126.2018   1.3683076984e+02   4.5980878654e+01     0.439353    0.1990827  51.81  0.001586835    2.191    0.544
        52  -8.9922    106.3433    124.1573   1.1516510476e+02   3.6125800697e+01    0.1747129    0.1580884 -72.23 0.0003355657    1.094    0.086
        53  -8.7919    167.9785    113.0022   9.8167440846e+01   2.6470959947e+01    0.2239001    0.1837676 -79.14 0.0008987698    1.705    0.413
        54  -8.9055     41.2120     96.3903   1.2781561754e+02   5.0848881535e+01    0.1581179    0.1065399  48.78 0.0004303237    1.636    0.389
        55 -10.8002      2.3416    182.4188   1.4424781182e+02   3.6397915095e+01    0.2263752    0.1452168  74.37  0.001219447    1.142    0.124
        56 -10.5263    158.2807     76.3114   9.0227404829e+01   3.5113450251e+01      0.27542    0.2301366  15.47 0.0007395034    1.253    0.202
        57 -13.8506      4.0007    113.9667   1.4005684771e+02   4.9820632726e+01     1.586271    0.6606616 -79.48  0.008750349    1.879    0.468
        58 -11.8125    154.2207    248.7235   1.2314191354e+02   8.5069245109e+00    0.3859815    0.1375652  41.86  0.002156215    2.015    0.504
        59 -11.1533    122.3813    249.3205   1.2827575894e+02   1.2720320380e+01    0.2737096   0.09614275  39.56  0.001527553    2.160    0.537
        60 -10.5649      3.5001     20.9926   1.2592067500e+02   7.0272221511e+01      0.17102    0.1384238 -41.27  0.001256891    1.156    0.135
        61 -13.4781     10.3841    157.5010   1.4152555980e+02   4.0429950470e+01     4.022988     1.082087  73.35   0.01228042    7.781    0.871
