#   1 NUMBER                 Running object number                                     
#   2 MAG_AUTO               Kron-like elliptical aperture magnitude                    [mag]
#   3 X_IMAGE                Object position along x                                    [pixel]
#   4 Y_IMAGE                Object position along y                                    [pixel]
#   5 X_WORLD                Barycenter position along world x axis                     [deg]
#   6 Y_WORLD                Barycenter position along world y axis                     [deg]
#   7 A_WORLD                Profile RMS along major axis (world units)                 [deg]
#   8 B_WORLD                Profile RMS along minor axis (world units)                 [deg]
#   9 THETA_WORLD            Position angle (CCW/world-x)                               [deg]
#  10 FWHM_WORLD             FWHM assuming a gaussian core                              [deg]
#  11 ELONGATION             A_IMAGE/B_IMAGE                                           
#  12 ELLIPTICITY            1 - B_IMAGE/A_IMAGE                                       
         1 -14.0808    247.0620     34.9274   1.4646375909e+01   1.9784850847e+01     1.163498    0.1871182 -33.94  0.003482416    4.788    0.791
         2 -15.0273    245.4430      7.9258   8.7650731857e+00   2.3433048979e+01     1.696263     1.117514 -50.66   0.01006396    1.324    0.245
         3 -13.9656     11.7076     23.7655   7.1642182908e+01   6.9525008823e+01    0.7943452    0.2581256 -36.11  0.003712075    2.687    0.628
         4 -12.2677     13.2104     12.7267   6.6485547118e+01   7.1261343755e+01    0.3188917    0.1315322 -36.22  0.001435447    1.920    0.479
         5 -12.8643     15.7193      6.9698   6.2565744533e+01   7.1941553940e+01    0.4958664    0.2530878 -19.85   0.00269236    1.911    0.477
         6 -13.6484      6.9256     10.8102   6.9001027900e+01   7.2022276236e+01    0.8058497    0.3853046 -33.81  0.004926677    1.623    0.384
         7 -12.7521     10.1549      2.1795   6.3299107257e+01   7.3107660606e+01    0.8073543    0.2267103  21.47  0.003562481    4.257    0.765
         8 -11.9963     26.2150     16.2992   6.1474076023e+01   6.9559768729e+01    0.2927665    0.1130764 -32.53  0.001411482    2.389    0.581
         9 -12.7496     19.6910     14.2459   6.3812742194e+01   7.0486391464e+01    0.4115096    0.1469716 -37.10  0.002048716    2.294    0.564
        10 -12.7329     25.7439      4.0451   5.5922197332e+01   7.1385865556e+01    0.4473067    0.2041731 -27.19  0.002462695    1.974    0.493
        11 -11.0494     41.3058      2.6173   4.7753124437e+01   6.9673680234e+01    0.3072467    0.1551118   9.71   0.00147507    2.711    0.631
        12 -10.3075    168.6596      2.3342   1.5065345950e+01   4.2687988740e+01    0.1434504   0.09244683 -67.29 0.0007051267    1.753    0.430
        13 -12.6597    225.8898    241.0186   6.2080332623e+01  -7.7279122680e+00    0.3389918    0.2112845  -6.62   0.00198867    1.858    0.462
        14 -11.3094    233.5092    250.5127   6.2230182511e+01  -9.9579800230e+00    0.3029738    0.1164972  38.44  0.001477091    2.148    0.534
        15 -13.1490    247.3006    226.2008   5.5885423097e+01  -9.1097751562e+00    0.7312507    0.3988826 -10.83  0.003883608    2.167    0.539
        16 -12.8421    234.1906    244.1665   6.1122266658e+01  -9.3308746359e+00    0.4794148    0.2750062  -0.14  0.002656378    2.150    0.535
        17 -12.7580    241.4147    237.9187   5.8865434556e+01  -9.6509062698e+00    0.7037399    0.3463382   0.63  0.002948294    3.806    0.737
        18 -12.6350    242.6662    246.8665   6.0089267098e+01  -1.0849372921e+01    0.5305446    0.3219334  -8.37  0.003305535    1.743    0.426
        19 -12.4183    247.0840    239.5100   5.8152626375e+01  -1.0644635325e+01    0.5040609    0.2898658  -8.73  0.002635415    1.908    0.476
        20 -11.7864    249.6817    233.0552   5.6640748572e+01  -1.0269865148e+01    0.3287937    0.1982064 -23.02  0.002007077    1.651    0.394
        21 -11.3595    249.3393    250.1081   5.9470536140e+01  -1.2124255674e+01    0.3386967    0.1768055  29.38  0.001760221    1.538    0.350
        22 -11.2702    248.6918    245.8267   5.8900631157e+01  -1.1573372849e+01    0.2621585    0.1812024   9.03  0.001092317    1.199    0.166
        23 -12.1561    225.5345    248.3661   6.3287381140e+01  -8.5522468065e+00    0.3202077    0.2190392   5.64  0.002087883    1.437    0.304
        24 -11.5990     74.8165    250.0501   9.0866495779e+01   1.4458830893e+01    0.4353096     0.109499  44.86   0.00192582    2.830    0.647
        25 -11.9851     65.3970    249.0136   9.2418983617e+01   1.5899711583e+01    0.3909149    0.1817807  52.23  0.002158044    1.637    0.389
        26 -11.4324     50.7889    250.0829   9.4972264048e+01   1.7577697662e+01    0.4256055    0.1130412  44.32  0.002059663    2.677    0.626
        27 -11.5203     45.2102    245.0809   9.5588391139e+01   1.9139768983e+01     0.371631    0.1752684  58.68  0.001882797    1.647    0.393
        28 -11.9090     36.4880    248.5533   9.7243167088e+01   1.9557309428e+01    0.4428309    0.1757882  58.68  0.002550857    1.960    0.490
        29 -12.0542     29.7645    241.0539   9.7926418745e+01   2.1655906328e+01    0.4388422     0.212179  76.24  0.002243615    1.795    0.443
        30 -11.9056     20.2255    249.1334   9.9880484758e+01   2.1265439607e+01    0.3361134    0.1574383  55.96    0.0018554    1.539    0.350
        31 -11.8504     12.0348    249.1071   1.0115494116e+02   2.2126439668e+01    0.3448089    0.1396661  54.18   0.00183541    1.750    0.428
        32 -11.3638      3.6467    250.2729   1.0248042121e+02   2.2765251026e+01     0.255152    0.1253471  40.35  0.001761284    1.984    0.496
        33 -12.4688      3.2859    243.5339   1.0227158781e+02   2.3971857616e+01    0.4591946    0.1949514  72.06  0.002148304    1.825    0.452
        34 -12.2597    107.8768    241.2274   8.4088391927e+01   1.1187581652e+01    0.3922129    0.1491715  56.16  0.001667369    2.860    0.650
        35 -12.1544     72.8494    240.8817   9.0475507732e+01   1.6337904351e+01    0.3516359    0.1770345  61.66  0.001862215    1.759    0.431
        36 -10.8639     64.7192    240.0052   9.1856340342e+01   1.7587129250e+01    0.2259526    0.1168405  60.41  0.001195914    1.609    0.378
        37 -11.4397     45.0942    237.6034   9.5123844827e+01   2.0504406038e+01    0.3033057    0.1364743  64.40  0.001701411    1.944    0.486
        38 -11.5777     82.1631    237.1549   8.8461579674e+01   1.5713019576e+01    0.3001628    0.1498082  66.20  0.001561811    2.093    0.522
        39 -12.7990    231.1487    234.0105   6.0019900424e+01  -7.6612847106e+00    0.4296212    0.2475818  12.26   0.00232898    1.957    0.489
        40 -12.4219    235.9588    227.9361   5.8158286342e+01  -7.6326130777e+00    0.3918611      0.20522 -21.96  0.002083647    2.139    0.533
        41 -11.6026     13.9849    232.3219   1.0007164845e+02   2.4931639626e+01    0.3707673    0.1823969  69.38  0.002405124    1.573    0.364
        42 -11.3042     11.0193    226.0895   1.0025624796e+02   2.6389120148e+01    0.3106412     0.137179  62.22  0.001514697    1.758    0.431
        43 -12.1697     60.3504    231.8229   9.2000522649e+01   1.9666432835e+01    0.3628413    0.1601107  66.50  0.001813077    2.352    0.575
        44 -10.9760     48.6533    230.8392   9.4032353330e+01   2.1328693502e+01     0.312965    0.1365237  73.98  0.001557749    2.521    0.603
        45 -12.0715     26.0254    228.8860   9.7866063152e+01   2.4310201954e+01    0.4962603    0.2219273  87.11  0.002837889    2.061    0.515
        46 -10.8252     38.5615    241.0827   9.6459848015e+01   2.0646168725e+01    0.2588944    0.1262941  70.31  0.001242295    1.768    0.434
        47 -10.6867     32.3298    229.3736   9.6807964719e+01   2.3522916691e+01    0.2358419    0.1034305  66.28  0.001311522    1.997    0.499
        48 -10.6124     73.9795    228.4877   8.9201601041e+01   1.8465498172e+01    0.1834708   0.06823129  56.22 0.0008104054    2.566    0.610
        49 -11.4587     95.0081    236.0049   8.5964826337e+01   1.4051799258e+01    0.2073445    0.1179278  65.05  0.001145134    1.732    0.423
        50 -11.4589     18.5996    222.0832   9.8758103319e+01   2.6386940632e+01    0.3217241    0.1622371  77.74  0.001713553    1.641    0.391
        51 -12.1038     12.3846    217.3544   9.9575913768e+01   2.7921920404e+01    0.4299678    0.2020134  65.21  0.002283857    1.706    0.414
        52 -11.4195     39.6909    231.7911   9.5679979849e+01   2.2224093147e+01    0.2946303    0.1734488  82.50   0.00192607    1.449    0.310
        53 -10.7289     44.4697    221.4645   9.4109100143e+01   2.3632795984e+01    0.2796853    0.1175603  66.07  0.001386038    2.374    0.579
        54 -11.8142    238.4630    218.2062   5.6038550884e+01  -6.7709324696e+00    0.3333258    0.1845564 -18.63  0.001759398    2.010    0.503
        55 -12.6300    247.9879    215.4207   5.3879291134e+01  -7.8673076091e+00    0.5132686    0.2620918 -21.98   0.00267019    2.079    0.519
        56 -10.4259     24.3211    217.8092   9.7505228677e+01   2.6618048160e+01    0.1847291    0.1033935  76.37  0.001174462    1.450    0.310
        57 -11.8974      2.4208    212.8369   1.0106553111e+02   2.9737624545e+01    0.3750748    0.1526303  86.95  0.001674063    2.066    0.516
        58 -10.9941      1.4919    206.4680   1.0091447445e+02   3.1068809132e+01    0.2176162   0.08229321 -81.42  0.001202007    2.134    0.531
        59 -10.2763     45.6447    213.3267   9.3272343574e+01   2.5102606150e+01     0.130316     0.066529  66.30 0.0007045834    1.773    0.436
        60 -11.1651     28.6068    212.0071   9.6359083741e+01   2.7307061838e+01    0.2550005    0.1301688  78.43  0.001229324    1.737    0.424
        61 -11.3343     20.9211    211.8835   9.7752241225e+01   2.8139932089e+01    0.2733131    0.1416722  83.47  0.001661305    1.627    0.385
        62 -13.2518     12.5442    205.4600   9.8886213730e+01   3.0253273690e+01     0.510326    0.2662172  78.05  0.003176499    1.564    0.361
        63 -11.3800     35.0762    217.4777   9.5544380818e+01   2.5507061443e+01    0.3268468    0.1648645  82.92  0.001873604    1.829    0.453
        64 -10.7359    250.0966    201.4113   5.0953573970e+01  -6.3487367295e+00    0.2681483    0.1484962 -35.31   0.00144027    1.835    0.455
        65 -10.0093     35.6762    207.3600   9.4709528713e+01   2.7467672032e+01    0.1290686   0.06540617  68.45 0.0007043097    1.778    0.438
        66 -12.5419      3.5945    197.4056   1.0006390663e+02   3.2700056853e+01     0.410123    0.1947382  77.91  0.001973233    1.746    0.427
        67 -12.4983      3.8222    188.6309   9.9524341202e+01   3.4483571148e+01    0.4364437     0.205901  71.76  0.002540321    1.825    0.452
        68 -12.2396     17.1849    196.0218   9.7439022869e+01   3.1734319097e+01    0.3062721    0.1128164  38.29  0.001612196    2.557    0.609
        69  -9.7881     23.6770    192.3553   9.5926715853e+01   3.1861329592e+01    0.1280341   0.06526512  69.04 0.0007046163    1.763    0.433
        70 -11.9118     11.2114    191.2754   9.8275192938e+01   3.3282218331e+01    0.2348345    0.1200956  86.50  0.001184318    1.611    0.379
        71 -11.3797     17.0334    190.4647   9.7095515093e+01   3.2909996210e+01    0.2393034    0.1226466  82.11   0.00137917    1.688    0.408
        72 -12.3721     11.8513    184.2495   9.7691991124e+01   3.4702932368e+01    0.3586152    0.1495273 -88.08  0.001859147    2.104    0.525
        73 -11.2225      5.4059    183.2405   9.8893311116e+01   3.5477754040e+01    0.2252969    0.1118291 -85.44   0.00113082    1.592    0.372
        74 -11.9056      2.0156    178.6544   9.9274112191e+01   3.6727682331e+01    0.4086849    0.1747798  88.50  0.002211329    1.982    0.495
        75 -11.1351     16.6726    181.1511   9.6508495947e+01   3.4926543716e+01    0.2322942   0.08640243 -85.51   0.00107616    2.512    0.602
        76 -10.9948     23.4050    180.2251   9.5057313213e+01   3.4487608360e+01    0.1712493   0.08951963  89.79 0.0009470697    1.670    0.401
        77 -11.5016      8.9830    177.7219   9.7822780511e+01   3.6347813251e+01    0.1633609    0.1225893  80.00  0.001038359    1.049    0.046
        78 -12.4235      6.1102    172.3962   9.8043109656e+01   3.7734913838e+01    0.3835775    0.1336459 -85.68  0.001781895    2.575    0.612
        79 -11.2842     11.3191    172.8690   9.7001688801e+01   3.7196317304e+01    0.1956104    0.1112666  81.33  0.001059179    1.476    0.323
        80 -11.0104      1.5524    170.7321   9.8864131424e+01   3.8456763297e+01    0.2395311   0.08661499 -78.14  0.001213273    2.149    0.535
        81 -12.2613      2.2697    165.6508   9.8375599191e+01   3.9500854670e+01    0.3267235    0.2001413  60.46  0.002151741    1.491    0.329
        82 -12.4082     10.6611    167.3212   9.6726998405e+01   3.8464865993e+01    0.2664797    0.1400597  70.18   0.00152957    1.755    0.430
        83 -10.5888     15.2865    164.6537   9.5521793000e+01   3.8661130931e+01    0.1246574   0.06954187  72.87 0.0005712763    1.651    0.394
        84 -13.2266      9.6873    156.2937   9.6069502795e+01   4.0987442343e+01    0.3623472    0.1956368 -86.86  0.002115178    1.512    0.339
        85 -12.4740      3.4102    154.3186   9.7307208584e+01   4.1904858053e+01    0.3279365    0.1415699 -69.53  0.001796888    1.809    0.447
        86 -11.8542      2.4037    143.6888   9.6686892533e+01   4.4346820118e+01    0.2363956    0.1301175 -81.16  0.001183596    1.400    0.286
        87 -12.3169      4.1155    136.9136   9.5694356120e+01   4.5756116035e+01    0.2976192    0.1318004 -86.37  0.001521598    1.987    0.497
        88 -11.5395      2.5414    127.2571   9.5180406804e+01   4.8045235878e+01    0.2333517   0.09273883 -80.61  0.001135736    2.100    0.524
        89 -10.8098    249.5050    124.4889   3.5047149315e+01   5.5126348453e+00    0.1393593     0.124311 -26.80 0.0001099451    1.002    0.002
        90 -10.8338    243.3302     82.6664   2.6254196491e+01   1.3627326260e+01    0.1496662   0.09986782 -63.95 0.0007052086    1.725    0.420
        91 -12.6336    248.6114     75.6439   2.3895628236e+01   1.3582322692e+01    0.4565064    0.1543366 -44.84  0.001674648    2.699    0.630
        92 -11.8819    248.8972     65.1408   2.1410976123e+01   1.5119490450e+01    0.2243503      0.16944 -59.80    0.0010017    1.256    0.204
        93 -10.0561      7.0000     62.9704   8.4613757116e+01   6.2137684920e+01    0.1971734   0.05257246 -64.92 0.0008009978    2.932    0.659
        94 -11.5811    250.3460     56.5012   1.9240822513e+01   1.6073791402e+01      0.24019      0.11481 -35.49  0.001076456    1.903    0.474
        95 -12.3979      3.5716     50.2491   8.3156143202e+01   6.4944942146e+01    0.4343804    0.1897945 -55.73  0.002444688    1.632    0.387
        96 -10.7004     16.0000     48.9951   7.7690125508e+01   6.4497983363e+01    0.2009503   0.05440197 -58.95 0.0008099421    2.995    0.666
        97 -12.4031      2.2379     40.3549   8.1261024966e+01   6.6978746971e+01     0.364306     0.155635 -60.10  0.001778547    1.851    0.460
        98 -12.6780    211.6322    247.2065   6.5574059360e+01  -6.3204762260e+00    0.4514352    0.2568683  19.57  0.002507585    1.855    0.461
        99 -13.1751    248.8278     24.8329   1.2208670246e+01   2.0680274791e+01    0.6767786    0.3355915 -78.90  0.003023287    2.456    0.593
       100 -10.1723     25.9862    249.5118   9.8987833130e+01   2.0575077074e+01     0.154201   0.07711949  47.97  0.001022646    1.587    0.370
       101 -12.2554     18.7140     30.7945   7.0818488803e+01   6.7774795253e+01    0.3663112    0.1260838 -36.73   0.00168329    2.588    0.614
       102 -11.1719    128.1790    248.3880   8.1090704264e+01   6.8368664667e+00    0.1854296   0.08664589  49.18 0.0009533306    1.751    0.429
       103 -12.6571     98.2233    245.2880   8.6274992336e+01   1.1945801330e+01    0.4495987    0.2036383  58.53   0.00226042    2.157    0.536
       104 -11.4027    144.1801    246.3876   7.7884965822e+01   4.5967947252e+00    0.1880441   0.09003209  48.41 0.0009577529    1.750    0.429
       105 -12.6844     84.8570    244.6107   8.8635308447e+01   1.4004196750e+01    0.3799229    0.1847992  53.97  0.002130341    1.661    0.398
       106 -12.1437     57.0423    242.3066   9.3376974474e+01   1.8168109984e+01    0.4641632    0.1781983  56.61   0.00241085    2.176    0.540
       107 -12.4463     15.7910    240.6022   1.0017885191e+02   2.3240052496e+01    0.5795903    0.1927273  52.33  0.002731531    2.149    0.535
       108 -11.8195      2.1787    221.0699   1.0149222704e+02   2.8180541836e+01    0.3566196    0.1454856  88.60  0.001737049    2.034    0.508
       109 -11.9611      6.2665    236.3044   1.0150435064e+02   2.4971554703e+01    0.4273816    0.1946699  56.80  0.002836292    1.611    0.379
       110 -12.1799      1.5515     25.5427   7.7247229550e+01   6.9805887678e+01    0.4296586    0.1246429 -59.39  0.001918722    3.112    0.679
       111 -11.9821      4.7049    228.4951   1.0141134513e+02   2.6552129222e+01    0.4139606     0.184432  74.06   0.00204027    1.789    0.441
