#   1 NUMBER                 Running object number                                     
#   2 MAG_AUTO               Kron-like elliptical aperture magnitude                    [mag]
#   3 X_IMAGE                Object position along x                                    [pixel]
#   4 Y_IMAGE                Object position along y                                    [pixel]
#   5 X_WORLD                Barycenter position along world x axis                     [deg]
#   6 Y_WORLD                Barycenter position along world y axis                     [deg]
#   7 A_WORLD                Profile RMS along major axis (world units)                 [deg]
#   8 B_WORLD                Profile RMS along minor axis (world units)                 [deg]
#   9 THETA_WORLD            Position angle (CCW/world-x)                               [deg]
#  10 FWHM_WORLD             FWHM assuming a gaussian core                              [deg]
#  11 ELONGATION             A_IMAGE/B_IMAGE                                           
#  12 ELLIPTICITY            1 - B_IMAGE/A_IMAGE                                       
         1 -10.8981    153.4805     21.7510   7.4645611321e+01   4.4328974742e+01    0.5811523    0.2966614 -11.79  0.001725779    2.473    0.596
         2 -12.7115    150.3169     32.3772   7.9130126369e+01   4.3905320449e+01     1.235504     1.034795 -86.87  0.006189551    1.300    0.231
         3 -10.6571    120.4934      9.0827   7.5760694245e+01   5.4844708192e+01    0.4839015    0.4039229  74.54  0.001655256    1.199    0.166
         4  -9.8509    162.3730      1.9047   6.6187176583e+01   4.3810950927e+01    0.3897482    0.1864798  70.35  0.001337517    1.889    0.471
         5 -10.1681    172.5261      3.5887   6.5626872311e+01   4.0864635569e+01    0.4502706    0.2678528 -43.67  0.002091732    1.676    0.403
         6  -8.1011    236.2395      1.4123   5.9936526548e+01   2.5050294228e+01    0.1682999    0.1078733 -77.47 0.0005837925    1.563    0.360
         7  -9.6193     50.4250    136.5301   1.3788956368e+02   4.1814741049e+01    0.2830272    0.1957251  54.51  0.001163994    1.345    0.257
         8 -10.0132    249.1714    248.7815   1.1000286252e+02  -4.6887271637e+00    0.2710586    0.1812158 -10.27   0.00220268    1.463    0.317
         9  -8.9952    176.7891    250.2172   1.2234514573e+02   4.1367619860e+00    0.1790533    0.1100447  22.47 0.0007734666    1.257    0.205
        10 -18.3085    102.5933    206.7742   1.3226097015e+02   2.0523911359e+01     5.397266     3.860517  36.36   0.01211855    1.125    0.111
        11  -9.7052     11.4821    206.7919   1.5190924096e+02   3.0773152171e+01    0.3375232    0.2286806  33.06  0.002009953    1.403    0.287
        12  -9.8120    202.8389    172.7534   1.0585153764e+02   9.8669934267e+00     0.293144    0.2249764 -50.69  0.001684356    2.000    0.500
        13  -8.6664    192.8221    132.3905   9.9545459812e+01   1.7676236704e+01    0.2310231    0.1849846 -23.45 0.0001702233    1.244    0.196
        14 -10.5859    101.6991    131.3363   1.2178739694e+02   3.5759694191e+01    0.6162106    0.3311987  32.90  0.001913246    1.835    0.455
        15  -9.8508    104.0781    126.5904   1.2016385567e+02   3.6412098655e+01    0.5606776    0.2287866  39.75  0.002098418    2.254    0.556
        16  -9.1902     25.9914    169.5623   1.4720889614e+02   3.6821813932e+01    0.4218803    0.1658226 -59.66  0.001806363    2.877    0.652
        17  -8.0234    211.0283    209.2519   1.1056288011e+02   4.0113968412e+00    0.1658806    0.1218572  18.25 0.0006378251    1.024    0.023
        18  -8.5486     84.9704    129.2675   1.2637117520e+02   3.8961082571e+01    0.2590798    0.2109037  -6.17 0.0008797381    1.579    0.367
        19  -9.6746     26.6019    218.2223   1.4922268736e+02   2.7402241802e+01    0.2978382    0.2415797  59.22   0.00180341    1.148    0.129
        20  -8.8911    171.9051    239.7945   1.2199865140e+02   5.9678742331e+00    0.1811363    0.1392946  13.14 0.0005485308    1.211    0.174
        21  -9.2684     48.5288    124.4752   1.3703701102e+02   4.4903588205e+01     0.252652    0.1913414  -4.91  0.001130501    1.754    0.430
        22 -10.2435    238.7822    124.1975   8.9614044533e+01   1.0121124980e+01    0.2442335    0.2065531  21.24 0.0004988222    1.162    0.140
        23  -9.4408    114.9165    120.4378   1.1570770567e+02   3.5790313957e+01    0.3398987    0.2299476 -54.90 0.0009280935    1.604    0.377
        24  -9.6790    116.3322    115.7652   1.1423721987e+02   3.6543895253e+01    0.4898731    0.2001873  33.63  0.001650702    2.733    0.634
        25  -9.3531     92.4321    118.1061   1.2196314218e+02   4.0366700054e+01    0.2967464    0.2294489  32.72 0.0005144973    1.282    0.220
        26  -9.8537    169.6995    234.2641   1.2173256138e+02   6.9309829248e+00    0.3586156    0.2224489  23.45  0.002324186    1.297    0.229
        27 -10.2544     34.8591    157.4302   1.4418718679e+02   3.8628097163e+01    0.6504131     0.200752  60.40  0.002241167    3.902    0.744
        28  -7.7415     10.9875    153.0000   1.5019805058e+02   4.1586733838e+01    0.1396041    0.1112788  48.89 0.0003969297    1.158    0.136
        29  -8.8286     58.6454    111.8505   1.3187354529e+02   4.6823278133e+01    0.3478618    0.2340354 -27.70  0.001289537    2.018    0.505
        30  -9.7770     63.6133    108.5972   1.2960846577e+02   4.6992299527e+01    0.3590886     0.259034 -39.54  0.001423575    1.581    0.367
        31  -8.6042     10.0980    149.1835   1.5026726693e+02   4.2488542766e+01    0.3212939    0.1708342 -56.35  0.001679854    2.170    0.539
        32  -7.9798      4.5738    158.4967   1.5202984304e+02   4.0843993055e+01    0.1601327    0.1212011 -65.60 0.0006500863    1.498    0.332
        33  -8.4682      6.8374    154.5011   1.5132317507e+02   4.1549375679e+01    0.2445634    0.1551916 -59.81 0.0008407187    1.798    0.444
        34  -8.5219     22.6173    212.0780   1.4980738018e+02   2.8852551945e+01    0.2229518      0.11238  67.86  0.000964097    1.701    0.412
        35  -9.3124    242.3566    105.7453   8.4941871529e+01   1.1841013281e+01     0.385216    0.1483344 -31.13  0.001492606    2.265    0.559
        36  -7.6948    189.0026    104.9822   9.3725874739e+01   2.2886134216e+01    0.1767891    0.1618818  18.61 0.0003255738    1.031    0.030
        37  -8.6176     90.5139    104.4626   1.1961830920e+02   4.3901082360e+01     0.271731    0.2339616  34.17 0.0009369664    1.155    0.135
        38  -7.5017     18.6265    154.7089   1.4829149689e+02   4.0638209423e+01      0.11163   0.08614117 -40.12 0.0007022863    1.727    0.421
        39  -8.5753    141.5143    101.9646   1.0377714560e+02   3.4151114556e+01    0.2398728    0.1550451 -43.16  0.001037886    1.622    0.383
        40  -9.6399    120.4544    101.1723   1.0941680019e+02   3.8893495787e+01    0.3344023    0.2177298  34.16 0.0008858202    1.567    0.362
        41  -9.3173     59.6915     99.6567   1.2934203177e+02   4.9711024530e+01    0.4220313     0.240759  66.27  0.001256601    2.385    0.581
        42  -9.5133    144.5034     97.4449   1.0177051953e+02   3.4368768035e+01    0.5456411    0.2716318  58.14  0.001901969    2.594    0.615
        43  -8.4797     93.2470     93.5530   1.1602700911e+02   4.5978626317e+01    0.3092503     0.237269 -36.85    0.0014957    1.406    0.289
        44  -9.2582    137.1089     84.7114   1.0005278342e+02   3.8583210245e+01    0.3154178    0.2387484 -28.30  0.001162977    1.417    0.294
        45  -7.3890    209.5962     83.7646   8.4515145231e+01   2.1533913835e+01    0.1483754    0.1006433  27.49 0.0006907827    1.675    0.403
        46  -9.8890    173.0711    145.9155   1.0662747492e+02   1.9346598113e+01    0.3092108    0.2710002 -75.54 0.0005557429    1.641    0.391
        47 -10.9366    137.2476     71.8397   9.5998951884e+01   4.1016070104e+01    0.5714288    0.5193746  75.39  0.001553596    1.213    0.176
        48 -12.2777    144.4811     58.5826   8.9744207937e+01   4.1542257424e+01     1.312038     1.074767 -18.50  0.005201927    1.304    0.233
        49 -11.4854    147.8035     49.3375   8.5763122199e+01   4.2162978040e+01    0.7986915    0.6689886 -24.92  0.000672936    1.238    0.192
        50  -8.1543    155.1039     66.0901   8.9760089942e+01   3.7547167518e+01     0.236391    0.2037212  17.93  0.001161576    1.238    0.192
        51 -10.9759    189.2873    154.8637   1.0505337086e+02   1.4842425412e+01    0.6218227    0.4575862  20.99  0.002601612    1.237    0.191
        52  -8.5196    192.7578     61.9963   8.1239316243e+01   2.8624490399e+01    0.2330762    0.2049733  51.45 0.0004154461    1.153    0.133
        53  -9.0399    133.0012     51.2110   8.9996479351e+01   4.5746284803e+01    0.2528111    0.2247643 -26.90 0.0002944097    1.159    0.138
        54  -9.8467    247.7498     48.5886   7.0673428380e+01   1.7758871991e+01     0.243033    0.2156916  33.08 0.0009106849    1.278    0.217
        55  -7.9283    192.0637    211.7188   1.1442418825e+02   6.4805982393e+00    0.1664316     0.121961  22.16  0.000466651    1.014    0.013
        56  -9.8081     44.5494    139.5376   1.3995276177e+02   4.1737903961e+01    0.3526732     0.263897  27.71  0.001110065    1.401    0.286
        57  -7.8670    248.6688     37.6369   6.7932550445e+01   1.8777090668e+01    0.1298129   0.09241119  19.97 0.0007038141    1.809    0.447
        58  -8.0379    188.9566     35.6919   7.3926671143e+01   3.3072963329e+01      0.19909    0.1846873  73.50 0.0004661302    1.076    0.071
        59 -10.0119    160.6823     28.3010   7.5791864846e+01   4.1568532320e+01    0.4311454    0.2482805  31.16  0.001706432    2.217    0.549
        60  -8.4635    177.2991     24.6614   7.2030674735e+01   3.7458972130e+01    0.1581818    0.1042129 -58.61 0.0003715044    1.662    0.398
        61 -10.5226    142.7690     27.6147   7.8832435382e+01   4.6591557789e+01    0.3754044    0.2888026  50.36 0.0003012489    1.235    0.190
        62  -9.7828     26.3458    222.3147   1.4941968118e+02   2.6720418272e+01    0.2809151    0.1869148   7.19  0.001830327    2.359    0.576
        63 -10.5596     87.5516    135.5862   1.2668257375e+02   3.7103333942e+01    0.4338337    0.2670192  42.19 6.915221e-05    1.494    0.330
        64  -8.8335      6.1143    209.3577   1.5305253813e+02   3.0750823635e+01    0.2120583     0.128209  87.35  0.001299229    1.577    0.366
