#   1 NUMBER                 Running object number                                     
#   2 MAG_AUTO               Kron-like elliptical aperture magnitude                    [mag]
#   3 X_IMAGE                Object position along x                                    [pixel]
#   4 Y_IMAGE                Object position along y                                    [pixel]
#   5 X_WORLD                Barycenter position along world x axis                     [deg]
#   6 Y_WORLD                Barycenter position along world y axis                     [deg]
#   7 A_WORLD                Profile RMS along major axis (world units)                 [deg]
#   8 B_WORLD                Profile RMS along minor axis (world units)                 [deg]
#   9 THETA_WORLD            Position angle (CCW/world-x)                               [deg]
#  10 FWHM_WORLD             FWHM assuming a gaussian core                              [deg]
#  11 ELONGATION             A_IMAGE/B_IMAGE                                           
#  12 ELLIPTICITY            1 - B_IMAGE/A_IMAGE                                       
         1 -10.6625     70.6921     95.6958   1.2253898084e+02   4.9014972528e+01    0.8127494    0.5497551 -38.91  0.004196021    1.583    0.368
         2 -10.7328    236.2541     30.0149   6.7267209208e+01   2.2350165563e+01    0.9457516    0.5985174 -55.52  0.004776969    1.511    0.338
         3 -11.8243    246.6208     14.6421   6.2548799301e+01   2.1696736173e+01     1.740066    0.8259081 -21.94  0.007702744    2.481    0.597
         4  -9.6099    233.1970     16.1173   6.4076752919e+01   2.4740744142e+01    0.4498208     0.322023  16.01  0.002293481    2.083    0.520
         5 -10.4070    219.7636     11.9260   6.4270719588e+01   2.8539501811e+01    0.5676407    0.3471957 -31.32   0.00286005    1.648    0.393
         6 -11.3708    227.3788      4.9884   6.1801801402e+01   2.7373438698e+01     1.322123    0.7070048 -77.07  0.006134579    1.993    0.498
         7 -10.8422    215.1544      4.0115   6.2628336502e+01   3.0529354602e+01    0.5634459    0.4842305 -44.79  0.003402623    1.183    0.155
         8 -10.1420    211.0370     15.9843   6.6245183476e+01   3.0317906672e+01    0.3910975    0.1984657 -30.72  0.001753608    1.963    0.491
         9  -8.3340    149.3210     15.0700   7.4473411281e+01   4.6633051700e+01    0.1905054    0.1887231  52.43 0.0005710585    1.070    0.065
        10 -10.0250    196.1610     10.9849   6.6496908363e+01   3.4720728822e+01    0.3565955    0.2304681  77.78  0.001715128    1.454    0.312
        11  -9.4679    161.3457     10.3780   7.0898116674e+01   4.3972584502e+01    0.4041619    0.2104146  45.70  0.001757078    1.924    0.480
        12  -9.3608     94.9970      7.3199   8.3343835338e+01   6.0383786249e+01     0.506452     0.194554 -28.03  0.001953083    2.560    0.609
        13  -8.5666    102.6180      7.9303   8.1590198638e+01   5.8669456643e+01    0.3171555    0.2196293 -40.94  0.001702148    1.685    0.407
        14  -9.0326    153.1683      5.3305   7.0435726165e+01   4.6588191823e+01    0.4147608     0.227218 -85.59  0.001696417    2.472    0.595
        15  -8.5360    122.4735      4.5014   7.5597660651e+01   5.4390086026e+01    0.1364237    0.1226103  42.64 0.0008100782    1.009    0.009
        16  -8.9864    184.5010      2.4257   6.5323879572e+01   3.8623587805e+01    0.3678332    0.1695654 -60.82  0.001419805    2.748    0.636
        17  -8.1997    159.7021      2.7003   6.8572941554e+01   4.5120126264e+01    0.2393843    0.1538573  65.16 0.0003847744    1.379    0.275
        18  -8.6173    145.7470      2.4708   7.0601432183e+01   4.8757534164e+01    0.2969067    0.2138727 -48.74   0.00156179    1.561    0.360
        19  -8.8443    192.5293      1.9826   6.4306837623e+01   3.6559634236e+01    0.2369993    0.1716161  76.29  0.001269745    1.246    0.198
        20  -8.2549     47.3305      1.6908   9.7093776704e+01   6.9626984625e+01    0.1030176   0.09337094 -47.57 0.0006116302    1.666    0.400
        21  -9.4701    159.3228    150.9915   1.1186808452e+02   2.0368560384e+01    0.3571815    0.2593611  70.21   0.00150202    1.669    0.401
        22  -7.1451    217.3166    250.6940   1.1782133897e+02  -5.4664674207e+00    0.1018211   0.07965721  53.42 0.0004045853    1.628    0.386
        23  -9.2503    156.3189    148.3414   1.1197558315e+02   2.1528448693e+01      0.36039    0.3078529 -19.62    0.0018907    1.391    0.281
        24  -7.7844    123.1536    148.2206   1.1959879994e+02   2.8239887071e+01    0.1991356    0.1616821  89.40 0.0006156167    1.318    0.241
        25  -8.8711      3.8180    141.7182   1.4753116052e+02   4.5332204996e+01    0.2536689    0.1249937  89.09  0.001096336    1.685    0.407
        26  -8.9803    236.8923    138.8566   9.3976743984e+01   6.0084323801e+00    0.3697259    0.1429581  41.83  0.001406432    2.700    0.630
        27  -9.6184    119.8553    139.1084   1.1858403237e+02   3.0857291756e+01    0.3654082    0.2271947  88.31   0.00132917    2.683    0.627
        28  -7.2124      1.3230    130.3297   1.4720476923e+02   4.7978225541e+01    0.1116887   0.06843817 -55.12 0.0007049574    1.697    0.411
        29  -8.6323    194.4991    122.4659   9.7894945277e+01   1.8011965797e+01    0.2724413     0.147795  62.08  0.001031676    2.325    0.570
        30  -9.1612    230.0846    118.4342   9.0398752357e+01   1.0673558816e+01    0.2712132    0.1910685 -22.65  0.001248086    1.447    0.309
        31  -8.9991    122.3789    110.1096   1.1135931362e+02   3.6755602328e+01    0.4570277    0.3050384 -69.62  0.001977446    1.890    0.471
        32  -8.4817    176.5676    109.7987   9.8382505209e+01   2.4596537994e+01    0.3151543    0.2348723 -84.47 0.0008462339    1.854    0.461
        33  -8.2977    161.3339    109.1685   1.0156985425e+02   2.8327120326e+01    0.2249302    0.1996823  38.66 0.0008633892    1.149    0.130
        34 -11.1431     33.0527     97.4514   1.3450766380e+02   5.2942747088e+01    0.9242662    0.5241225   7.45  0.004661723    2.822    0.646
        35  -7.9795    224.5458    247.9456   1.1623475424e+02  -6.2699571625e+00    0.1472328   0.08410094   0.54 0.0007248968    2.477    0.596
        36  -8.3479    174.3094     98.3297   9.5806160047e+01   2.7322570118e+01     0.160206    0.1243288  12.43 0.0004832974    1.665    0.399
        37  -7.9601    100.3292     93.6693   1.1315525270e+02   4.4651228376e+01    0.1501122    0.1144675  88.67 0.0007051636    1.715    0.417
        38 -10.4927    125.5260     97.8305   1.0730813822e+02   3.8745383901e+01    0.6384772    0.5510233  74.02   0.00328091    1.266    0.210
        39  -7.9963     14.6720     93.0054   1.3942273222e+02   5.5392060283e+01    0.1721622     0.122453 -70.91 0.0007002835    1.100    0.091
        40  -8.7897    219.4250     91.2974   8.5429461331e+01   1.7544141233e+01    0.2653099    0.1925117  88.40  0.001212902    1.821    0.451
        41  -8.8082    246.9179     85.2437   7.9758645053e+01   1.2155368712e+01    0.4652655      0.14571 -35.41  0.001637387    2.760    0.638
        42  -8.8462    139.9215     86.5270   1.0038619914e+02   3.7863089424e+01    0.2724544    0.2102689 -57.41 0.0003913295    1.400    0.286
        43  -7.5219     92.4652     86.4750   1.1351381141e+02   4.7628557729e+01    0.1434921    0.1334148 -39.95   0.00010408    1.050    0.048
        44  -7.5717    158.8300     97.5964   9.9023870673e+01   3.1212460458e+01    0.2261247    0.1499619  62.82  0.000846614    1.684    0.406
        45  -8.4952    198.3973     81.6146   8.6460313594e+01   2.4312315594e+01    0.3246293    0.1069821 -45.92 0.0009561545    3.434    0.709
        46  -8.3701    220.3154     80.9629   8.2595120273e+01   1.8998130108e+01    0.2619236   0.08478075 -48.99 0.0007046362    4.363    0.771
        47  -9.3726    243.1849     75.3221   7.7825362153e+01   1.4476080724e+01    0.6417336    0.2214467 -42.22    0.0023165    2.660    0.624
        48 -10.4625    248.1850     73.6097   7.6745503348e+01   1.3595919950e+01    0.7232958    0.3373855 -36.30  0.003105846    1.896    0.473
        49 -10.2940    248.5495     67.3479   7.5165020230e+01   1.4420534123e+01    0.4869795    0.4119267  20.41  0.002739619    1.436    0.304
        50  -9.1740    105.9318     71.1658   1.0489143284e+02   4.8291571061e+01    0.6521762    0.3650052 -55.95  0.002676866    2.161    0.537
        51  -9.6484    241.0629     64.3325   7.5360887971e+01   1.6575241994e+01    0.3634032    0.2123774  65.67  0.001690516    1.838    0.456
        52  -8.5681    106.2731     98.8296   1.1282962679e+02   4.2409492941e+01    0.3074377    0.2142428  31.41  0.001446272    1.664    0.399
        53  -8.2298     47.2831     64.5705   1.2239217345e+02   5.8815496449e+01    0.2236136    0.1206697  35.30  0.001145124    2.126    0.530
        54  -8.8157     35.2282     63.7392   1.2661154314e+02   6.0220221608e+01    0.1944907    0.1568401  24.52 0.0009829627    1.472    0.321
        55  -9.6915     30.9332     62.4983   1.2789720704e+02   6.0868848438e+01    0.4317695    0.1454896 -44.15   0.00183412    2.694    0.629
        56  -8.6621    232.8549     59.6995   7.5244799802e+01   1.9189298240e+01    0.3664928    0.2148571 -23.60  0.001629872    1.863    0.463
        57  -7.5317    150.3204     60.6449   8.9860579264e+01   4.0109554664e+01    0.1625165    0.1191607 -70.03 0.0007046235    1.756    0.430
        58  -8.8671     66.2915     57.5899   1.1335697988e+02   5.7825724930e+01    0.2928931    0.1653482  41.56  0.001440644    2.003    0.501
        59  -8.7323    124.6552     52.8705   9.3476315317e+01   4.7605520578e+01    0.3703447    0.1690622 -40.88  0.001426451    2.207    0.547
        60  -8.0297     40.4885     53.4966   1.2172554577e+02   6.1835852610e+01    0.1275493     0.102061 -38.41 -8.617461e-05    1.070    0.066
        61  -9.4369    232.0710     45.8681   7.1775885995e+01   2.1313427273e+01    0.3815995     0.300793  -2.08  0.001994454    1.613    0.380
        62  -9.7377    250.0335     43.5022   6.9169557965e+01   1.7366674376e+01    0.7282203    0.2244816 -27.44  0.002473591    3.466    0.712
        63  -8.3662     57.6502     45.7715   1.1247857644e+02   6.1309340868e+01      0.23946    0.1740219  43.25  0.001383657    1.650    0.394
        64  -7.8765     51.8026     44.6008   1.1433120679e+02   6.2289623008e+01    0.1589856    0.1181342  43.29 0.0006956828    1.657    0.396
        65  -8.6281     85.9670     42.9792   1.0125668235e+02   5.7307977718e+01    0.2895975    0.1741504  51.04  0.001387151    1.917    0.478
        66  -9.4353    101.0112     42.0000   9.6120131662e+01   5.4549746088e+01    0.2871007    0.1450368  42.79  0.001235757    1.990    0.498
        67  -8.2693    127.9904     40.7347   8.8281396051e+01   4.8737532679e+01    0.2006684    0.1243872  54.13 0.0009028603    1.574    0.365
        68  -8.3506      6.3266     40.3272   1.3208936380e+02   6.7151079113e+01    0.1219918   0.06126328 -39.57 0.0007050124    1.699    0.412
        69  -8.2769    232.0071    235.9922   1.1321559254e+02  -6.1289486014e+00    0.1879539    0.1132543  16.19  0.001018846    1.678    0.404
        70  -7.5216    234.7174    229.3255   1.1171921144e+02  -5.8153643880e+00   0.09868792    0.0897615  53.18 0.0005213592    1.599    0.374
        71  -9.4144    216.5293     33.0438   7.0255762975e+01   2.6881137483e+01    0.3278059    0.1136094 -35.51  0.001205033    2.576    0.612
        72  -8.7764    176.1983     33.7906   7.6150478568e+01   3.7364327346e+01    0.2698667    0.1438296 -66.52 0.0009597124    2.869    0.651
        73  -7.9394      8.7728     25.0062   1.2634936557e+02   6.9961516823e+01    0.1519547   0.07292446 -54.41 0.0007092701    1.646    0.393
        74  -8.2535     14.6741     23.3112   1.2285409193e+02   6.9876499404e+01   0.09765589   0.08674765 -87.80  0.000489231    1.660    0.398
        75  -7.9611    152.6137     20.7250   7.5867452616e+01   4.5163384176e+01    0.2004333    0.1303574 -37.15 0.0009480207    1.612    0.380
        76  -8.3115    211.5215    227.4999   1.1539110058e+02  -1.8898013349e+00    0.1208455    0.0965407  31.38 0.0008098019    1.050    0.047
        77  -7.6457    156.6923    225.6632   1.2501305614e+02   7.6542274625e+00    0.1186538   0.09022625  16.86 0.0003231333    1.677    0.404
        78  -9.5723    248.8425    222.8547   1.0833048044e+02  -7.2727846876e+00    0.2057932    0.1963236 -43.75  0.001523653    1.692    0.409
        79  -8.7139    171.5016    223.0140   1.2190912209e+02   5.5051615766e+00    0.1603647    0.1259752 -44.00  0.001027533    1.574    0.365
        80  -8.9631    202.5768     19.0504   6.8050174384e+01   3.2167219802e+01    0.2911241    0.1878243 -86.57  0.001050223    1.639    0.390
        81  -7.5597     14.4822     19.4764   1.2148068325e+02   7.0573481238e+01    0.1150788   0.08479798 -33.52 0.0001881441    1.039    0.038
        82  -8.5995    242.4656    220.9919   1.0907087900e+02  -6.0887004832e+00    0.1603237    0.1074475 -21.92 0.0007998541    1.570    0.363
        83  -8.9295     93.2774     15.0514   8.7289880580e+01   5.9899545720e+01      0.36588    0.2106989  50.47  0.001833146    1.674    0.403
        84  -7.6822     56.0763    216.9684   1.4279627356e+02   2.4566036524e+01    0.1332326   0.09480749  61.12 -0.001320134    1.104    0.095
        85  -9.0912    116.7834     13.7237   8.0563027261e+01   5.4841386568e+01    0.3243424    0.1206521  62.15  0.001202519    2.753    0.637
        86  -7.9652    187.1600    215.4242   1.1788357985e+02   3.8735826820e+00    0.1764058    0.1031575  50.07 0.0006055331    1.612    0.380
        87  -8.1854    168.0180     11.5394   7.0292347903e+01   4.2098453961e+01    0.2239621    0.1314044  70.26 0.0005581884    1.585    0.369
        88  -9.0152    242.7290    208.1003   1.0682295920e+02  -4.6383057412e+00    0.2179897    0.1398077 -21.40  0.001309447    1.606    0.377
        89  -9.2176    233.1062    193.9337   1.0591503880e+02  -1.2486331435e+00    0.1838879    0.1729516  25.79   0.00124211    1.269    0.212
        90  -7.5971    205.2012    190.4434   1.1029611511e+02   4.2731205201e+00    0.1781191    0.1167834  51.53 0.0005604355    1.588    0.370
        91  -8.4181    220.0973    178.5967   1.0531186671e+02   3.2469468814e+00    0.2330425    0.1794551 -39.44  0.001333004    1.463    0.316
        92  -7.7068    192.8053    173.1950   1.0940704917e+02   9.3988964715e+00    0.1941907    0.1520271  21.84  0.001046299    1.323    0.244
        93  -8.9517    250.1981    168.7648   9.8129022782e+01  -8.6679607711e-01    0.3193018    0.1721962 -36.48   0.00121079    1.891    0.471
        94  -8.2817     96.8833    165.8519   1.2877927134e+02   2.9049704382e+01    0.1925428    0.1894777  17.89  0.001221995    1.311    0.237
        95  -9.7261     24.4659    158.4878   1.4430135061e+02   3.9978239027e+01    0.3019174    0.1424699  51.86  0.001504929    1.984    0.496
        96  -8.3033    197.5064    154.4936   1.0465105781e+02   1.1623716052e+01    0.1444952    0.1336227  23.29  0.000810541    1.020    0.020
