#   1 NUMBER                 Running object number                                     
#   2 MAG_AUTO               Kron-like elliptical aperture magnitude                    [mag]
#   3 X_IMAGE                Object position along x                                    [pixel]
#   4 Y_IMAGE                Object position along y                                    [pixel]
#   5 X_WORLD                Barycenter position along world x axis                     [deg]
#   6 Y_WORLD                Barycenter position along world y axis                     [deg]
#   7 A_WORLD                Profile RMS along major axis (world units)                 [deg]
#   8 B_WORLD                Profile RMS along minor axis (world units)                 [deg]
#   9 THETA_WORLD            Position angle (CCW/world-x)                               [deg]
#  10 FWHM_WORLD             FWHM assuming a gaussian core                              [deg]
#  11 ELONGATION             A_IMAGE/B_IMAGE                                           
#  12 ELLIPTICITY            1 - B_IMAGE/A_IMAGE                                       
         1 -15.5449      6.3606     67.3157   1.1039938509e+02   6.1611874967e+01     2.259419      1.13116 -60.79   0.01114972    1.525    0.344
         2 -13.5000     65.8711     48.9101   8.1189543126e+01   5.9160739712e+01     1.633956    0.7728223 -24.95  0.001984784    2.882    0.653
         3 -13.5799     86.1865     66.4304   8.0380090621e+01   5.2472180528e+01     1.705643    0.9598435 -14.87  0.004746586    3.218    0.689
         4 -14.1797     60.9441     75.6547   9.2008178220e+01   5.4578698704e+01      1.44366     1.040502 -84.54  0.004253245    2.235    0.553
         5 -13.1268    119.7976     26.6044   5.6260539674e+01   5.1674769623e+01     1.096148    0.6505491  19.39  0.004839995    2.257    0.557
         6 -14.5160    119.5851     54.7330   6.6433989067e+01   4.7751979723e+01     1.093734    0.7801465  28.14   0.00379803    1.551    0.355
         7 -13.3544    131.9005     32.8239   5.5818670984e+01   4.8055079795e+01    0.9710356    0.5058774 -34.39  0.003943737    1.964    0.491
         8 -14.1937    121.8239     37.5487   5.9781489847e+01   4.9814137121e+01    0.9999965    0.5612285  31.74   0.00268997    2.138    0.532
         9 -15.3735    218.2311     16.1860   3.8487666956e+01   2.8905055357e+01     2.037899     1.544059 -28.89   0.00838892    1.450    0.310
        10 -11.8307    232.8356      1.8877   3.4008196187e+01   2.7153128690e+01    0.3598988    0.2113351  75.13  0.001470754    1.604    0.376
        11 -14.1953    189.1297     26.0981   4.4204568795e+01   3.4720225844e+01     1.582554     0.724849 -57.58  0.006265558    2.697    0.629
        12 -14.1412    187.3283     11.3481   4.0390642334e+01   3.6788246018e+01     1.373143    0.6795781 -50.98  0.006364516    2.082    0.520
        13 -13.5430    242.2493     35.1500   4.0668013686e+01   2.1221473107e+01    0.8910141    0.5916762 -88.41  0.003046563    1.553    0.356
        14 -14.4989     42.2543      6.6239   7.1946628029e+01   6.9000401146e+01     1.743359    0.9454062   4.55  0.008886148    2.281    0.562
        15 -12.6089      8.0335      2.6807   8.7148156299e+01   7.3561900326e+01    0.4318234    0.4137017  64.81  0.002322827    2.069    0.517
        16 -13.2536      2.6797     10.7449   9.4201962585e+01   7.2769197272e+01    0.7064139    0.3618698 -50.70  0.004216295    1.938    0.484
        17 -15.8516     11.4593     22.4063   9.4505036042e+01   7.0186336572e+01     1.804878    0.8947429 -29.25   0.01020211    1.767    0.434
        18 -14.8342    166.7368     29.5917   4.8370916920e+01   3.9865190510e+01     1.209232     1.064688  80.28  0.004247412    1.086    0.079
        19 -12.3152     71.6902     17.8876   6.6120879974e+01   6.2807364030e+01    0.4862086    0.2946925 -36.00  0.001588014    1.790    0.441
        20 -14.7787    147.0930     29.7569   5.1757776534e+01   4.4732694572e+01     1.408898     1.015405  62.39  0.005511645    1.312    0.238
        21 -12.2156     46.8768     20.9583   7.7016702769e+01   6.6475765789e+01    0.3979704    0.2958858   5.90  0.001529297    1.211    0.174
        22 -15.4187     97.7377     12.2361   5.5960464130e+01   5.8185376497e+01     1.670767    0.7801722  51.50   0.00481469    1.872    0.466
        23 -13.2771    139.4108     22.0895   5.0613121604e+01   4.7502220296e+01    0.7486776    0.3662418  61.52  0.001704304    1.876    0.467
        24 -11.7693    203.6589     12.0582   3.8863428683e+01   3.2775296556e+01    0.4412399    0.2316631 -79.96  0.002025981    2.174    0.540
        25 -11.6174     59.9150     17.1184   6.9985807524e+01   6.4964221454e+01    0.3483901     0.189648 -32.21  0.001848434    1.800    0.445
        26 -12.0205    153.2166      8.7730   4.3969322846e+01   4.5447888254e+01    0.2759833    0.2650686  71.45 0.0008067209    1.067    0.063
        27 -11.2806     68.4212      6.1597   6.1757762690e+01   6.4686063588e+01    0.4738992    0.1312632 -34.84  0.001794717    3.913    0.744
        28 -10.7260     59.0713      7.3963   6.5617941830e+01   6.6231119958e+01    0.2049124     0.194098 -14.57  0.001444826    1.379    0.275
        29 -12.4231    118.7120      2.9480   4.7676780465e+01   5.4274309975e+01    0.5224541    0.2996173  85.19  0.002418994    2.338    0.572
        30 -11.7836     78.2037      2.6033   5.7055034801e+01   6.3133650968e+01     0.325671    0.2350262  39.38  0.001395027    1.193    0.162
        31 -11.0784     82.9994      1.2372   5.5086662570e+01   6.2281923641e+01    0.2728893    0.1117843  57.25  0.001237239    2.286    0.563
        32 -10.8767    193.2827      2.8736   3.7523746913e+01   3.6180240518e+01    0.2255165    0.1545588  89.64 0.0008153205    1.345    0.257
        33 -11.7964     61.7889      1.9983   6.1968218714e+01   6.6294182210e+01    0.3179278    0.1980691  49.82  0.001207683    1.633    0.388
        34 -14.1012     24.2537     14.0028   8.4159948185e+01   7.0329899899e+01    0.7650337    0.3397004  34.08  0.003697578    2.475    0.596
        35 -10.5205    112.4899    157.4981   9.6204813653e+01   2.7017326412e+01     0.147175    0.1400363 -89.94 4.282958e-06    1.006    0.006
        36 -12.2490     51.8376    249.6167   1.2050793397e+02   1.6522905922e+01    0.3835549     0.207066  59.03  0.001969785    1.485    0.327
        37 -12.9325     56.6737    247.0107   1.1947454661e+02   1.6392583291e+01    0.6085038    0.2406387  39.05  0.003203106    2.222    0.550
        38 -13.6166     28.3255    246.1603   1.2431528294e+02   1.9880193451e+01    0.4776397    0.3284819  69.34  0.003045861    1.064    0.060
        39 -11.7823      2.6997    249.8303   1.2865352736e+02   2.1866156018e+01    0.2890904    0.1778778  58.65  0.001811183    1.205    0.170
        40 -13.8239      9.2214    245.4959   1.2743178782e+02   2.2002137172e+01     0.746678    0.3692301  60.81  0.003296334    1.498    0.333
        41 -10.2422    133.1941    152.6138   9.0097228386e+01   2.4270763607e+01    0.2007618    0.1440192  30.33 0.0002128405    1.546    0.353
        42 -11.3317    103.2805    150.2635   9.7137594743e+01   3.0344733160e+01    0.3390652    0.2372225 -32.60  0.001560546    1.800    0.444
        43 -11.9477    244.4887    147.9892   6.6212077480e+01   3.1495476983e+00    0.3254297    0.1117425 -41.06  0.001224034    2.674    0.626
        44 -10.9954     60.9477    148.4944   1.0792156445e+02   3.7202543143e+01    0.3245982    0.2126228   0.25  0.001448891    2.743    0.635
        45 -11.0119     88.4891    140.1612   9.9063358821e+01   3.5252871399e+01    0.2322938    0.2096269 -18.98 0.0008177324    1.315    0.239
        46 -12.6705    246.0004    134.8322   6.3084345697e+01   5.0447278337e+00    0.4086321    0.2689368 -58.10   0.00198043    2.044    0.511
        47 -11.7657     45.2802    134.8034   1.1001498881e+02   4.2444293740e+01    0.3568795    0.2451611 -79.28  0.001930952    1.350    0.259
        48 -11.8081    133.3421    127.1981   8.4257868755e+01   3.0022265598e+01    0.5717775    0.2730712 -37.48  0.002037599    2.382    0.580
        49 -10.1791     10.9358    134.2244   1.1923007103e+02   4.5729962017e+01    0.1332778    0.1017838  32.85 0.0006144545    1.596    0.373
        50 -12.8252    222.9804    128.0805   6.5341407921e+01   1.0626582028e+01    0.3336413    0.2747276 -75.88   0.00174963    1.594    0.373
        51 -12.9963    120.1071    102.4397   8.1278930337e+01   3.8328531246e+01     0.679221    0.3446818  40.53  0.002321575    2.090    0.522
        52 -13.8912    105.5497    121.5850   9.0291852535e+01   3.6787459639e+01      1.36414     1.102442  23.76  0.006796256    1.425    0.298
        53 -14.6968    106.3260    105.6732   8.6026364463e+01   4.0346808401e+01     1.733214     1.490662   1.65  0.007482548    1.350    0.259
        54 -10.5880     59.9460    125.3923   1.0422412367e+02   4.3013806127e+01    0.2441684    0.1425189  19.19  0.001093604    2.351    0.575
        55 -12.0626    182.1646    121.9115   7.1601327323e+01   2.0511036280e+01    0.5381465    0.3598505 -88.46  0.002005834    2.831    0.647
        56 -12.6901     28.8627    122.3223   1.1274912018e+02   4.7142543481e+01    0.3772299    0.2684053 -70.43  0.002212099    1.157    0.136
        57 -10.7688     25.7323    127.2391   1.1435040166e+02   4.6224784888e+01    0.1807106    0.1291618 -51.53  0.001061008    1.357    0.263
        58 -11.6368     78.4686    111.0090   9.5635775358e+01   4.3911317887e+01    0.4646279     0.271688  31.94  0.002086668    1.936    0.483
        59 -11.9341     88.2434    109.5786   9.2343054595e+01   4.2681167385e+01    0.4403138    0.2957883 -54.72  0.002030128    1.396    0.284
        60 -12.2279     77.0810    117.0659   9.7448311010e+01   4.2662604317e+01    0.5536702    0.3895777  87.16  0.002561792    1.915    0.478
        61 -12.6111     85.2309    115.4393   9.4657128057e+01   4.1779792390e+01    0.7336096    0.3498245  31.40  0.002220593    2.489    0.598
        62 -11.9848      5.0331    119.2721   1.1913381166e+02   4.9688227427e+01    0.6131621    0.4542612 -38.25  0.003777965    1.557    0.358
        63 -13.4280      2.2003     97.1699   1.1711370620e+02   5.5054524565e+01    0.9493201    0.2398166 -71.70   0.00359289    3.202    0.688
        64 -14.6579     25.0192     94.3873   1.0919495277e+02   5.4177847988e+01     1.411349     1.146499 -11.78  0.008957191    1.469    0.319
        65 -13.2036    170.4687    243.2558   9.7755391016e+01   3.5570529247e-01     0.452323    0.3768305   7.93  0.003052948    1.242    0.195
        66 -13.3942      5.8112     43.7723   1.0472062005e+02   6.6588793183e+01     1.472911    0.3099661  21.50  0.005801387    4.969    0.799
        67 -14.0692     17.8057    111.0410   1.1432204954e+02   5.0774837619e+01    0.8886724    0.7148115 -34.05  0.003795841    1.412    0.292
        68 -13.9892     10.9309    102.7739   1.1519151535e+02   5.3221711840e+01    0.8381376    0.6594633 -67.00  0.004503094    1.005    0.005
        69 -10.6493    121.1579    112.2521   8.3649782803e+01   3.5919146700e+01    0.2488957    0.1808349  72.32   0.00107269    1.865    0.464
        70 -11.0781     62.8268    111.2233   1.0047821079e+02   4.6102356902e+01    0.3354147    0.2051356  63.43  0.001464329    2.356    0.576
        71 -11.4429    176.7422    110.3356   6.9763575668e+01   2.4041104648e+01    0.3988295    0.2782002   0.73  0.001614386    2.211    0.548
        72 -11.1943     45.1152    110.0768   1.0574631035e+02   4.8516976034e+01    0.4013768    0.2806993  78.76  0.002076111    1.788    0.441
        73 -11.7704     32.8784    110.3196   1.0959532698e+02   4.9689612512e+01    0.2658274    0.2048756 -81.64   0.00153207    1.252    0.201
        74 -11.1842    222.7912    109.5941   6.0976787745e+01   1.3935869958e+01    0.1920208    0.1431056  69.31 0.0009516608    1.657    0.396
        75 -11.9844     32.5664    104.2732   1.0859906749e+02   5.1175066033e+01    0.3989457    0.3650222  51.51  0.002612194    1.282    0.220
        76 -12.1876    136.1758    103.2981   7.7273033989e+01   3.4707140656e+01    0.7679767     0.291162  48.94  0.002463902    2.797    0.642
        77 -12.1714     62.3465     99.2865   9.7885183017e+01   4.9023812668e+01    0.6227444    0.3928319  83.38  0.002532737    2.888    0.654
        78 -11.8369     43.1687     91.4332   1.0241408841e+02   5.3172801601e+01    0.9553217     0.416193 -73.86  0.003223285    3.934    0.746
        79 -12.5240     53.0707     97.7036   1.0054493690e+02   5.0575544036e+01    0.8763719    0.4808761  -5.94  0.003195905    3.936    0.746
        80 -12.1692     49.4291     94.3800   1.0098007014e+02   5.1787959568e+01    0.4641611    0.3613517  82.24  0.001500597    1.630    0.387
        81 -11.1006    249.6656    100.3300   5.4760798406e+01   1.0019838753e+01    0.1422972   0.09628929 -61.17 0.0007052096    1.726    0.421
        82 -12.3234    136.8861     95.7122   7.4944008100e+01   3.6149432235e+01    0.5423456    0.3787616  58.97  0.001616189    1.618    0.382
        83 -12.4888    128.7815     96.1868   7.7175397894e+01   3.7838574940e+01      0.36387    0.2757399  80.48  0.001610964    1.822    0.451
        84 -11.2536    125.2312     92.3991   7.7016463132e+01   3.9405640737e+01    0.3482144    0.2523432 -76.55   0.00126396    2.005    0.501
        85 -10.9249    101.5565     90.0439   8.3028636812e+01   4.4743374293e+01    0.2900859    0.2109425  56.60  0.001259706    1.630    0.387
        86 -11.7404     90.0315     88.4723   8.6090602155e+01   4.7206080519e+01    0.4604426    0.3296431  43.82  0.002224657    1.517    0.341
        87 -12.5008    149.7404     85.0680   6.8701049755e+01   3.5322122533e+01    0.8159138    0.4381289  32.75  0.002938144    2.582    0.613
        88 -13.5824    163.2798     71.6856   6.1750343045e+01   3.4513899441e+01     1.708524    0.5283722  45.54  0.005059951    3.662    0.727
        89 -12.6727    159.9233     68.1364   6.1379127948e+01   3.5943669444e+01    0.6894647    0.4364719 -46.63  0.002544212    1.617    0.381
        90 -13.5642    160.8300     80.8802   6.4982174888e+01   3.3466182572e+01    0.9718548    0.6996129  14.04  0.003259157    1.962    0.490
        91 -14.4736    169.4301     77.1200   6.2093907353e+01   3.2062776853e+01     1.570239    0.7070778  53.09   0.00527321    2.229    0.551
        92 -12.9163    135.5370     80.1885   7.0659541855e+01   3.9566201286e+01    0.7502183    0.4720073  45.02   0.00327226    1.619    0.383
        93 -13.0549    188.2590     84.4076   6.0518477752e+01   2.6226225307e+01    0.7923335    0.3443119  43.75  0.002553759    2.696    0.629
        94 -13.1454    237.0941     80.2613   5.1783680730e+01   1.5806560456e+01    0.5261629    0.3567238  79.58  0.002655668    1.831    0.454
        95 -11.7696     40.8393    243.9192   1.2203956047e+02   1.8871184634e+01    0.2766087    0.1653291 -86.80  0.001830598    1.547    0.354
        96 -13.8967     96.2613    238.7495   1.1144131725e+02   1.2528960321e+01    0.5339314    0.3586585  51.89   0.00216405    1.233    0.189
        97 -12.8906     70.2263     75.8739   8.8823350724e+01   5.3190450756e+01    0.5149821    0.4283298 -23.61  0.001186856    1.167    0.143
        98 -12.1555     77.1416     73.8444   8.5827721545e+01   5.2529233522e+01    0.3359559    0.3122144   5.88 0.0008980489    1.109    0.098
        99 -13.1790     55.1476     81.7446   9.5800444673e+01   5.4001042262e+01    0.7484776    0.5328401 -58.34  0.002539576    1.345    0.257
       100 -10.8337    147.4790    239.4878   1.0163353263e+02   4.5558020727e+00    0.1246298    0.1041379  41.70 0.0008100319    1.028    0.027
       101 -11.6798    216.5103     81.0380   5.4903560139e+01   2.0206417028e+01    0.4578469    0.2903413 -43.32  0.002033997    1.437    0.304
       102 -12.6184    210.6538     77.4411   5.4883295007e+01   2.2141773092e+01     0.667022    0.4423961 -69.59  0.002937284    1.892    0.471
       103 -11.9433    114.0352     80.1875   7.6391765609e+01   4.4301502887e+01    0.4354048    0.3546354 -56.25 0.0009613663    1.334    0.250
       104 -10.9309     90.3326     80.7410   8.3672735321e+01   4.8819015046e+01    0.2885418    0.2377245 -20.11  0.001512642    1.253    0.202
       105 -10.7147     32.6755     80.9942   1.0365170014e+02   5.6621360646e+01    0.1968008    0.1389819 -54.39   0.00113526    1.165    0.141
       106 -11.3651     42.0882     76.9249   9.9192313823e+01   5.6601251705e+01     0.322594    0.2116824 -54.05  0.001355596    1.310    0.236
       107 -11.0633     27.6025     77.1054   1.0458026529e+02   5.7950000256e+01    0.2522156    0.2070386 -74.61  0.001062701    1.305    0.234
       108 -13.8163    199.4001     69.7274   5.4627141516e+01   2.6050719955e+01    0.9735374    0.6036826  44.44  0.002837403    1.834    0.455
       109 -12.3363    199.1963     61.6856   5.2498908640e+01   2.7372945473e+01    0.4570119    0.2793157 -38.74  0.001577837    1.543    0.352
       110 -13.3799    133.4079     66.1061   6.6738982308e+01   4.2653014267e+01    0.9569356    0.7358479  -3.52  0.002941946    1.584    0.369
       111 -11.9087    241.1836     71.1099   4.9097550307e+01   1.6362938396e+01     0.416004    0.2522797 -74.30  0.001913812    2.222    0.550
       112 -12.3080     38.6886     68.1416   9.8045118961e+01   5.8881938848e+01    0.7294377    0.3473752  24.70  0.003460557    2.442    0.591
       113 -11.3022    100.1376     64.6392   7.5368436824e+01   5.0163503902e+01    0.4369869    0.3065864 -27.80  0.001974039    1.441    0.306
       114 -13.9516    177.9769     57.4536   5.4777519673e+01   3.3219250739e+01    0.9974949     0.698292 -42.44  0.002861677    1.397    0.284
       115 -12.2877     79.6199     60.9916   8.0700059798e+01   5.4674128064e+01    0.4687696    0.4173661   7.27  0.002035992    1.106    0.096
       116 -12.7843     81.1886     54.5474   7.7864405027e+01   5.5588482729e+01    0.6353118    0.4403008  32.06  0.003094805    1.485    0.327
       117 -11.7358     24.8197    217.5161   1.2320029804e+02   2.5761046886e+01    0.5397941    0.3906731  66.43  0.003828061    1.098    0.089
       118 -13.6667     25.7857    227.5281   1.2366030642e+02   2.3668279578e+01    0.6002584     0.333247 -61.44  0.003709649    2.062    0.515
       119 -12.7178    135.6555     50.2283   6.0956095921e+01   4.4727920487e+01    0.5535241    0.3446997  33.26  0.002433131    1.867    0.464
       120 -13.5061     20.5512    225.2412   1.2445859436e+02   2.4668373079e+01    0.6445652    0.3538299  46.97  0.004159978    1.579    0.367
       121 -12.6503    109.7580     42.2411   6.4570636983e+01   5.1878483503e+01    0.5703285     0.247121  48.81  0.001296489    2.199    0.545
       122 -13.4819     66.6723    223.3966   1.1566194327e+02   1.9581228163e+01    0.6594154    0.5844332  36.64  0.004605502    1.391    0.281
       123 -12.2702    113.7505     38.1393   6.2000392525e+01   5.1577037315e+01     0.363286    0.3087958   0.93  0.001141262    1.199    0.166
       124 -10.7159     39.0049     60.5695   9.5665518819e+01   6.0446112098e+01    0.2697641    0.1993331 -82.89  0.001442288    2.116    0.528
       125 -12.0270     24.4932     59.8309   1.0130028236e+02   6.1977474135e+01    0.3725695    0.2071137 -47.97   0.00103783    1.417    0.294
       126 -12.6905    216.0961     73.1391   5.2963372237e+01   2.1587466230e+01    0.8477631    0.4925855 -56.69  0.003748461    1.894    0.472
       127 -12.1770    247.6270     54.3982   4.4498344039e+01   1.7463037723e+01    0.4646878    0.2834723 -51.99  0.002464565    1.455    0.313
       128 -12.6046    248.9135     49.1987   4.3189740026e+01   1.7920954424e+01     0.438208    0.3659398 -60.81  0.002257929    1.039    0.038
       129 -11.4077    230.7078     55.5493   4.6666905068e+01   2.0961788185e+01    0.4298673    0.1313099  63.85  0.001533471    3.474    0.712
       130 -13.6033    103.2509     50.7193   6.9516267061e+01   5.1960162478e+01    0.9601318     0.685707 -67.44 0.0008315959    2.198    0.545
       131 -12.0329     97.9904     50.4938   7.0992994998e+01   5.3081382246e+01    0.4146831    0.3284965 -83.25  0.001394562    1.967    0.492
       132 -13.2142    157.8959     44.1664   5.4383791268e+01   4.0172286757e+01    0.7832955    0.5838583  32.46  0.003373703    1.526    0.345
       133 -13.6074     63.5444    214.7761   1.1546810892e+02   2.1738191333e+01    0.6689287    0.3861166  67.88  0.003667757    1.700    0.412
       134 -12.2465     94.4130    218.3519   1.0956861601e+02   1.6668059549e+01     0.257926    0.1986131  62.41  0.001501488    1.154    0.134
       135 -14.9241    212.4273     41.1577   4.5298174944e+01   2.7179967764e+01     2.714612    0.8345006  72.58  0.008371166    4.460    0.776
       136 -12.7484      8.8607    210.7096   1.2573459742e+02   2.8737696500e+01     0.595261    0.2614336  43.22  0.003276026    2.018    0.504
       137 -10.5972    136.6107    211.2569   9.9828353115e+01   1.1296558367e+01    0.1716788    0.1254413 -41.34 0.0009176456    1.581    0.367
       138 -10.4087     55.5093     41.0807   8.2125555454e+01   6.2087344129e+01    0.1835655    0.1146617 -36.18 0.0003500573    1.439    0.305
       139 -11.2041     45.7144    209.7337   1.1858630134e+02   2.5021356332e+01    0.2493318    0.1170904  81.98   0.00116706    2.475    0.596
       140 -11.5576    104.6046     36.9832   6.3998929794e+01   5.3753728403e+01    0.3975773    0.1325819 -31.35  0.001417992    3.037    0.671
       141 -11.2913    106.1115     32.0959   6.1715701187e+01   5.4086721402e+01    0.4279776     0.300337  59.99  0.002212597    1.541    0.351
       142 -12.5753     75.9466     37.3851   7.3039177377e+01   5.9378268506e+01    0.3521355    0.2523192  41.48 0.0008953377    1.442    0.307
       143 -12.2136     69.6285     36.5997   7.4952264164e+01   6.0600353701e+01     0.435037    0.2393956  31.51    0.0010257    1.889    0.471
       144 -11.5508     57.9480     35.4091   7.8858852467e+01   6.2666051181e+01     0.395211    0.2461243  18.40  0.001616743    1.768    0.434
       145 -12.8209     29.1185     32.3967   8.9951209467e+01   6.6858726956e+01     1.386577    0.3606081  30.29  0.005445369    4.121    0.757
       146 -11.3007     72.8570    207.1717   1.1277583616e+02   2.2069359051e+01    0.2392753    0.1930712  69.17  0.001518114    1.058    0.055
       147 -10.9208    150.4868    206.8314   9.6224424530e+01   9.7524176816e+00    0.2685165    0.1766404  38.36  0.001397459    1.387    0.279
       148 -11.4274     41.7139    206.5796   1.1911960011e+02   2.6156638267e+01    0.2211571    0.1203142  80.51  0.001190635    1.804    0.446
       149 -12.1104     57.4447    203.5832   1.1562517792e+02   2.4881717793e+01     0.395277     0.223691 -88.99  0.002084924    1.815    0.449
       150 -12.1648     46.0859     33.8617   8.3042583288e+01   6.4604748977e+01    0.4724708    0.3022184 -22.24  0.002664661    1.461    0.315
       151 -12.0136     17.0376    195.1036   1.2317778376e+02   3.1237608434e+01    0.3906353    0.2126912 -77.30  0.002204955    1.540    0.351
       152 -11.2283     38.3288     29.9391   8.4752520535e+01   6.6235840427e+01    0.1757795    0.1278003 -27.43 0.0002778453    1.150    0.131
       153 -11.4905    248.4232    195.7325   7.5319663317e+01  -4.8491338765e+00    0.2388135    0.1077797 -37.21  0.001147369    2.123    0.529
       154 -12.7760     56.3256     27.5087   7.6112645129e+01   6.4127227497e+01     0.625326     0.297956  43.47  0.002047489    2.314    0.568
       155 -12.7004     68.0781     24.6299   7.0402002215e+01   6.2599526834e+01     0.732722    0.3037747  41.14  0.003278163    2.331    0.571
       156 -11.5930    163.9984    195.5027   9.1448230124e+01   9.4842338410e+00    0.2757773    0.1805345 -89.42  0.001045281    3.592    0.722
       157 -10.8996     97.9054     27.1433   6.2002453188e+01   5.6487960433e+01    0.1970647    0.1900779  78.06  0.001224593    1.263    0.208
       158 -11.1099     37.3911     25.7747   8.3365258537e+01   6.7018863226e+01    0.2015856    0.1540773  16.74 0.0005480763    1.297    0.229
       159 -11.5986     40.5187    195.0347   1.1835603235e+02   2.8785875677e+01    0.2827996    0.1082994 -79.85  0.001214639    2.703    0.630
       160 -10.9926     54.3786     19.9641   7.3466572932e+01   6.5489926161e+01    0.2154455    0.1544479  19.08 0.0005209497    1.291    0.226
       161 -13.1336     30.0228    168.9911   1.1818304288e+02   3.5825980620e+01    0.6402977     0.395706 -49.64  0.001701061    1.888    0.470
       162 -13.1981     22.3002    181.1464   1.2101550487e+02   3.3805846369e+01    0.8356044    0.4196713 -50.91  0.004004879    2.458    0.593
       163 -14.3615      8.3602    183.3938   1.2411886494e+02   3.4586559438e+01    0.9658613    0.8771772  81.35  0.007402751    1.284    0.221
       164 -14.1056     16.5848    175.8577   1.2181337063e+02   3.5537928474e+01     1.922533    0.5964548  49.69  0.001240118    3.051    0.672
       165 -11.9567    201.0915    191.8927   8.3216751186e+01   3.4858694475e+00    0.3274316    0.2666691  -3.52  0.001140072    1.206    0.170
       166 -11.9944    198.4264    181.5933   8.1720841025e+01   5.7461237804e+00    0.2798133    0.2693693  21.96  0.001226954    1.153    0.132
       167 -10.7924     49.2683    181.5307   1.1510682148e+02   3.0795215086e+01    0.2747546    0.1241052 -57.61  0.001288993    2.166    0.538
       168 -10.1339     89.4471     30.3991   6.5788769286e+01   5.7813606196e+01    0.1339822    0.1190111  15.52  2.96714e-05    1.018    0.017
       169 -11.5021    169.8241     43.8152   5.2156673320e+01   3.7246832139e+01    0.3228942    0.2124539  62.73  0.001142724    1.476    0.323
       170 -12.7390    124.1176    166.3253   9.5046524213e+01   2.2885502953e+01    0.5915222    0.4286118 -71.27  0.002856513    1.573    0.364
       171 -11.5543     14.5103    159.2554   1.2084824804e+02   3.9537060333e+01    0.4495046     0.119981 -59.37  0.001826032    3.086    0.676
       172 -11.7535     77.3852    156.9235   1.0500406282e+02   3.2883346854e+01    0.3864917    0.2829227  36.43  0.001325232    1.480    0.324
       173 -12.7114     73.9844    153.3619   1.0529639064e+02   3.4238304336e+01    0.6034094    0.4790623  30.78  0.002570098    1.448    0.309
       174 -10.9288    109.3396    153.6656   9.6253281890e+01   2.8476629890e+01    0.1570973    0.1131937  78.09 0.0007051447    1.751    0.429
