#   1 NUMBER                 Running object number                                     
#   2 MAG_AUTO               Kron-like elliptical aperture magnitude                    [mag]
#   3 X_IMAGE                Object position along x                                    [pixel]
#   4 Y_IMAGE                Object position along y                                    [pixel]
#   5 X_WORLD                Barycenter position along world x axis                     [deg]
#   6 Y_WORLD                Barycenter position along world y axis                     [deg]
#   7 A_WORLD                Profile RMS along major axis (world units)                 [deg]
#   8 B_WORLD                Profile RMS along minor axis (world units)                 [deg]
#   9 THETA_WORLD            Position angle (CCW/world-x)                               [deg]
#  10 FWHM_WORLD             FWHM assuming a gaussian core                              [deg]
#  11 ELONGATION             A_IMAGE/B_IMAGE                                           
#  12 ELLIPTICITY            1 - B_IMAGE/A_IMAGE                                       
         1 -17.0745    246.3511    176.2664   2.8155187887e+01   4.2153868790e+00     3.371355    0.7214975 -36.00   0.01363096    3.749    0.733
         2 -18.3479    245.2416    115.9157   1.7414180232e+01   1.2473204401e+01     8.802955     1.425158 -37.26   0.03008607    4.471    0.776
         3 -15.5671     17.3463     27.7788   5.6139575776e+01   7.2970855187e+01     1.615726     1.138632  52.44  0.007817643    1.888    0.470
         4 -14.6561      2.4715     22.4063   6.6593964502e+01   7.5454020810e+01     1.806315    0.2703069 -65.19  0.004854092    6.591    0.848
         5 -14.4216     12.6199      3.3126   4.5454437202e+01   7.8148532857e+01     1.356669    0.3828797  32.78  0.005044568    3.368    0.703
         6 -16.3639      5.3855     93.6561   7.9806891972e+01   5.7336925369e+01     2.636896      0.91772 -77.49   0.00894352    2.685    0.628
         7 -16.8101     11.1621     61.6407   7.1627441503e+01   6.5523822126e+01     2.845897     1.650037 -87.87   0.01283179    2.072    0.517
         8 -13.5255     78.2583     33.2379   2.5670654976e+01   6.0585731560e+01     1.088145    0.6198619  -3.72  0.003639196    4.083    0.755
         9 -14.0114     66.1877     27.3443   2.7345920870e+01   6.4285020331e+01    0.7996302     0.554538 -11.91  0.003866976    1.868    0.465
        10 -13.8454     39.3041      3.9597   2.6031344015e+01   7.3307486150e+01    0.6030656    0.4822384  29.29  0.003190471    1.148    0.129
        11 -12.2420     54.4315      2.6994   1.8210356617e+01   7.0073925505e+01    0.2555193    0.1320065  43.71  0.001199059    1.770    0.435
        12 -14.3992     45.4898    216.9877   7.7010621137e+01   2.2444536470e+01    0.6519333    0.3607476  27.32  0.003316903    1.516    0.340
        13 -15.0997     31.0231    246.4233   8.2164447462e+01   1.8025694984e+01    0.8284951     0.538957  18.26  0.005189477    1.453    0.312
        14 -16.5165     10.6098    240.1673   8.6540213410e+01   2.0989418008e+01      1.62158     1.061105  45.03  0.006650422    1.162    0.139
        15 -14.7305    211.6426    216.7175   4.0051140650e+01   2.6319631139e+00     1.075414     0.399975  17.94  0.004626052    3.709    0.730
        16 -13.1638    218.0146    223.4716   4.0008754159e+01   1.1039077100e+00    0.3827899    0.2074704  -2.52  0.002315431    1.848    0.459
        17 -15.9178    184.8679    242.1006   4.8459039994e+01   2.0827319663e+00     2.360964    0.5395895  35.05  0.009233847    4.422    0.774
        18 -15.1561    178.3965    228.4014   4.7771246171e+01   4.6572211252e+00     1.958266    0.6329147  21.50  0.007757093    3.650    0.726
        19 -14.7072    133.3967    191.0742   5.1680720887e+01   1.6634384766e+01    0.7742305     0.700393 -38.17  0.003829722    1.232    0.188
        20 -12.6986    204.5610    195.8721   3.7949440000e+01   6.3145985559e+00    0.2955767    0.2139618 -30.43  0.001972212    1.295    0.228
        21 -13.7046    193.4735    190.7298   3.9061384438e+01   8.4480421927e+00    0.6287788    0.3714402 -40.00  0.003615343    1.674    0.403
        22 -13.1985    106.8078    187.5373   5.7721094917e+01   2.1172005529e+01    0.2790826     0.212628 -16.60   0.00140704    1.486    0.327
        23 -13.5142    221.4395    184.0956   3.3167967782e+01   5.9877630286e+00    0.3898154    0.2741567  -0.97  0.002225186    1.294    0.227
        24 -12.3679    172.4944    186.4893   4.2359061555e+01   1.1916051667e+01    0.1292344    0.1086742  -3.14 0.0008105744    1.002    0.002
        25 -12.8628     62.9487    178.2738   6.8642880196e+01   2.9230397920e+01    0.3732172    0.2766386  50.04  0.001303413    1.296    0.228
        26 -13.9537     61.5279    170.0201   6.8065428205e+01   3.1418972059e+01    0.8374352    0.6817909  -2.17  0.004366104    1.395    0.283
        27 -13.2051     53.9991    167.4942   7.0070099424e+01   3.2973737772e+01    0.4820259    0.3069218  22.58  0.001620203    1.538    0.350
        28 -13.8290    207.6458    172.9023   3.3462991383e+01   9.3321938754e+00    0.4442307    0.3147545  15.97  0.002819688    1.414    0.293
        29 -14.0914    196.8378    171.5457   3.5085345693e+01   1.0993515279e+01    0.4835317    0.3845284  22.87  0.002496522    1.286    0.223
        30 -12.9664    113.7551    167.6283   5.2685063716e+01   2.4422601360e+01    0.3750122    0.2600294  52.56  0.001799003    1.669    0.401
        31 -13.0350     92.4212    163.0045   5.7820918518e+01   2.8798490699e+01    0.5587692    0.3786169 -89.77    0.0024576    2.143    0.533
        32 -14.8177    181.1441    153.1783   3.4486706274e+01   1.6352269874e+01    0.7487942    0.5019187 -54.39  0.003574343    1.869    0.465
        33 -15.5039     56.8413    153.7702   6.7413708110e+01   3.6122071201e+01     1.237642    0.9745605 -52.30  0.003910837    1.343    0.255
        34 -14.6774    106.0812    150.7776   5.1712188565e+01   2.9475386663e+01      1.37605    0.9031767  72.71  0.005542614    2.517    0.603
        35 -12.7964     84.5993    158.4510   5.9381179865e+01   3.1073273869e+01    0.4799653    0.2748513  34.90   0.00167258    1.607    0.378
        36 -14.0241    165.6433    144.2759   3.5754915718e+01   2.0499765584e+01    0.5502747     0.430571  51.11  0.003029031    1.507    0.336
        37 -13.5955    149.9510    144.3478   3.9173430643e+01   2.3213414812e+01     0.485075    0.4187679 -13.02  0.002603499    1.150    0.131
        38 -14.0445    147.4754    136.7891   3.8120184044e+01   2.5166578839e+01    0.5056552     0.407487 -80.47  0.002563523    1.730    0.422
        39 -14.0725    210.5582    139.3330   2.6652842259e+01   1.4091044625e+01     0.826873    0.4381712 -25.88  0.004170254    1.924    0.480
        40 -14.5180     32.4690    138.5691   7.3855717013e+01   4.2933001084e+01    0.8171064    0.6353504  38.40  0.002215676    1.233    0.189
        41 -13.0009     37.5544    132.4867   7.1227393968e+01   4.4057760278e+01    0.4824184    0.2764888  30.45  0.001950688    1.663    0.399
        42 -14.3665     64.5107    130.8858   6.1152797551e+01   4.1066809702e+01     1.195984    0.6268942  29.71  0.004543221    1.853    0.460
        43 -14.3288     46.1952    244.3988   7.8598802386e+01   1.6953694254e+01    0.4637132    0.3105032  69.12  0.002536057    1.646    0.393
        44 -12.9577     95.7740    242.0082   6.6998659409e+01   1.2071360000e+01    0.2355002    0.1500512  26.80  0.001389793    1.230    0.187
        45 -12.5705     52.2600    239.1430   7.6864127548e+01   1.7326945223e+01    0.2672002    0.1000994  43.60  0.001249499    2.158    0.537
        46 -14.1879     42.9870    209.8419   7.7146628983e+01   2.4231386458e+01      0.50782    0.4184902 -62.81  0.003162649    1.409    0.290
        47 -13.9550    161.0778    223.5873   5.0502252328e+01   7.3758834639e+00     0.462108    0.3199553  26.53  0.001795174    1.303    0.232
        48 -16.5109     12.7374    115.5792   7.8911653281e+01   5.0885958633e+01     2.914567     1.504303  -6.05   0.01194144    2.464    0.594
        49 -15.7908     22.4099     99.8578   7.2721655751e+01   5.4478513125e+01     1.219774     1.060769 -51.51  0.004514942    1.125    0.111
        50 -13.8821    106.5798    108.1799   4.2045551041e+01   3.9306601133e+01     0.500441    0.3143793 -60.09  0.002091458    1.829    0.453
        51 -13.9330     53.6858     89.7287   5.6461306157e+01   5.3484888920e+01    0.8940087     0.608449  86.94  0.003768907    2.057    0.514
        52 -14.2084     55.8719     82.6539   5.3574820607e+01   5.4933522165e+01    0.9158235    0.6618981  72.22  0.004075474    1.842    0.457
        53 -14.1876     43.9438     78.8302   5.8031063850e+01   5.7687917493e+01     1.295907     0.587938  43.49  0.004856595    2.365    0.577
        54 -15.5851    162.3003     83.8004   2.2150117954e+01   3.2194036299e+01     1.647209     1.120652 -65.86  0.007474052    1.769    0.435
        55 -14.8176    117.0542     76.2859   2.9951314482e+01   4.3810954309e+01    0.7795476     0.319218 -43.12  0.002794892    2.454    0.593
        56 -13.1530     12.7967    204.1802   8.4723018849e+01   2.8276741401e+01    0.3925585    0.2512937  33.51  0.001680334    1.313    0.239
        57 -12.5830     93.5082     63.9969   3.2797058070e+01   5.1640123354e+01    0.2362757     0.152057 -42.30  0.001041106    1.615    0.381
        58 -13.8461     65.6381     61.9219   4.2509195829e+01   5.8032976961e+01    0.8381712    0.5196836  58.71  0.003488168    2.038    0.509
        59 -14.7408     52.9351     57.7759   4.6807258194e+01   6.1300691289e+01     1.118431    0.9791805 -64.21    0.0043528    1.271    0.213
        60 -14.4921     42.6541     56.4344   5.1597687812e+01   6.3298558103e+01     1.262451    0.5731035  45.21  0.004798532    2.479    0.597
        61 -13.5490     40.4484    198.1240   7.6958198339e+01   2.7105977105e+01    0.4769787    0.3117587  43.76   0.00218361    1.316    0.240
        62 -13.2046    242.5385    222.2945   3.6002339317e+01  -1.0949852689e+00    0.3458906    0.1947531  -3.87  0.002382298    1.562    0.360
        63 -13.9108     70.4456    222.1592   7.1149614799e+01   1.8663538857e+01    0.3968832    0.2592562 -63.27  0.002250217    1.809    0.447
        64 -13.0224     38.6178     21.4533   3.7717776708e+01   7.0954243409e+01    0.3153812    0.2647446 -10.99  0.001835815    1.229    0.186
        65 -15.1055     52.4140    219.2228   7.5420322464e+01   2.1252391475e+01    0.8676721    0.5040153  71.37  0.003905699    2.078    0.519
