#   1 NUMBER                 Running object number                                     
#   2 MAG_AUTO               Kron-like elliptical aperture magnitude                    [mag]
#   3 X_IMAGE                Object position along x                                    [pixel]
#   4 Y_IMAGE                Object position along y                                    [pixel]
#   5 X_WORLD                Barycenter position along world x axis                     [deg]
#   6 Y_WORLD                Barycenter position along world y axis                     [deg]
#   7 A_WORLD                Profile RMS along major axis (world units)                 [deg]
#   8 B_WORLD                Profile RMS along minor axis (world units)                 [deg]
#   9 THETA_WORLD            Position angle (CCW/world-x)                               [deg]
#  10 FWHM_WORLD             FWHM assuming a gaussian core                              [deg]
#  11 ELONGATION             A_IMAGE/B_IMAGE                                           
#  12 ELLIPTICITY            1 - B_IMAGE/A_IMAGE                                       
         1 -11.2728     17.7948     56.8388   1.3761374902e+02   6.2704083323e+01    0.5723962    0.1797913  33.15  0.002338866    3.476    0.712
         2 -13.7913    202.0154      8.7051   6.7149082162e+01   3.3177153822e+01     1.664466     1.106905  36.47  0.008474012    1.695    0.410
         3 -12.2223     12.1001     10.7963   1.2658541992e+02   7.3677126401e+01    0.5341066    0.2254239 -47.63  0.002636651    1.771    0.435
         4 -13.4275    188.8454     27.1949   7.4372763440e+01   3.4589027877e+01     1.269498     1.202391  41.30  0.005968737    1.092    0.084
         5  -9.6679     95.1255    241.2238   1.3901632892e+02   1.6286553567e+01    0.1395757     0.138006   1.44 0.0003823925    1.339    0.253
         6 -10.4329    139.2166    250.2419   1.3207986913e+02   9.8495121776e+00    0.1973151   0.09958545  33.19  0.001287805    1.472    0.320
         7 -10.7567     66.7568    250.1000   1.4454022963e+02   1.8145490763e+01    0.2689403    0.1745809  38.24  0.001403531    1.207    0.172
         8 -10.0886     66.6920    243.3405   1.4415960989e+02   1.9112247729e+01    0.2004618     0.128819  67.03 0.0008717949    1.528    0.346
         9 -10.1044     46.3139    248.6313   1.4790425232e+02   2.0393409759e+01    0.2732522     0.110246  62.12  0.001509195    2.411    0.585
        10 -10.8999     29.7726    249.6272   1.5066921957e+02   2.1782510731e+01    0.2622749    0.1804415  57.88  0.002309606    1.092    0.084
        11 -10.7192     33.4133    247.8112   1.5000730632e+02   2.1716890840e+01    0.2135654    0.1639741  86.19  0.001942999    1.399    0.285
        12 -11.5192     36.0071    243.8288   1.4942081126e+02   2.2061904719e+01    0.4577782     0.191796  24.87  0.002674825    2.839    0.648
        13 -13.6584      3.0276     55.1076   1.4388337690e+02   6.3872381615e+01     7.745013    0.2287532 -74.25   0.01216873   17.757    0.944
        14 -15.3208     28.6265    177.7508   1.4757669672e+02   3.4071447811e+01     9.202722      3.25374  61.88   0.04268449    2.989    0.665
        15  -9.0545     27.1691    240.2010   1.5076162775e+02   2.3401176184e+01     0.139276    0.0755841  55.04 0.0006186056    1.354    0.261
        16  -9.2985    184.6703    237.6770   1.2285852744e+02   5.5703601161e+00      0.11102    0.0664339  11.72 0.0007049562    1.697    0.411
        17  -9.4510     34.9569    229.8259   1.4901037648e+02   2.4292924372e+01    0.1758049     0.111212  61.43 0.0007041848    1.268    0.212
        18 -10.9821    154.7721    228.3813   1.2697447335e+02   1.0575974012e+01    0.3451649    0.1181302  27.43  0.001423821    3.535    0.717
        19  -9.7926    177.4589    227.0699   1.2275220905e+02   7.7188004203e+00    0.1903926    0.1531209  74.95  0.001255426    2.500    0.600
        20 -12.5525     43.7758    235.0066   1.4770294177e+02   2.2656891701e+01    0.2505057     0.239357  49.19 0.0008112146    1.375    0.273
        21 -10.8823    172.4863    221.9761   1.2296970622e+02   9.0031510397e+00    0.2507036    0.1832589  -5.58  0.001466451    1.472    0.321
        22  -9.5387     27.9268    221.9793   1.4992320376e+02   2.6189374307e+01    0.1509824     0.109209  54.14 0.0003979491    1.033    0.032
        23  -8.8724    152.5185    213.0006   1.2547797418e+02   1.2924087013e+01    0.1379392    0.1138693 -36.19 0.0003454108    1.464    0.317
        24 -12.1927     27.4663    203.8762   1.4920468750e+02   2.9304352221e+01    0.4456342    0.1833376  39.74  0.001204135    1.877    0.467
        25 -11.3003     68.1612    199.9456   1.4084914021e+02   2.5911347101e+01    0.2779624    0.2067998 -39.87  0.001517486    1.853    0.460
        26 -10.0951    193.4749    195.9216   1.1532831809e+02   9.3100758190e+00    0.5682392    0.3245253 -58.99  0.002048887    6.772    0.852
        27 -11.6027     73.4398    191.8946   1.3904894238e+02   2.6753454769e+01    0.2282321    0.2161872 -37.32 0.0007529851    1.324    0.244
        28 -13.7693     49.6151    226.0939   1.4620413335e+02   2.3477199587e+01    0.7525426     0.538866  71.23  0.004836848    1.286    0.222
        29  -9.6718    173.5212    248.5332   1.2604814576e+02   5.8012279526e+00    0.1055563   0.07563965  27.42 4.441823e-05    1.040    0.038
        30 -13.1028     69.8380    177.0115   1.3840048615e+02   2.9984512243e+01    0.4378385    0.2601996 -41.75  0.001736108    2.309    0.567
        31 -10.8218     82.4488    179.0646   1.3579125751e+02   2.8058011700e+01    0.2080287     0.199073  80.43 0.0004563774    1.122    0.109
        32 -11.7154     89.1118    169.6843   1.3316836797e+02   2.9014849402e+01     0.523478    0.4911434 -25.53  0.003599879    1.248    0.199
        33 -10.0102    195.0479    158.7229   1.0835757342e+02   1.4148146274e+01    0.3184255    0.2606634 -79.50    0.0015423    2.442    0.591
        34 -10.0737    198.3934    245.7711   1.2157701814e+02   2.9986304361e+00    0.1312606   0.08467427 -10.65 0.0007414665    1.676    0.404
        35  -9.7152    100.9656    153.0057   1.2799647222e+02   3.0703365532e+01    0.2692642    0.2082178 -46.06 0.0008570749    1.390    0.281
        36  -9.0778    103.4154    148.8240   1.2672297924e+02   3.1195529146e+01    0.1911389    0.1300166 -54.40 0.0003935735    1.529    0.346
        37 -11.8536     89.7936    152.5034   1.3067379598e+02   3.2398615139e+01    0.2567002    0.2340539 -13.25 0.0005810135    1.277    0.217
        38 -12.7003     66.1195    142.7794   1.3535872165e+02   3.7555207850e+01      1.17961    0.6036617  70.26  0.003036181    2.945    0.660
        39 -13.8111      3.1637    234.6790   1.5457913919e+02   2.6242566383e+01     2.314467    0.8877661 -84.00   0.01254416    2.590    0.614
        40 -10.4912    175.0058    138.4267   1.0812727636e+02   2.0850668310e+01    0.4623424    0.3347051  79.87  0.002004336    3.001    0.667
        41  -9.6380    111.1739    137.7089   1.2282208199e+02   3.2286780818e+01    0.3451616    0.2258945 -19.18  0.001419386    2.316    0.568
        42 -10.6845     98.9223    135.5039   1.2558116568e+02   3.4675758909e+01    0.3045222    0.2269188 -48.98 0.0006676791    1.369    0.269
        43  -9.3249    169.4709    133.2693   1.0815582455e+02   2.2752923367e+01    0.2346959    0.2110893  74.24 0.0008575227    1.520    0.342
        44  -8.4438    192.0378    144.0432   1.0591599924e+02   1.6855260309e+01    0.1626464    0.1379054   1.63 0.0003671112    1.025    0.025
        45  -8.6826    117.2980    130.0100   1.1974826921e+02   3.2873571332e+01     0.224579   0.09821139 -32.67 0.0007007092    4.039    0.752
        46  -9.0945    108.0698    124.3369   1.2099919814e+02   3.5623498867e+01    0.1855122    0.1678088  34.80 0.0003232314    1.100    0.091
        47 -10.6725     54.2390    119.9996   1.3548005834e+02   4.4129101723e+01    0.2872115    0.1700335 -73.41  0.001457784    1.630    0.386
        48 -13.8011      9.9841    207.4931   1.5264298931e+02   3.0140139285e+01     1.392181    0.7163854  83.40  0.002976507    1.748    0.428
        49  -8.6788    153.1314    118.7794   1.0842715707e+02   2.8491165951e+01    0.2391453    0.1697703  89.83 0.0009493832    2.971    0.663
        50 -10.3299    168.1189    113.2150   1.0369328377e+02   2.6501359954e+01    0.3245245    0.2835126 -77.98  0.001063561    1.601    0.375
        51  -9.1308    203.4583    111.5020   9.6244926344e+01   1.9645129260e+01    0.1453756    0.1223885  -0.99  0.000778439    1.049    0.047
        52  -9.9853     46.3125    109.6706   1.3633662999e+02   4.7425639174e+01    0.2171732    0.1114317  38.56  0.001045578    2.005    0.501
        53  -9.0254    126.1915     99.4347   1.1021940324e+02   3.7609603888e+01    0.2059396     0.141762  55.30 0.0009302301    1.714    0.417
        54  -9.6608    155.4709     75.4999   9.5969489415e+01   3.5880937125e+01    0.1543568    0.1436785  -9.23 0.0001075209    1.013    0.013
        55  -9.9706     18.8949     67.0084   1.3909349786e+02   6.0151291513e+01    0.2488841    0.1762457  35.03    0.0007769    1.651    0.394
        56  -9.7891    249.3272    249.3658   1.1406728407e+02  -3.3287397990e+00    0.1661246   0.08347543  11.20  0.001115303    1.674    0.403
        57 -10.4764     81.4549    249.0846   1.4196860796e+02   1.6725961381e+01    0.2028858    0.1058234  43.03 0.0008285511    1.390    0.281
        58  -9.6002    152.5401    248.9872   1.2966501176e+02   8.3582050964e+00    0.1217927    0.1024663 -32.36 0.0004730033    1.557    0.358
