#   1 NUMBER                 Running object number                                     
#   2 MAG_AUTO               Kron-like elliptical aperture magnitude                    [mag]
#   3 X_IMAGE                Object position along x                                    [pixel]
#   4 Y_IMAGE                Object position along y                                    [pixel]
#   5 X_WORLD                Barycenter position along world x axis                     [deg]
#   6 Y_WORLD                Barycenter position along world y axis                     [deg]
#   7 A_WORLD                Profile RMS along major axis (world units)                 [deg]
#   8 B_WORLD                Profile RMS along minor axis (world units)                 [deg]
#   9 THETA_WORLD            Position angle (CCW/world-x)                               [deg]
#  10 FWHM_WORLD             FWHM assuming a gaussian core                              [deg]
#  11 ELONGATION             A_IMAGE/B_IMAGE                                           
#  12 ELLIPTICITY            1 - B_IMAGE/A_IMAGE                                       
         1 -12.1211    193.6643     39.5308   5.2083113950e+01   3.1006096736e+01     1.221668    0.8292558  28.25  0.004686129    1.743    0.426
         2 -12.5328    202.3981     32.4982   4.8749122375e+01   2.9546215137e+01     1.532228     1.141387  13.66  0.007476906    1.554    0.356
         3 -10.8262    210.8156     24.1700   4.5236459807e+01   2.8264594429e+01    0.5273821    0.4225584  17.43   0.00111476    1.395    0.283
         4 -11.9980    216.7234     17.1270   4.2529688598e+01   2.7456382048e+01    0.8637468    0.7508564 -25.89  0.002917506    1.097    0.088
         5  -9.6111    144.7937     49.4999   6.3946510572e+01   4.2497941937e+01     0.540374    0.3292789 -74.38  0.001977243    2.729    0.634
         6 -11.2593     96.0120    244.5084   1.0947627715e+02   1.8322369196e+01    0.7177911    0.2400397  45.07  0.004259523    1.949    0.487
         7  -9.8462     86.9021    246.7990   1.1109120773e+02   1.9165899303e+01    0.2942699    0.1047391  48.29  0.001823568    1.857    0.462
         8 -11.3461     71.9182    249.5534   1.1363588633e+02   2.0606562424e+01    0.8196524    0.2864718  39.28  0.005016254    2.112    0.526
         9 -10.1660     81.7114    247.6321   1.1197164633e+02   1.9691041336e+01    0.2906422    0.2582401 -77.61  0.002774454    1.616    0.381
        10 -11.2136     95.7143    249.5780   1.0986751804e+02   1.7728316544e+01     1.092148    0.2323029  36.39  0.003973358    5.815    0.828
        11 -11.9570    111.2350    246.2743   1.0715838551e+02   1.6153172578e+01    0.8476067    0.3402981  32.62  0.004516825    2.909    0.656
        12  -8.1022     52.9154    250.5535   1.1666872575e+02   2.2624275434e+01    0.1372264    0.0629026  43.16 0.0003053687    1.497    0.332
        13  -8.9682     49.4181    249.2154   1.1715693449e+02   2.3181623267e+01    0.2087684   0.08970825  65.65  0.001452629    2.012    0.503
        14 -11.4682     46.5355    219.8214   1.1627629277e+02   2.7685923906e+01    0.4760022    0.4506027 -85.48  0.001404405    1.617    0.382
        15 -12.6785     30.2199    218.5566   1.1903461135e+02   2.9612787461e+01     1.210023     0.580919  78.86  0.008482242    1.894    0.472
        16 -13.4337     49.6342    198.6938   1.1454523692e+02   3.0703305351e+01     2.463145    0.8290108  58.84   0.01214833    2.618    0.618
        17 -13.7941      8.8870    206.7239   1.2233195245e+02   3.3538031101e+01     1.808399    0.9677839 -87.78  0.009449889    1.744    0.427
        18  -7.8190    180.6854    233.6715   9.4894067321e+01   7.9512726465e+00    0.1036598   0.06392737  22.95 0.0005823711    1.674    0.403
        19 -10.2074    144.1901    231.5944   1.0051755461e+02   1.3401377452e+01    0.2063058    0.1453082 -67.40  0.001549369    2.129    0.530
        20  -7.8470     76.6474    233.6996   1.1193976371e+02   2.2156998331e+01   0.08791084   0.07074159  28.07 0.0007037746    1.698    0.411
        21  -8.8980     54.1066    231.0084   1.1555333878e+02   2.5184494311e+01    0.1793465    0.1129077  75.36  0.001227626    1.442    0.307
        22 -15.1712      8.5212    241.5639   1.2326800613e+02   2.8312546323e+01       11.639     1.374862 -83.41   0.04456924    9.371    0.893
        23  -9.6398     96.0778    225.0396   1.0803123500e+02   2.0887056322e+01    0.2690932    0.1617782 -76.33   0.00191264    2.124    0.529
        24 -11.2386    108.9036    228.7063   1.0613974606e+02   1.8676327008e+01     0.425684    0.2191243  43.84  0.002850033    1.385    0.278
        25  -9.1830    168.4849    225.9769   9.5953619437e+01   1.0517802364e+01    0.1209208    0.1075491 -34.39 0.0004047054    1.547    0.354
        26 -10.5532     85.1998    223.8566   1.0981841779e+02   2.2467618800e+01    0.2737179    0.1687106  59.16  0.001688446    1.287    0.223
        27 -10.1929    162.3416    223.5054   9.6672887777e+01   1.1695853215e+01    0.3058706    0.1085021  35.55  0.001495731    2.593    0.614
        28  -8.5141    179.1715    218.5675   9.3340706500e+01   9.7313592792e+00    0.1644508   0.08181109 -43.28  0.001003877    2.766    0.638
        29  -8.7082     60.2835    218.2097   1.1378912350e+02   2.6363410393e+01    0.1822084    0.1011747  70.26 0.0008509543    1.625    0.385
        30  -9.0610     91.5858    233.3001   1.0941465191e+02   2.0343916977e+01     0.186137    0.1317365  52.14 0.0005305435    1.033    0.032
        31  -8.4088     50.9431    243.2319   1.1665471406e+02   2.3822352796e+01    0.1313092   0.09748733  25.48  0.001061993    2.002    0.500
        32  -8.6840    193.1681    193.1396   8.7583004356e+01   1.0348808673e+01    0.2214301    0.1660331  18.00  0.001531881    1.299    0.230
        33  -7.9333     82.6446    194.7131   1.0794902758e+02   2.7254803773e+01   0.09830076    0.0837058  21.28 0.0007023231    1.673    0.402
        34  -9.8701     58.1310    239.1455   1.1530149287e+02   2.3582902259e+01    0.2370491    0.1565097 -58.09  0.001884041    2.337    0.572
        35  -8.6806     73.5316    188.1828   1.0915750118e+02   2.9552951514e+01    0.2183366    0.1236632  61.82  0.000932793    1.523    0.343
        36 -10.2147     66.2548    180.6949   1.0997771586e+02   3.1793297150e+01    0.3101927    0.2352311 -42.23  0.002036286    2.131    0.531
        37 -10.2260     71.2240    175.0487   1.0844938375e+02   3.2159273532e+01    0.2460608    0.2288052 -22.80 0.0005011889    1.677    0.404
        38  -9.6823     89.8900    229.8631   1.0945212918e+02   2.1027551940e+01    0.2028381    0.1389169 -69.42 0.0002761859    1.868    0.465
        39  -8.5649    103.4027    173.2111   1.0156825804e+02   2.7889412239e+01     0.157322    0.1082359 -83.47 0.0009545556    1.690    0.408
        40  -8.4825     97.3422    170.3179   1.0247831424e+02   2.9314851208e+01     0.109325   0.09434661   8.42 0.0007049135    1.715    0.417
        41  -8.5740    194.3867    167.4875   8.3264887363e+01   1.3192829926e+01    0.2032718    0.1869953  18.71 0.0009698139    1.150    0.130
        42 -10.2680     78.3759    158.9251   1.0523869703e+02   3.4176096750e+01    0.4267024    0.2404833  76.55   0.00225296    2.059    0.514
        43 -12.0122     68.7164    145.1136   1.0584738995e+02   3.8221691400e+01     0.960833    0.5071657  84.50  0.004697324    2.346    0.574
        44 -10.9021     86.2908    158.8782   1.0347738610e+02   3.3047369650e+01    0.6288043    0.3981284 -44.53  0.001598813    2.271    0.560
        45 -11.7011     67.7566    161.4780   1.0787006319e+02   3.5135714001e+01    0.3494326    0.2883132 -48.76  0.001064824    1.684    0.406
        46 -10.3672     23.1611    155.6259   1.1734999196e+02   4.1349188760e+01    0.3247745    0.1628873 -80.18  0.001985578    1.797    0.444
        47  -8.1171    134.4663    147.5210   9.1281901485e+01   2.7144207934e+01    0.2197275    0.1232274 -37.03  0.001039148    2.399    0.583
        48  -8.8642     28.4390    156.3406   1.1621441058e+02   4.0693751747e+01    0.1757356   0.08917122  37.54 0.0007983115    1.842    0.457
        49  -9.2617    101.6803    142.0798   9.7668684567e+01   3.3867548103e+01    0.4714429    0.2920376 -31.22  0.002132621    3.078    0.675
        50 -10.5852     88.4580    142.4845   1.0082157691e+02   3.5893621261e+01    0.2993474    0.2508078  26.19  0.001864593    1.518    0.341
        51  -9.9188     80.3180    165.2246   1.0551878208e+02   3.2719181659e+01     0.241989    0.2018045  48.70 0.0004486535    1.207    0.172
        52  -8.7704    110.5459    131.7150   9.3869658360e+01   3.4374104748e+01    0.2609695     0.212071 -12.10  0.001433316    1.885    0.469
        53  -8.1772    106.1379    130.8501   9.4764327073e+01   3.5315051865e+01    0.2149457    0.1685295  71.73  0.001236139    1.256    0.204
        54  -7.5657     83.6592    131.3220   1.0033535862e+02   3.8891070831e+01    0.1392058   0.08741633  70.34 0.0007050517    1.722    0.419
        55  -8.4120    136.0000    129.9889   8.7718635488e+01   2.9970556416e+01    0.2112563   0.07864467 -47.14 0.0008025226    2.943    0.660
        56  -9.9689     56.2161    129.2918   1.0702444011e+02   4.3143824539e+01     0.255392     0.153309 -86.64 0.0009850406    1.635    0.388
        57 -11.2902    135.9467    238.9033   1.0256147920e+02   1.3708521111e+01      0.28155    0.2202741  56.94   0.00236816    1.256    0.204
        58  -8.5244    135.4745    124.4864   8.6727601306e+01   3.1078722372e+01    0.1379657    0.1264882  56.03 0.0008099609    1.011    0.010
        59  -8.0416    107.5051    120.0593   9.2440535089e+01   3.7233980468e+01    0.1836599    0.1322657 -57.85 -3.945646e-05    1.441    0.306
        60  -9.3002     23.6419    116.7563   1.1437364974e+02   4.9391233159e+01    0.2152023    0.1242869  88.45  0.001032856    1.487    0.328
        61  -9.2083     98.2081    128.0140   9.6193773176e+01   3.7236389172e+01    0.2205392    0.2131664 -16.64 0.0005927365    1.331    0.249
        62  -8.5327     33.0000    116.0172   1.1171340492e+02   4.8659823623e+01    0.1982335   0.05918521 -73.54  0.000806077    2.968    0.663
        63  -8.2463    168.2047    113.4138   7.7309352541e+01   2.6196950395e+01    0.2044097    0.1306348  61.71 0.0009423885    1.758    0.431
        64  -8.2449    134.6671    112.5132   8.4336104521e+01   3.3470701842e+01    0.2377045    0.1324342 -46.07  0.001065949    1.902    0.474
        65 -10.4209     49.0477    233.8506   1.1653163251e+02   2.5340318242e+01    0.2914658    0.1033915  52.32  0.001849195    1.866    0.464
        66  -8.2644    205.8197    110.1724   6.9631576745e+01   1.8533045334e+01    0.1971089    0.1510903  19.24 0.0005415611    1.343    0.255
        67 -11.5749     40.7970    208.8042   1.1673557734e+02   3.0034809001e+01    0.3563773    0.3103975  56.14  0.001317785    1.389    0.280
        68  -8.7010    134.5121    103.0167   8.2155353008e+01   3.5299033781e+01    0.2177098    0.1426043 -45.26 0.0006135206    1.592    0.372
        69  -7.7659     91.6619    102.8359   9.3081507443e+01   4.3627006977e+01    0.1831643    0.1217886 -69.14 0.0003668871    1.571    0.363
        70 -11.3639    125.8383    230.1799   1.0341999286e+02   1.6159388269e+01    0.3809657    0.2528668  52.55  0.002869677    1.198    0.165
        71 -10.7941     13.4428     59.8343   1.1092993055e+02   6.3164183204e+01    0.3964511    0.1782684 -69.15  0.001681973    1.746    0.427
        72  -7.8175    174.3190    248.6832   9.7496879175e+01   7.3872402658e+00    0.0949686   0.06217121  54.57 0.0007040336    1.657    0.396
        73  -9.5492     59.9994    246.4436   1.1536335871e+02   2.2382288460e+01    0.1759273   0.09535021  69.53  0.001029419    1.662    0.398
        74 -11.1239    125.9031    243.2467   1.0456335606e+02   1.4571848641e+01    0.2877739    0.2449032   4.47  0.002461731    1.769    0.435
        75 -10.0917     65.1796    239.7124   1.1418357335e+02   2.2696980491e+01    0.2517485    0.1842067  45.47  0.002159019    1.277    0.217
