#   1 NUMBER                 Running object number                                     
#   2 MAG_AUTO               Kron-like elliptical aperture magnitude                    [mag]
#   3 X_IMAGE                Object position along x                                    [pixel]
#   4 Y_IMAGE                Object position along y                                    [pixel]
#   5 X_WORLD                Barycenter position along world x axis                     [deg]
#   6 Y_WORLD                Barycenter position along world y axis                     [deg]
#   7 A_WORLD                Profile RMS along major axis (world units)                 [deg]
#   8 B_WORLD                Profile RMS along minor axis (world units)                 [deg]
#   9 THETA_WORLD            Position angle (CCW/world-x)                               [deg]
#  10 FWHM_WORLD             FWHM assuming a gaussian core                              [deg]
#  11 ELONGATION             A_IMAGE/B_IMAGE                                           
#  12 ELLIPTICITY            1 - B_IMAGE/A_IMAGE                                       
         1 -14.4262    154.2890     51.5881   8.8391994443e+01   4.0058293958e+01     1.552344      1.22269  34.33  0.004386117    1.296    0.228
         2 -14.5704    165.5159     35.4739   8.0649229856e+01   3.9492262235e+01     1.266017    0.9709467  -2.21  0.004447963    1.366    0.268
         3 -13.9618    179.2500      4.6697   6.8151614728e+01   3.9219821807e+01    0.9786876    0.6602716  71.55  0.003807297    1.498    0.333
         4 -11.7809     13.6597    244.1055   1.5310819804e+02   2.3976037194e+01    0.2218118    0.0788433 -76.07  0.001430693    2.998    0.666
         5 -19.8368     69.8854    168.3292   1.3748248269e+02   3.1701328558e+01     16.42995     6.315104 -69.09   0.07376564    2.827    0.646
         6 -12.1246    169.9728    195.1229   1.1960571421e+02   1.2907621020e+01    0.2544982    0.2017018 -43.99  0.001299292    1.594    0.373
         7 -11.4317    165.9265    189.3602   1.1949438646e+02   1.4345266869e+01    0.2967027    0.2220611  82.20  0.001551725    2.879    0.653
         8 -13.4643    207.5083    183.9435   1.1077095624e+02   8.7372249225e+00    0.5839407    0.4003473 -47.68  0.001164643    2.295    0.564
         9 -13.0993    210.4109    181.7894   1.0987320436e+02   8.5692408630e+00    0.4672953    0.2628836 -18.27  0.002048887    1.843    0.457
        10 -10.8579     15.1664    189.1066   1.5095692703e+02   3.3029544950e+01      0.13356    0.1163911  70.56 0.0003351642    1.168    0.144
        11 -10.8431    157.5166    184.9059   1.2046574301e+02   1.6301675181e+01    0.1681331    0.1226659 -40.24  0.001020639    1.559    0.359
        12 -11.4379     25.8499    231.9114   1.5068064579e+02   2.4788097911e+01    0.1355056    0.1132628  74.46 0.0006084854    1.238    0.192
        13 -11.8217     27.9879    183.9707   1.4807306982e+02   3.2921349429e+01    0.1823566    0.1478766  35.47 0.0003525767    1.311    0.237
        14 -10.7497    108.6940    182.7874   1.3044522015e+02   2.3886972284e+01    0.2498773    0.1618336  55.64 0.0007903309    1.649    0.394
        15 -12.2579     47.4147    182.0240   1.4379918412e+02   3.1458195549e+01    0.1953467    0.1662669  61.14  0.000424854    1.039    0.038
        16 -12.0832    197.7621    176.2999   1.1117811872e+02   1.1240408235e+01    0.3772976    0.2877589 -41.28  0.001527963    1.690    0.408
        17 -10.9230    140.0784    249.7121   1.3187994058e+02   9.8076706233e+00    0.2029085    0.1389396  50.93 0.0008833618    1.563    0.360
        18 -12.4227    178.8458    174.7778   1.1451171586e+02   1.4469563608e+01     0.371759    0.2636079  -5.04  0.001499837    1.498    0.332
        19 -11.1059    177.4096    169.2361   1.1379712034e+02   1.5530354831e+01    0.2442508    0.1234075 -41.96  0.001084295    2.220    0.550
        20 -11.8357    137.9154    171.8531   1.2248185235e+02   2.1487172457e+01    0.4219428    0.2745351  65.05  0.002050906    2.445    0.591
        21 -12.6769    145.9884    170.3118   1.2048625000e+02   2.0472919123e+01    0.5590541    0.4060662  69.10  0.002948482    2.144    0.534
        22 -11.0401    205.9279    170.2998   1.0857168558e+02   1.0752965931e+01    0.4747269    0.2261959  19.69  0.002033552    2.743    0.635
        23 -11.9530    112.5997    169.0081   1.2767608547e+02   2.5858379884e+01    0.3858463    0.2336701  52.42  0.001789494    1.763    0.433
        24 -11.7801    230.1994    166.6529   1.0364470673e+02   7.4169978098e+00    0.2753287    0.1481282 -39.92  0.001414185    2.374    0.579
        25 -11.6043    225.8990    167.2856   1.0449004152e+02   8.0015714532e+00    0.2427675    0.1910645 -48.96   0.00145372    2.120    0.528
        26 -11.2635    124.7400    228.3382   1.3247440609e+02   1.4494725000e+01    0.2733681    0.1779422  59.52 0.0009974907    1.878    0.467
        27 -10.5145    123.6969    166.7459   1.2481410783e+02   2.4609625632e+01    0.2362989    0.1445799  55.19  0.000694355    1.938    0.484
        28 -10.8524    220.3695    227.6815   1.1554009456e+02   2.0401885011e+00    0.1703757   0.09410302 -31.72 0.0008734624    2.115    0.527
        29 -11.1878    200.1441    164.0427   1.0844056376e+02   1.2542421181e+01    0.2868889    0.2646872  33.62  0.001638378    1.392    0.282
        30 -10.8106      4.2886    228.1108   1.5423579279e+02   2.7178820798e+01   0.07475301   0.04992314  31.08 0.0002587409    1.546    0.353
        31 -10.5621    101.0724    224.4850   1.3652250267e+02   1.8009089966e+01    0.1513053    0.1183308  44.03 0.0007848312    1.039    0.038
        32 -13.8989    135.8890    127.0593   1.1445582799e+02   3.0181087203e+01      2.44827     0.394709 -46.60  0.005828663    6.548    0.847
        33 -13.1038    133.6673    143.1735   1.1834717788e+02   2.7435929162e+01    0.6644488    0.2728493 -56.51  0.002372976    3.492    0.714
        34 -11.0450    174.3371    148.5306   1.1040515396e+02   1.9310147093e+01    0.2974021    0.2486528 -41.11  0.001185625    1.378    0.274
        35 -13.2971    143.6261    144.6342   1.1631290913e+02   2.5432553959e+01    0.7119811    0.4525988 -67.43  0.003109167    2.670    0.626
        36 -12.4963    153.0763    145.5436   1.1435844669e+02   2.3602102314e+01    0.3358703    0.2904036  30.78   0.00197104    1.098    0.089
        37 -11.9350     13.5656    144.1672   1.4900888815e+02   4.2257568319e+01    0.3252179    0.1621429  87.62  0.001799162    1.804    0.446
        38 -10.7446    110.1462    222.9120   1.3466114765e+02   1.7122829584e+01    0.1582386    0.1192738  50.36 0.0004459794    1.216    0.178
        39  -9.8821    177.3166    143.6812   1.0877903976e+02   1.9564943300e+01    0.1256212    0.1131579  88.70 0.0007040068    1.656    0.396
        40 -10.4695     20.8933    219.2303   1.5107554038e+02   2.7255699584e+01    0.1343013   0.08970321  57.27 0.0003961305    1.114    0.102
        41 -12.3786      7.7088    139.5414   1.5019375210e+02   4.3672196273e+01    0.3483323    0.2648885   6.20  0.001954452    1.760    0.432
        42 -10.2905    139.4096    216.6617   1.2842177036e+02   1.4209818596e+01    0.2449015    0.1625391  76.42  0.001317058    3.081    0.675
        43 -10.7690     22.8807    240.3377   1.5148195252e+02   2.3756507045e+01    0.1207825   0.08272482  43.62 0.0003605543    1.184    0.155
        44 -11.3048     21.2525    235.2979   1.5158523664e+02   2.4663678349e+01    0.1213091   0.09602661  50.04 0.0007600647    1.170    0.145
        45 -11.8311    160.3897    128.4362   1.0904405460e+02   2.5321874950e+01    0.3792911    0.2563781 -26.43  0.001860881    1.541    0.351
        46 -10.3676     12.8121    212.4993   1.5229290679e+02   2.9056373148e+01    0.0874519    0.0609761 -63.52 0.0003867772    1.795    0.443
        47 -10.0480      3.1843    211.4254   1.5399513775e+02   2.9995837292e+01   0.08502024   0.06046139 -70.97 0.0004639396    1.651    0.394
        48 -11.7937    165.7032    207.3387   1.2221986266e+02   1.1841953024e+01    0.2688974     0.204594  35.73  0.001027799    1.197    0.164
        49 -12.0924    130.9649    120.9532   1.1430229803e+02   3.2304768895e+01    0.3027138    0.2134622 -34.33  0.001253484    1.467    0.318
        50 -12.1172    164.6999    204.3520   1.2198512768e+02   1.2394231712e+01    0.2827832    0.2328122  87.89  0.001337295    2.156    0.536
        51 -12.8809    134.3877    148.2168   1.1914719269e+02   2.6351083785e+01    0.4608212    0.2707969 -55.83   0.00217028    2.033    0.508
        52 -11.8839    134.5367    104.5477   1.0938670755e+02   3.4922424633e+01    0.5306583    0.1722498 -43.60  0.001726966    3.049    0.672
        53 -11.8661    170.1649    204.8888   1.2102940646e+02   1.1533404532e+01    0.2435808    0.1994759 -50.10 0.0004833383    1.693    0.409
        54 -12.1721      4.4870    112.0707   1.4931844433e+02   5.0095635354e+01    0.3535202    0.2223293   0.40    0.0020953    2.201    0.546
        55 -10.3296     30.5267    205.0618   1.4867282028e+02   2.8821285047e+01    0.1371458    0.1063765  47.80  0.001078204    1.138    0.121
        56 -10.8187    205.4813    110.1565   9.5548319631e+01   1.9444806318e+01    0.2980478    0.1913013  34.11 0.0008780912    1.574    0.365
        57 -12.1121    182.2273    189.2349   1.1632806312e+02   1.1880698151e+01    0.2850089    0.2113896  29.98 0.0007586934    1.165    0.142
        58 -12.4829    177.5453    189.4978   1.1726268265e+02   1.2556577506e+01    0.3147689    0.2373333  40.50  0.001086401    1.365    0.267
        59 -10.5928    155.2565    104.9862   1.0446083552e+02   3.0622290838e+01     0.229949    0.2046453  31.56  0.000302329    1.124    0.110
        60 -13.2480    178.1726    197.1601   1.1836049264e+02   1.1407892602e+01    0.5475964    0.2933493  45.66  0.002145594    2.017    0.504
        61 -10.7975    124.3679     94.8894   1.0947790976e+02   3.8904541868e+01    0.2359076    0.2073284  49.96 0.0004282713    1.229    0.186
        62 -12.8655    180.4347    193.9390   1.1742762412e+02   1.1507982926e+01     0.362146    0.3146074 -65.89  0.001808254    1.882    0.469
        63 -11.4732    158.8743    194.4157   1.2165762697e+02   1.4664106125e+01    0.2235411     0.195096 -84.65 0.0008099112    1.752    0.429
        64 -12.1948    135.3727    195.8384   1.2656325699e+02   1.7892954350e+01    0.2794021    0.2084441  73.29  0.001085918    1.978    0.494
        65 -11.2313      6.8138    248.8475   1.5431772171e+02   2.3839647148e+01    0.0642482   0.04988855  46.22 0.0004387396    1.247    0.198
        66 -12.8281    168.9689     28.3027   7.7589693066e+01   3.9483946011e+01    0.4440728    0.3381334 -12.23 0.0009777652    1.313    0.238
        67 -11.9701    110.1430    231.5940   1.3548521735e+02   1.5861332714e+01    0.3423561    0.2282769 -79.78  0.002341079    2.169    0.539
        68 -10.6206     13.4427     59.9003   1.4011614363e+02   6.2215813587e+01    0.1828046    0.1689605  72.22 0.0004088766    1.238    0.192
        69 -11.0969    143.3875     33.5008   8.4113875705e+01   4.5367280139e+01    0.3381595    0.2420027  84.20  0.001450773    1.850    0.460
        70 -11.0854    189.7060     14.9814   7.0363109390e+01   3.5634150810e+01    0.2036337    0.1777012 -23.35  0.000679104    1.098    0.089
