#   1 NUMBER                 Running object number                                     
#   2 MAG_AUTO               Kron-like elliptical aperture magnitude                    [mag]
#   3 X_IMAGE                Object position along x                                    [pixel]
#   4 Y_IMAGE                Object position along y                                    [pixel]
#   5 X_WORLD                Barycenter position along world x axis                     [deg]
#   6 Y_WORLD                Barycenter position along world y axis                     [deg]
#   7 A_WORLD                Profile RMS along major axis (world units)                 [deg]
#   8 B_WORLD                Profile RMS along minor axis (world units)                 [deg]
#   9 THETA_WORLD            Position angle (CCW/world-x)                               [deg]
#  10 FWHM_WORLD             FWHM assuming a gaussian core                              [deg]
#  11 ELONGATION             A_IMAGE/B_IMAGE                                           
#  12 ELLIPTICITY            1 - B_IMAGE/A_IMAGE                                       
         1 -11.4041     20.8435     16.7455   7.2383710159e+01   7.2327130429e+01    0.3361946    0.2769482  37.84     0.001787    1.504    0.335
         2 -10.9770    114.2059      9.3579   3.4421424390e+01   5.5010352767e+01    0.2406532    0.2204711  42.08 0.0002789611    1.136    0.120
         3 -11.1941    112.0270     14.7760   3.6879667886e+01   5.4994751034e+01    0.3993402    0.2531383  16.68  0.001337015    2.229    0.551
         4 -11.9842    192.3228     11.5320   2.5013053796e+01   3.5972210397e+01    0.3892381    0.2225112 -85.09  0.001696233    1.689    0.408
         5 -11.5810    162.5167     11.9911   2.8150539564e+01   4.2956676086e+01    0.3995395     0.203546 -57.89  0.001608807    2.059    0.514
         6 -12.9586    183.5152     12.1718   2.5985356894e+01   3.7939468741e+01    0.6215196     0.564695  -0.15  0.004079293    1.470    0.320
         7 -13.9435    179.1985      5.1372   2.4547789838e+01   3.9668834393e+01     2.055769    0.5915377  70.86   0.00812908    2.978    0.664
         8 -10.3308     27.4729     11.5293   6.5650278601e+01   7.2295550624e+01    0.2203248    0.1874003 -23.43  0.001519286    1.204    0.169
         9 -10.3948     34.6826     13.9889   6.2958782911e+01   7.0911978554e+01    0.2184511    0.1905594  31.97 0.0007061713    1.271    0.213
        10 -10.7725     31.8231     11.4860   6.3158807014e+01   7.1687874116e+01    0.3119784     0.173508 -24.45   0.00164299    1.886    0.470
        11 -10.4270    119.9804      9.0047   3.3246218248e+01   5.3646356481e+01    0.4717657    0.1692225 -24.61  0.001891359    3.113    0.679
        12 -10.7578    124.6132      7.4308   3.1904759431e+01   5.2666151927e+01    0.3259836    0.1993332  89.18 0.0009994489    1.770    0.435
        13 -11.7483     56.5245      9.3272   5.0333776282e+01   6.7769638853e+01    0.3756984    0.2969893  24.49   0.00117401    1.148    0.129
        14 -10.2098     73.6657      9.9406   4.4575326455e+01   6.4240123242e+01    0.3479795    0.1117664  43.58  0.001323548    2.967    0.663
        15  -9.8399     69.4880      9.5090   4.5719660336e+01   6.5162640628e+01    0.2331447    0.1247952 -24.23 0.0007441755    2.031    0.508
        16 -10.8978     98.7660      8.8519   3.7396403439e+01   5.8728241484e+01    0.2407123    0.1691012 -49.11  0.001280929    1.647    0.393
        17 -10.4639      3.5715      8.7491   7.9989718419e+01   7.5358608810e+01    0.2066412    0.1699327  -6.57 0.0007607711    1.109    0.098
        18  -9.7665    213.8562      8.4936   2.2587607908e+01   3.1517535698e+01    0.1669856    0.1050725  85.05  0.000406497    1.467    0.318
        19 -11.8489     86.7207      7.1749   3.9585319876e+01   6.1654862645e+01    0.4579634    0.2061736  49.95  0.001053737    1.905    0.475
        20 -10.7694    203.6227      4.7035   2.2449643527e+01   3.4143480048e+01    0.2169479    0.1267691  66.38   0.00115222    1.721    0.419
        21 -10.8773     49.4827     14.3228   5.5889341390e+01   6.8455562038e+01    0.2755124    0.2262267  16.48 0.0006666212    1.093    0.085
        22 -10.1778     45.0916     12.6763   5.7035653351e+01   6.9428899802e+01     0.240269     0.167786  28.30 0.0008128202    1.319    0.242
        23 -10.1783    134.9054      4.4804   2.9346440505e+01   5.0419291587e+01     0.201202    0.1640758 -73.70 0.0005592872    1.204    0.170
        24 -10.3262    131.4451      3.5514   2.9525777345e+01   5.1347770204e+01    0.2172613    0.1479553  65.93 0.0006443203    1.284    0.221
        25 -11.1083     38.5724      2.6835   5.4595834159e+01   7.1749999145e+01    0.2984438    0.2050367  42.10 0.0006401713    1.384    0.277
        26  -9.1201     22.7201      5.3072   6.4956824731e+01   7.3816817827e+01   0.09670827   0.09582295 -71.34 0.0002124028    1.557    0.358
        27 -11.3559    114.0399      1.9455   3.1684526628e+01   5.5713845681e+01    0.4395968    0.1675859  67.46 0.0009657235    2.256    0.557
        28 -10.2565    230.2899      1.4040   2.0001480048e+01   2.8828601372e+01    0.1808061   0.09680742  76.96 0.0003727901    1.805    0.446
        29 -10.8801     54.7310     79.3406   7.9023352772e+01   5.5532606400e+01    0.2484552    0.2099372 -68.10 0.0004488877    1.252    0.201
        30 -11.5942     53.1615     76.1786   7.8753609546e+01   5.6480852007e+01    0.3233358    0.2585602  18.13 0.0003288178    1.343    0.255
        31  -9.6690     72.8618     78.6409   7.1870153252e+01   5.2842437151e+01    0.1994435    0.1871419  41.15  0.001117997    1.104    0.094
        32  -9.6319    196.9742     78.3292   4.1219818882e+01   2.5757385765e+01    0.1840452    0.1688988 -88.57 0.0003173062    1.107    0.097
        33  -9.7322     77.9735     78.2616   6.9908645445e+01   5.2026761658e+01    0.1967841    0.1841424  26.35 0.0001803308    1.088    0.081
        34  -9.7691    153.1764     77.3678   4.8722100520e+01   3.5907211825e+01    0.2166738    0.1392822  68.29 0.0006607124    1.753    0.430
        35 -10.2224    201.1501     75.0982   3.9816837877e+01   2.5376805839e+01    0.1940376     0.179553 -29.78 0.0003034093    1.204    0.169
        36  -9.6769     63.9653     69.7315   7.2467164007e+01   5.6278632174e+01    0.1883332    0.1693711  24.16            0    1.133    0.117
        37  -9.4739      7.7379     69.0484   9.6984943085e+01   6.2669740498e+01    0.1715922    0.1442629 -59.95 0.0003954928    1.050    0.047
        38 -10.2897    151.8937     67.1264   4.6052201154e+01   3.8009636907e+01    0.2608803    0.2032674 -43.45 0.0007996968    1.267    0.211
        39  -9.9303    192.1000     66.0271   3.8871894510e+01   2.8813102244e+01    0.1984471     0.172249 -65.85 0.0002716999    1.048    0.045
        40  -8.9349    158.2645     66.3315   4.4580226491e+01   3.6627593451e+01    0.1387995    0.1163728  10.68 0.0003965422    1.577    0.366
        41 -11.2413     67.0985     65.0919   6.9722228175e+01   5.6739343557e+01     0.234672    0.2171894 -49.39 0.0002799844    1.113    0.101
        42  -9.5749     75.0293     64.9608   6.6679927317e+01   5.5366851589e+01    0.2143377    0.1765531  84.17 0.0005585234    1.612    0.380
        43  -9.8664      4.1524     64.4197   9.7744350580e+01   6.3950161365e+01    0.2119835    0.1388868 -53.01 0.0005138932    1.260    0.207
        44 -11.0698      3.7076     59.6428   9.6971248565e+01   6.5073671025e+01    0.3675596    0.2527086   2.25  0.002204421    1.616    0.381
        45 -10.7748     99.2952     62.2199   5.7579682728e+01   5.1047335011e+01    0.3583445    0.2802543 -82.47  0.001405231    1.693    0.410
        46 -10.5589     86.1734     61.6908   6.1616185807e+01   5.3876076133e+01    0.3534096    0.2219033 -27.80  0.001240268    1.901    0.474
        47 -10.0293     43.8609     62.8195   7.8668531976e+01   6.0715906461e+01     0.245696    0.1814585 -47.49 0.0008064835    1.260    0.206
        48  -9.2977    231.5197     60.5185   3.2695208542e+01   2.1281922688e+01    0.1275587    0.1066064 -54.47 0.0008098608    1.032    0.031
        49 -10.3496     57.0237     60.1807   7.2109007144e+01   5.9396931246e+01    0.2056038    0.1752208 -10.84 0.0003496954    1.202    0.168
        50  -9.8074     21.9215     58.0994   8.7552201773e+01   6.4147807819e+01     0.183837    0.1674837  79.76 0.0004511355    1.335    0.251
        51  -9.1259     40.1732     55.1068   7.7822951049e+01   6.2833333020e+01    0.1643803    0.1530171 -81.07            0    1.301    0.231
        52 -10.4635     73.1915     53.8535   6.3426879737e+01   5.7871205004e+01    0.1966364    0.1625981   1.61 0.0004583991    1.331    0.249
        53  -8.8903     36.0472     61.0000   8.1649998134e+01   6.2069619096e+01    0.2111871   0.07539026  27.48  0.000303797    2.973    0.664
        54 -10.5567     78.1921     56.0181   6.2386131593e+01   5.6518849490e+01    0.2352093    0.1995908  38.04  0.000343696    1.163    0.140
        55  -9.0361     23.6853     51.3174   8.4644394722e+01   6.5464026087e+01    0.1209496   0.09955303  68.14 0.0003603068    1.649    0.393
        56 -10.4878     38.9065     43.9674   7.4412422783e+01   6.5242759583e+01    0.2955931    0.2337508  33.29  0.001640747    1.343    0.255
        57  -9.7512      7.6255     44.8220   9.1236093793e+01   6.8130667425e+01    0.2034141    0.1192936 -42.82 0.0006771002    1.435    0.303
        58 -10.8092    127.1058     43.8853   4.4018461345e+01   4.7687222498e+01    0.2179558    0.1853858 -77.90 0.0004611473    1.247    0.198
        59  -9.6491     31.5965     43.8820   7.8043368581e+01   6.6164458009e+01    0.2034334    0.1414079  28.42 0.0005646038    1.493    0.330
        60  -8.8068     24.3090     44.3455   8.2008012499e+01   6.6859933156e+01    0.1375961   0.08337523 -27.29 0.0007044451    1.701    0.412
        61  -8.8684     20.6571     44.7515   8.4093411936e+01   6.7127859198e+01     0.128506   0.08379477 -22.04 0.0003094544    1.572    0.364
        62  -9.7679     71.3051     42.9777   5.9951506806e+01   6.0165443452e+01    0.1910816    0.1731615 -14.19 0.0004492308    1.088    0.081
        63  -9.6590    185.9659     41.9814   3.3513627828e+01   3.3751685798e+01    0.1924056     0.157105  36.93 0.0003246663    1.587    0.370
        64  -9.5410    118.7284     41.4109   4.5078779215e+01   5.0058579363e+01    0.2070291    0.1212905  47.54 0.0009387856    1.675    0.403
        65 -10.1098    159.1302     40.1028   3.6819823023e+01   4.0415112826e+01    0.2042904    0.1843916  51.29 0.0003489316    1.220    0.180
        66  -9.4070    190.0075     39.4683   3.2357993877e+01   3.3153823872e+01    0.1913744    0.1244291  73.28 -5.197018e-05    1.512    0.339
        67 -10.0039     95.9384     38.7958   5.0093306859e+01   5.5714804084e+01    0.2108103    0.1814496  26.17 0.0005166492    1.201    0.167
        68 -10.1811    130.2969     38.6720   4.1594896587e+01   4.7659747518e+01    0.1455562    0.1042142 -69.88 0.0002571967    1.633    0.388
        69 -10.3175     40.8125     36.4873   7.0470184447e+01   6.6382128022e+01    0.2788179    0.1945666  29.90  0.001061502    1.427    0.299
        70  -9.0668     81.7020     36.2672   5.3537135817e+01   5.9166826202e+01    0.1273251    0.1082925 -87.96 0.0002167421    1.518    0.341
        71  -9.6343     46.1353     36.1057   6.7739265425e+01   6.5670948618e+01    0.1637553    0.1580834  59.38 0.0004547391    1.312    0.238
        72  -9.6038    173.9973     35.0067   3.3202831420e+01   3.7504641807e+01    0.1654301    0.1463251 -72.12 0.0009915645    1.026    0.025
        73  -9.6115    139.3933     34.1664   3.8351477439e+01   4.6043205504e+01    0.1904766    0.1216046 -46.34 0.0006164509    1.605    0.377
        74 -10.4528     50.5570     32.1383   6.3961687275e+01   6.5648022290e+01    0.3606782    0.2714693  79.48  0.001492363    2.517    0.603
        75  -9.3273    154.2059     32.3663   3.5293026424e+01   4.2640164354e+01    0.1865366    0.1217398  81.36 0.0002492108    1.555    0.357
        76 -10.4294     17.6141     31.7069   8.1048249641e+01   7.0008847937e+01    0.1998309    0.1808445 -16.72 0.0003024797    1.117    0.105
        77  -9.5676      3.7387     31.5695   8.9392669028e+01   7.1122122186e+01    0.1434021    0.1073425  21.96 0.0004989877    1.489    0.328
        78 -10.0959    153.0540     27.7268   3.4066811201e+01   4.3500423952e+01    0.1914587    0.1588882  76.58 0.0003333962    1.107    0.097
        79  -9.3571    160.5055     27.4518   3.2901104233e+01   4.1712266268e+01    0.1371733    0.1195366 -82.50 6.430769e-05    1.033    0.032
        80 -10.5632    119.8847     26.5021   3.9555836883e+01   5.1775369707e+01    0.2585483    0.1987908  34.57 0.0005276037    1.442    0.306
        81 -10.4112     95.1789     26.6321   4.5525542523e+01   5.7570935785e+01    0.3445376    0.2320599  79.63  0.001001917    1.931    0.482
        82 -10.7664     98.5452     23.3044   4.3297300936e+01   5.7215468864e+01     0.294402    0.2456424 -17.05  0.001086778    1.320    0.242
        83  -9.0253     79.2736     27.3034   5.0594071143e+01   6.0962860834e+01    0.1332252   0.09773996  18.59 0.0001957904    1.539    0.350
        84  -9.4583     46.7279     27.0547   6.3422537606e+01   6.7086307197e+01    0.1731063    0.1486281 -16.04 0.0001998897    1.099    0.090
        85  -9.9033     61.3493     25.1655   5.6166814819e+01   6.4826168565e+01    0.3101136    0.1871116  -0.74  0.001010932    2.567    0.610
        86 -10.3139     88.0238     24.7217   4.6773174336e+01   5.9415548005e+01     0.192146    0.1625307  50.44  0.000603917    1.098    0.090
        87 -10.0469    141.9643     22.6810   3.4217174768e+01   4.6823096300e+01    0.1942109    0.1593132  77.08 0.0004020489    1.111    0.100
        88 -10.3823     72.9151     22.9388   5.0827846416e+01   6.2863652119e+01    0.1989765    0.1796875  24.96 0.0005680971    1.016    0.016
        89  -9.7944     38.1460     22.8786   6.5665076896e+01   6.9064430696e+01    0.1709566    0.1303243   1.25 0.0003281613    1.282    0.220
        90  -9.1004     66.6379     21.2523   5.2309891247e+01   6.4346190112e+01    0.1217703    0.1023711  82.12 0.0003934936    1.618    0.382
        91 -10.0300     84.9742     20.1708   4.5740721648e+01   6.0648859772e+01    0.2104955    0.1510226 -88.99 0.0007139787    2.017    0.504
        92 -10.0918    226.9610     19.0001   2.3976227207e+01   2.7589685367e+01    0.1472198     0.116009 -68.35 0.0003440735    1.037    0.035
        93  -9.6274    147.5144     18.9656   3.2195030113e+01   4.5876271611e+01    0.1928455     0.133274 -29.07  0.001031846    1.593    0.372
        94  -9.5507      4.7513     19.6211   8.4212561893e+01   7.3353670544e+01    0.1452417    0.1006799  23.49 0.0005488797    1.558    0.358
        95  -9.2451     70.2804     18.3382   4.9642339018e+01   6.3986650458e+01    0.1334103   0.09252921  18.42 0.0003702927    1.621    0.383
        96  -8.6624    124.2488    205.7318   8.3446329110e+01   1.4414123856e+01    0.1253604   0.09854127  63.42            0    1.440    0.305
        97  -9.6320     21.6791    170.4118   1.0500640602e+02   3.6232076766e+01    0.1578844    0.1278638   9.93  0.000833559    1.577    0.366
        98  -9.8029      7.6206    150.9118   1.0729058748e+02   4.2245460264e+01    0.2387062    0.1649621  38.70  0.001205966    1.489    0.329
        99  -9.1026     28.5184    138.4993   9.9850552094e+01   4.3640958583e+01      0.13685     0.120879 -76.73 -9.307088e-05    1.058    0.054
       100 -10.7664     46.1704    133.0700   9.3513344156e+01   4.3175553952e+01    0.4723428    0.2696272 -74.19  0.002146846    1.711    0.416
       101  -9.5801     11.0300    134.2861   1.0483206821e+02   4.6189828854e+01    0.1760081    0.1595336  77.52 0.0008725541    1.097    0.088
       102  -8.9952      5.9540    122.0000   1.0523734263e+02   4.9660919935e+01    0.1735121    0.0755469  17.30 0.0003765543    2.700    0.630
       103 -10.2958    128.2515     14.2101   3.3659566945e+01   5.1114678250e+01    0.2374613    0.1585626  59.63 0.0005639672    1.348    0.258
       104  -9.8576     91.7997    116.7706   7.5667821687e+01   4.0542154938e+01    0.2218311    0.2081224 -20.64 0.0005584897    1.162    0.140
       105  -9.2161     13.9019    117.7722   1.0210249021e+02   5.0198068737e+01      0.15332    0.1132039  14.40 0.0008598897    1.606    0.377
       106 -10.1818    153.0042    114.4659   5.8625221688e+01   2.8670097031e+01     0.266555     0.204522 -62.69 0.0006000201    1.420    0.296
       107  -9.6881     79.6319    110.8040   7.8137722162e+01   4.4113847495e+01    0.2368654    0.1743267 -41.25  0.001125629    1.417    0.294
       108 -10.9533      2.8393    111.5714   1.0520796624e+02   5.2487278948e+01    0.2333823    0.1859104 -77.31  0.000397916    1.058    0.055
       109  -9.1620    100.3485    105.7458   7.0308933862e+01   4.1583390252e+01     0.154271    0.1184716  72.69 0.0003983796    1.593    0.372
       110  -8.9212     58.4674    105.4561   8.4160079978e+01   4.8690613760e+01    0.1446968    0.1363821 -74.62 0.0001444562    1.037    0.035
       111  -9.1152     12.5383    105.5665   1.0101901239e+02   5.3401594834e+01    0.1319047    0.1140571  89.90 3.536783e-05    1.109    0.098
       112  -9.3928     44.2587    104.0103   8.9010001859e+01   5.0872755005e+01    0.1791932    0.1139451 -62.94 0.0002720744    1.443    0.307
       113  -9.5420    117.4855    102.4058   6.4434967960e+01   3.8879026343e+01    0.1519912    0.1481556  81.65 -1.480181e-05    1.022    0.021
       114 -10.2037     29.0460     98.7772   9.3725405304e+01   5.3792969625e+01    0.1722805    0.1134134  23.65 0.0006551901    1.684    0.406
       115  -8.8476    103.2785     97.6395   6.7252510192e+01   4.2867785033e+01    0.1566125    0.1208128 -86.44 0.0004387556    1.666    0.400
       116  -9.8902     63.9694     96.4640   8.0053346026e+01   5.0117266338e+01     0.262853    0.2126187  20.55  0.001168987    1.362    0.266
       117 -10.6229     84.9011     16.1825   4.4033348238e+01   6.1127936582e+01    0.3658561    0.1229459  52.00  0.001447814    2.510    0.602
       118 -10.2345      3.8447     96.3315   1.0304378980e+02   5.6254546426e+01    0.3317472    0.2330197  -1.72  0.001916663    1.719    0.418
       119  -9.3308     89.6020     94.4845   7.0672774257e+01   4.6243990579e+01    0.1497415     0.143094 -42.98 -0.0001153326    1.039    0.037
       120 -11.1425    131.5398     92.9960   5.8117130870e+01   3.7847833873e+01    0.3975977    0.2338936  49.71 0.0009762713    1.718    0.418
       121 -10.7199    107.7065     89.6216   6.3667092962e+01   4.3730994371e+01     0.385032    0.2740515  65.37  0.001256702    1.691    0.409
       122  -9.4684     76.4050     83.5161   7.2043673329e+01   5.1137218111e+01    0.1465966    0.1380498 -33.15 3.680455e-05    1.047    0.045
       123 -10.6805     26.0156     82.2424   9.1645583038e+01   5.8162364650e+01    0.1812701    0.1679285 -44.08 0.0003109063    1.056    0.053
       124  -9.4250     98.1788     79.8149   6.3632335578e+01   4.7794444556e+01    0.2065654    0.1790443  -6.99 0.0005489361    1.334    0.250
