#   1 NUMBER                 Running object number                                     
#   2 MAG_AUTO               Kron-like elliptical aperture magnitude                    [mag]
#   3 X_IMAGE                Object position along x                                    [pixel]
#   4 Y_IMAGE                Object position along y                                    [pixel]
#   5 X_WORLD                Barycenter position along world x axis                     [deg]
#   6 Y_WORLD                Barycenter position along world y axis                     [deg]
#   7 A_WORLD                Profile RMS along major axis (world units)                 [deg]
#   8 B_WORLD                Profile RMS along minor axis (world units)                 [deg]
#   9 THETA_WORLD            Position angle (CCW/world-x)                               [deg]
#  10 FWHM_WORLD             FWHM assuming a gaussian core                              [deg]
#  11 ELONGATION             A_IMAGE/B_IMAGE                                           
#  12 ELLIPTICITY            1 - B_IMAGE/A_IMAGE                                       
         1 -14.7258    240.8356     93.3716   7.7841230141e+01   1.2731034187e+01     8.383971     2.950079 -32.73   0.03079613    2.648    0.622
         2 -14.3973    224.4483     41.7958   6.7279134059e+01   2.3994110665e+01     3.768184     1.285993 -41.56   0.01451598    2.557    0.609
         3 -14.2800    169.7499     58.7296   8.0140511715e+01   3.5073293342e+01     7.068619     3.709898 -79.78   0.01719039    6.779    0.852
         4 -12.8607    179.5034     20.5820   6.7111244592e+01   3.7665885925e+01     2.408176     1.693485 -23.80   0.01261552    1.556    0.357
         5 -13.2378    208.2392     63.5079   7.5052243307e+01   2.4791865616e+01     3.504199     1.494874 -60.64  0.009668106    5.126    0.805
         6 -15.0774    236.0086      4.4089   5.7202235857e+01   2.5716160634e+01     8.945745          nan  63.49   0.02122915    9.157    0.891
         7 -14.1791    178.9473     75.8563   8.3425816055e+01   2.9992149076e+01     4.973593     1.630229 -45.01   0.01142603    3.277    0.695
         8 -13.2719    249.8015     26.6224   6.1132143074e+01   2.0162860505e+01    0.5060395    0.2963465 -43.15  0.002759229    1.465    0.317
         9 -13.8180    246.3225     21.9262   6.0365500927e+01   2.1481193435e+01    0.6221239    0.5328507  75.83  0.002304124    1.241    0.194
        10  -9.4846    142.0006     15.0028   7.1083818066e+01   4.7706369418e+01    0.4996669    0.1228116 -35.29  0.001657537    3.803    0.737
        11  -9.5344    115.8116     12.4147   7.5252700073e+01   5.4261579725e+01    0.3201517    0.2036963  55.15  0.001662255    1.424    0.298
        12 -11.0689    120.2936      8.8327   7.2932852343e+01   5.3553352423e+01    0.4406893    0.4274945   4.88  0.001392621    1.115    0.103
        13 -11.0431      3.6824      3.5870   1.1358924647e+02   7.3682260225e+01    0.3877034    0.2981042 -21.57  0.003005633    1.093    0.085
        14  -8.5420    145.2587      5.9883   6.7468913727e+01   4.7746460418e+01    0.1605192    0.1177303 -20.34 0.0006377884    1.503    0.335
        15 -10.0021    172.2167      2.7000   6.2756527693e+01   4.1281151766e+01    0.3949108    0.2151257 -62.63  0.001290098    2.173    0.540
        16  -8.3698    200.3868      1.7368   5.9520078860e+01   3.4373035862e+01    0.1591398     0.127256  -9.44 0.0009322836    1.549    0.354
        17  -7.9960    205.2123      1.2224   5.8945772232e+01   3.3248438722e+01    0.1075524   0.09104001  50.78            0    1.331    0.248
        18 -10.4922    230.1592    135.4287   8.9363720336e+01   8.1029149842e+00    0.2623221    0.2476851   6.16 0.0003917066    1.080    0.074
        19  -8.4962    116.1465    134.8616   1.1367038040e+02   3.2027460182e+01     0.211377     0.188411  84.34  0.000308049    1.172    0.147
        20  -9.5299    167.6046    132.5880   1.0085713959e+02   2.1892702493e+01    0.3653736    0.1897763 -36.86   0.00130056    2.020    0.505
        21  -9.0456    147.9904    130.6216   1.0485669043e+02   2.6534111725e+01    0.2870873    0.2181672 -74.98  0.001260928    1.680    0.405
        22 -10.3056     98.0540    244.9964   1.3399658942e+02   1.2640304538e+01      0.28721    0.1064301  35.75  0.001293538    2.791    0.642
        23 -10.3039    160.0058    128.1048   1.0147162542e+02   2.4463634395e+01    0.4272463    0.3184674 -35.00  0.002023633    1.381    0.276
        24  -9.9475    136.1216    127.8684   1.0705680587e+02   2.9621309874e+01    0.5610633    0.1575208 -49.91  0.001586506    3.841    0.740
        25 -10.5236    192.3573    125.9544   9.4071661722e+01   1.7731195312e+01    0.3964269    0.2347219  65.10  0.001437009    2.367    0.577
        26 -10.1886    224.2066    121.4762   8.7138625085e+01   1.1647070316e+01    0.4070599    0.2570691  75.79  0.001471141    2.735    0.634
        27  -7.8990     85.6627    237.6768   1.3555227039e+02   1.5651008505e+01    0.1016717   0.09155886   4.21 0.0007050898    1.716    0.417
        28  -8.3106     26.5532    230.4633   1.4549976437e+02   2.4313527324e+01    0.1078566   0.07893914  71.83 8.326197e-05    1.026    0.026
        29 -10.7226    215.7671    116.7364   8.7456168752e+01   1.4255214467e+01    0.4279642    0.3361385 -58.47   0.00218102    1.455    0.313
        30 -10.6562    134.2474    109.4417   1.0289334630e+02   3.3994644060e+01     1.057449    0.2660942 -43.03  0.002895633    3.969    0.748
        31 -10.4847    168.1409    114.1551   9.6153123103e+01   2.5460168136e+01    0.4407544     0.332614 -49.67 0.0009636031    1.356    0.263
        32  -8.8426    177.3640    102.8836   9.1225615312e+01   2.5504370688e+01    0.2954085    0.2133738  84.06  0.001267642    1.951    0.487
        33 -13.1133      9.0668    204.0253   1.4706466202e+02   3.1132268441e+01    0.8057656    0.5682465  80.94  0.003945883    1.052    0.049
        34  -9.7576    147.9729     97.9807   9.6400717886e+01   3.3316166535e+01    0.3508742    0.2911648  13.50  0.001035247    1.426    0.299
        35 -12.5123    211.2259     48.9470   7.0763587925e+01   2.6184462271e+01    0.9895282    0.8023494 -50.39  0.005461766    1.164    0.141
        36  -9.0954    134.5611     94.9621   9.8837247982e+01   3.6951575316e+01    0.2709248    0.2174729  72.24 0.0007759788    1.484    0.326
        37  -9.2503    209.4528     93.8832   8.2832729225e+01   1.9600731317e+01    0.2757272    0.2132122 -78.23 0.0006310864    1.616    0.381
        38  -9.4325    220.3082     91.8671   8.0543637287e+01   1.7458482172e+01    0.2385824    0.2000841  82.01  0.000985658    1.367    0.268
        39 -10.3794    158.4347     89.8801   9.1694648526e+01   3.2451676458e+01    0.5109572    0.3628777  22.36  0.002211886    1.846    0.458
        40 -10.2437     69.6661    145.3350   1.2770060221e+02   3.7209242754e+01    0.3516968    0.2573034  80.80  0.001467916    1.448    0.309
        41 -10.0207    141.9326     86.8335   9.4650236603e+01   3.6904361697e+01    0.3282984    0.2967417 -60.41  0.001166124    1.164    0.141
        42  -9.1059    211.2352     86.3347   8.0588723018e+01   2.0452550643e+01    0.2910256    0.2333726  39.75  0.001497844    1.373    0.271
        43  -9.7502    203.9162     81.0226   8.0401696441e+01   2.3055976024e+01    0.5989823     0.343763 -86.61  0.002013833    3.617    0.724
        44  -9.5720    164.4307     80.2301   8.7602020176e+01   3.2787917177e+01    0.2291467    0.1392007 -47.14  0.000955837    1.702    0.413
        45  -8.5417    148.8268     75.1404   8.9510271889e+01   3.7472328598e+01    0.2300645    0.2031062 -77.66 0.0004713879    1.277    0.217
        46 -11.8708    194.1415     62.3642   7.6931653853e+01   2.8415212923e+01     1.080074    0.6735899  20.69  0.004247736    2.690    0.628
        47 -10.2351     66.3921    144.1955   1.2835952005e+02   3.7923522140e+01    0.4788848    0.2942654 -78.20   0.00153475    1.681    0.405
        48  -8.5876    151.4901     71.0725   8.7662426248e+01   3.7552129222e+01    0.2339907    0.1498305 -35.24  0.001023163    1.561    0.360
        49  -9.5489    137.9482     70.8154   9.0726442765e+01   4.0825438914e+01    0.3041474    0.1939905 -60.72  0.001241687    2.120    0.528
        50 -10.3187    222.2043     68.7237   7.4395061098e+01   2.0690606224e+01    0.4141266    0.3044965  79.69  0.001846686    1.530    0.346
        51 -11.6042    156.7349     79.3416   8.8999891248e+01   3.4813049260e+01     0.447493    0.3675459 -51.59  0.001023485    1.258    0.205
        52  -9.3114    144.4971     69.5370   8.8773543943e+01   3.9502873504e+01    0.1493524    0.1486848   5.80 2.667016e-05    1.012    0.012
        53  -9.8309    249.8485     66.3986   7.0294745772e+01   1.4877585166e+01    0.4701509    0.2490626 -31.10  0.001835604    1.769    0.435
        54  -9.1463     46.7835    208.2180   1.4026211921e+02   2.6299011929e+01    0.1439033    0.1281178 -80.30  0.000521927    1.322    0.244
        55  -9.3469    148.9826     66.0427   8.6658186688e+01   3.9025488975e+01    0.2332611    0.2194806 -63.29 0.0005762063    1.112    0.101
        56  -9.9890    172.0137    205.2069   1.1455185416e+02   7.3578169380e+00    0.1900064    0.1886436  13.90 0.0002576037    1.153    0.132
        57  -9.9070    134.1071     62.9076   8.9117057440e+01   4.3108621089e+01    0.2319656    0.2079679 -67.26 0.0009215157    1.250    0.200
        58 -10.6399    242.3853     60.5860   6.9793527096e+01   1.7320493147e+01    0.4593063    0.2702693  63.58  0.001414851    1.830    0.454
        59 -10.1803    247.8959     55.2174   6.7899382687e+01   1.6872163209e+01    0.4362879    0.3712107  -0.23  0.002589519    1.487    0.327
        60 -10.2836    144.2887     59.1587   8.5515376259e+01   4.1307446591e+01     0.363458    0.2877554 -55.00 0.0007285987    1.392    0.282
        61  -9.0578    127.4653     59.0489   8.9480894913e+01   4.5302915517e+01    0.2197744    0.1969831  43.18 0.0003958992    1.107    0.096
        62  -8.2454     72.5757     58.4577   1.0570058845e+02   5.6273309712e+01    0.1363581    0.1215244 -25.43  0.000120181    1.020    0.019
        63  -8.7246    105.4813     52.4594   9.3100539146e+01   5.1242246133e+01    0.2607023    0.1249876 -46.12  0.001028028    2.343    0.573
        64  -9.7171    133.7475    145.5556   1.1163251209e+02   2.6244740310e+01    0.8280324    0.2000104 -53.50   0.00202574    5.605    0.822
        65 -10.3290    187.5308    137.3735   9.7770045794e+01   1.6634998028e+01    0.2983753    0.1829487  42.73  0.001320889    1.645    0.392
        66  -8.7331     82.5234     50.9805   9.9653483148e+01   5.5955565600e+01    0.2112266    0.1277338 -37.51  0.000653991    1.562    0.360
        67  -8.9231    192.1757    144.1691   9.8399842711e+01   1.4374733869e+01    0.2128564    0.1928463   2.75 0.0003626822    1.109    0.099
        68  -9.9258     91.1028     42.8036   9.3814993460e+01   5.5714356307e+01    0.2817088    0.1774504  -4.40  0.001255889    2.169    0.539
        69  -9.5041    184.0203    142.0823   9.9582717179e+01   1.6491039626e+01    0.2221811    0.2124951   2.34 0.0003832321    1.019    0.018
        70 -12.8990    239.4753     39.3957   6.5058643221e+01   2.0850934210e+01     1.320004    0.6036856  68.85   0.00334829    2.279    0.561
        71  -8.3568    207.1697     34.1799   6.7364205518e+01   2.9133584439e+01    0.1944008    0.1452546 -68.02  0.000650336    1.346    0.257
        72 -13.2584     26.8309    192.4332   1.4291319924e+02   3.1754878623e+01     1.333899    0.9274057  81.03  0.009050138    1.147    0.128
        73 -12.9797     41.5787    179.8701   1.3876841934e+02   3.2845682500e+01    0.7235402    0.6404883  69.47  0.001479324    1.183    0.155
        74  -8.5983    194.7560     26.7672   6.6892748283e+01   3.3116647998e+01    0.1931348    0.1443782 -60.71 0.0005838774    1.340    0.254
        75 -13.1186     51.4497    171.6661   1.3571904809e+02   3.3505276486e+01      1.03356    0.9799969 -43.43  0.002746032    1.393    0.282
        76 -11.0573    197.4446    158.9874   1.0062981877e+02   1.0599823784e+01    0.5015121     0.349134  44.25  0.002515418    1.431    0.301
        77 -10.1475    234.6762    174.2861   9.6938378424e+01   1.1036374876e+00    0.3099233    0.2231345  37.41  0.001493141    1.392    0.282
        78  -9.3410    191.5506    192.3745   1.0845393886e+02   5.9811630508e+00    0.4414527    0.2311074 -62.00  0.001453049    5.092    0.804
        79  -8.2444    118.7374    150.1557   1.1621520269e+02   2.8103175064e+01    0.1814265    0.1676832   8.83 0.0009974129    1.261    0.207
        80  -9.6869    215.9892    168.5070   9.9101871959e+01   5.3856796345e+00    0.3217622     0.254364  85.51  0.001177021    2.140    0.533
        81 -10.1660    211.9656    166.4722   9.9427111513e+01   6.4794449802e+00    0.4022516    0.2869698  70.74  0.001241094    2.305    0.566
        82 -14.1377    237.3808    162.0637   9.3952899558e+01   2.4837226602e+00      4.53031     3.189318  77.92   0.02048516    3.056    0.673
        83  -9.7553     72.5956    249.1497   1.3884990438e+02   1.5459056859e+01    0.2710873   0.07588807  49.94  0.001229959    2.781    0.640
