#   1 NUMBER                 Running object number                                     
#   2 MAG_AUTO               Kron-like elliptical aperture magnitude                    [mag]
#   3 X_IMAGE                Object position along x                                    [pixel]
#   4 Y_IMAGE                Object position along y                                    [pixel]
#   5 X_WORLD                Barycenter position along world x axis                     [deg]
#   6 Y_WORLD                Barycenter position along world y axis                     [deg]
#   7 A_WORLD                Profile RMS along major axis (world units)                 [deg]
#   8 B_WORLD                Profile RMS along minor axis (world units)                 [deg]
#   9 THETA_WORLD            Position angle (CCW/world-x)                               [deg]
#  10 FWHM_WORLD             FWHM assuming a gaussian core                              [deg]
#  11 ELONGATION             A_IMAGE/B_IMAGE                                           
#  12 ELLIPTICITY            1 - B_IMAGE/A_IMAGE                                       
         1 -15.6018      5.2774    121.7427   1.4321695272e+02   4.9277627149e+01      5.95612    0.6988245 -74.59   0.01412475    9.088    0.890
         2 -13.6096    196.8670     26.9653   6.8957786423e+01   3.2505603701e+01    0.7226268    0.6019459 -84.00  0.003452855    1.175    0.149
         3 -13.6189    213.8905      7.0446   6.1701293759e+01   3.0427835865e+01    0.8011307    0.7125539 -87.39  0.005035087    1.041    0.039
         4 -10.9751    179.9990      2.0000   6.3807944831e+01   3.9422657461e+01    0.2325776    0.0704845  71.22  0.000808898    2.987    0.665
         5 -11.3197    163.5186      2.0000   6.5828175509e+01   4.3630569581e+01    0.3102044    0.0708043  69.66 0.0009365092    3.949    0.747
         6 -12.3653    244.2298    246.8015   1.1073761614e+02  -9.2595866349e+00    0.2491424    0.1697924  28.11  0.001767359    1.158    0.136
         7 -13.5331      8.9696    207.4702   1.4881458876e+02   3.0913939758e+01    0.7065853    0.5660812 -47.13  0.005398073    2.015    0.504
         8 -13.6774     46.0323    217.0706   1.4282997881e+02   2.5155245066e+01    0.9404159    0.6850979 -69.14   0.00590226    1.516    0.340
         9 -15.4704      9.8492    245.0482   1.5043853007e+02   2.4092077575e+01     2.796144     1.285599  43.96   0.01937131    1.836    0.455
        10 -11.8976     58.2262    200.9654   1.3918470318e+02   2.6785541840e+01    0.2334441    0.1995697  84.09 0.0004892467    1.151    0.131
        11 -12.0262     64.9499    192.2353   1.3697198538e+02   2.7684148982e+01    0.2299682    0.2011115  81.29 0.0003875066    1.131    0.116
        12 -12.8211     61.9647    177.4087   1.3597719242e+02   3.1193549223e+01    0.4565178    0.2479143 -47.91  0.001630037    2.410    0.585
        13 -10.7177     75.9608    178.7378   1.3308621003e+02   2.9008469641e+01    0.2100207    0.1686863 -71.62 0.0004048097    1.223    0.182
        14 -11.8328     82.7890    170.3567   1.3045151278e+02   2.9827317049e+01    0.4035172    0.3532208 -41.95  0.001187416    1.444    0.308
        15 -11.6501    174.7362    248.8992   1.2281732769e+02   9.5943807669e-01     0.253954    0.1578735   7.40  0.001331519    2.734    0.634
        16 -11.7845     84.8628    152.4962   1.2726322259e+02   3.3484447362e+01    0.2762279    0.2304853 -46.49 0.0005970456    1.362    0.266
        17 -10.2951    100.0247    150.5086   1.2322959406e+02   3.1504262521e+01    0.2873798    0.1897514 -79.51  0.001366241    1.783    0.439
        18 -11.0682     68.0015    143.1962   1.2994716704e+02   3.8040294751e+01    0.5009683    0.2697226  62.83  0.002134256    2.313    0.568
        19  -9.3586    109.2677    137.3383   1.1840943179e+02   3.2856023832e+01    0.1408216    0.1132168 -24.41 0.0002830016    1.596    0.374
        20 -10.1928     95.5916    135.4148   1.2150692080e+02   3.5665135480e+01    0.2253321    0.2099878 -72.75 0.0002508551    1.042    0.040
        21 -11.4641     25.0901    128.2091   1.3883257489e+02   4.6287072039e+01    0.2196239    0.1442593  58.72 0.0008187696    1.607    0.378
        22 -10.4185     96.0903    153.6487   1.2473446347e+02   3.1452209054e+01    0.2610191    0.1963813 -55.98 0.0007343129    1.332    0.249
        23 -13.0836    141.0815    248.3895   1.2867747270e+02   6.3139990522e+00    0.5100571    0.2576113  55.71  0.002749186    2.002    0.501
        24 -14.5150     35.3376    229.5146   1.4554849554e+02   2.4100452555e+01    0.7740639    0.4935656  62.52  0.002430643    1.175    0.149
        25 -13.1516     30.8185    235.4885   1.4665533770e+02   2.3542930090e+01     0.277968    0.2202881  73.36 0.0007003429    1.187    0.157
