#   1 NUMBER                 Running object number                                     
#   2 MAG_AUTO               Kron-like elliptical aperture magnitude                    [mag]
#   3 X_IMAGE                Object position along x                                    [pixel]
#   4 Y_IMAGE                Object position along y                                    [pixel]
#   5 X_WORLD                Barycenter position along world x axis                     [deg]
#   6 Y_WORLD                Barycenter position along world y axis                     [deg]
#   7 A_WORLD                Profile RMS along major axis (world units)                 [deg]
#   8 B_WORLD                Profile RMS along minor axis (world units)                 [deg]
#   9 THETA_WORLD            Position angle (CCW/world-x)                               [deg]
#  10 FWHM_WORLD             FWHM assuming a gaussian core                              [deg]
#  11 ELONGATION             A_IMAGE/B_IMAGE                                           
#  12 ELLIPTICITY            1 - B_IMAGE/A_IMAGE                                       
         1 -13.2416    217.4744      8.1184   3.0091295130e+01   3.0610281494e+01     2.142882    0.7728844 -69.76  0.002679713    4.107    0.756
         2 -10.6763    224.4946      1.7328   2.8282519152e+01   2.9799528370e+01    0.3557454    0.2419215 -84.66  0.001173241    1.214    0.177
         3 -13.2124    245.7877      4.5237   2.7441230749e+01   2.5279997920e+01     1.174333    0.9884047 -70.78  0.007418279    1.184    0.156
         4 -10.9912    229.7432      3.5359   2.8281092818e+01   2.8546289298e+01    0.4189345    0.2775877 -58.03  0.001695673    1.256    0.204
         5 -10.2802    199.9740     20.1904   3.4279687198e+01   3.3117313069e+01    0.2033299    0.1223667  49.56   0.00109041    1.982    0.495
         6 -10.6036    143.5784      9.9579   3.8525174306e+01   4.7295652542e+01    0.3865325    0.2355851 -84.08  0.001966897    1.925    0.480
         7  -9.9623    167.2676      9.2361   3.5176495376e+01   4.1759716850e+01     0.239119    0.1628233 -34.39    0.0010075    1.628    0.386
         8  -8.9569    114.5668      8.7777   4.3126102271e+01   5.4213937985e+01    0.1615385    0.1161218 -41.37  0.000849796    1.642    0.391
         9 -11.4824    197.9824      4.4250   3.0894206241e+01   3.5198350922e+01    0.5040716    0.1731945 -28.11  0.002220951    3.339    0.700
        10 -11.1060    204.1643      6.9672   3.0926745678e+01   3.3587933952e+01     0.215347    0.1482501  86.03 0.0008188125    1.241    0.194
        11  -8.5531    153.6826      7.3367   3.6360418381e+01   4.5134801950e+01    0.1318379   0.08553509 -69.63 0.0007048625    1.701    0.412
        12  -9.8443     72.6907      7.1253   5.2931302095e+01   6.3441458894e+01    0.1777581     0.157762 -40.50  0.001191846    1.483    0.326
        13  -9.1340     58.4955      4.4829   5.6521280143e+01   6.6394632814e+01    0.1226992   0.09777707  26.61 0.0008103199    1.023    0.023
        14 -10.5865    192.3461      2.5477   3.0963877645e+01   3.6631194551e+01    0.2406991    0.1633777 -71.17  0.001492866    1.333    0.250
        15 -10.6469    183.8843      1.9477   3.1599221128e+01   3.8594124584e+01    0.3288214    0.1426231  88.59  0.001484625    2.471    0.595
        16 -10.4878    185.5091      9.3698   3.3209260292e+01   3.7521215344e+01    0.2427747    0.1352295  79.03  0.001014181    1.596    0.374
        17  -9.8362    181.0151     99.0157   5.6519882206e+01   2.5712902221e+01    0.2310978    0.1775602 -79.17  0.000585999    1.614    0.380
        18 -10.5945    150.9197     97.9797   6.2694258532e+01   3.2719779872e+01      0.23587    0.2338279  89.73  0.000568352    1.019    0.019
        19 -11.2733    184.9276     95.0080   5.4767644770e+01   2.5576201034e+01    0.5359288    0.2709658  66.86  0.001987418    2.797    0.643
        20  -8.4556    242.4376     88.5214   4.4465215484e+01   1.4768941057e+01    0.1297995    0.1082942 -51.25 5.832492e-05    1.007    0.007
        21  -9.5678    121.4801     84.4920   6.6358225752e+01   4.1973603262e+01    0.1506327    0.1467673  20.28 6.548305e-05    1.014    0.014
        22 -10.1153    188.0031     81.9504   5.0938846927e+01   2.7179030006e+01    0.2349761    0.1675855 -73.17 0.0007667851    1.682    0.406
        23  -9.4609    138.9953     78.0621   5.9920346539e+01   3.9225600453e+01    0.2460798    0.1861939 -78.31  0.001130948    1.776    0.437
        24 -10.1887    117.8810     77.3439   6.5191283117e+01   4.4124626857e+01    0.2606984     0.208676 -51.61  0.000723669    1.371    0.271
        25 -10.1182    237.6700     76.1712   4.2447646336e+01   1.7600534175e+01    0.2121472    0.1660581 -87.44 0.0008524076    1.352    0.260
        26 -10.7713    145.2137     74.8526   5.7526013727e+01   3.8347605191e+01    0.4416672    0.2910608 -83.91  0.001752841    2.564    0.610
        27  -8.9271     23.0155     75.5080   9.9123020960e+01   5.9343922329e+01    0.1754413   0.09584868  45.07 0.0008105483    2.583    0.613
        28 -10.9850    167.3284     73.2004   5.2425907854e+01   3.3427830175e+01    0.3349167    0.1998418  59.47  0.001508459    1.681    0.405
        29  -8.9090    243.2890     71.7994   4.0885916565e+01   1.7178071295e+01    0.2038766    0.1273203 -55.19 0.0004685757    1.426    0.299
        30  -9.2669    195.5453     65.5028   4.5640124197e+01   2.8130475140e+01    0.2420398    0.1306103  75.94 0.0007848946    2.310    0.567
        31  -9.1375    186.1870     64.8478   4.6922899798e+01   3.0367418767e+01    0.2122566    0.1783586 -74.36 0.0005740358    1.177    0.150
        32  -9.7198    118.8154     63.2541   6.0502214066e+01   4.6405592768e+01    0.2910195    0.1658617 -50.46  0.001223947    2.129    0.530
        33 -10.1446    161.0233     62.2647   5.0629063289e+01   3.6679803019e+01    0.2610246    0.1920752 -17.34  0.001218071    1.697    0.411
        34 -10.0529    157.6462     58.3490   5.0174562745e+01   3.8084419550e+01    0.2265676    0.1653943 -73.71  0.001107759    1.649    0.393
        35  -8.4648    228.6640     57.2909   3.9461004067e+01   2.2192008001e+01    0.1335947   0.08406476 -68.27 0.0007022948    1.638    0.389
        36 -10.5296    178.9169     54.4925   4.5416618454e+01   3.3606803757e+01    0.4898772    0.2674795 -77.71  0.001854662    3.106    0.678
        37  -8.7478    207.2215     54.4116   4.1374326867e+01   2.7162745093e+01    0.1784876    0.1184575  83.60 0.0005432655    1.594    0.373
        38 -10.2588    154.5127     54.0052   4.9536886033e+01   3.9478686244e+01    0.2784732    0.1937117  78.86 0.0008981267    1.618    0.382
        39  -8.8364    225.8519     52.1334   3.8660285521e+01   2.3496552842e+01    0.2057589    0.1488724 -65.27 0.0008799254    1.255    0.203
        40  -9.9012    125.5921     48.9256   5.4167752418e+01   4.7071604468e+01     0.297667    0.2165589 -78.95  0.001397841    1.949    0.487
        41 -10.8569    175.4983     47.9541   4.4239791662e+01   3.5333438958e+01    0.3057207    0.2338163 -62.53  0.001073203    1.329    0.248
        42 -11.6954    172.8066     39.4307   4.2396898647e+01   3.7101809366e+01    0.6384781    0.2740299 -44.46  0.002631316    2.356    0.576
        43  -8.6760    154.0175     47.5236   4.7765337996e+01   4.0517565291e+01    0.2077203    0.1296009  61.60 0.0004050286    1.498    0.333
        44 -10.2758    246.2617     45.4610   3.5245666788e+01   2.0318519587e+01    0.5136322    0.2162259  79.56  0.002329194    3.034    0.670
        45  -8.7424    186.5973     43.2203   4.1399898166e+01   3.3372429654e+01    0.1676187    0.1301231 -22.37 0.0004802632    1.567    0.362
        46  -9.3857    206.7565     41.4414   3.8427817126e+01   2.9035936669e+01    0.2206305    0.1656231 -44.81 0.0006710537    1.289    0.224
        47  -9.7479     31.2266     41.3152   8.4824959511e+01   6.5483365330e+01    0.2713311    0.1989707  58.44  0.001399885    2.634    0.620
        48  -8.5726     57.0000     40.9909   7.3108944815e+01   6.2079107680e+01     0.207406   0.07078802 -39.49 0.0008017898    2.938    0.660
        49 -10.2737    188.4940     38.5846   3.9991125428e+01   3.3535943283e+01    0.2254167    0.2045207 -81.29 0.0006651057    1.048    0.046
        50  -8.9993    200.0470     35.4966   3.7824338697e+01   3.1292782219e+01    0.1928513    0.1163229  70.58 0.0006839221    1.563    0.360
        51  -9.8668     90.8665     33.7884   5.8171052227e+01   5.6836395365e+01    0.3213649    0.2269174 -53.02  0.001486437    1.959    0.490
        52 -10.6409    215.9450     35.3191   3.6047508276e+01   2.7818125141e+01    0.4086632    0.1886795 -58.64   0.00178411    2.267    0.559
        53  -9.5254    164.7491     34.6300   4.2323956798e+01   3.9619563498e+01    0.1965903    0.1183999  76.93 0.0009514499    1.690    0.408
        54  -9.2926    182.5022     33.0081   3.9379708671e+01   3.5621856301e+01    0.2171392    0.1642951  56.38  0.000533628    1.346    0.257
        55  -9.5752     36.3045     32.9380   7.9056862049e+01   6.6295175822e+01    0.2336927    0.1935273  89.59  0.001297014    2.676    0.626
        56  -8.5919     44.4868     31.5076   7.4636936094e+01   6.5420781108e+01    0.1264851    0.1058248   1.36 0.0008096439    1.065    0.061
        57 -10.4157    174.4817     27.9712   3.9149846059e+01   3.8099714206e+01    0.3420663    0.1921504 -60.51  0.001651942    2.007    0.502
        58  -9.1271     57.8155     29.1044   6.7887695454e+01   6.3704687565e+01     0.184797    0.1714568  12.56 0.0008711809    1.258    0.205
        59 -10.8370    207.3000     26.8897   3.5057886597e+01   3.0725933288e+01    0.4041189    0.1982722  65.53  0.001311686    1.907    0.476
        60  -9.8422    193.4655     26.0027   3.6331290307e+01   3.3925538088e+01     0.200321    0.1525718  80.17 0.0005940993    1.176    0.150
        61  -9.8368    163.9465     25.2300   3.9877251443e+01   4.0906793051e+01    0.2103273    0.1922054 -48.16 0.0006586353    1.196    0.164
        62 -11.2680    241.0578    246.9924   7.5473065885e+01  -1.0420235546e+01    0.5842522    0.2882104  37.37  0.003217398    2.347    0.574
        63  -9.8901     15.8374    234.3297   1.2059994090e+02   2.2096088543e+01    0.3451044    0.1294588  57.01  0.001677622    2.359    0.576
        64  -9.4407     12.4697    227.1890   1.2086020970e+02   2.3911501154e+01    0.2355318    0.1332747  59.39 0.0006688532    1.485    0.326
        65 -10.1792    201.0528     24.4945   3.5156824193e+01   3.2389442901e+01    0.1816114     0.152125 -62.93 0.0003787493    1.112    0.101
        66  -9.4439    168.4926     24.9257   3.9159249002e+01   3.9860672265e+01    0.1856438    0.1266785 -35.72  0.001026782    1.579    0.367
        67 -10.6639     34.9989    216.3740   1.1539298612e+02   2.3963137767e+01    0.3591822    0.2384902 -50.63  0.001583958    1.827    0.453
        68  -8.9055    198.6747    211.6756   7.7450258433e+01   6.1089087757e-01    0.1419023   0.09380499  -4.10  0.000468429    1.690    0.408
        69  -9.5636    183.7283     15.3624   3.4846479479e+01   3.7323934290e+01    0.2241248    0.1638051 -76.16 0.0007701309    1.276    0.216
        70  -9.7911    144.6268     17.9241   4.0718003770e+01   4.6290327012e+01    0.2534307    0.1717325  75.28 0.0006888783    1.372    0.271
        71  -9.4095    107.7037     14.7963   4.6688129852e+01   5.5246578039e+01    0.2283378    0.1470408  51.74 0.0007100991    1.301    0.232
        72  -9.0907     26.6409    207.7262   1.1655993004e+02   2.6787707359e+01    0.1876367    0.1337738 -44.74  0.001092093    1.804    0.446
        73  -8.4737    128.3200    206.6700   9.2247571711e+01   1.3046947725e+01     0.145493    0.1087607  66.35 0.0002847756    1.690    0.408
        74  -9.3519     61.9756    197.4753   1.0722802199e+02   2.5119343236e+01    0.2073325   0.08793002  51.73 0.0008099505    2.542    0.607
        75  -9.0738    145.3229    195.6660   8.6309811806e+01   1.2516708680e+01    0.1462944    0.1154448  70.80 0.0006959094    1.707    0.414
        76 -10.4503     54.4573    194.6976   1.0876547670e+02   2.6726592544e+01    0.2962228    0.1812633  71.88 0.0008685598    1.819    0.450
        77 -10.3112    168.5179    189.9807   7.9863105791e+01   9.6464743885e+00    0.2388844    0.1898727  29.68  0.001066693    1.212    0.175
        78 -11.4629    190.5535    182.1435   7.3501947812e+01   7.3497751973e+00    0.3664419    0.2903364 -28.45  0.001367093    1.190    0.160
        79  -9.5891    172.4993    144.4975   6.9346592635e+01   1.8403211367e+01    0.1528796    0.1447596 -19.35 0.0008106853    1.006    0.006
        80  -9.2235    202.3401    130.6813   6.0024435023e+01   1.5185545047e+01    0.1460929    0.1137624 -75.36 0.0007049464    1.712    0.416
        81 -12.3357    157.4500    105.2971   6.3130566479e+01   2.9787906753e+01    0.7535528     0.563691  75.60  0.001725758    1.724    0.420
