#   1 NUMBER                 Running object number                                     
#   2 MAG_AUTO               Kron-like elliptical aperture magnitude                    [mag]
#   3 X_IMAGE                Object position along x                                    [pixel]
#   4 Y_IMAGE                Object position along y                                    [pixel]
#   5 X_WORLD                Barycenter position along world x axis                     [deg]
#   6 Y_WORLD                Barycenter position along world y axis                     [deg]
#   7 A_WORLD                Profile RMS along major axis (world units)                 [deg]
#   8 B_WORLD                Profile RMS along minor axis (world units)                 [deg]
#   9 THETA_WORLD            Position angle (CCW/world-x)                               [deg]
#  10 FWHM_WORLD             FWHM assuming a gaussian core                              [deg]
#  11 ELONGATION             A_IMAGE/B_IMAGE                                           
#  12 ELLIPTICITY            1 - B_IMAGE/A_IMAGE                                       
         1 -16.9838    245.5958     63.2676   4.3059179908e+01   1.7396869135e+01     6.310615     4.888823 -36.40   0.01607142    1.263    0.208
         2 -15.5145    228.1008     99.9606   5.3592547562e+01   1.5132960946e+01     4.764259     2.587646 -59.75   0.01036924    2.434    0.589
         3 -15.1300    248.1970     33.6844   3.6516593658e+01   2.0918659664e+01     3.148942     1.165022 -64.18   0.01154176    4.051    0.753
         4 -13.3358    169.7068     60.5582   5.3186961892e+01   3.4979231567e+01     1.662892    0.6479226 -55.38  0.004650366    4.848    0.794
         5  -9.0605    138.3721      6.2138   4.2103031362e+01   4.9263734317e+01     0.165239    0.1166471 -38.34 0.0004496036    1.576    0.365
         6  -8.6123    181.5181      3.5795   3.5822879142e+01   3.9135561176e+01    0.1259134    0.1070304  76.90   0.00017709    1.084    0.078
         7  -8.3400    192.7136    218.6752   8.5194665090e+01   3.8938909706e-01    0.1336994   0.09266987  -1.49 0.0003947385    1.605    0.377
         8  -9.6440    194.0688    214.0407   8.4115521055e+01   9.4110415233e-01      0.19827    0.1737012   4.92  0.000400718    1.035    0.033
         9 -10.1200    161.9508    204.0465   8.9087873992e+01   8.0982856421e+00    0.2263424    0.1943326 -37.73 0.0003872861    1.234    0.190
        10 -11.3748    191.2182    191.9661   8.0629908759e+01   5.2770129333e+00    0.6433163    0.3323703 -61.44  0.002075412    4.762    0.790
        11  -9.1713     46.2960    191.8527   1.1409898018e+02   2.8601958692e+01    0.1775658    0.1451306 -81.45 0.0005793797    1.121    0.108
        12  -9.0863    183.9989    189.2341   8.1609866375e+01   7.0502071192e+00    0.1911616    0.1701588  17.41 0.0002139056    1.054    0.051
        13 -12.5358    222.7235    172.9903   7.0647075787e+01   3.2334071991e+00    0.6145051    0.4403604 -48.76 0.0009506593    1.593    0.372
        14 -11.9963    230.0183    166.7862   6.8044125086e+01   3.0702493445e+00      0.56232    0.2510411 -47.12  0.002100088    2.513    0.602
        15 -14.8948    169.2169     85.1727   6.0197989101e+01   3.0918583952e+01     2.539433      1.62434  45.45  0.007094312    1.629    0.386
        16 -14.0792    235.2332     58.3238   4.3122542917e+01   2.0246242525e+01     1.031757    0.6394606 -52.24  0.003303741    1.438    0.305
        17  -8.5308    205.6789    241.7363   8.6486578494e+01  -5.0855517158e+00    0.1236544   0.08020523   7.47 0.0003356645    1.555    0.357
        18  -8.9956    204.8019    224.7961   8.3862484608e+01  -2.4521498210e+00    0.1595351    0.1511807  33.62  0.000707613    1.384    0.278
        19 -11.5236     14.7102    157.9903   1.1836145684e+02   3.9805719271e+01    0.5950801    0.2389112  40.55  0.002589501    2.495    0.599
        20 -12.4945     16.4470    152.5617   1.1738571369e+02   4.0980179259e+01    0.7527732    0.6041211  58.98  0.004308034    1.281    0.220
        21 -11.7640    191.3241    154.3283   7.2808719981e+01   1.2456241571e+01     0.376329    0.3153208  33.80  0.001993946    1.224    0.183
        22 -10.7686    133.8979    147.4048   8.4563140373e+01   2.5480130087e+01    0.9096845     0.250761 -53.26  0.002398866    4.344    0.770
        23 -11.5515    184.5561    147.6782   7.2735456460e+01   1.5135013126e+01    0.3852459    0.2729127 -61.80  0.001096026    1.797    0.444
        24 -12.2513     67.5732    143.9864   1.0210384097e+02   3.7625028262e+01     1.121351    0.8185075 -52.83  0.004146267    1.302    0.232
        25 -11.7141     44.1267    144.1988   1.0883165867e+02   4.0442730447e+01    0.4278942    0.3620988  12.43 0.0009601653    1.449    0.310
        26 -13.4193     52.8530    140.8511   1.0581641201e+02   4.0292638879e+01     2.065878     1.301133 -11.91  0.009050045    2.634    0.620
        27 -12.4882     59.6213    139.1008   1.0355351090e+02   3.9902422139e+01     1.102359    0.5352376 -57.62  0.001795702    1.817    0.450
        28 -10.7041    191.9384    144.0096   7.0356426815e+01   1.4376922077e+01    0.2882689    0.2115103 -31.67 0.0004797125    1.328    0.247
        29 -13.1675    190.1287    135.2279   6.8687604640e+01   1.6493209970e+01    0.8507321    0.5549728 -33.26  0.003868354    1.520    0.342
        30 -10.9182    176.9212    139.7663   7.2551966418e+01   1.8325681099e+01    0.2829196    0.2206115  64.46  0.001139343    1.566    0.361
        31 -13.8641    249.7921     42.1498   3.8137387022e+01   1.9499122839e+01     0.494941    0.4341474 -50.70  0.001455132    1.175    0.149
        32 -12.7260    209.2108    127.3025   6.3124172366e+01   1.4091965999e+01     0.607964    0.4542504 -86.26  0.002147411    2.027    0.507
        33  -9.9962    132.5354    134.9251   8.2047699675e+01   2.8641539650e+01    0.2438207      0.21811  76.34 -2.196299e-05    1.253    0.202
        34  -9.3568    158.9430    143.0000   7.7393912083e+01   2.1386345343e+01    0.2543706   0.08854691  43.26 0.0007993847    2.921    0.658
        35  -9.4589    239.8475    219.0836   7.6358704169e+01  -6.6512628345e+00    0.1708915    0.1507385  -2.64 0.0004921463    1.262    0.208
        36 -11.9630    224.9940    129.6020   6.0868793704e+01   1.0545660167e+01    0.5436909    0.3701262  83.75  0.002369766    2.695    0.629
        37 -11.0678    218.9750    128.5398   6.1663429774e+01   1.1908642438e+01    0.2995551    0.2044995 -38.34  0.000795346    1.319    0.242
        38 -11.0455    135.3528    121.7028   7.8059999307e+01   3.1080172883e+01    0.5492361    0.1825155 -50.37  0.001623639    3.264    0.694
        39 -11.3401    161.1062    128.4117   7.3388022208e+01   2.4084467459e+01    0.4838298    0.2868528 -56.31  0.001922859    1.979    0.495
        40  -8.5975     47.9927    176.0561   1.1197315638e+02   3.2139701928e+01    0.1530144    0.1349234  76.76 0.0009432742    1.056    0.053
        41  -8.8439     94.7051    125.3063   9.0329270849e+01   3.8096098452e+01    0.1511436    0.1194653  81.53 0.0002131752    1.584    0.369
        42 -10.5399    218.1677    122.3139   6.0373089291e+01   1.3202385735e+01    0.2456885    0.1825313 -31.38 0.0006093649    1.265    0.209
        43 -10.1379    177.7956    121.8060   6.8018904797e+01   2.1828964289e+01    0.2731594    0.2387067 -72.54 0.0004385527    1.302    0.232
        44 -10.9419    192.0584    119.5751   6.4539178053e+01   1.9169065370e+01     0.310019    0.2046138 -54.38  0.001380861    1.657    0.397
        45 -10.7032    216.0661    117.1463   5.9532883112e+01   1.4567013693e+01     0.261545    0.1945857 -39.59 0.0005610421    1.216    0.178
        46 -13.4576    205.5360    110.0193   5.9678287460e+01   1.8077309339e+01      0.98884    0.6466282 -32.49  0.004645509    1.504    0.335
        47 -10.5465    167.8464    115.1441   6.8504486675e+01   2.5389955428e+01    0.2453669    0.2204312 -78.44  0.001245663    1.244    0.196
        48 -13.0034    134.1855    104.8232   7.3895937408e+01   3.5052931955e+01     1.692192    0.4787706 -49.22  0.004512185    4.133    0.758
        49 -13.1639    124.8399    103.3310   7.5990532689e+01   3.7386104582e+01     1.070313    0.7289395 -55.46  0.004705921    1.595    0.373
        50  -9.2967     79.7233    106.3784   9.0387157358e+01   4.5145931837e+01    0.2394142    0.1879192  15.73 0.0005749628    1.451    0.311
        51 -11.9502    210.9357    110.1675   5.8765872533e+01   1.6901767335e+01    0.4771257    0.3145072  73.26  0.001470421    2.126    0.530
        52  -9.6092    174.0466    102.9091   6.3977705242e+01   2.6438620581e+01    0.2301816    0.2180012 -47.21 0.0004100898    1.024    0.023
        53 -11.0460    156.6240    101.9143   6.7556318061e+01   3.0629377667e+01    0.4438654    0.2723395  36.50  0.001831758    1.848    0.459
        54  -9.6652    146.9983    105.9503   7.0951379050e+01   3.1978233931e+01    0.2410384    0.2343369 -19.57 0.0006342694    1.028    0.027
        55 -11.3960    154.3129     93.9233   6.5887322588e+01   3.2755079983e+01    0.3355426    0.3315721  86.15 0.0004625852    1.028    0.027
        56 -12.6884    114.2576    103.9770   7.9145359997e+01   3.9435407752e+01    0.7804393    0.5444811  33.22  0.003535309    1.531    0.347
        57 -11.5431    140.5365     96.1820   6.9848293533e+01   3.5456254697e+01    0.4692762    0.3790499 -30.71 0.0007199809    1.273    0.215
        58 -10.2264     97.3057     87.1096   7.9398274884e+01   4.6446821167e+01    0.2510251    0.2266848  23.23 0.0002880426    1.123    0.110
        59 -10.4178    151.1020     71.4259   6.0113961211e+01   3.7683431924e+01    0.2909794    0.2403623 -38.94  0.000545449    1.220    0.180
        60  -9.7441    126.0822     67.0546   6.4759858372e+01   4.4303155180e+01    0.2200245    0.2169296  13.42 0.0003539828    1.029    0.029
        61 -10.2361    224.5468    218.1738   7.8965376926e+01  -4.3696872300e+00    0.2181116    0.1844017  19.87 0.0003644707    1.215    0.177
        62 -12.0864    159.4990     50.5201   5.2161387874e+01   3.8980966089e+01    0.4991637    0.3136618  52.75  0.002366823    1.529    0.346
        63  -9.9342    103.6689     61.9505   6.9333198288e+01   5.0095101998e+01    0.2115657    0.1796021 -31.63 0.0007982179    1.178    0.151
        64 -10.1468    192.5265     57.7383   4.8598267491e+01   2.9924197056e+01    0.3487723    0.1249501 -37.39  0.001294453    2.606    0.616
        65  -9.6108    110.7953     59.2184   6.6319633976e+01   4.9052399547e+01     0.205635    0.2031711  81.92 0.0006073397    1.135    0.119
        66  -9.4246    181.8561     58.5003   5.0496346491e+01   3.2357884349e+01    0.2065458    0.1374591  62.23 0.0006160064    1.484    0.326
        67 -10.2217    186.1027     60.5772   5.0361511855e+01   3.1021994613e+01    0.2937429    0.1873006 -29.83 0.0009515175    1.682    0.406
        68  -9.4296    143.5173     49.4705   5.5021093106e+01   4.3020205081e+01    0.1430447    0.1364591  58.95 0.0003192273    1.006    0.006
        69 -10.6111    158.2200     63.6474   5.6299166220e+01   3.7274661015e+01     0.272575    0.2388396  -6.83 0.0005846025    1.303    0.233
        70 -10.8987    132.5003     41.4811   5.4820224738e+01   4.6788471938e+01    0.3490614    0.2572441 -15.51  0.001788543    1.557    0.358
        71 -10.8497    133.0089     37.4606   5.3373735763e+01   4.7201850352e+01      0.34284    0.2081721 -24.82 0.0009130758    1.832    0.454
        72 -10.7931    187.2759     40.6108   4.4847746395e+01   3.3598362827e+01    0.3156329    0.2433926  68.14 0.0006244128    1.240    0.194
        73 -10.6637    182.2414     38.8373   4.5088897545e+01   3.5043658654e+01    0.2975518    0.2294327 -32.13 0.0004929644    1.386    0.278
        74  -9.4378    211.1045    162.9682   7.0740012100e+01   7.0652336138e+00    0.2097858    0.1879548 -16.39 0.0003552547    1.008    0.008
        75 -10.1702    191.9801     35.3258   4.2825691098e+01   3.3160099750e+01    0.3852654    0.1869244  54.39 0.0007559384    2.068    0.517
        76 -11.6954    158.3155     54.4998   5.3569636230e+01   3.8681143551e+01    0.3865743    0.2770936 -27.88  0.001913235    1.511    0.338
        77 -10.2695    125.8040     29.0630   5.2088021285e+01   4.9952801156e+01     0.239994    0.1865343  57.73 0.0005546301    1.188    0.158
        78  -9.9811    124.7902     25.1402   5.0949215731e+01   5.0642936216e+01    0.2256205    0.1859384 -40.22 0.0007967132    1.344    0.256
        79 -10.0170    178.9139     24.0466   4.1542013391e+01   3.7653825944e+01    0.3837155    0.2606751 -86.94  0.002033767    1.518    0.341
        80  -9.6838    169.1589     24.0763   4.2878212204e+01   4.0016798592e+01    0.3050106    0.1936939 -11.61  0.001491448    2.137    0.532
        81 -10.5993    198.7103    162.2677   7.3031401810e+01   9.4926422502e+00    0.3238564    0.2179545 -85.26  0.001143243    3.922    0.745
        82 -10.3961    232.3600    217.0209   7.7330276225e+01  -5.3172134115e+00    0.2180265    0.1798604  13.37 0.0003601384    1.153    0.133
