#   1 NUMBER                 Running object number                                     
#   2 MAG_AUTO               Kron-like elliptical aperture magnitude                    [mag]
#   3 X_IMAGE                Object position along x                                    [pixel]
#   4 Y_IMAGE                Object position along y                                    [pixel]
#   5 X_WORLD                Barycenter position along world x axis                     [deg]
#   6 Y_WORLD                Barycenter position along world y axis                     [deg]
#   7 A_WORLD                Profile RMS along major axis (world units)                 [deg]
#   8 B_WORLD                Profile RMS along minor axis (world units)                 [deg]
#   9 THETA_WORLD            Position angle (CCW/world-x)                               [deg]
#  10 FWHM_WORLD             FWHM assuming a gaussian core                              [deg]
#  11 ELONGATION             A_IMAGE/B_IMAGE                                           
#  12 ELLIPTICITY            1 - B_IMAGE/A_IMAGE                                       
         1  -8.8839     22.1788     45.4623   1.3160808462e+02   6.5370272276e+01    0.2676346   0.09067354  34.17  0.001137169    3.202    0.688
         2  -8.7840    116.5407      2.4809   7.7013861800e+01   5.5785428127e+01    0.1433241    0.1328004  35.70 0.0002035268    1.011    0.011
         3  -9.1631    100.6871    247.9541   1.3695654938e+02   1.5279489730e+01     0.143144    0.1080369  51.31  0.001157088    1.113    0.101
         4  -9.4440    248.5343    250.4316   1.1310007643e+02  -4.0794489678e+00    0.2503814   0.08149491  32.41  0.001440902    2.233    0.552
         5  -8.5353    217.3677    250.3075   1.1777225053e+02  -2.4453271545e-01    0.1088257    0.0575395  17.82 0.0007036183    1.754    0.430
         6  -9.3375     90.6363    250.3558   1.3885647795e+02   1.6187164888e+01    0.2052252   0.09408929  37.67  0.001249468    1.621    0.383
         7  -9.2727     76.2654    250.4715   1.4130945552e+02   1.7867643390e+01    0.2888283    0.0763438  35.61  0.001407032    2.945    0.660
         8  -9.3857     58.2429    247.8329   1.4420970378e+02   2.0262800591e+01    0.2201918    0.0834349  47.23 0.0006873301    1.776    0.437
         9 -10.5936     66.4489    249.1741   1.4289558807e+02   1.9165569606e+01    0.4109796    0.1632041  46.47  0.001738167    1.709    0.415
        10  -9.7153     62.5240    243.8665   1.4326592803e+02   2.0361827854e+01    0.4784936    0.1977576  25.39  0.002284008    3.910    0.744
        11 -11.9462     24.1137    229.7639   1.4924079197e+02   2.6475204226e+01     1.452023    0.4539498  48.49  0.008751594    2.045    0.511
        12 -10.4969     45.2303    237.1830   1.4590008766e+02   2.3221866339e+01     1.235178    0.2944577  58.80  0.005081269    4.826    0.793
        13 -11.1138     35.6920    248.2223   1.4798957471e+02   2.2556971773e+01    0.6078176    0.3087363  58.45  0.004566472    1.453    0.312
        14 -10.7662     12.9192    216.5262   1.5074640938e+02   2.9643215969e+01    0.6935201   0.09322836  43.34  0.003424752    3.066    0.674
        15 -10.3441     38.2106    240.9736   1.4727331542e+02   2.3372392363e+01    0.4715456     0.172183  52.61  0.002968492    1.919    0.479
        16 -10.4626     51.7692    249.7303   1.4539078068e+02   2.0688097123e+01    0.3803238    0.1261712  41.61  0.001862678    1.957    0.489
        17 -10.2330     45.7398    244.9037   1.4617519507e+02   2.2018727369e+01    0.3741134    0.1697614  45.14  0.001520129    1.492    0.330
        18 -10.6673     27.9856    242.3755   1.4904470869e+02   2.4171243883e+01    0.4877447    0.2120717  66.78  0.002842885    1.969    0.492
        19 -12.2037      4.3463    225.2940   1.5249744664e+02   2.8956178227e+01     1.191954    0.3928503  85.63  0.006924013    2.940    0.660
        20 -10.6073     10.4551    226.0260   1.5147244770e+02   2.8313439670e+01    0.6421933    0.1963406  67.17  0.003543552    2.854    0.650
        21 -10.2743     26.0670    249.2241   1.4959773031e+02   2.3347752837e+01    0.3155399    0.1492484  55.88  0.001820896    1.461    0.315
        22 -10.7972     19.2979    249.2374   1.5068926820e+02   2.3979779493e+01    0.4274427    0.1351674  45.16  0.002249335    1.895    0.472
        23 -10.5851      5.4561    235.3575   1.5256236497e+02   2.7285569195e+01    0.3554025    0.1545043  36.30  0.002199991    1.851    0.460
        24 -10.5750      8.9412    239.4583   1.5209381867e+02   2.6359273652e+01    0.3336867     0.219425 -70.88  0.002801801    1.940    0.484
        25 -11.4310     21.0677    241.2546   1.5015351518e+02   2.4993906951e+01    0.8645291    0.3273606 -73.37  0.005631253    2.914    0.657
        26 -11.2980     15.0463    240.7809   1.5113078827e+02   2.5617236793e+01    0.5192273    0.2590854  85.08  0.003775534    1.906    0.475
        27 -11.5874      6.4180    248.7809   1.5272413269e+02   2.5197176065e+01    0.6484621    0.2629237  30.37   0.00428437    2.450    0.592
        28 -11.4353      3.3091    242.6591   1.5308000957e+02   2.6364673380e+01    0.4515333    0.1882769  52.58  0.003335966    1.524    0.344
        29 -11.1290    245.6685    244.7095   1.1275953355e+02  -3.2900925425e+00    0.5205269    0.1312396  32.30  0.002493081    3.182    0.686
        30  -9.2888     96.3045    245.0307   1.3749371836e+02   1.6217776162e+01    0.1435174    0.1098547  51.96   0.00116028    1.106    0.096
        31  -9.0676    212.3468    245.4046   1.1794101243e+02   8.4016676189e-01    0.2119225   0.06375704  30.02 0.0009552765    3.235    0.691
        32  -8.8372    218.7879    244.6152   1.1683031428e+02   7.9353951390e-02    0.1449888   0.07414997  39.39 0.0009019446    1.642    0.391
        33  -8.5575    177.7510    243.2446   1.2329804035e+02   5.6621039417e+00    0.1803043   0.06471673  31.60 0.0008973451    2.443    0.591
        34  -8.8287    115.7650    243.6186   1.3398447462e+02   1.3939891908e+01    0.1584946    0.0694015  44.32 0.0005678759    1.671    0.402
        35  -9.4006    105.2327    242.2383   1.3571342835e+02   1.5478078098e+01    0.1483346   0.09280099  53.44 0.0007319516    1.363    0.266
        36 -10.3350     53.8289    240.1488   1.4456217871e+02   2.1862039953e+01    0.3884249    0.1770391  52.91  0.002356479    1.618    0.382
        37  -8.8602    127.4824    241.4612   1.3173807072e+02   1.2681573021e+01    0.1082302   0.07876486  39.89 8.216481e-05    1.015    0.015
        38  -8.2290    198.6577    244.6799   1.2003513881e+02   2.7064018396e+00    0.1093814   0.06257852  17.13 0.0007049883    1.721    0.419
        39 -10.3770     73.1829    240.4770   1.4121399661e+02   1.9640141140e+01    0.3952409    0.1845596  47.93   0.00252866    1.537    0.349
        40 -10.5225     84.3522    245.2743   1.3958618649e+02   1.7638429057e+01    0.3688398    0.1487561  45.37  0.002259774    1.736    0.424
        41 -10.0297     81.9961    237.1637   1.3943582605e+02   1.9078152719e+01    0.3363786    0.1536283  46.26  0.001913073    1.580    0.367
        42 -10.2314     94.4462    236.4631   1.3716234494e+02   1.7647291713e+01    0.3469834    0.1295275  48.27  0.001911152    2.096    0.523
        43 -10.3342    232.6643    244.6909   1.1470442703e+02  -1.6879369482e+00    0.2599444    0.1274232   9.02  0.001537213    2.462    0.594
        44 -10.8376     62.4308    232.2648   1.4260545370e+02   2.2099178553e+01    0.5216719    0.2292862  53.13  0.003252253    1.776    0.437
        45  -8.7961    237.3568    234.3307   1.1258646385e+02  -1.3941948165e+00    0.1126854   0.05879095  15.08 0.0007043791    1.789    0.441
        46  -9.2350    102.8517    234.3408   1.3547959596e+02   1.6880604977e+01    0.2548125   0.08581862  45.00  0.001243946    2.192    0.544
        47  -8.5796    110.7696    233.5599   1.3398303528e+02   1.5958822823e+01    0.1603055   0.07411698  45.23 0.0006855748    1.631    0.387
        48  -8.2310    124.6029    232.3063   1.3136774603e+02   1.4280791537e+01    0.1160693   0.06567585  55.76 0.0007002556    1.834    0.455
        49  -8.4956    117.2154    232.4026   1.3271162936e+02   1.5263997078e+01    0.1653475   0.07436664  44.77 0.0009539484    1.688    0.407
        50 -10.0312     48.5524    230.3437   1.4497387299e+02   2.3922474178e+01    0.4352903    0.1330799  47.90   0.00241581    2.214    0.548
        51 -10.0603     81.3728    228.5695   1.3892447452e+02   2.0432263084e+01    0.4013681    0.1096408  49.69  0.001828405    3.077    0.675
        52  -8.1331    136.3262    230.6453   1.2908503957e+02   1.2893046720e+01    0.1113147   0.07117778  58.25 0.0007046273    1.770    0.435
        53  -8.6012    104.5894    229.7934   1.3477059239e+02   1.7306530977e+01    0.1286848   0.09616589  82.25 0.0006531611    1.609    0.378
        54  -9.5965     40.2001    229.4441   1.4641126871e+02   2.4938277498e+01    0.2464899    0.1226185  47.52    0.0010231    1.416    0.294
        55  -8.5614    114.0215    228.2131   1.3289733247e+02   1.6281539346e+01    0.1549771   0.06902034  38.31 0.0008706255    1.708    0.415
        56  -9.3832     95.3462    227.8227   1.3629775533e+02   1.8793673341e+01    0.2387358    0.1221106  54.02  0.001239086    1.734    0.423
        57 -10.5477     73.7041    223.5199   1.3996942394e+02   2.2141613160e+01    0.4989867     0.199801  44.15  0.002734742    1.809    0.447
        58  -9.7991     38.6824    223.4976   1.4639795036e+02   2.6041342654e+01    0.2276087    0.1354803  88.60  0.001621165    1.684    0.406
        59  -8.9721     85.4918    223.0179   1.3773270555e+02   2.0773496550e+01    0.2318223    0.1074881  48.28  0.001374623    1.669    0.401
        60  -9.9098     53.4322    222.1969   1.4363700686e+02   2.4685333502e+01    0.3414431    0.1488724  45.28  0.001915743    1.648    0.393
        61  -8.9421    100.0412    222.0104   1.3491877078e+02   1.9056360817e+01    0.1841794    0.1045327  57.46  0.001138622    1.694    0.410
        62  -9.3313     62.4628    220.7366   1.4187143416e+02   2.3904947704e+01    0.2790327    0.1187779  42.49  0.001496925    1.718    0.418
        63  -9.6687     44.5864    220.6361   1.4517693086e+02   2.5892255910e+01    0.3200423    0.1176996  45.44  0.001877947    1.893    0.472
        64 -10.3432     33.5363    216.4681   1.4700041506e+02   2.7714014003e+01    0.3317097    0.1315197  55.74  0.001988441    1.941    0.485
        65  -8.8739     17.7932    206.4140   1.4949144795e+02   3.0921486089e+01    0.2255507     0.103448  58.88 0.0009599004    1.652    0.395
        66 -10.0526     12.0144    203.9825   1.5048355560e+02   3.1856401273e+01    0.3394961    0.1251037  49.86  0.001238752    1.887    0.470
        67  -9.0159     19.4108    215.6885   1.4954886761e+02   2.9197477613e+01    0.2768983   0.07307726  47.88   0.00105591    2.362    0.577
        68  -9.4349     14.1208    211.7112   1.5036620701e+02   3.0343900118e+01     0.348838   0.07976281  42.88  0.001866698    2.539    0.606
        69  -9.2522      8.6643    210.0928   1.5130624011e+02   3.1093897829e+01    0.2014857    0.1104594  52.86 0.0007290106    1.300    0.231
        70  -9.7613      5.7675    205.0760   1.5168114823e+02   3.2198472090e+01    0.2785482    0.1533739  54.08  0.001258631    1.302    0.232
        71  -9.1362      1.4956    204.5221   1.5245088992e+02   3.2645059165e+01    0.1720875   0.07811096  86.63 0.0008441975    1.944    0.486
        72  -9.0046     85.2230    215.0089   1.3712384699e+02   2.2071263268e+01    0.2152525    0.1299381  40.87  0.001405527    1.314    0.239
        73  -9.1929     24.0102    217.1288   1.4877123453e+02   2.8529090130e+01    0.1989155    0.1193033  54.14 0.0009482691    1.195    0.163
        74  -9.0092     44.5646    212.8650   1.4475370424e+02   2.7183481453e+01    0.2230881   0.08675072  47.78  0.001205225    1.864    0.464
        75  -9.7340     67.0991    211.4411   1.4034195635e+02   2.4888921068e+01    0.3686147    0.1391167  42.75   0.00196784    1.954    0.488
        76  -9.6973     56.5283    211.7384   1.4240269976e+02   2.6063656847e+01    0.3551439    0.1421375  42.73  0.001789887    1.842    0.457
        77  -9.3734     22.0750    211.0865   1.4888064067e+02   2.9726303908e+01    0.2386753    0.1077518  48.62  0.001021297    1.583    0.368
        78  -9.1827     35.6759    208.1109   1.4618521865e+02   2.8915146172e+01    0.2343329    0.1005714  52.96  0.001095894    1.766    0.434
        79  -9.3017     79.2594    207.7102   1.3766734595e+02   2.4025135936e+01    0.3090757    0.1082596  41.67  0.001559624    2.135    0.532
        80  -8.9359     50.6073    206.2451   1.4319284936e+02   2.7661673167e+01    0.2177663   0.08891349  43.78  0.001243466    1.821    0.451
        81  -8.7873     89.2891    204.5784   1.3539428466e+02   2.3255754643e+01     0.227475   0.08384632  40.93  0.001128383    2.085    0.520
        82  -7.9550     26.3155    203.3133   1.4774165515e+02   3.0670120388e+01   0.08654433   0.07963632 -45.75  0.000462302    1.641    0.391
        83  -9.1579     59.9983    202.1403   1.4105429655e+02   2.7314904752e+01    0.2958842   0.06232576  43.97  0.001260218    3.118    0.679
        84  -8.2091     35.5050    201.9836   1.4589312617e+02   3.0001900267e+01    0.1494098   0.06335997  68.81 0.0008065243    2.332    0.571
        85  -8.7266     30.8078    202.0256   1.4681103447e+02   3.0462237603e+01    0.1969614   0.09085076  49.47 0.0009305743    1.616    0.381
        86  -8.6011     18.1732    201.1999   1.4921084420e+02   3.1798815571e+01    0.1525579   0.08308226  55.55 0.0009437189    1.362    0.266
        87  -9.0516     71.8796    200.0311   1.3849482660e+02   2.6261071515e+01    0.2545661    0.1408542  34.29  0.001516806    1.667    0.400
        88  -9.8144      4.1176    189.0845   1.5148509158e+02   3.5179565476e+01    0.3856055    0.1169702  50.16  0.002142586    2.257    0.557
        89 -10.0290      3.5616    196.7061   1.5183691001e+02   3.3848442267e+01    0.3230909    0.1584044  79.55  0.001897826    1.714    0.416
        90  -8.7570      8.6133    197.8204   1.5091112186e+02   3.3232705493e+01    0.1501526   0.08378509  61.83 0.0008282453    1.335    0.251
        91  -9.1259      7.2515    194.4245   1.5105559280e+02   3.3954391660e+01    0.1745904    0.1012878  62.68 0.0006814768    1.284    0.221
        92  -8.2475     51.9410    198.2908   1.4239828220e+02   2.8912997495e+01    0.1925883   0.03068738  47.61 0.0007027605    4.170    0.760
        93  -8.8422     23.4263    198.1511   1.4806215306e+02   3.1858525908e+01    0.1757741   0.09384359  42.60 0.0007641179    1.499    0.333
        94  -8.1118     29.5031    197.4587   1.4683417475e+02   3.1403747049e+01    0.1078096   0.07979691  61.25 0.0008092156    1.008    0.008
        95  -9.1315     13.8936    196.5463   1.4984868150e+02   3.3007559897e+01    0.2123585     0.108187  61.23 0.0009742784    1.505    0.336
        96  -8.2958     61.9856    196.0000   1.4018462393e+02   2.8170640122e+01     0.183472   0.05405284  34.38   0.00080118    2.934    0.659
        97  -8.6976     19.2877    194.9367   1.4872879933e+02   3.2817969083e+01    0.1883704    0.1021425  50.78  0.001275967    1.395    0.283
        98  -8.9197     39.0009    193.6072   1.4471465392e+02   3.1150249463e+01    0.2199605   0.09270389  46.49  0.001259699    1.808    0.447
        99  -8.3880     28.5582    192.4795   1.4676413747e+02   3.2399372027e+01    0.1103515   0.07915462  62.46 0.0001170194    1.059    0.056
       100  -7.9606     23.3189    191.6555   1.4777615846e+02   3.3046387149e+01    0.1184546   0.05560547  60.30 0.0007049289    1.724    0.420
       101  -8.6682     16.7999    191.1947   1.4905808013e+02   3.3722500874e+01    0.1256479    0.1132894  67.43 0.0007095834    1.290    0.225
       102  -8.9681     11.0522    191.1285   1.5019401737e+02   3.4233220396e+01    0.1655751    0.1132548  61.75 0.0008432698    1.079    0.073
       103  -8.6674     23.1846    187.7007   1.4760868218e+02   3.3790236706e+01    0.1770429   0.09494279  52.32 0.0009458647    1.443    0.307
       104  -8.2097     15.3976    187.1821   1.4916549091e+02   3.4586536256e+01    0.1463404   0.07649108  77.34 0.0006710784    1.648    0.393
       105  -9.6080      8.5841    186.9330   1.5052423370e+02   3.5211775780e+01    0.2032805    0.0977824  48.83  0.001044213    1.574    0.365
       106  -8.3069     36.6663    186.3165   1.4474605032e+02   3.2740882209e+01    0.1213752   0.06095153  59.83 0.0003853547    1.691    0.409
       107  -8.8042     23.9875    184.1669   1.4726313481e+02   3.4378655238e+01    0.1913919   0.07646385  52.68 0.0007065558    1.959    0.490
       108 -10.4541      4.5200    182.6548   1.5118412869e+02   3.6337933206e+01    0.3447268    0.2394276 -19.98  0.002266153    2.771    0.639
       109  -8.6327     16.5641    180.7565   1.4863658274e+02   3.5693461608e+01    0.1506045    0.0800119  78.48    0.0009456    1.634    0.388
       110  -8.4046     22.9468    179.4960   1.4723486084e+02   3.5363756394e+01    0.1542847   0.08937703  39.85 0.0005855988    1.523    0.343
       111  -9.6681      1.8741    177.2837   1.5153497978e+02   3.7558080535e+01    0.2437549    0.1050182  73.58  0.001439584    1.944    0.486
       112 -10.1316     10.8669    177.2710   1.4966887172e+02   3.6843898856e+01    0.3529066   0.07852075  35.28  0.001686678    3.100    0.677
       113  -9.7123      5.2376    174.2448   1.5072485948e+02   3.7879364229e+01    0.2283673   0.08932517  57.86  0.001195946    2.007    0.502
       114 -10.2525     17.4456    174.7253   1.4815819630e+02   3.6777096109e+01    0.3126942   0.09128198  49.53  0.001549793    2.547    0.607
       115 -10.1801      5.4687    169.3145   1.5048023365e+02   3.8819565696e+01    0.1864872    0.0855426  51.75 0.0007267218    1.707    0.414
       116  -9.8971     10.3278    168.6407   1.4940156434e+02   3.8567216509e+01    0.1629751   0.07768517  48.35  0.000992212    1.678    0.404
       117  -9.9886     11.0110    161.0127   1.4888679962e+02   4.0036153970e+01    0.2327398   0.08907136  52.61  0.000812677    2.113    0.527
       118 -10.3856      9.7479    154.5789   1.4885100842e+02   4.1448718038e+01    0.2356836    0.1173953  58.62  0.001406749    1.677    0.404
       119  -9.9993      3.3976    153.3523   1.5026122594e+02   4.2176767612e+01    0.2000885    0.1183288 -88.50  0.001311901    1.422    0.297
       120 -10.4210      5.1747    147.2718   1.4955875236e+02   4.3307710771e+01    0.3651385   0.08078969  48.21  0.001598226    3.289    0.696
       121  -8.9922      3.9742    135.4757   1.4924430394e+02   4.5894338929e+01    0.1646972   0.05680875  49.62 0.0008091612    2.461    0.594
       122  -8.9889    221.0021    119.7601   9.4574663640e+01   1.4213853669e+01    0.1721874    0.1088225  45.63 0.0005859779    1.601    0.375
       123  -9.5592    231.4916    115.0524   9.1834635353e+01   1.2822556589e+01    0.3480031    0.1201648 -29.37  0.001314182    2.705    0.630
       124  -9.7056    230.5210    102.9662   8.9178160260e+01   1.4597184835e+01    0.2132512    0.1215843 -26.86  0.001040122    1.614    0.380
       125  -8.3928    194.6994     97.3495   9.3713492101e+01   2.2927351734e+01    0.1440112      0.11249 -63.18 0.0007038035    1.691    0.409
       126  -9.3314     22.8235     96.0106   1.4044563022e+02   5.3462359540e+01    0.1849098    0.1184011  54.57  0.001058948    1.605    0.377
       127  -9.5315    241.9843     92.5079   8.5056763225e+01   1.3675935278e+01    0.1888766   0.09567117  31.07 0.0008099265    2.492    0.599
       128  -9.5380    210.3833     91.1682   8.9433533754e+01   2.0405025286e+01    0.2141691    0.1193193 -38.89 0.0009601919    1.782    0.439
       129  -9.6335    203.4988     89.9958   9.0275309578e+01   2.2085370423e+01    0.2247624      0.13512 -29.00  0.001035812    1.598    0.374
       130  -8.8898    189.0000     78.0048   8.9576262754e+01   2.7184836467e+01    0.2448211   0.08157885 -31.29 0.0007999438    2.925    0.658
       131  -9.1930    174.4163     78.1990   9.2361892220e+01   3.0600625378e+01    0.2206136    0.1338336 -43.19 0.0009393567    1.707    0.414
       132  -9.9531    228.6096     84.1738   8.4888068688e+01   1.7459162420e+01    0.2008868    0.1218626 -14.89 0.0009514602    1.710    0.415
       133 -10.0126    233.5788     74.2350   8.1714091724e+01   1.7688988375e+01    0.1983876    0.1218432 -13.46 0.0008086743    1.694    0.410
       134  -8.5209     31.9852     67.0000   1.3234806518e+02   5.9549019647e+01    0.1894228   0.07449855  24.29 0.0008025974    2.944    0.660
       135  -8.9809     17.2186     63.2041   1.3762875830e+02   6.1609066394e+01    0.2216912   0.08984812 -40.73 0.0009552597    2.802    0.643
       136  -8.4448    110.6639    249.3210   1.3534721239e+02   1.3848320139e+01    0.1076048   0.05957118  55.42 0.0007050087    1.708    0.414
