#   1 NUMBER                 Running object number                                     
#   2 MAG_AUTO               Kron-like elliptical aperture magnitude                    [mag]
#   3 X_IMAGE                Object position along x                                    [pixel]
#   4 Y_IMAGE                Object position along y                                    [pixel]
#   5 X_WORLD                Barycenter position along world x axis                     [deg]
#   6 Y_WORLD                Barycenter position along world y axis                     [deg]
#   7 A_WORLD                Profile RMS along major axis (world units)                 [deg]
#   8 B_WORLD                Profile RMS along minor axis (world units)                 [deg]
#   9 THETA_WORLD            Position angle (CCW/world-x)                               [deg]
#  10 FWHM_WORLD             FWHM assuming a gaussian core                              [deg]
#  11 ELONGATION             A_IMAGE/B_IMAGE                                           
#  12 ELLIPTICITY            1 - B_IMAGE/A_IMAGE                                       
         1 -14.6779     68.3959    144.4323   1.0319246473e+02   3.7438363737e+01     5.595887     2.351836  61.83  0.002889205    4.091    0.756
         2 -14.3342    217.5433     24.3313   3.9792761502e+01   2.7299123818e+01     1.491416     1.048885  25.05  0.007922514    2.025    0.506
         3 -14.4701    204.0163     37.4838   4.4575345770e+01   2.8895217681e+01     2.230435     1.501773  29.19  0.008517884    2.062    0.515
         4 -12.3609    242.4836      2.5423   3.2849622432e+01   2.4129346498e+01    0.6484303    0.2853011  81.17  0.003291286    2.411    0.585
         5 -10.6729      2.5541      3.5167   9.8148759273e+01   7.7852219618e+01    0.2962269    0.1159721 -50.06  0.001461482    2.018    0.504
         6 -10.2240     56.8616      1.6335   6.0145279854e+01   7.0045874463e+01    0.1812407     0.159657  42.53 0.0007952364    1.122    0.109
         7 -10.3274     47.9159      2.2244   6.4608359873e+01   7.1791081034e+01     0.181149    0.1761422  41.53 0.0004638795    1.223    0.183
         8 -11.4441    204.4971    200.4846   8.1220017236e+01   5.1833815280e+00    0.5231655    0.1314177  38.57   0.00204106    3.537    0.717
         9 -10.1500    139.5125    249.9882   9.9853397140e+01   7.7044050207e+00    0.1319818    0.1128102 -48.08  0.001032356    1.595    0.373
        10 -16.4758     29.7737    180.8608   1.1722303755e+02   3.3763832817e+01     8.820194     3.156875  66.67   0.02805751    3.229    0.690
        11  -8.4418     73.2801    199.2953   1.0839753240e+02   2.4871353172e+01    0.1087181    0.0957384  -9.00 0.0001666159    1.535    0.348
        12 -10.4462    208.2234    196.7823   7.9962290893e+01   5.1221754234e+00    0.1706843    0.1174586   6.98 0.0008283394    1.354    0.262
        13  -9.3287     72.1693    188.1658   1.0755486650e+02   2.7240777513e+01    0.1762516    0.1250389  61.27 0.0004231553    1.310    0.236
        14  -8.9528     69.5085    183.5255   1.0771723954e+02   2.8552268087e+01    0.1311371    0.1079581  55.48 3.687154e-05    1.029    0.028
        15  -8.9257     91.2425    182.3566   1.0229788377e+02   2.5755891046e+01    0.1204753    0.1000227 -25.06 0.0002787533    1.590    0.371
        16  -9.7439     99.4192    180.8551   1.0013396288e+02   2.4835654263e+01    0.2211829    0.1582903  46.18 0.0005466607    1.222    0.182
        17 -10.2248    150.3852    178.7268   8.8142536121e+01   1.6964420276e+01    0.2949828    0.2237092 -74.08  0.001162888    1.982    0.495
        18 -11.1217    143.8626    178.9429   8.9594335588e+01   1.8020951763e+01    0.3972315     0.303974  82.11  0.002120066    1.991    0.498
        19 -12.1358     64.5484    176.8190   1.0824347708e+02   3.0624471547e+01    0.3932478     0.276303 -33.96  0.002105883    2.091    0.522
        20 -12.0807     69.3746    171.7188   1.0645708631e+02   3.1091052665e+01    0.3758234    0.2913733  34.83 0.0007537727    1.255    0.203
        21  -9.6191    218.5673    177.4892   7.4852940995e+01   6.1043974984e+00    0.1223134   0.09857475   3.20 4.994943e-05    1.020    0.019
        22  -9.6108    204.3767    176.1975   7.7071174212e+01   8.4642472304e+00    0.1672681    0.1112975 -41.15 0.0009529632    1.731    0.422
        23  -9.3744    188.5064    174.9978   7.9766809660e+01   1.1193393045e+01    0.1583382    0.1140816 -63.38 0.0008089562    2.423    0.587
        24 -12.8141     85.8321    155.5710   9.9993241605e+01   3.2296935765e+01     1.198826    0.8446811 -58.31  0.003350534    1.507    0.336
        25 -13.3254     77.2207    159.6934   1.0289294616e+02   3.2657289514e+01     1.439953    0.7016711  63.00  0.002565493    2.823    0.646
        26 -13.6456     66.1351    158.1141   1.0567654067e+02   3.4568099472e+01    0.5101265     0.398012 -50.08  0.001742115    1.486    0.327
        27 -10.9108    172.1821    240.9555   9.2826045635e+01   4.5549872853e+00    0.3960642    0.2611554 -68.13  0.002166826    3.822    0.738
        28 -10.5264    137.9834    169.7651   8.9363052765e+01   2.0691765438e+01    0.3827113    0.1979159  48.01  0.001360786    1.946    0.486
        29 -10.0566    230.4865    166.4846   7.0881139032e+01   5.7443455237e+00    0.1212298   0.09920733  -1.43 -3.556745e-05    1.020    0.019
        30  -9.2038    157.4448    159.9350   8.3254333205e+01   1.9047224638e+01    0.1767487    0.1234469 -72.69  0.000806433    2.421    0.587
        31 -13.6371     86.4683    226.1224   1.0797521347e+02   1.8268908698e+01    0.9562585    0.5947334 -61.27  0.003511377    1.982    0.495
        32 -12.1708     55.3315    146.7238   1.0727037828e+02   3.8639123229e+01    0.5682079    0.4846824  55.82  0.003408363    1.074    0.069
        33 -10.2543    174.3555    148.5612   7.7441968970e+01   1.7932032801e+01    0.3095852    0.2456951 -75.96  0.001059079    1.929    0.482
        34 -10.5742    134.1243    146.6992   8.6007629233e+01   2.5867562992e+01    0.6553624    0.1865177 -50.83  0.002033423    4.012    0.751
        35 -10.6326    133.0000    140.5216   8.5030844713e+01   2.7332657472e+01    0.5347382    0.1848843 -52.74  0.001759721    3.458    0.711
        36 -13.9613     23.6733    225.3400   1.2085387602e+02   2.5603957831e+01     1.095882    0.3426108  63.64  0.002732335    3.099    0.677
        37 -10.8239    100.7058    140.3782   9.3396165732e+01   3.3287012058e+01    0.5689383    0.3597971 -23.32  0.002291923    2.748    0.636
        38 -12.3233     87.6377    140.5036   9.7059743867e+01   3.5446961644e+01     0.276635     0.257379 -52.57 0.0003122841    1.173    0.147
        39 -15.0482      9.5348    207.4633   1.2309606956e+02   3.0254412663e+01     1.075151    0.9537902  32.04  0.003873855    1.390    0.281
        40  -9.9007     28.9209    136.1829   1.1391110244e+02   4.4126461738e+01    0.1993699    0.1519778  63.56  0.000343041    1.183    0.155
        41 -11.7252     67.5331    126.5587   1.0062752971e+02   4.1861481772e+01     0.760469    0.5302474 -69.22  0.003850223    1.424    0.298
        42 -10.5032    106.0974    130.7208   9.0018657558e+01   3.4502187653e+01    0.3938363      0.31175 -63.83  0.002020838    1.337    0.252
        43 -10.2291    110.1731    130.6319   8.8879339536e+01   3.3770192762e+01    0.2983069    0.2453038   9.10 0.0006831831    1.495    0.331
        44 -16.0764     50.6660    247.0527   1.1658197963e+02   1.9083403181e+01     9.254843     2.455681  25.00   0.01007856   11.888    0.916
        45 -10.2378    109.9164    201.3139   1.0033767398e+02   1.9366239565e+01    0.1861557    0.1638163  74.96 0.0001955255    1.267    0.211
        46  -9.7475    160.3268    127.6346   7.5855282927e+01   2.4426702394e+01    0.2239426    0.1822491 -88.67  0.001118388    1.688    0.407
        47 -10.9788     97.3511    126.8737   9.1700873480e+01   3.6957466627e+01    0.3034874     0.260939  -0.36 0.0007408744    1.439    0.305
        48  -9.0327     79.4718    128.4532   9.7296364713e+01   3.9592949253e+01    0.1453951    0.1332678  70.00 0.0001839194    1.030    0.029
        49 -11.1983     61.7497    199.2736   1.1104149299e+02   2.6341498140e+01    0.3326845    0.2391893 -64.81 0.0006882197    1.598    0.374
        50 -11.0184    135.8387    128.4030   8.1720533608e+01   2.9258537988e+01    0.4746465    0.1847437 -49.88   0.00166788    2.802    0.643
        51  -9.8035    135.0000    119.9751   7.9980516625e+01   3.1164809554e+01    0.2438186   0.08576053 -45.51 0.0007992504    2.920    0.658
        52 -10.0649    107.0255    119.3003   8.7291797701e+01   3.6908245145e+01    0.2233398    0.2093529 -56.38 0.0003697295    1.095    0.086
        53 -11.3341     23.1059    119.4128   1.1405020890e+02   4.8797052707e+01    0.4791097    0.1086286  41.25  0.001676557    3.647    0.726
        54  -8.9239     85.5925    119.2945   9.3639092406e+01   4.0781200918e+01    0.1610021    0.1072169  66.64 0.0001519275    1.828    0.453
        55 -10.4905     39.8862    113.2681   1.0757856623e+02   4.8703483841e+01     0.235639    0.1734329  87.81 0.0004624044    1.325    0.246
        56 -12.2397     17.7191    110.0440   1.1488888036e+02   5.1585547441e+01    0.5735233    0.2568752 -67.02  0.002657588    1.929    0.482
        57  -9.4197    168.0414    113.0343   7.0734044109e+01   2.5498754472e+01    0.2386449    0.1858312 -81.32  0.001139117    1.809    0.447
        58  -9.6405    135.0000    112.5117   7.8164412506e+01   3.2704874337e+01    0.3273453   0.08639845 -44.59 0.0009257307    3.862    0.741
        59 -10.1189    205.3410    110.2560   6.3142500700e+01   1.8194937842e+01    0.3111491    0.1992611  34.96  0.001192861    1.729    0.421
        60  -8.7000    114.3206    110.3461   8.3110812560e+01   3.7476629927e+01    0.1557332    0.1222681  -6.22 0.0007049483    1.732    0.423
        61 -10.7484     32.9371    109.1085   1.0940649471e+02   5.0479518695e+01    0.2491804    0.1997466  65.89 0.0006760167    1.212    0.175
        62  -9.6937    134.5941    105.3513   7.6440403823e+01   3.4264657152e+01    0.2949232    0.1457018 -48.12   0.00112939    2.106    0.525
        63 -10.9160     38.8564    101.8007   1.0613782198e+02   5.1717526714e+01    0.4203908    0.1870598  51.35  0.001683612    2.564    0.610
        64 -12.2640    241.8331    100.4172   5.5589643416e+01   1.2679557754e+01    0.4784231    0.2171295 -47.73  0.002101682    2.611    0.617
        65  -9.7419     33.2543     96.8377   1.0741491777e+02   5.3560525269e+01    0.2399517    0.1731473  46.98  0.001295074    1.425    0.298
        66 -10.7154     11.3139     93.0517   1.1536464732e+02   5.6321578484e+01    0.2549933    0.1739179  35.40 0.0008233936    1.562    0.360
        67 -10.0715     41.6269     91.8489   1.0327810281e+02   5.3928739556e+01    0.2118609    0.1924652  -0.29 0.0004406676    1.273    0.214
        68 -10.4961     53.0694     91.2781   9.8735725715e+01   5.2651219409e+01    0.2853008    0.2058255 -72.09 0.0007836011    1.371    0.271
        69  -9.7989     73.3126     83.8539   8.9268034337e+01   5.1374653228e+01    0.2421638    0.1960519  57.63  0.000637709    1.317    0.241
        70 -10.0267    159.6645     82.0228   6.4220899104e+01   3.2976048637e+01    0.2161493     0.193847 -34.18 0.0005418868    1.107    0.097
        71 -10.0210    244.3225     81.3070   5.0992242388e+01   1.4737378548e+01    0.1240485     0.092402   8.43 0.0002674504    1.643    0.391
        72  -8.3947    109.7036     79.6817   7.5937909723e+01   4.5109958968e+01    0.1536999    0.1240595   0.64 0.0006888552    1.611    0.379
        73 -10.0502    243.7021     77.3293   5.0154090700e+01   1.5366400504e+01    0.1306905   0.08436602 -52.46 0.0002575112    1.638    0.390
        74  -8.8272    184.4998     77.4671   5.8303385193e+01   2.7876167668e+01    0.1438062    0.1377782 -11.99 8.502872e-05    1.071    0.066
        75  -8.8362     50.6408     63.3484   9.2384654634e+01   5.9777788345e+01     0.149031    0.1084969  73.46 0.0007029429    1.849    0.459
        76 -10.6624     13.5318     59.9445   1.0931098417e+02   6.4457215009e+01    0.2569871    0.2028537 -69.22 0.0004328314    1.115    0.103
        77 -16.1115      8.8348    239.9942   1.2420915357e+02   2.4448579215e+01     2.119272     1.627534  83.68   0.01749907    1.374    0.272
        78 -11.9963    195.5423     43.4228   4.7195794210e+01   3.0162657769e+01    0.5054572    0.4641162  46.32  0.000963745    1.218    0.179
        79 -11.1627     72.6307    226.7962   1.1090109788e+02   1.9903009191e+01    0.2906807    0.2063279  20.79  0.001875321    1.608    0.378
        80 -10.0326    141.7293     39.2459   5.4186306942e+01   4.4418179105e+01    0.2439335    0.2102049 -70.32 0.0003395278    1.199    0.166
        81  -8.9374    137.5656     35.7790   5.3757302848e+01   4.5996345054e+01    0.1991631    0.1340094 -44.93 0.0003966414    1.509    0.337
        82  -9.5942      3.9833     50.0000   1.1237726923e+02   6.7414651871e+01    0.1830161   0.07251781  12.06 0.0007998831    2.925    0.658
        83 -10.7609    138.0679     44.0303   5.6611817736e+01   4.4673624883e+01    0.3255023    0.2550483 -71.65  0.000360996    1.431    0.301
        84  -9.8475    189.6735     15.0047   3.9698183695e+01   3.4931664970e+01    0.1931306    0.1651907 -44.82 0.0005397862    1.107    0.096
        85  -9.5822     66.5126    194.4516   1.0950922267e+02   2.6703849948e+01     0.216745    0.1659593  38.00  0.000663425    1.190    0.160
        86 -11.3284    192.2471    193.3573   8.2252608367e+01   7.9449761657e+00    0.8817019    0.5366516 -65.88  0.002912657    7.559    0.868
        87 -10.4252     37.6809    215.4842   1.1749092006e+02   2.5981031344e+01    0.2512661    0.1095008  53.30 0.0007305158    1.824    0.452
