#   1 NUMBER                 Running object number                                     
#   2 MAG_AUTO               Kron-like elliptical aperture magnitude                    [mag]
#   3 X_IMAGE                Object position along x                                    [pixel]
#   4 Y_IMAGE                Object position along y                                    [pixel]
#   5 X_WORLD                Barycenter position along world x axis                     [deg]
#   6 Y_WORLD                Barycenter position along world y axis                     [deg]
#   7 A_WORLD                Profile RMS along major axis (world units)                 [deg]
#   8 B_WORLD                Profile RMS along minor axis (world units)                 [deg]
#   9 THETA_WORLD            Position angle (CCW/world-x)                               [deg]
#  10 FWHM_WORLD             FWHM assuming a gaussian core                              [deg]
#  11 ELONGATION             A_IMAGE/B_IMAGE                                           
#  12 ELLIPTICITY            1 - B_IMAGE/A_IMAGE                                       
         1  -7.7776    121.0000     21.0095   4.1118147441e+01   5.1193131408e+01     0.180357   0.07416423 -27.23 0.0005274038    2.829    0.647
         2  -8.4355     55.8484      9.7892   5.4213671637e+01   6.5917844857e+01    0.1836901    0.1525019 -55.25 0.0006828145    1.885    0.469
         3  -7.7551     28.2982      9.6860   6.6090192729e+01   7.0401568220e+01   0.09743796   0.09157215  27.30 0.0006644482    1.606    0.377
         4  -8.3965      6.0007      8.4798   7.8104069086e+01   7.3206207586e+01    0.1334177   0.08651406  39.68 0.0005525728    2.339    0.572
         5  -7.6243    101.3110      7.7117   4.0684280954e+01   5.6817250477e+01    0.1163212   0.09003346 -82.19 0.0004172286    1.580    0.367
         6  -8.3508     33.3270      4.3947   6.0983125221e+01   7.0235726932e+01    0.1974977     0.127671 -44.52  0.001145694    2.540    0.606
         7  -8.3363     79.1289      3.5409   4.4329971315e+01   6.1897604177e+01    0.2172249    0.1424113 -40.60  0.001290183    1.965    0.491
         8  -7.9994     90.8773      8.8092   4.3407295389e+01   5.8995185636e+01    0.1594085    0.1381049  84.70 0.0005421781    1.348    0.258
         9  -7.7404     15.3784      2.6937   6.9455087563e+01   7.2903879309e+01    0.0978623   0.08560246  35.78  0.000702686    1.780    0.438
        10  -8.0418     62.7422      1.4820   4.8181738606e+01   6.5344431233e+01    0.1517863    0.1036345  63.33 0.0009153351    1.624    0.384
        11 -10.0341    223.9567    243.8783   7.2184111615e+01  -7.8782995907e+00    0.4789645    0.2206015 -46.78  0.002338425    2.665    0.625
        12  -9.3088    248.2612    234.6412   6.6315237192e+01  -9.1622019881e+00    0.3069273    0.2117629 -50.54  0.001856364    2.227    0.551
        13  -9.3088    246.7281    228.6749   6.5572155711e+01  -8.1164306397e+00    0.4227062    0.1685569 -38.14  0.001354917    2.102    0.524
        14  -8.7916    249.0985    249.1213   6.8551033332e+01  -1.1302589260e+01    0.3467657    0.1630144 -22.56  0.001917344    1.927    0.481
        15  -9.4737    248.6249    241.8483   6.7447711135e+01  -1.0237784898e+01     0.353697    0.1876599 -41.40  0.001437714    1.930    0.482
        16  -9.4751    232.9297    246.9658   7.1045774608e+01  -9.3273184156e+00    0.4869487    0.2131499 -34.00  0.002584161    1.981    0.495
        17  -9.7126    175.4699    248.3502   8.2528174954e+01  -2.5980328307e+00    0.3745573    0.2599672 -40.29  0.002193033    1.534    0.348
        18  -7.5459     86.3216    250.6548   1.0250240569e+02   9.2107803360e+00    0.1372784   0.08690397  59.45 0.0007049869    1.732    0.423
        19  -7.9770     25.5111    250.4646   1.1553891668e+02   1.6514053135e+01    0.1207644   0.09607928  62.63 0.0001532778    1.020    0.019
        20  -9.3140    210.8602    246.2663   7.5054367087e+01  -6.7207380839e+00    0.2389824    0.1680004 -50.28  0.001133088    2.003    0.501
        21  -9.5180    147.1919    245.8202   8.8246930080e+01   1.7142484455e+00    0.3426436     0.225932  59.10  0.001662547    2.386    0.581
        22  -9.4460    120.0352    244.9745   9.4219529583e+01   5.7106581781e+00    0.3807297    0.2563555  72.16  0.001585569    2.346    0.574
        23  -8.5971     67.4652    244.2144   1.0605475009e+02   1.2983660436e+01    0.2676317    0.1256544 -80.76  0.001143266    2.873    0.652
        24  -8.9662    139.4519    243.8091   8.9677625522e+01   3.1811805528e+00    0.2279158    0.1354853 -58.34  0.001123509    2.103    0.524
        25  -9.2439    135.9594    238.8062   8.9742107771e+01   4.6410128796e+00    0.3187663    0.1998351  62.37  0.001410117    2.674    0.626
        26  -9.1101     78.0894    243.0495   1.0354412092e+02   1.1862556152e+01    0.3447447     0.169589  62.65  0.001420735    2.861    0.650
        27  -8.6653      9.6220    243.8648   1.1836330688e+02   1.9474364578e+01    0.1692491   0.09106356  82.44 0.0009457641    1.728    0.421
        28  -8.4835    201.8788    242.6882   7.6228771273e+01  -5.0634809861e+00    0.2152078    0.1590267 -51.44  0.000997728    1.878    0.468
        29  -9.0440    169.1777    243.0659   8.3042280996e+01  -8.4083798997e-01    0.2222584    0.1785395  31.41 0.0005451013    1.278    0.217
        30  -9.7177    160.4422    240.2783   8.4498983367e+01   8.6882545019e-01    0.4448744     0.287421 -69.68  0.001495075    2.874    0.652
        31  -9.0854    194.0005    239.2986   7.7254296294e+01  -3.5070170374e+00    0.2177905    0.1951284  22.02 0.0007451494    1.339    0.253
        32  -9.2372    183.0482    239.9036   7.9606839127e+01  -2.1677044309e+00    0.3952852    0.2761402  57.77  0.001972619    2.633    0.620
        33  -7.7348    153.4870    241.9619   8.6284185605e+01   1.5389525914e+00    0.1680663    0.1226442 -84.72 0.0008100032    2.605    0.616
        34  -8.1965     88.1603    242.2036   1.0115709809e+02   1.0699637709e+01      0.18189    0.1403314  63.23  0.000549881    1.363    0.266
        35  -8.0052    240.4988    240.0546   6.8561377115e+01  -9.1325413350e+00     0.172747   0.09510363 -33.55 0.0006526613    1.542    0.351
        36  -7.8025     41.0000    239.0401   1.1145903205e+02   1.7262394862e+01    0.1930087   0.06760082 -72.07 0.0007190065    2.903    0.655
        37  -8.8233    230.7813    236.8284   6.9760727747e+01  -7.5846205512e+00    0.2547963    0.2103873 -60.37   0.00152974    2.221    0.550
        38  -8.3832    209.1910    238.1971   7.4051908508e+01  -5.2472923064e+00    0.1548762    0.1420758 -18.62 0.0006106647    1.379    0.275
        39  -9.1829    203.3452    234.9115   7.4650800614e+01  -3.9790271590e+00    0.3755887    0.2221504 -56.27  0.001437651    2.795    0.642
        40  -7.9403    128.9424    238.4429   9.1291139914e+01   5.7257690796e+00    0.1904366   0.09857275  49.70 0.0007333211    2.370    0.578
        41  -8.6538     25.6441    236.8064   1.1461567019e+02   1.9406656650e+01     0.278737     0.115214  73.67  0.001148637    3.056    0.673
        42  -7.8729     13.3518    237.7043   1.1725781888e+02   2.0434149749e+01    0.1316927   0.06869579  58.81 0.0003427287    1.685    0.407
        43  -8.2112    146.2654    239.4182   8.7506524222e+01   3.0408489313e+00    0.1964666    0.1679327  84.13  0.000469475    1.690    0.408
        44  -8.8720    217.3126    235.6761   7.2068870921e+01  -5.8340941050e+00    0.2167725    0.1886474   1.96 0.0006232974    1.253    0.202
        45  -9.4230    213.6480    231.6258   7.2083663187e+01  -4.7356772562e+00    0.2826894    0.2548705 -82.17  0.001525201    2.049    0.512
        46  -9.8701    175.6663    233.2381   8.0078935225e+01   1.2905319468e-02    0.5309938    0.2558242 -54.43  0.002268511    2.847    0.649
        47  -8.0312    170.0316    235.5276   8.1662812501e+01   3.8705472581e-01    0.1924633    0.1185134  28.77  0.000465737    1.493    0.330
        48  -9.4977    108.7796    234.0867   9.5368382800e+01   9.5262847089e+00    0.4437013    0.2765543  58.05  0.001113743    1.994    0.498
        49  -9.1319     78.8018    234.5543   1.0245637430e+02   1.3588971883e+01    0.2520461     0.187296 -88.17  0.001399125    1.515    0.340
        50  -8.4173    123.2091    234.0977   9.1996571982e+01   7.4330761335e+00    0.2679995    0.1603683  53.75  0.001143442    2.087    0.521
        51  -8.4091     99.6811    234.1399   9.7512499675e+01   1.0810781724e+01    0.2129142    0.1638502  73.39  0.001157543    1.552    0.356
        52  -9.3622     68.4101    232.2203   1.0462582252e+02   1.5461437548e+01    0.5101714     0.248283  63.83  0.002066288    2.837    0.647
        53  -8.6594    194.1640    232.5947   7.6107192694e+01  -2.3943196074e+00    0.2041554    0.1645515 -37.29 0.0007358099    1.349    0.258
        54  -8.4577     92.6245    231.8238   9.8885158006e+01   1.2299402134e+01    0.3688562    0.1989491  66.65    0.0011614    3.015    0.668
        55  -9.3410    186.5056    230.5090   7.7335143937e+01  -9.9877192554e-01    0.3392815    0.2685449 -75.16  0.001353938    2.310    0.567
        56  -7.9020    157.7845    231.7933   8.3748943383e+01   2.8281949031e+00    0.1735483    0.1556761  44.37 0.0003763403    1.327    0.247
        57  -8.9724    140.2029    229.8159   8.7422377215e+01   5.7972424194e+00    0.3144171    0.2551887  68.42  0.001272131    1.686    0.407
        58  -7.9255    132.7453    232.5709   8.9561642197e+01   6.3451879122e+00    0.1935033    0.1164327  40.39 0.0009357877    1.603    0.376
        59  -9.1827    236.1239    229.9328   6.7635355173e+01  -7.1347967094e+00    0.3397912    0.1604457 -43.02  0.001314614    2.108    0.526
        60  -8.6285      1.4411    230.6601   1.1932268791e+02   2.3057635789e+01    0.2187316   0.09905273 -88.55  0.001111622    2.036    0.509
        61  -7.9633    229.5465    228.0722   6.8500705862e+01  -6.0869706653e+00    0.1828398     0.103094 -36.86  0.001020714    1.573    0.364
        62  -8.9839    162.4348    227.7515   8.2058806350e+01   2.9216260338e+00    0.3108152    0.2162795  52.30  0.001566437    1.949    0.487
        63  -8.9507    127.7016    226.9035   8.9891287610e+01   8.2554566939e+00    0.2867855    0.2363638  66.57  0.001092803    1.514    0.340
        64  -8.0897    120.0443    227.0502   9.1724217669e+01   9.3655236095e+00    0.2136022     0.162928  65.49 0.0005277807    1.657    0.396
        65 -10.0047    149.7748    225.9420   8.4614182528e+01   5.1457693828e+00    0.6388313    0.4155647 -87.05  0.002405689    3.999    0.750
        66  -7.9122    223.3075    226.0382   6.9298056207e+01  -5.0164425464e+00    0.2122668   0.07406548 -27.36 0.0007043433    4.269    0.766
        67  -8.8477    206.1445    225.7920   7.2542570320e+01  -2.8102252262e+00    0.2175328    0.1626712 -42.76 0.0009106213    1.485    0.327
        68  -8.2126    200.1170    226.1482   7.3803513176e+01  -2.0762851399e+00    0.1624026    0.1534288 -26.26  0.000581535    1.371    0.270
        69  -9.0276     94.2823    224.2192   9.7517327663e+01   1.3741715983e+01    0.4485707    0.2552203  61.41  0.001917754    2.363    0.577
        70  -8.1459     38.5969    224.7869   1.1082320710e+02   2.0717318912e+01    0.2801964    0.1288389  74.61  0.001130166    2.886    0.653
        71  -8.8054    216.6796    223.4018   7.0086697159e+01  -3.7621889195e+00    0.2243881    0.2052389 -66.37 0.0009094292    1.780    0.438
        72  -8.9458    180.5878    223.8289   7.7446741718e+01   1.0340761271e+00    0.2504268    0.2274603  47.49  0.001020831    1.457    0.314
        73  -8.1350    113.6126    223.7569   9.2782378759e+01   1.1027415558e+01    0.1798183    0.1367026 -73.28 0.0004576878    1.592    0.372
        74  -8.9716    104.7794    223.4409   9.4869759878e+01   1.2399440219e+01    0.3457384    0.2363778  82.09   0.00153954    2.113    0.527
        75  -8.5137    173.1044    222.7928   7.8880725181e+01   2.3065331691e+00    0.2186629    0.1825457 -51.06 0.0006580662    1.439    0.305
        76  -8.0199     59.7663    223.5902   1.0575671644e+02   1.8506599314e+01    0.1908619    0.1082577  43.25 0.0005438026    1.606    0.377
        77  -9.3517    239.4089    221.0477   6.5527978257e+01  -6.1298124222e+00    0.3672929    0.2652442 -39.98  0.001930486    1.468    0.319
        78  -9.3033    225.4731    221.5292   6.8113176190e+01  -4.5489444234e+00    0.2295172     0.220827 -46.12  0.001030309    1.597    0.374
        79  -9.2857    192.3375    221.1550   7.4519066310e+01  -1.3577261452e-01    0.2862831    0.2483429 -72.09    0.0011557    1.815    0.449
        80  -9.1934    158.8879    220.1646   8.1587624100e+01   4.9254208830e+00    0.2813502    0.2347075  61.61 0.0009282632    1.638    0.389
        81  -8.4755    140.1746    222.2628   8.6240204046e+01   7.3381948049e+00    0.1887237     0.164693  59.66 0.0007212916    1.391    0.281
        82  -9.3821    120.4997    219.1566   9.0435879772e+01   1.0993872440e+01    0.4912294    0.2873376  61.12  0.001985464    2.683    0.627
        83  -8.2258     73.6140    220.7760   1.0210993472e+02   1.7375292846e+01    0.2964212    0.1590679  79.30   0.00114976    2.998    0.666
        84  -8.1162     27.6773    220.8083   1.1299548105e+02   2.2798839693e+01    0.2533686   0.08893152 -64.33  0.001072051    2.608    0.617
        85  -7.9529    202.7729    219.7974   7.2163522099e+01  -1.3272831399e+00    0.1599163    0.1514452 -20.61 0.0004539441    1.338    0.252
        86  -8.2644    210.0501    219.0277   7.0593784528e+01  -2.1658499096e+00    0.1723744    0.1607879 -62.01 0.0005395415    1.618    0.382
        87  -8.6779    249.1398    218.0596   6.3343153641e+01  -6.7669443638e+00    0.2186647    0.1648177  53.19  0.001297662    2.597    0.615
        88  -9.3058    132.9628    215.7868   8.6902390869e+01   9.8100029262e+00    0.4931326    0.3222517  78.05  0.001948781    3.116    0.679
        89  -8.5862     62.4824    217.3591   1.0443199770e+02   1.9617148121e+01     0.383148    0.1570976  54.48  0.001417347    2.991    0.666
        90  -8.7790     51.4127    217.1936   1.0709966859e+02   2.1015412864e+01    0.2988157    0.1987706 -77.50 0.0009667024    1.502    0.334
        91  -8.4619    179.3743    217.2132   7.6556613604e+01   2.4459006797e+00    0.1813001    0.1270386 -52.15 0.0004989697    1.687    0.407
        92  -8.6243    169.4690    216.1347   7.8527315128e+01   4.1249275185e+00    0.2786328    0.2260875 -79.45  0.001022988    1.952    0.488
        93  -8.6348    142.8952    216.3466   8.4635885000e+01   8.1517899972e+00     0.246611    0.2039869 -76.22 0.0007422898    1.607    0.378
        94  -8.8026     82.7467    220.2667   9.9818504441e+01   1.6255494358e+01    0.3031213    0.1852447  89.49  0.001349467    2.245    0.555
        95  -7.9441     18.4860    216.0383   1.1472802728e+02   2.4818451514e+01     0.191183    0.1111389 -77.06  0.001025069    1.574    0.365
        96  -8.9251    232.5131    214.4066   6.5581141564e+01  -4.2474189878e+00    0.2226747    0.1871602 -60.34 0.0008100062    1.911    0.477
        97  -8.3067    154.4326    214.7414   8.1679279322e+01   6.6986797889e+00    0.2422066    0.1396317 -54.67 0.0008015132    2.002    0.500
        98  -8.2510     41.8190    215.2495   1.0921351359e+02   2.2584835161e+01    0.2434539    0.1071982  61.63 0.0009564782    2.796    0.642
        99  -9.4513    214.1819    212.0315   6.8546759628e+01  -1.5039057511e+00    0.3486402    0.2942496  65.32  0.001705429    2.071    0.517
       100  -8.4910    185.5119    214.1201   7.4699765898e+01   2.1317792293e+00    0.1985652    0.1915643  34.04  0.001112122    1.341    0.254
       101  -9.2703     93.0115    213.6096   9.6396435737e+01   1.6343941359e+01    0.3895392    0.2117793  55.62  0.001617837    2.256    0.557
       102  -9.3918     73.2337    211.8171   1.0111831058e+02   1.9529923487e+01    0.6912976    0.2759304  56.86  0.002176757    4.094    0.756
       103  -8.0683    224.8239    212.3318   6.6604530022e+01  -2.9435704093e+00    0.1734344    0.1356629 -30.13 0.0005410755    1.177    0.150
       104  -9.0212    204.3927    210.8827   7.0246477281e+01   3.3094555983e-02    0.2716001    0.2179775 -63.24 0.0008127996    1.890    0.471
       105  -8.7003    161.7494    212.0057   7.9531700821e+01   6.1243684968e+00     0.235053    0.1995378 -69.31 0.0008161688    1.571    0.364
       106  -7.8556    106.4800    212.5260   9.2875500146e+01   1.4601752249e+01    0.1432509    0.1337793  44.58 0.0008091264    1.057    0.054
       107  -8.3339    192.4527    210.4223   7.2581914371e+01   1.8141114394e+00    0.2236624    0.1266424 -53.60 0.0007378089    2.246    0.555
       108  -9.2880    175.6923    210.0272   7.6074479997e+01   4.3800329065e+00      0.37228    0.2747731  67.41  0.001453059    2.424    0.588
       109  -8.6821    147.9040    210.3983   8.2448523556e+01   8.6208510077e+00    0.2522047    0.2062438 -72.52  0.000682138    1.613    0.380
       110  -8.9530    116.1509    209.9193   9.0066165499e+01   1.3717453329e+01    0.3196161    0.2440554  75.59 0.0009489653    1.736    0.424
       111  -7.9710      8.3020    211.6343   1.1672858783e+02   2.6777173847e+01    0.1378651   0.07483933  64.73 0.0007034939    1.735    0.424
       112  -7.9232     32.6546    210.3299   1.1095869206e+02   2.4754284757e+01     0.145754   0.08369961  61.88 0.0007050288    1.755    0.430
       113  -9.3242    236.4848    207.4134   6.3631812781e+01  -3.5863817289e+00    0.4760678    0.2159713 -48.17  0.002185874    2.525    0.604
       114  -8.4969     85.5240    208.9782   9.7643196717e+01   1.8508937428e+01    0.2844616    0.1795955 -89.48   0.00110722    2.145    0.534
       115  -8.0302     46.3651    209.2292   1.0751864263e+02   2.3510873644e+01     0.191457    0.1186258 -87.62 0.0006572903    1.691    0.409
       116  -9.4884    246.4943    207.0203   6.1849772454e+01  -4.7283123971e+00    0.2875718    0.1746031 -36.66 0.0007925684    1.373    0.272
       117  -7.9812    156.5475    207.7595   7.9970695046e+01   7.8095678612e+00    0.1852973    0.1397946 -60.80 0.0009083344    1.635    0.388
       118  -8.5802    139.0210    207.7712   8.4108054438e+01   1.0592359525e+01    0.2485126    0.1920785 -70.94 0.0007585569    1.671    0.401
       119  -8.1476    126.4371    208.2514   8.7251795317e+01   1.2483808621e+01    0.1893414    0.1437583 -69.22 0.0005651634    1.597    0.374
       120  -9.0989     99.4180    205.9708   9.3671592224e+01   1.7190714790e+01    0.3798369    0.2451678  74.69   0.00134301    2.308    0.567
       121  -8.4565     56.3719    205.1048   1.0456817929e+02   2.3324586944e+01    0.3290832    0.1873253  69.20  0.001081289    2.159    0.537
       122  -8.9433    183.9083    203.9684   7.3192860846e+01   4.3143041969e+00     0.323161    0.2651505  75.48  0.001307733    2.024    0.506
       123  -8.0411    109.3750    205.1963   9.1019666446e+01   1.5853842720e+01    0.2004637    0.1407989 -72.73 0.0007625445    1.719    0.418
       124  -7.7683    218.3511    204.3032   6.6350002534e+01  -7.1357175746e-01    0.1380944    0.0882647  -9.83 0.0007040154    1.701    0.412
       125  -9.1914    194.7980    203.2010   7.0771458977e+01   2.8259824696e+00    0.2819614      0.25598 -33.32 0.0009665579    1.224    0.183
       126  -9.4480    192.5793    197.2930   7.0119404335e+01   4.2880159318e+00     0.447094    0.3269758 -70.53   0.00130043    2.332    0.571
       127  -9.6341    164.0099    202.9210   7.7385319380e+01   7.6296828695e+00    0.4708961      0.27132  49.56  0.001178613    2.275    0.560
       128  -8.6405    131.1687    203.6850   8.5317002639e+01   1.2752772701e+01    0.2869444    0.2261636  80.77 0.0009292918    1.773    0.436
       129 -10.0367     16.5617    202.8434   1.1418379815e+02   2.8138145955e+01    0.2969364    0.2229511  52.34 0.0005073613    1.261    0.207
       130  -9.5947    246.0195    193.6395   5.9521414078e+01  -2.4881432139e+00    0.4188172    0.2646156 -60.98   0.00184659    2.997    0.666
       131  -8.0367     41.7745    203.0182   1.0802377080e+02   2.5547251996e+01    0.2647563   0.09680399  55.81 0.0008892892    3.606    0.723
       132  -9.0963    243.0637    200.5675   6.1270112207e+01  -3.2675706464e+00    0.2947894    0.1528115 -42.14 0.0009421532    1.709    0.415
       133  -8.4485    210.8633    201.5508   6.7265761242e+01   8.0996431973e-01    0.2454151     0.167481 -54.19 0.0007738725    1.878    0.468
       134  -8.9347    140.4716    200.8661   8.2548786747e+01   1.1874307958e+01    0.3538734    0.2653488  76.08  0.001234064    2.057    0.514
       135  -8.4937     80.2900    201.2646   9.7920320142e+01   2.1112795497e+01    0.3449051    0.1783266  58.87  0.001318394    2.605    0.616
       136  -8.0782    222.0280    201.1856   6.5092295086e+01  -6.6343876092e-01    0.1855942    0.1289109 -49.49 0.0007616709    1.667    0.400
       137  -9.2141    237.1773    198.4164   6.1882145883e+01  -2.1735629903e+00    0.2979256    0.1525918 -44.64 0.0008620976    1.851    0.460
       138  -9.3581    149.5617    198.4579   7.9928107677e+01   1.0915779260e+01    0.4074579    0.3009522  88.53  0.001540827    2.318    0.569
       139  -8.7549    124.0407    198.9242   8.6271845754e+01   1.4987121506e+01    0.3497095     0.234783 -87.22  0.001433213    2.497    0.599
       140  -8.4058    177.0747    198.6618   7.3677514024e+01   6.4259566934e+00    0.2302774    0.1899746 -51.40 0.0005277002    1.372    0.271
       141  -9.2415    112.8288    198.1431   8.8991619696e+01   1.6969299374e+01    0.4342116    0.2696684  63.59   0.00161888    2.379    0.580
       142  -7.7557     99.6520    199.6840   9.2645628290e+01   1.8654747459e+01     0.153227    0.1126952 -18.04 0.0006394548    1.725    0.420
       143  -8.9226     88.9273    198.2697   9.5228463731e+01   2.0604599556e+01    0.3978653    0.2573588  82.79  0.001312722    2.200    0.545
       144  -8.3138    202.3186    197.5935   6.8199350166e+01   2.7701093137e+00    0.2154249    0.1601882 -44.20 0.0006058348    1.372    0.271
       145  -9.0940     61.4880    196.9749   1.0226733782e+02   2.4699259030e+01    0.4539113    0.2461406  69.07  0.001711567    2.553    0.608
       146  -9.3381    250.1597    201.9300   6.0336697016e+01  -4.3429354712e+00    0.3695806    0.1429218 -40.03  0.001137386    2.107    0.525
       147  -8.7444    216.0735    195.5096   6.5143326449e+01   1.1673013403e+00    0.2537656    0.1950917 -59.23 0.0008726558    1.809    0.447
       148  -8.1078    133.0630    195.9660   8.3491603153e+01   1.4190888476e+01    0.2275497    0.1820213  73.93 0.0006018547    1.681    0.405
       149  -8.9438    185.2294    194.6592   7.1158849546e+01   5.9418286279e+00    0.2535199    0.2240156 -73.93 0.0006279488    1.570    0.363
       150  -8.9090    161.0493    194.1586   7.6429868501e+01   9.9508406591e+00     0.334486    0.2531313  76.34  0.000987096    2.208    0.547
       151  -7.8680     53.3351    195.6769   1.0424507170e+02   2.6035267868e+01    0.1518487   0.09697861  63.48 0.0005154561    1.711    0.415
       152  -8.3061    230.8842    194.1512   6.2192723170e+01  -6.2536656102e-01    0.1868475    0.1598363 -37.69 0.0005616302    1.275    0.216
       153  -8.8340    224.4709    193.3960   6.3196930649e+01   3.7492939112e-01    0.3030974    0.1131896 -44.26  0.001242353    2.441    0.590
       154  -8.7338     77.0352    193.7559   9.7712748572e+01   2.3429161307e+01    0.2792124    0.2175795  77.29 0.0005512998    1.425    0.298
       155  -8.9074     43.7374    192.8713   1.0643232590e+02   2.7859741094e+01    0.4346336    0.2335291  76.43  0.001682824    2.382    0.580
       156  -8.2473    198.9986    191.7232   6.7745601260e+01   4.3812947426e+00    0.2304773    0.1715485 -52.95 0.0007159114    1.566    0.361
       157  -8.9033    178.8896    191.6649   7.1946789839e+01   7.5544189122e+00     0.245455    0.1769455 -32.03  0.000602835    1.303    0.233
       158  -8.5326    172.5811    191.7533   7.3352568600e+01   8.5614220641e+00    0.2635308    0.2197817 -76.99 0.0009772504    1.704    0.413
       159  -7.9694    205.1525    191.2415   6.6430131587e+01   3.5430165761e+00    0.1758634    0.1591769 -50.62 0.0007223214    1.352    0.260
       160  -9.1084    139.5301    190.3816   8.0863427833e+01   1.4384205253e+01    0.3550166    0.2691703  74.29  0.001233563    1.946    0.486
       161 -10.4403     92.6826    188.7825   9.2750569287e+01   2.2388420864e+01     1.104177    0.2939105  43.68   0.00310884    4.149    0.759
       162  -8.6061      6.4284    190.2340   1.1566691898e+02   3.2084788750e+01    0.1917965    0.1046703  86.67 0.0008281258    1.721    0.419
       163  -8.5533    237.2276    188.4632   6.0037480766e+01  -4.8608971973e-01    0.2341872    0.1455813 -37.50  0.000556036    1.333    0.250
       164  -9.0883    216.7535    187.9685   6.3585235635e+01   2.4416150625e+00    0.2919284    0.2285559 -57.53  0.001213659    1.656    0.396
       165  -8.4223    148.4791    188.9903   7.8414616554e+01   1.3183545341e+01    0.2453695    0.2049425  84.76 0.0009731713    1.652    0.395
       166  -8.8814    129.3459    188.4942   8.3063968324e+01   1.6536690850e+01    0.3132004    0.2259794  63.82 0.0008293889    1.867    0.465
       167  -8.5854     34.2570    187.9635   1.0838328491e+02   3.0125121457e+01    0.3423342    0.1839308  76.41  0.001472096    2.245    0.555
       168  -8.8313     19.5602    187.5659   1.1215898465e+02   3.1641766119e+01    0.3118462    0.1210669 -80.70  0.001047504    2.579    0.612
       169  -8.8307    191.5111    187.2304   6.8402901473e+01   6.4228110663e+00    0.3122453     0.228736 -67.49  0.001205188    2.075    0.518
       170  -9.3284    155.9524    187.1632   7.6277966322e+01   1.2318636455e+01    0.3817478      0.23939 -58.02  0.000956624    1.880    0.468
       171  -9.5153    120.7173    185.9762   8.4819001872e+01   1.8580852207e+01    0.5340595    0.3168698 -74.63  0.002001831    2.679    0.627
       172  -9.0972     54.8006    186.7676   1.0274633258e+02   2.8120574198e+01    0.4626823    0.2431724  70.76  0.001749725    2.771    0.639
       173  -8.1424    230.4462    187.2303   6.0974763465e+01   6.4204116702e-01    0.1811289    0.1096511 -47.69 0.0006983296    1.689    0.408
       174  -8.7724    164.9573    186.5323   7.4059494704e+01   1.0929614159e+01    0.3327366     0.235197 -72.01  0.001210637    2.200    0.545
       175  -9.1515    109.6992    186.0515   8.7730131019e+01   2.0381539040e+01    0.4153737    0.2777152  71.03  0.001572633    2.235    0.553
       176  -9.2915    249.3501    185.2019   5.7438823302e+01  -1.5024689322e+00    0.2603752    0.1753406 -41.90 0.0008257025    1.336    0.252
       177  -8.6910    202.6188    184.4075   6.5604385971e+01   5.2303241538e+00    0.2493668     0.199486 -61.87 0.0009449043    1.650    0.394
       178  -9.0095    182.9400    184.6566   6.9701886513e+01   8.3245441785e+00    0.2735521    0.1984979 -48.40 0.0006767247    1.414    0.293
       179  -9.0761     66.5795    184.4545   9.9209968650e+01   2.7215818478e+01    0.3971747    0.2499578  66.09  0.001114903    1.953    0.488
       180  -8.7055    210.1320    183.7826   6.4024816352e+01   4.1991487284e+00    0.2631798     0.169343 -35.96 0.0006302522    1.357    0.263
       181  -8.8821    174.2855    183.4265   7.1343506275e+01   1.0016826507e+01    0.2796457    0.2406891 -74.58 0.0007462322    1.546    0.353
       182  -7.7120     11.6797    184.3577   1.1388936915e+02   3.3124121735e+01    0.1438856   0.08312019  65.25 0.0007044835    1.762    0.433
       183  -8.4941    224.0408    183.0743   6.1317626154e+01   2.2810369174e+00    0.2027842    0.1677267 -33.58 0.0005970356    1.118    0.105
       184  -8.9590     44.4430    182.0616   1.0497558324e+02   3.0544278871e+01    0.3648341    0.2131948  67.41 0.0009754229    2.041    0.510
       185  -7.8881      1.7607    183.5202   1.1631819611e+02   3.4101002331e+01    0.1725314    0.1045517  44.65 0.0009380017    1.654    0.396
       186  -9.1871    147.7291    180.5354   7.6950629146e+01   1.5215187521e+01    0.3692748     0.298082  78.80  0.001394603    1.745    0.427
       187  -7.6560     83.6139    182.3084   9.4177113936e+01   2.5379570944e+01    0.1626753    0.1094636  63.02 0.0001478704    1.808    0.447
       188  -8.3128    235.4704    180.6209   5.8862890237e+01   1.1120727515e+00    0.2784928    0.1070761 -41.21 0.0008613392    2.161    0.537
       189  -9.4270     25.6200    178.5882   1.0969518758e+02   3.3372448152e+01    0.6878236     0.287055  78.38  0.002251755    3.999    0.750
       190  -8.0454    240.4990    180.0103   5.7909164257e+01   5.3392391051e-01    0.1706789    0.1011182 -56.96 0.0008091832    2.437    0.590
       191  -9.4395    191.4481    178.0559   6.6597063928e+01   8.2635397497e+00    0.3119153    0.2751572 -86.03 0.0007165683    1.591    0.371
       192  -8.6039    137.5112    178.8502   7.9151861652e+01   1.7389451583e+01     0.289785    0.2373728  70.13   0.00118724    1.572    0.364
       193  -9.4022    249.0302    177.0225   5.5978994530e+01  -8.7622675044e-02    0.3009298    0.2220598 -38.26  0.001146338    1.159    0.137
       194  -8.6751    247.4785    173.5255   5.5570530228e+01   7.1109519090e-01    0.2747569    0.1588521 -38.16  0.001127627    1.379    0.275
       195  -8.5209    250.5044    172.4920   5.4906832445e+01   4.8499723758e-01    0.2070982    0.1307789 -38.64 0.0005119276    1.263    0.208
       196  -8.8163    205.0046    177.2562   6.3726849915e+01   6.2355600181e+00    0.3053961     0.175205 -48.78  0.001004129    1.758    0.431
       197  -8.2181    169.2196    178.2204   7.1432856127e+01   1.1984675938e+01    0.1956344    0.1772327 -73.70 0.0006907186    1.368    0.269
       198  -8.5795    129.2681    177.3146   8.0955986903e+01   1.9190973180e+01     0.326661    0.2264897  86.13  0.001134698    2.470    0.595
       199  -8.8478     36.0063    176.6470   1.0664459642e+02   3.2855210277e+01    0.5258684    0.2319596  74.44  0.001666356    4.145    0.759
       200  -8.6226    231.0216    176.7444   5.8880796717e+01   2.4200913804e+00    0.2404918    0.1575193 -38.77 0.0007223322    1.283    0.220
       201  -8.3269    217.6029    176.9171   6.1288685410e+01   4.3556064067e+00    0.2475996    0.1496647 -50.59 0.0008993527    1.764    0.433
       202  -7.8224     97.3742    177.2775   8.9513144346e+01   2.4549193932e+01    0.1579654    0.1176563 -14.64  0.000523717    1.696    0.410
       203  -8.8532     89.0850    176.6974   9.1718583187e+01   2.5990577760e+01    0.3036182    0.2243664  77.69 0.0007776394    1.704    0.413
       204  -9.3733     58.4795    174.9814   1.0011077828e+02   3.0719568596e+01    0.5824335    0.2779118  62.18  0.001971096    3.366    0.703
       205  -9.3798     55.8010    170.4084   1.0021153819e+02   3.2252065199e+01    0.5106953    0.2782636  80.13  0.001878071    2.873    0.652
       206  -8.9588     12.5391    176.1757   1.1295126013e+02   3.5123705972e+01    0.3775283    0.1676433  75.21  0.001127781    2.857    0.650
       207  -8.0135    211.6077    175.8137   6.2181410074e+01   5.4787752809e+00    0.1900576    0.1178821 -48.75 0.0006005809    1.624    0.384
       208  -9.0501    183.0441    175.7993   6.7903378378e+01   1.0126692606e+01    0.2749575    0.2250218 -55.90 0.0007745938    1.382    0.277
       209  -9.1935    159.0366    175.1611   7.3158139399e+01   1.4432659165e+01    0.3978276    0.2901432  80.66  0.001130461    2.391    0.582
       210  -9.2111    104.3534    174.6642   8.7111111961e+01   2.4078344167e+01    0.5403171     0.306797  62.65  0.001906872    2.889    0.654
       211 -10.6880     75.9461    170.0561   9.4324491607e+01   2.9657111100e+01     1.451894    0.5580312 -72.42  0.004041681    4.403    0.773
       212  -8.4245     79.6493    157.7310   9.1048706684e+01   3.2336721133e+01    0.2664672    0.1397722  30.68 0.0008938678    1.977    0.494
       213  -8.1599    224.4774    174.0443   5.9494703021e+01   3.8579498788e+00    0.2038679    0.1139117 -42.47 0.0005831265    1.552    0.356
       214  -9.5810    175.8568    172.1387   6.8709761423e+01   1.2129007366e+01    0.3623897    0.2544285 -48.03   0.00100909    1.407    0.289
       215  -8.4022    143.0201    172.3287   7.6459458626e+01   1.7930917508e+01    0.2113464    0.2026479  32.90 0.0006142283    1.098    0.090
       216  -8.4067    134.7049    171.4112   7.8376270637e+01   1.9634381765e+01    0.2683713    0.1901774 -62.43 0.0006325956    1.614    0.380
       217  -9.1121     45.1441    170.9769   1.0335855958e+02   3.3354996408e+01    0.3869796    0.2256663  80.19  0.001274212    2.194    0.544
       218  -8.8992    230.2761    169.1499   5.7540313203e+01   3.8907356922e+00    0.4310453    0.1470574 -49.16  0.001551717    3.281    0.695
       219  -8.4751    205.9086    170.3710   6.2173512905e+01   7.4237185397e+00    0.2634539    0.1790674 -53.71 0.0007050725    1.637    0.389
       220  -9.5502    121.4296    170.2478   8.1619427652e+01   2.2266389747e+01    0.3807654    0.2978763  83.16 0.0009012288    1.726    0.421
       221  -8.5099    237.1434    169.6282   5.6488886010e+01   2.8121566131e+00    0.2243236    0.1518289 -45.31 0.0006380437    1.360    0.265
       222  -8.5207    198.4751    169.9177   6.3528592167e+01   8.7287875525e+00    0.2567387    0.1925503 -55.21  0.000991142    1.502    0.334
       223  -8.5925    150.0820    169.4803   7.4129823302e+01   1.7313608852e+01    0.2830031    0.2421065  87.29 0.0009353636    1.525    0.344
       224  -8.4646    244.4742    169.0207   5.5195077783e+01   1.8920161360e+00    0.1956832    0.1035349 -40.90 0.0004036039    1.533    0.348
       225  -9.1306    167.2101    168.5373   6.9894706189e+01   1.4432623636e+01    0.3430422    0.2546702  67.37  0.001158784    1.986    0.496
       226  -8.2345     88.7066    168.5484   9.0385825891e+01   2.8142056476e+01    0.2592436    0.1897209  89.65 0.0009075158    1.732    0.423
       227  -8.5073    218.7940    168.1044   5.9333985011e+01   5.8163828508e+00    0.2005062    0.1675308 -46.98 0.0005464001    1.239    0.193
       228  -8.1130    211.4980    168.0176   6.0646176229e+01   6.9799008011e+00    0.1916333    0.1141196 -60.70 0.0008099722    2.521    0.603
       229  -8.6644    111.6912    167.3189   8.3678681308e+01   2.4681467077e+01    0.3231714    0.2475159  76.50 0.0008540669    1.735    0.423
       230  -8.9224    191.9078    166.5640   6.4157758925e+01   1.0508160728e+01    0.2758434    0.1935289 -48.55 0.0005650718    1.406    0.289
       231  -8.7538    185.0216    166.4737   6.5563144564e+01   1.1716614412e+01    0.2673312    0.1935222 -55.10 0.0005604867    1.521    0.342
       232  -9.1084     20.7302    166.0379   1.0970500845e+02   3.7057588078e+01    0.4393751    0.2084114  62.36  0.001589852    2.672    0.626
       233  -8.0062     13.3379    167.6411   1.1192966441e+02   3.7247443535e+01    0.1469758   0.08713976  65.08 0.0007038593    1.816    0.449
       234  -9.7114    136.8205    164.1194   7.6322749154e+01   2.0977946166e+01     0.659072    0.3520633  56.45  0.002249641    2.871    0.652
       235  -9.9211     94.9010    162.5565   8.7481484394e+01   2.8700860380e+01    0.8731815    0.4856579  73.61  0.002473005    4.684    0.787
       236  -8.3737    234.0513    164.6492   5.6034655103e+01   4.1443927252e+00    0.2269288    0.1511867 -44.93 0.0006182409    1.345    0.256
       237  -8.5647    159.4613    164.1917   7.0769275088e+01   1.6796593520e+01    0.2775801    0.2291353 -85.70  0.001117227    1.647    0.393
       238  -9.3840     33.3532    163.1071   1.0573578831e+02   3.6666479665e+01    0.5455542    0.2439893  54.83  0.002067996    2.868    0.651
       239  -8.7499    239.8877    163.5623   5.4879821135e+01   3.4893525397e+00    0.2532277    0.1853444 -64.79  0.001404897    1.928    0.481
       240  -8.6958    212.9359    163.5636   5.9482356464e+01   7.5997123216e+00    0.2594207    0.1773085 -44.96 0.0003753273    1.339    0.253
       241  -8.2078     56.5048    163.8206   9.9010643753e+01   3.3902741813e+01    0.3465221    0.2081214  -4.39  0.001374872    2.613    0.617
       242  -9.2857    246.0641    162.7586   5.3759367446e+01   2.7540907119e+00    0.2271063    0.1478847 -38.94 0.0005754061    1.230    0.187
       243  -8.6124    204.9386    162.5315   6.0761776164e+01   9.1096638527e+00     0.261095    0.1773742 -52.88  0.000519431    1.566    0.361
       244  -9.2956      3.5195    162.3115   1.1412795130e+02   3.9329865806e+01     0.393287    0.1981723  55.51  0.001648636    2.179    0.541
       245  -8.8319    151.7619    160.9425   7.1911988900e+01   1.8952806912e+01    0.3224766    0.2405588 -79.45   0.00103412    1.964    0.491
       246  -9.0550    177.5218    160.4467   6.5890034631e+01   1.4313515051e+01    0.2889053    0.2502758 -74.23    0.0007521    1.436    0.304
       247  -8.5045     60.9249    160.3115   9.7129999385e+01   3.4271333793e+01    0.3754965    0.1791126  57.60  0.001268923    3.213    0.689
       248  -8.7064    227.4015    158.9540   5.6020933425e+01   6.1772510447e+00    0.2740129    0.1749336 -54.95  0.001191243    1.769    0.435
       249 -10.3441    240.6252    153.0596   5.2732976302e+01   5.2321069702e+00    0.6727556    0.4395024 -78.09  0.002900031    3.615    0.723
       250 -10.0910    249.7200    157.2288   5.2156653650e+01   3.1944607195e+00    0.3697891    0.2784695 -62.79  0.001418555    1.710    0.415
       251  -8.7020    243.3437    149.6577   5.1659131584e+01   5.4257208888e+00    0.3035502    0.1271794 -39.58  0.001176163    1.950    0.487
       252  -8.2408    237.1390    158.6588   5.4368826055e+01   4.7577224260e+00    0.2336194    0.1481836 -45.83 0.0008670851    1.397    0.284
       253  -8.3920    128.1010    158.6763   7.7443009455e+01   2.3880571744e+01    0.2653236    0.2171463 -66.08 0.0007035462    1.361    0.265
       254  -9.5309    105.8570    157.8607   8.3401156413e+01   2.8061262157e+01    0.4926269    0.3343585  72.96  0.001344291    2.260    0.557
       255  -8.5787    196.6467    157.6639   6.1351270519e+01   1.1486184506e+01    0.2594702    0.1991869 -77.08  0.001020954    1.935    0.483
       256  -8.1687    188.2021    157.8797   6.3091725626e+01   1.2930073316e+01    0.2164153    0.1866672 -57.73 0.0005719787    1.275    0.216
       257  -9.4666    167.7031    157.2727   6.7378168717e+01   1.6799850063e+01    0.3465534     0.276967 -82.76  0.001129278    1.751    0.429
       258  -8.5322    217.9994    156.4973   5.7141835005e+01   8.1209439041e+00    0.2671321     0.168186 -53.27 0.0009011872    1.695    0.410
       259  -8.5651    157.7560    155.9521   6.9389834575e+01   1.8957083914e+01    0.2779693    0.2116723 -64.41  0.000947698    1.561    0.359
       260  -9.1064    119.4836    154.7316   7.8924613983e+01   2.6420516031e+01    0.4489373    0.3024668 -78.48  0.001188798    2.230    0.552
       261  -9.3023     81.9160    154.5934   8.9772398263e+01   3.2813326294e+01    0.5492167    0.3446874  72.91  0.001636284    2.545    0.607
       262  -9.2233     49.7695    155.0460   9.9667523369e+01   3.7039662997e+01    0.4704774    0.2632006  63.94  0.001856266    2.504    0.601
       263  -8.0495    204.7157    155.2100   5.9287673403e+01   1.0580283167e+01    0.2149171    0.1579437 -52.72 0.0005542723    1.404    0.288
       264  -8.2105    144.5359    154.6726   7.2325347179e+01   2.1753268780e+01    0.2487427    0.1850335  60.10 0.0007719672    1.677    0.404
       265  -9.8512    133.1732    151.3848   7.4508939191e+01   2.4682315127e+01    0.7681778    0.3894451 -49.49  0.001427841    1.927    0.481
       266  -9.4204     67.9151    153.2689   9.3788040373e+01   3.5199706831e+01    0.4731436    0.2991048  70.09  0.001700119    2.267    0.559
       267  -8.1999    151.7122    152.2297   7.0014301348e+01   2.0946452457e+01    0.2391369    0.1913612 -63.29 0.0007077124    1.414    0.293
       268  -9.4145     29.3872    150.2908   1.0522958357e+02   4.0425246248e+01    0.5558451    0.2847076  67.86  0.002152306    2.838    0.648
       269  -9.1752     19.9683    152.1893   1.0833431580e+02   4.0740171786e+01    0.2151961    0.1698735  75.30 0.0006204331    1.306    0.235
       270  -8.9354      8.0148    153.0000   1.1195659403e+02   4.1422227820e+01    0.3309465    0.0779428  17.58  0.001059527    5.009    0.800
       271  -9.5107    248.9148    149.1386   5.0735059426e+01   4.6993482665e+00    0.3209014    0.1486621 -41.30 0.0007453943    1.715    0.417
       272  -8.8072    189.5038    150.0103   6.1139066514e+01   1.4309585845e+01    0.2913624    0.2097439 -58.25 0.0007865694    1.560    0.359
       273  -7.9965    182.4281    151.1974   6.2848548092e+01   1.5363161322e+01     0.205027    0.1335216 -53.59 0.0004644471    1.614    0.380
       274  -8.7310     98.4091    150.7577   8.4078643697e+01   3.1139085507e+01    0.2987545    0.2429391  72.99 0.0008928294    1.500    0.333
       275  -8.0183    162.6164    150.3190   6.7007957096e+01   1.9285883667e+01    0.2273354    0.1837376 -83.50 0.0007305206    1.670    0.401
       276  -8.3250    213.0092    149.3670   5.6558497185e+01   1.0299449174e+01    0.1846424    0.1711797 -32.10 0.0004938152    1.083    0.077
       277  -8.4902    198.9608    148.6760   5.8998166889e+01   1.2874260972e+01    0.2337006     0.180694 -51.89 0.0004936804    1.292    0.226
       278 -10.0162     89.3518    146.1701   8.5823142729e+01   3.3822383854e+01    0.7105429    0.4280472 -88.83  0.002385644    3.258    0.693
       279  -9.7185     39.8192    147.6400   1.0159986689e+02   4.0104559232e+01    0.5678709    0.2891971  60.25  0.001997404    2.847    0.649
       280  -8.8417      2.6337    148.8722   1.1310516853e+02   4.2836539358e+01    0.2013575    0.1076896 -88.49 0.0009485492    1.820    0.450
       281  -9.6160    233.7820    147.3656   5.2680157376e+01   7.2881806898e+00    0.3379618     0.155602 -40.33  0.000958762    1.802    0.445
       282 -10.0008    139.5720    145.0382   7.1414235450e+01   2.4947903087e+01    0.5838718    0.4076413  86.22  0.001272973    2.507    0.601
       283 -10.4989     54.8959    143.1568   9.6052192731e+01   3.9576737692e+01     1.113608     0.633594 -76.97  0.003629772    2.092    0.522
       284 -10.1868    149.1629    144.8177   6.8961159098e+01   2.3125723401e+01    0.6097592    0.4254884 -89.38  0.001817642    2.538    0.606
       285 -10.1088    106.7169    144.3623   8.0260394566e+01   3.1303439827e+01    0.7000495    0.4407696  75.25  0.002069686    3.120    0.679
       286  -8.1803    105.7490    138.4208   7.9198721845e+01   3.2956554173e+01    0.2237067    0.1534729  20.40 0.0009467249    1.702    0.413
       287  -8.5052     77.9354    146.6776   8.9434949415e+01   3.5483705913e+01    0.3005722    0.2048894 -82.21 0.0007556985    1.895    0.472
       288  -9.3757     13.4105    146.1294   1.0958967627e+02   4.2827699153e+01    0.3562541    0.2195876  62.95  0.001425886    1.870    0.465
       289  -8.4344    223.1852    146.1823   5.4156068819e+01   9.2016974677e+00    0.2075622    0.1636123 -29.82  0.000745788    1.162    0.139
       290  -8.1884    206.9013    146.1423   5.6980285228e+01   1.1970616279e+01    0.2060461    0.1791337 -60.93 0.0005985255    1.266    0.210
       291  -8.2893    175.8242    146.0815   6.3120998100e+01   1.7678511095e+01    0.2283417    0.1958344 -66.57 0.0007368924    1.326    0.246
       292  -9.0692    240.3689    145.1859   5.1236058647e+01   6.6584382006e+00    0.2492001     0.147156 -47.73 0.0007120972    1.493    0.330
       293  -9.8182    242.6707    142.7151   5.0410010829e+01   6.7410568906e+00    0.4615253    0.1846606 -34.09  0.001862956    2.528    0.604
       294  -8.8958    247.0822    143.6353   4.9944482126e+01   5.9172198039e+00    0.2446042    0.1497442 -36.92 0.0005728499    1.345    0.256
       295  -8.2386    250.4720    140.5154   4.8862933936e+01   5.9508181235e+00    0.2031731    0.1557557 -53.08 0.0008189382    1.275    0.216
       296  -8.6880    165.5525    143.8151   6.4873890174e+01   2.0143853587e+01    0.2721784    0.2306348 -81.45 0.0006491853    1.470    0.320
       297  -9.8196    124.9007    142.3326   7.4669656822e+01   2.8423687659e+01    0.5375959    0.3762951 -82.56  0.001411119    2.236    0.553
       298  -7.5313    194.3194    143.6735   5.8813475255e+01   1.4712723601e+01    0.1432071    0.1126515 -75.22 0.0004892702    1.681    0.405
       299  -9.1154      2.7887    141.6727   1.1231593821e+02   4.4679875168e+01    0.3712408    0.1853107  67.10  0.001278695    2.533    0.605
       300  -8.4847    182.0157    141.4694   6.0788432217e+01   1.7465377927e+01    0.2767454    0.1970247 -58.87 0.0007162246    1.567    0.362
       301 -10.3203     69.5995    140.8289   9.0890500690e+01   3.8234000458e+01    0.5942075    0.3857423  82.01  0.002053208    2.386    0.581
       302  -9.6184     70.2587    133.8476   8.9241448618e+01   3.9954675978e+01    0.5427267    0.2934306   5.91  0.001854331    3.195    0.687
       303  -9.8936     23.5491    137.8544   1.0532921297e+02   4.4207937604e+01    0.5612506    0.2864996  66.94  0.002180369    2.955    0.662
       304  -7.9713    218.5592    138.4711   5.3339616467e+01   1.1411206611e+01    0.1379123    0.1172397 -42.40 0.0001736006    1.033    0.032
       305  -8.3321    207.5938    137.7393   5.5071737798e+01   1.3471099282e+01    0.2475523    0.1523763 -49.88 0.0007960855    1.538    0.350
       306  -8.7241    197.6343    137.3850   5.6811267700e+01   1.5353861076e+01     0.272244    0.1910261 -61.34 0.0007522764    1.658    0.397
       307  -8.5255    172.3296    137.8774   6.2022551503e+01   2.0093050008e+01    0.2815216    0.2173297 -69.18 0.0009158276    1.591    0.371
       308  -8.6744    150.9801    135.5124   6.6352942159e+01   2.4861255951e+01    0.2554583    0.2042161   9.74  0.001129544    1.506    0.336
       309  -9.2521    140.1097    137.2243   6.9456602693e+01   2.6650416307e+01    0.4002113    0.2673779   3.53  0.001534309    2.433    0.589
       310 -10.4793     83.5341    132.8273   8.4733967164e+01   3.8182055885e+01    0.5912392    0.3697706 -67.07  0.001406334    1.859    0.462
       311  -8.9028    250.7476    129.4652   4.6706169853e+01   7.7898785904e+00    0.4643589   0.09475983 -40.60  0.001499413    4.061    0.754
       312  -9.0686    248.5984    134.7960   4.8025359955e+01   7.2096765488e+00    0.2952618    0.1632952 -46.58 0.0007733632    1.499    0.333
       313  -8.5721    247.0048    130.0100   4.7319555233e+01   8.2732437409e+00    0.2563358    0.1416185 -44.08 0.0006460884    1.452    0.311
       314  -8.3655    162.7966    136.1578   6.3737555502e+01   2.2349649222e+01    0.2320948    0.2032804 -72.21 0.0006356936    1.293    0.227
       315  -9.3316     38.9733    135.5036   9.9909458965e+01   4.3397809633e+01    0.3518985    0.2256598 -82.84 0.0009038433    1.767    0.434
       316  -7.7526    125.6342    135.6664   7.2906765470e+01   2.9872013693e+01     0.169144    0.1239641  -9.13 0.0001970245    1.824    0.452
       317  -8.7130    179.5512    133.5848   5.9517578465e+01   1.9572698610e+01    0.3008795    0.2110674 -56.91 0.0007820345    1.523    0.343
       318  -8.9277    112.6552    133.0534   7.5925901826e+01   3.2993730023e+01    0.3309875    0.2579047 -82.97 0.0007633047    1.697    0.411
       319  -8.3332    237.4604    133.0162   4.9266805015e+01   9.2592303084e+00    0.2055034    0.1066719 -44.45 0.0007836615    1.589    0.371
       320  -7.6535    231.4803    133.5811   5.0275046885e+01   1.0132310439e+01    0.1320339    0.1110963 -38.83 6.230222e-05    1.033    0.032
       321 -10.1529    132.0810    130.5871   6.9950625926e+01   2.9784035847e+01      0.71154    0.4565628 -65.41  0.001970025    2.049    0.512
       322  -8.5253    135.3624    122.9982   6.7217651822e+01   3.0844354337e+01    0.4439888    0.2084485 -40.97  0.001622815    2.157    0.536
       323 -10.2830     97.9801    129.9274   7.9545724744e+01   3.6454788077e+01    0.7629198    0.3153636 -52.52  0.001713182    2.371    0.578
       324  -8.1287    204.7935    130.0257   5.3906229833e+01   1.5460675661e+01    0.2286996    0.1455308 -62.55 0.0006526954    1.965    0.491
       325  -7.9557    192.5932    129.7698   5.6078597900e+01   1.7810039840e+01     0.198377     0.126318 -51.17 0.0002813187    1.526    0.345
       326  -9.3000    168.3010    129.3843   6.0928059066e+01   2.2690114374e+01    0.3010085    0.2402477 -72.58 0.0005513636    1.515    0.340
       327  -9.3660    152.8235    128.8514   6.4321958014e+01   2.5958218665e+01    0.4382545     0.261089 -56.36 0.0008980112    1.883    0.469
       328  -9.8682     73.3930    129.0306   8.7169933721e+01   4.0730130067e+01     0.463606    0.3306104 -80.89  0.001462593    1.813    0.448
       329  -8.2407     24.3247    130.3231   1.0395394724e+02   4.6111486907e+01    0.1513309   0.09013683 -39.44 0.0007047773    1.685    0.407
       330 -10.0214     12.8232    128.5362   1.0753131283e+02   4.7437084916e+01    0.5591003    0.3039145  82.70   0.00208608    2.371    0.578
       331  -7.8139    220.5392    129.5516   5.1157887995e+01   1.2719312331e+01    0.1362555    0.1165421 -42.05 9.593008e-05    1.008    0.008
       332  -8.1163    211.5292    129.0551   5.2535251484e+01   1.4412996172e+01    0.2145011    0.1206184 -44.84 0.0007853988    1.555    0.357
       333  -7.9860    186.6589    129.3176   5.7119171396e+01   1.9049407095e+01    0.1479591    0.1138025 -78.54 0.0007049037    1.712    0.416
       334 -10.7733     45.1487    123.4805   9.5604890852e+01   4.5869649320e+01     1.150882    0.6292357  75.46  0.003787669    4.017    0.751
       335 -10.4617     60.0893    124.8426   9.0721170107e+01   4.3688132503e+01    0.7431542    0.4689893  80.04  0.002618226    2.745    0.636
       336  -9.7984    118.0435    125.0886   7.2439984834e+01   3.3853462106e+01    0.5533862    0.3775322  79.15  0.001492513    2.565    0.610
       337  -8.7840    179.3020    124.4964   5.7475830458e+01   2.1479351858e+01    0.2895604    0.2297476 -70.03 0.0007435512    1.469    0.319
       338 -10.0947     28.5693    122.0582   1.0114347289e+02   4.7891421733e+01     0.752001    0.3869172  74.00  0.002588472    3.870    0.742
       339  -7.9807    188.5889    123.7901   5.5490172000e+01   1.9770543864e+01    0.2032081    0.1267966 -52.30 0.0004407974    1.590    0.371
       340  -8.7431     84.3893    122.7943   8.2126016643e+01   4.0560227500e+01    0.2615016    0.1845448 -17.63 0.0009617738    1.770    0.435
       341  -7.9273    203.1022    122.1276   5.2475937111e+01   1.7281989003e+01    0.1939698    0.1524784 -61.73 0.0004221644    1.327    0.247
       342  -8.6865    171.9201    121.3370   5.8252492138e+01   2.3622176185e+01    0.2466287    0.1940848 -54.16 0.0003798284    1.261    0.207
       343  -9.0797    158.5288    121.3681   6.1182222766e+01   2.6387964296e+01    0.3113921    0.2267016 -76.06 0.0007777382    1.894    0.472
       344  -9.6420     71.1039    119.4653   8.5749889757e+01   4.3489520560e+01    0.3991371    0.2916038  83.83  0.001193033    2.007    0.502
       345  -9.9682    141.6131    118.3829   6.4467499565e+01   3.0566782811e+01    0.4564864    0.3067325 -63.61  0.001057539    1.850    0.459
       346  -9.4747    130.8043    118.3479   6.7237146291e+01   3.2822442784e+01    0.4155413    0.3021449 -79.37  0.001197691    2.006    0.501
       347  -9.3373    143.1681    131.3896   6.7289293170e+01   2.7363539493e+01    0.3664879    0.2592338 -68.71 0.0007986827    1.837    0.456
       348  -9.1087     15.3468    119.5279   1.0535612045e+02   4.9578357498e+01    0.4921382    0.1628172 -26.87  0.001244026    7.136    0.860
       349  -9.8551      3.0447    116.9545   1.0925832726e+02   5.0979858717e+01    0.5355247    0.2707476  73.48  0.002231286    2.917    0.657
       350  -8.1203    231.4221    117.2586   4.6970146465e+01   1.3031706830e+01    0.1873659    0.1041823 -50.02 0.0007097975    1.596    0.373
       351  -8.1820    185.6340    115.7741   5.4208975255e+01   2.1931526487e+01    0.2071787    0.1247457 -50.76 0.0004266131    1.613    0.380
       352  -9.4365    174.2678    113.4211   5.5879442072e+01   2.4729866228e+01    0.6050038    0.2621634 -33.63  0.002115264    2.809    0.644
       353  -9.8915    109.2882    114.0089   7.2144655472e+01   3.8141403840e+01     0.531004    0.3671263 -75.20  0.001347319    2.169    0.539
       354  -9.0032    109.3118    107.2151   7.0329882930e+01   3.9672957393e+01    0.3531204    0.2442428   5.90  0.001452665    2.095    0.523
       355  -7.4775    211.7049    115.6893   4.9633490822e+01   1.6857605711e+01    0.1310731     0.105128 -11.13 0.0002219001    1.593    0.372
       356  -8.3239    193.0342    115.0215   5.2667078468e+01   2.0590370070e+01    0.2215671    0.1632928 -69.93  0.000442167    1.615    0.381
       357 -10.1907     92.7478    112.1790   7.6762203242e+01   4.1678066178e+01    0.7435899     0.414111 -51.28  0.003044181    1.787    0.440
       358  -8.9755     93.3503    104.3410   7.4475890965e+01   4.3379083768e+01    0.5082605    0.2531863  19.50  0.001575117    3.665    0.727
       359  -8.2187    250.0695    114.5393   4.3922370994e+01   1.0399799718e+01    0.1587581     0.124979  59.28  0.001024115    1.575    0.365
       360  -8.1352    167.3406    113.9651   5.7443959138e+01   2.6071311591e+01    0.2119854    0.1855357 -42.70 0.0004729047    1.090    0.083
       361  -9.8659     78.9436    112.3118   8.1339810502e+01   4.4017859776e+01    0.5130228    0.3762448 -86.97  0.001722025    2.035    0.509
       362  -9.2125     78.0424    104.4304   7.9596427112e+01   4.6035115185e+01     0.337074    0.2666771 -47.16  0.001081857    1.229    0.186
       363 -10.1383    133.4940    109.5219   6.4246922260e+01   3.4188553603e+01    0.6853765    0.3753721 -50.29  0.002752972    1.889    0.471
       364 -10.2224    122.1009    112.2808   6.8020678633e+01   3.5962872066e+01    0.4983855    0.3527656 -74.79 0.0006813999    2.051    0.512
       365  -8.6539    159.1855    111.6204   5.8631478177e+01   2.8272841732e+01    0.2657101    0.1920105 -53.03 0.0006093739    1.397    0.284
       366 -10.2933     66.4559    109.5897   8.4973452547e+01   4.6611522159e+01    0.6275567    0.3511237 -62.64   0.00186954    2.023    0.506
       367  -9.8980     14.1771    110.9154   1.0439298375e+02   5.1839737157e+01    0.4237344    0.2334257  66.91  0.001693169    2.843    0.648
       368 -10.0738    249.0553    107.6890   4.2727454690e+01   1.1693850880e+01    0.4422888     0.255004 -29.20  0.002290851    2.021    0.505
       369 -10.2614    249.1573    102.7627   4.1764673634e+01   1.2480706513e+01    0.3771023    0.2476007 -32.21  0.002192451    1.574    0.365
       370  -7.9123    182.7099    109.3392   5.3256818802e+01   2.3772278882e+01    0.1482723    0.1088959 -71.30 0.0002744151    1.643    0.391
       371  -8.1540    189.2825    107.8664   5.1698832175e+01   2.2701053345e+01    0.2338225    0.1591145 -57.44 0.0007927055    1.514    0.340
       372  -8.7422     43.5386    108.7280   9.3096691368e+01   4.9784916922e+01    0.2552649    0.1263952  24.13 0.0009977052    2.167    0.539
       373 -10.6364     45.6040    101.9281   9.0757058407e+01   5.1216140540e+01    0.8036233    0.5020659  73.80  0.003125298    3.158    0.683
       374  -9.2112     45.7154     92.2741   8.8312328838e+01   5.3491524484e+01    0.4526319    0.2466977  -1.66  0.001794554    2.690    0.628
       375 -10.6177     22.9378    102.4106   9.9559946001e+01   5.3316336650e+01    0.7463039    0.4457261  70.90  0.002518264    2.811    0.644
       376  -9.6224    150.7109    103.0397   5.8359802872e+01   3.1830358117e+01     0.501763    0.2991143 -64.22  0.001553029    2.396    0.583
       377  -9.0931    139.9154    104.4310   6.1286325224e+01   3.3885837504e+01    0.3353215    0.2487067 -72.86 0.0008616426    1.760    0.432
       378  -8.3737    166.7978    104.0643   5.5123186931e+01   2.8148302034e+01    0.2289598    0.1895115 -66.94 0.0006071852    1.286    0.222
       379 -10.4276    128.7561    101.2157   6.3262776711e+01   3.6946198004e+01    0.5483519    0.3702199 -38.08  0.001831022    1.507    0.336
       380  -9.8638      6.6973    102.6743   1.0580249495e+02   5.4344270659e+01    0.3719986     0.174448 -78.77  0.001251815    2.363    0.577
       381  -7.8978    175.6210    101.8719   5.2823620598e+01   2.6681545925e+01    0.2109622     0.125066 -52.43  0.000495436    1.712    0.416
       382 -10.8319    108.7626     98.5192   6.8095634293e+01   4.1678946997e+01    0.8307741    0.4824176  65.13  0.001068909    3.067    0.674
       383  -9.0253    108.1153     92.0967   6.6457715603e+01   4.3155396574e+01    0.4083549    0.2468123  28.42  0.001683849    1.956    0.489
       384  -9.5120     82.1058     99.2663   7.6799569090e+01   4.6535327251e+01    0.5673721    0.3023545 -53.82  0.001788098    1.992    0.498
       385 -10.1087     64.2313     95.9951   8.2239350210e+01   5.0152740832e+01    0.5925871    0.4212179  88.35  0.001980406    2.468    0.595
       386  -9.2441     95.0602     96.9969   7.1881757420e+01   4.4691400949e+01    0.3232653    0.2425228 -61.08 0.0006480197    1.568    0.362
       387  -8.4406    151.4208     94.8062   5.6052291490e+01   3.3287703509e+01    0.2138069    0.1413799 -29.76 0.0009513387    1.723    0.420
       388  -8.0464    164.8136     93.6250   5.2910027138e+01   3.0563172167e+01    0.2376067    0.1619462 -46.84  0.000522033    1.422    0.297
       389  -9.6257    248.1660     92.5512   3.9913291410e+01   1.4281892267e+01    0.2170397    0.1596039  -9.79  0.001213684    2.301    0.565
       390  -8.3273    176.4895     93.0327   5.0504411409e+01   2.8131644373e+01    0.2189645    0.1331616 -44.43 0.0006359164    1.558    0.358
       391  -9.2672    139.0869     92.1363   5.8188798690e+01   3.6522670988e+01    0.3565775    0.2565051 -69.54 0.0008697918    1.801    0.445
       392  -9.8874    124.5340     90.4755   6.1397782850e+01   4.0025384254e+01    0.4553184    0.3487561 -64.59 0.0009772363    1.567    0.362
       393  -8.8584    120.4902     92.4927   6.3055640815e+01   4.0491250367e+01    0.2956965    0.2234795  18.94 0.0009336786    1.595    0.373
       394  -9.6528      5.4692     91.9016   1.0441325318e+02   5.7022282264e+01    0.3315803    0.2209857  68.90  0.001235351    2.118    0.528
       395  -8.2579    157.8736     91.7775   5.3865813790e+01   3.2434644136e+01    0.2038337    0.1700963 -80.11 0.0005532278    1.337    0.252
       396  -9.6556     34.8232     88.6654   9.1756953580e+01   5.5532347779e+01    0.6999795    0.3007906 -65.52  0.002652358    2.869    0.651
       397  -9.1313     23.2757     89.8369   9.6761323018e+01   5.6317653212e+01    0.3460153     0.267006 -11.65  0.001213796    1.303    0.233
       398  -8.0905    159.7924    100.7864   5.5771715719e+01   3.0299495650e+01    0.2037622    0.1686694 -73.57 0.0004390198    1.347    0.258
       399  -7.8909    151.3556     89.1285   5.4567462329e+01   3.4372924170e+01    0.2105986    0.1299934 -51.30 0.0005579329    1.693    0.409
       400 -10.0722     86.4931     85.8913   7.1442921160e+01   4.8649237889e+01    0.6148294    0.3988967 -59.90    0.0018574    1.990    0.498
       401  -9.1659     64.7650     87.4664   7.9642199947e+01   5.1984756795e+01    0.3721294    0.2052533   7.97  0.001378587    2.897    0.655
       402  -7.7318    164.2718     86.6938   5.1253168241e+01   3.1946231990e+01    0.1435499    0.1082649 -72.98 0.0002752366    1.541    0.351
       403  -7.5471    188.3120     86.7339   4.6916330945e+01   2.6713393871e+01    0.1376858    0.1013998 -76.34 0.0002382055    1.542    0.351
       404  -9.8651     48.5669     83.2860   8.4735177068e+01   5.5174424725e+01    0.6674444    0.4274283 -60.70    0.0022703    1.789    0.441
       405  -8.2559    158.0937     83.7255   5.1721719761e+01   3.3850526095e+01    0.2462212    0.1835849 -53.81 0.0004790415    1.361    0.265
       406  -8.7034    104.9841     76.9973   6.2883636478e+01   4.6761298124e+01    0.2812404    0.1925989  -9.62 0.0006954901    2.043    0.511
       407  -7.2565    170.6466     83.3081   4.9176788305e+01   3.1133349878e+01    0.1490763     0.106731 -78.08 0.0007042997    1.719    0.418
       408  -9.0726    140.8307     82.0951   5.5017582977e+01   3.8013344411e+01    0.4119643    0.1814551 -46.06  0.001197477    2.357    0.576
       409  -9.6740     24.7494     80.4707   9.3908334927e+01   5.8354773375e+01    0.4158904    0.2948256  84.67  0.001327977    2.276    0.561
       410  -9.5721      9.7388     80.7567   1.0042534157e+02   5.9391813841e+01    0.3583244    0.2224908  66.16  0.001517143    2.742    0.635
       411  -8.6751    150.1647     80.0991   5.2407195473e+01   3.6271034976e+01    0.3124681    0.1786652 -55.56 0.0009769556    2.049    0.512
       412  -8.7442    119.4905     80.0474   5.9726807209e+01   4.3109658506e+01    0.3620621    0.2343874 -52.39  0.001374933    1.744    0.427
       413  -8.9074     74.4970     79.8887   7.3783624397e+01   5.2013036160e+01    0.3516622    0.2534493 -67.07  0.001158344    1.989    0.497
       414  -8.0133    249.3653     80.3232   3.7441667388e+01   1.5972769647e+01    0.1089365   0.09353755  -3.64 0.0001097425    1.791    0.442
       415  -8.2642    166.9856     79.4772   4.8888128310e+01   3.2604851154e+01    0.2182373     0.177096 -45.14 0.0005247474    1.211    0.175
       416  -7.9617    184.2318     78.0134   4.5511855732e+01   2.9059204840e+01    0.1813384    0.1086912 -40.81 0.0005352513    1.606    0.377
       417  -7.8229    174.6180     77.8211   4.7090173151e+01   3.1192233943e+01    0.1992628    0.1200641 -50.43 0.0006759306    1.638    0.390
       418  -9.6765    104.7911     82.8410   6.4717333084e+01   4.5688492945e+01    0.3966009    0.2909621 -71.82 0.0009016413    1.984    0.496
       419  -9.3459    128.0277     75.0934   5.6077349189e+01   4.2124469129e+01    0.3369446    0.2591779 -68.93 0.0008362448    1.610    0.379
       420  -8.5223    140.4227     75.0630   5.3149516589e+01   3.9346099092e+01    0.2510494    0.1976912 -88.76 0.0007798109    1.536    0.349
       421 -10.0630     63.1758     73.3801   7.5957697450e+01   5.5182153902e+01    0.4654146    0.2983101 -55.90 0.0009627771    1.887    0.470
       422  -8.9286     65.2779     62.7583   7.1634107795e+01   5.6875168645e+01    0.5627242    0.3175671  -3.92  0.002080662    3.323    0.699
       423  -9.5940     82.5190     72.4881   6.8616037706e+01   5.2038378398e+01    0.3699378    0.2840543 -71.32 0.0009645401    1.949    0.487
       424  -8.2678    163.6432     73.1554   4.7885676675e+01   3.4413404853e+01    0.2208316    0.1602934 -57.77 0.0006871594    1.425    0.298
       425  -8.3223    151.3803     73.1767   5.0281642171e+01   3.7183033256e+01    0.2056995    0.1259294 -50.20 0.0006004305    1.711    0.416
       426  -8.5311    115.6135     72.5782   5.8531646607e+01   4.5300325166e+01    0.2675701    0.1719864 -42.57 0.0005429818    1.623    0.384
       427  -8.3656     42.7286     72.5734   8.4002522850e+01   5.8203510564e+01    0.2062681    0.1731129 -77.29 0.0006432548    1.676    0.403
       428  -7.8270    175.5016     72.4627   4.5607754489e+01   3.1878011426e+01    0.1365936    0.1273163 -79.01 0.0003395568    1.022    0.021
       429  -9.2872    105.7072     71.4386   6.0949454937e+01   4.7621669476e+01    0.3501032    0.2451926 -34.92  0.001376846    1.490    0.329
       430  -9.3524     95.1341     70.8805   6.3959612742e+01   4.9897385827e+01     0.402508    0.2408144 -54.71  0.001440233    2.176    0.540
       431  -9.4525     51.6232     69.4587   7.9307581782e+01   5.7677966115e+01    0.4442279    0.2833551 -69.00  0.001532704    2.760    0.638
       432  -9.1548     30.2966     69.5039   8.8496785514e+01   6.0232985993e+01    0.4187517    0.1980242  -0.77  0.001612509    3.220    0.689
       433  -9.1106     16.6236     69.7674   9.4744653372e+01   6.1379385171e+01    0.2295136    0.2010066 -69.13 0.0008911187    1.383    0.277
       434  -8.7062    146.9999     67.7594   4.9698115117e+01   3.9069909508e+01    0.2679289    0.1937804 -51.37 0.0007161655    1.442    0.306
       435  -8.8589    121.8364     66.0839   5.4941179602e+01   4.5037389870e+01    0.3035505    0.1912192 -53.97 0.0008998096    1.909    0.476
       436  -8.5921    138.7541     65.8979   5.0924310822e+01   4.1250061097e+01    0.2555114     0.183062 -58.69 0.0006776977    1.588    0.370
       437  -8.7525     37.3712     64.0162   8.3662021465e+01   6.0591958046e+01     0.296017     0.228384 -83.84  0.001244338    2.245    0.554
       438  -9.0159    110.2407     63.5988   5.7208179289e+01   4.7994722181e+01    0.2763806    0.2257142 -79.95 0.0006256906    1.610    0.379
       439  -8.0083     95.3295     64.3251   6.1775334917e+01   5.1011150322e+01    0.1489211    0.1074829  10.57 0.0005689569    1.701    0.412
       440  -7.8807    157.2689     69.6376   4.8165641841e+01   3.6428508332e+01    0.1453233    0.1033909 -69.19 0.0005225372    1.650    0.394
       441  -7.9932    158.2124     61.6417   4.5863621772e+01   3.7469445543e+01    0.1842105    0.1598124 -65.42 0.0003547735    1.146    0.128
       442  -9.3636     97.7425     60.4289   5.9759778371e+01   5.1166848733e+01     0.317732    0.2509051  59.32 0.0009164885    1.401    0.286
       443  -9.6909     73.3780     59.3574   6.7439252470e+01   5.6081040614e+01    0.3854407    0.2480389 -49.61  0.001045828    1.867    0.465
       444  -8.1567    152.5825     60.2335   4.6530263950e+01   3.8969750509e+01    0.1828445    0.1356766 -21.08 0.0009392006    1.667    0.400
       445  -8.8167    145.8983     58.7831   4.7425312420e+01   4.0721012760e+01    0.3263044     0.214454  68.22 0.0008026916    1.569    0.363
       446  -8.0387     89.2052     59.2793   6.2018826749e+01   5.3092440673e+01    0.2073233    0.1054592 -47.50 0.0006839617    2.356    0.576
       447  -8.6942    130.8396     57.5105   5.0231843974e+01   4.4359826664e+01    0.2689894    0.1714387 -54.05 0.0006635301    1.843    0.457
       448  -9.8731     23.5415     56.2816   8.7570055618e+01   6.3584958293e+01      0.39678    0.2979819  83.01  0.002055577    2.648    0.622
       449  -9.4628      7.4189     56.7577   9.5581496958e+01   6.4758965801e+01    0.3006442    0.2182417 -85.95  0.001232017    2.157    0.536
       450  -8.2553    140.0306     55.9984   4.7820983340e+01   4.2482410614e+01    0.2130924    0.1590443 -70.85  0.000455586    1.592    0.372
       451  -9.3204    118.9197     54.9512   5.2243320913e+01   4.7437417590e+01    0.3906814    0.1853375 -44.23  0.001531514    2.341    0.573
       452  -8.7976     44.2084     55.3800   7.7727904009e+01   6.1388463423e+01     0.258956    0.2056158 -53.59 0.0009472808    1.579    0.367
       453  -9.0370     62.9098     54.3928   6.9612224324e+01   5.8742749797e+01    0.2949204    0.1892813 -45.90 0.0006782424    1.763    0.433
       454  -8.4345    105.8578     53.0327   5.5002200620e+01   5.0603023685e+01    0.2058031    0.1842074 -80.64  0.000626292    1.349    0.259
       455  -8.1447    218.6950     52.0913   3.5101827531e+01   2.5789589700e+01     0.169323    0.1352127 -56.06 0.0004356614    1.111    0.100
       456  -9.3964     92.5098     50.4247   5.7958341161e+01   5.3816090682e+01    0.3381101    0.2354151 -53.46 0.0009568561    1.869    0.465
       457  -8.7200     76.0667     50.9611   6.3508885596e+01   5.6973648780e+01    0.3754315    0.1496762  28.37  0.001146756    4.428    0.774
       458  -8.4567    144.8266     48.7944   4.4830962388e+01   4.2404670202e+01    0.1843176    0.1499304 -73.50 0.0004346857    1.320    0.242
       459  -8.1428    129.9748     48.9551   4.7868080885e+01   4.5796288693e+01    0.2175415     0.161041 -74.83 0.0009018066    1.700    0.412
       460  -9.0286    113.2881     48.1554   5.1481298811e+01   4.9678000310e+01    0.3724099    0.2203277 -58.44  0.001628954    2.497    0.600
       461  -8.8775     54.1591     53.9088   7.2952868371e+01   6.0223125080e+01    0.3004546    0.1818214 -51.47   0.00112475    2.076    0.518
       462  -7.7503    137.2971     46.9725   4.5767491335e+01   4.4387759641e+01    0.2173251   0.08337563 -52.29 0.0007023643    4.100    0.756
       463  -8.4436    120.8462     47.1443   4.9348327701e+01   4.8123194439e+01    0.1971334    0.1815839 -81.81 0.0005865394    1.186    0.157
       464  -8.9041     82.1062     46.2078   5.9746996163e+01   5.6536190907e+01    0.2600194    0.1883775 -39.69 0.0006283277    1.543    0.352
       465  -9.2046     16.6274     44.2128   8.6972150132e+01   6.6510133213e+01    0.2350797    0.2078832 -81.52 0.0009732748    1.809    0.447
       466  -8.4970     44.9228     44.1968   7.3291594006e+01   6.3230198713e+01    0.1823166    0.1702195   2.03 0.0006693396    1.264    0.209
       467  -8.1935    132.5566     42.9757   4.5543355575e+01   4.6009564915e+01    0.1890254    0.1332813 -34.22 0.0003606041    1.554    0.356
       468  -8.7421     58.2779     42.5298   6.7011933985e+01   6.1426896067e+01     0.250147    0.1944337 -61.67 0.0009567434    2.076    0.518
       469  -9.6098      5.2776     41.6185   9.2091314894e+01   6.7870115294e+01    0.3405486    0.2206615 -72.71   0.00180233    2.489    0.598
       470  -8.5652     93.0277     42.1843   5.4929344084e+01   5.4884588640e+01    0.2339379    0.1330817  29.65  0.000787265    2.031    0.508
       471  -9.1399     69.5827     41.1629   6.2184276167e+01   5.9650338100e+01    0.2795775    0.2270091 -66.40  0.001036865    1.937    0.484
       472  -7.5423    140.2247     41.0131   4.3481313916e+01   4.4497136793e+01    0.1564416    0.1109916 -33.78 0.0003281556    1.552    0.356
       473  -8.5908    105.9331     41.1226   5.1031579393e+01   5.2256663287e+01    0.1987901     0.179866 -89.70 0.0005630921    1.286    0.222
       474  -8.5735     36.9712     40.5572   7.5509373631e+01   6.4914108123e+01    0.2134197    0.1769114 -49.66 0.0007113257    1.615    0.381
       475  -8.6480     95.7364     38.0516   5.2703639225e+01   5.4859177187e+01    0.1886105    0.1779074 -76.08 0.0006836778    1.281    0.220
       476  -8.1766     80.8352     36.7919   5.6698375489e+01   5.8095506265e+01    0.1656998    0.1559137  71.13 0.0004846011    1.322    0.243
       477  -7.5630    133.6299     36.2859   4.3348130848e+01   4.6605078846e+01    0.1362187   0.09701543 -81.67 0.0007019386    1.706    0.414
       478  -9.3281     26.3020     35.1856   7.8595214042e+01   6.7097324039e+01    0.2761686    0.1997287 -45.37 0.0009778488    1.615    0.381
       479  -8.3499    125.9571     35.3326   4.4576826322e+01   4.8480875970e+01    0.1865261    0.1558574  61.22 0.0004511361    1.069    0.065
       480  -8.7622    111.7283     34.3462   4.7365962209e+01   5.1821289111e+01    0.2253806     0.192403  84.73  0.000728586    1.313    0.238
       481  -8.3781     88.6150     34.2183   5.3365167795e+01   5.6840710172e+01    0.1695524    0.1231823 -10.72 0.0005013031    1.574    0.365
       482  -8.3596    119.2235     33.1548   4.5306790671e+01   5.0273694097e+01    0.1742817    0.1481413 -77.25 0.0004267692    1.343    0.256
       483  -8.7606     48.7788     32.9924   6.7126935166e+01   6.4366334055e+01    0.1935576    0.1730494 -37.48  0.000704714    1.459    0.315
       484  -8.3978     60.8378     32.2153   6.1918834238e+01   6.2460332477e+01    0.1810081    0.1652563  27.30 0.0005172589    1.214    0.176
       485  -8.7904     72.2085     30.9664   5.7314326908e+01   6.0526995758e+01    0.1784817    0.1734862  55.91 0.0007629207    1.305    0.234
       486  -8.9097     13.0816     30.0855   8.3583354747e+01   6.9291876252e+01    0.2781706    0.1873333 -56.31  0.001184923    2.067    0.516
       487  -8.2163    101.5036     29.0992   4.8058803963e+01   5.4694821096e+01    0.2054704    0.1728353  81.54 0.0008752011    1.380    0.275
       488  -7.9204     41.9823     29.7417   6.8758795786e+01   6.5862802961e+01    0.1585889    0.0946004  31.51 0.0005291598    1.506    0.336
       489  -8.8871     81.5726     27.1719   5.2836411363e+01   5.9129958286e+01    0.2602292    0.2060242 -59.45 0.0009959332    1.792    0.442
       490  -9.2548      3.6072     27.1436   8.7835964415e+01   7.0562426223e+01    0.2695475    0.1839969 -67.57  0.001553324    2.541    0.606
       491  -8.7372     91.8737     26.1851   4.9521894464e+01   5.7097570975e+01     0.249974    0.1695761 -46.61 0.0006477013    1.860    0.462
       492  -8.4540    104.5123     23.0104   4.5243102217e+01   5.4692954711e+01    0.1656826    0.1006727 -55.77 0.0005179732    2.329    0.571
       493  -8.8055     48.4627     21.5808   6.2380062288e+01   6.5920352400e+01    0.2055442    0.1900591  -4.11 0.0006442208    1.310    0.237
       494  -7.8887     34.3594     22.6918   6.9242697510e+01   6.7929449574e+01    0.1071513     0.096313  49.82 0.0007041063    1.734    0.423
       495  -8.3211    191.6323    249.3377   7.9349505708e+01  -4.8495887608e+00    0.1650258    0.1489797  47.88 0.0006812773    1.660    0.397
       496  -7.7961     19.7011     21.3175   7.6177290733e+01   6.9976110566e+01   0.09975163   0.09281803  25.78 0.0003634836    1.615    0.381
       497  -7.9026    160.4455     20.5689   3.4740255852e+01   4.2223400871e+01    0.1237512    0.1054021  79.56  6.02997e-05    1.034    0.033
       498  -8.8762     74.0464     19.1032   5.2001789738e+01   6.1524004945e+01    0.2522371    0.1729406 -35.91 0.0008084286    1.739    0.425
       499  -8.1168     38.6864     17.5866   6.4870886284e+01   6.7950979314e+01    0.1931194    0.1027355 -30.77 0.0008145253    1.952    0.488
       500  -8.2208     87.8638     17.1889   4.7276637066e+01   5.8880036967e+01    0.1762765    0.1627891  68.62   0.00047921    1.228    0.186
       501  -8.1088     30.0768     16.0260   6.8272089005e+01   6.9390005171e+01    0.1545998    0.1476565  39.73  0.000628255    1.685    0.407
       502  -8.0825     97.1641     15.1123   4.4201027609e+01   5.7080490985e+01    0.1573123    0.1433881 -81.19 0.0004012015    1.308    0.235
       503  -7.7991      7.5266     15.5148   8.0538623978e+01   7.2069971942e+01    0.1158271   0.08739772  -7.18 5.615453e-05    1.041    0.040
       504  -7.6805     17.3271     13.7224   7.3950202136e+01   7.1302389799e+01   0.09956899   0.08637826  27.96 0.0002992621    1.592    0.372
       505  -8.7736     63.6404     20.7353   5.6145127966e+01   6.3352091674e+01    0.2158361    0.1821487 -39.69 0.0008156296    1.530    0.346
       506  -8.6003    156.5959    248.1349   8.6527483977e+01  -1.0465114180e-02    0.2949577    0.2172223  62.87   0.00108894    2.201    0.546
       507  -8.9737    132.4074    247.7954   9.1813653094e+01   3.4236457905e+00    0.3288018    0.2067191  55.24  0.001157611    2.117    0.528
       508  -8.3656    113.2481    248.5737   9.6218710737e+01   5.9580704104e+00    0.2226122    0.1623183 -76.77  0.001226075    1.805    0.446
       509  -9.3559    103.9439    246.7725   9.8098507068e+01   7.6050496455e+00    0.4492586    0.2585827 -83.30  0.001974006    2.940    0.660
       510  -8.3589     93.7245    249.1350   1.0068045496e+02   8.5271620279e+00    0.2057434    0.1506881  68.68  0.001154474    1.588    0.370
       511  -8.8543    218.6355    247.1004   7.3706308623e+01  -7.7563025433e+00    0.3499372     0.127372 -42.07  0.001606829    2.703    0.630
       512  -8.8455     63.7169    248.5183   1.0729090543e+02   1.2550753717e+01    0.2391496    0.1181068  26.97  0.001137527    2.046    0.511
       513  -9.0438    243.0452    245.9931   6.9090780812e+01  -1.0254292608e+01    0.3755985    0.1465283 -31.26  0.001893138    2.223    0.550
