#   1 NUMBER                 Running object number                                     
#   2 MAG_AUTO               Kron-like elliptical aperture magnitude                    [mag]
#   3 X_IMAGE                Object position along x                                    [pixel]
#   4 Y_IMAGE                Object position along y                                    [pixel]
#   5 X_WORLD                Barycenter position along world x axis                     [deg]
#   6 Y_WORLD                Barycenter position along world y axis                     [deg]
#   7 A_WORLD                Profile RMS along major axis (world units)                 [deg]
#   8 B_WORLD                Profile RMS along minor axis (world units)                 [deg]
#   9 THETA_WORLD            Position angle (CCW/world-x)                               [deg]
#  10 FWHM_WORLD             FWHM assuming a gaussian core                              [deg]
#  11 ELONGATION             A_IMAGE/B_IMAGE                                           
#  12 ELLIPTICITY            1 - B_IMAGE/A_IMAGE                                       
         1 -14.4272    159.2185     52.9380   8.1260335085e+01   3.8727864805e+01     1.739228     1.222957  23.23  0.005904966    1.858    0.462
         2 -14.1428    171.2474     37.3860   7.4544897728e+01   3.7938407754e+01    0.8989897    0.8548498  76.85   0.00316875    1.044    0.042
         3 -11.8617    189.8094     14.8230   6.5733231828e+01   3.6041523189e+01    0.2927424    0.2052766 -48.28   0.00103224    1.478    0.324
         4 -14.0213    187.9676      5.2668   6.3533090756e+01   3.7462873659e+01      0.94675    0.6606526  68.30  0.003912654    1.233    0.189
         5 -12.4632    158.8773    235.9425   1.2299689730e+02   2.7400813550e+00    0.3569841    0.2939137  28.50  0.001238484    1.252    0.201
         6 -19.1990     70.9136    243.5372   1.4039994694e+02   1.5642358519e+01     7.107901     5.567454  81.74   0.04102307    1.109    0.098
         7 -11.5837    199.0129    222.3219   1.1299658480e+02  -2.1484505255e+00    0.2912033    0.2157508  -0.93  0.001228192    1.614    0.381
         8 -10.7012    179.9389    192.1731   1.1132713219e+02   6.7555130337e+00    0.2197577    0.1904862  69.31 0.0005014961    1.301    0.231
         9 -12.1485    167.4500    190.5226   1.1364086143e+02   9.5489851605e+00    0.3768754    0.3067932  10.33  0.001559939    1.498    0.332
        10 -10.4773      6.8334    220.1815   1.4961575833e+02   2.7912386654e+01    0.1423357   0.09716484 -69.17 0.0009420665    1.541    0.351
        11 -11.7287    208.3561    196.8407   1.0648826168e+02   4.1462532375e-01    0.2361508    0.1848325  48.08 0.0007190452    1.331    0.249
        12 -10.9713    176.8175    188.0844   1.1119151012e+02   8.1674727771e+00    0.2193501    0.2007219  89.57 0.0009468608    1.232    0.189
        13 -10.8654    184.0628    186.6879   1.0940232546e+02   6.9924378179e+00    0.2137897    0.1848753  39.24  0.001165209    1.103    0.094
        14 -12.0169    168.3817    233.7802   1.2082706869e+02   1.4244985589e+00    0.3287774    0.2221883  62.62  0.001126851    1.759    0.431
        15 -12.3783     38.6361    183.7191   1.4070366095e+02   3.2263452257e+01    0.2575289    0.1772862 -79.41 0.0006697453    1.194    0.163
        16 -11.3125      3.4645    212.0717   1.4967640137e+02   2.9852638100e+01    0.1282117   0.07059947 -59.49 0.0006799837    2.080    0.519
        17 -12.3872    205.7406    180.5705   1.0375216818e+02   3.8336927621e+00    0.5685244    0.3316512  43.18  0.002132428    1.684    0.406
        18 -12.1004    208.8096    178.5925   1.0273602187e+02   3.5922657696e+00    0.4146342    0.3573526  12.60  0.002101456    1.181    0.154
        19 -10.5111     17.5134    180.6197   1.4470945653e+02   3.5146598404e+01    0.1143731   0.09064402 -81.76 0.0002779053    1.127    0.112
        20 -10.9934    163.4484    210.2807   1.1802149346e+02   6.4955613673e+00    0.2388986    0.1357672 -43.00 0.0006906037    1.980    0.495
        21 -18.9325     52.5010     94.9112   1.2281398793e+02   5.1085527272e+01     17.90403    0.7445514 -55.96   0.02461682   21.266    0.953
        22 -11.2097     32.5789    206.7531   1.4409531479e+02   2.7946912110e+01    0.2526487    0.1726899  24.20  0.001534374    2.281    0.562
        23 -12.5583    196.0692    171.6985   1.0385362869e+02   7.4617042710e+00    0.7012894    0.3941074 -47.64  0.002209435    1.873    0.466
        24 -10.3581     24.4193    206.4325   1.4557772991e+02   2.8911144059e+01    0.1140097   0.08791164  89.70 0.0003378934    1.097    0.089
        25 -11.6816    142.2247    165.9777   1.1443072620e+02   1.9814005591e+01    0.3406559    0.1985529 -57.30 0.0008674337    1.832    0.454
        26 -10.7246    122.9000    166.1055   1.1896936811e+02   2.3569964176e+01    0.2257245    0.1877483  77.81            0    1.249    0.199
        27 -10.7979    194.3978    166.1803   1.0301917392e+02   8.8868898228e+00    0.2798647    0.2558987  43.21 0.0008123511    1.093    0.085
        28 -10.1211     25.4840    165.4979   1.4154598972e+02   3.7750121327e+01    0.2048986    0.1211349  31.82  0.001183603    2.082    0.520
        29 -10.8928    223.7472    163.8714   9.6735745634e+01   3.3316472770e+00    0.2578049    0.1900727 -55.08  0.000684204    1.579    0.367
        30 -11.5059    112.5760    159.6084   1.2018522907e+02   2.6989520308e+01    0.3494253    0.2181221  78.80   0.00139372    2.439    0.590
        31 -12.2401    102.6527    159.2066   1.2251597974e+02   2.8848512251e+01    0.4018243     0.286478  67.40 0.0005933637    1.557    0.358
        32 -11.0033    158.8100    204.8675   1.1805551256e+02   8.4059030874e+00    0.3212236     0.178302  52.53  0.001436528    1.817    0.450
        33 -11.8762     24.9217    156.7715   1.4069292595e+02   3.9785381830e+01     0.484138    0.2478161  49.37  0.002625921    2.097    0.523
        34 -11.2471    163.5020    204.0207   1.1692997662e+02   7.6743176253e+00    0.3003739    0.2449232 -56.87  0.001118506    1.352    0.260
        35 -10.9390    161.9986    153.7016   1.0728897814e+02   1.8386788926e+01     0.224982    0.2026346  45.98  0.001159791    1.106    0.096
        36 -13.1023    133.9572    145.3600   1.1202294298e+02   2.6149503115e+01      1.26019    0.3223483 -54.25   0.00307881    5.190    0.807
        37 -11.3640    160.9730    198.2779   1.1644227676e+02   9.2796361476e+00    0.2952489    0.2315003  81.44  0.001269961    1.584    0.369
        38 -11.1541    140.0119    156.6517   1.1301734709e+02   2.2351132706e+01    0.2617156    0.2158898 -64.94 0.0003431356    1.242    0.195
        39 -10.9149    174.7825    148.9368   1.0336570538e+02   1.6627689766e+01      0.29259    0.2184174 -63.91 0.0008878022    1.549    0.354
        40 -12.3153    144.7982    145.9754   1.0955234876e+02   2.3761514281e+01    0.4205079    0.3125617  79.41  0.001877915    1.729    0.422
        41 -12.4619    104.2929    138.2378   1.1791660981e+02   3.3493987012e+01    0.2916526    0.2675404  55.67 0.0003283588    1.130    0.115
        42 -13.2758    113.8718    138.7124   1.1556070843e+02   3.1629145811e+01    0.7684731    0.5418796   4.78  0.003207479    2.424    0.587
        43 -12.3122    106.0268    130.8434   1.1584165419e+02   3.4911348654e+01    0.4338311    0.3513798 -67.16  0.001306517    1.237    0.192
        44 -11.4309    108.1276    125.3869   1.1403404588e+02   3.5790733876e+01    0.3055692    0.2664662 -23.25 0.0006993076    1.302    0.232
        45 -12.7047    139.1641    200.6679   1.2149250927e+02   1.2957553502e+01    0.4079029    0.3511956  73.04  0.001934735    1.152    0.132
        46 -12.4755    119.5426    129.4864   1.1201106438e+02   3.2675557213e+01    0.4371325    0.3833328 -54.52  0.001237763    1.099    0.090
        47 -12.9907    124.7692    126.6482   1.0999450989e+02   3.2284692548e+01     0.725848    0.4573709  83.28  0.002561384    3.091    0.676
        48 -12.3707    135.4739    122.7038   1.0631844550e+02   3.0954830661e+01    0.6728541     0.199141 -47.57  0.001984184    3.345    0.701
        49 -12.9303      3.0975    126.7584   1.4231308194e+02   4.8294396979e+01    0.6666061    0.2226304 -76.76  0.002882884    2.780    0.640
        50 -11.4143    113.4572    118.4936   1.1096040324e+02   3.6360708632e+01    0.2758817    0.2545179  82.51 0.0005847971    1.150    0.130
        51 -11.7684     25.3331    119.0891   1.3547836192e+02   4.8362527301e+01    0.2021631    0.1890475  13.23 0.0007038945    1.356    0.263
        52 -11.5671    135.6763    196.3615   1.2152123482e+02   1.4502554611e+01    0.2562386    0.2080673 -72.33  0.001393247    1.305    0.234
        53 -10.3509    116.7704    115.5824   1.0935420182e+02   3.6371754625e+01    0.2167224    0.1428533  55.18 0.0009520174    1.708    0.414
        54 -11.1182    168.1253    113.3327   9.6180810790e+01   2.5637579559e+01    0.4075758    0.2985682  86.44  0.001588068    1.865    0.464
        55 -11.3908      7.9902    111.7317   1.3905981231e+02   5.1303910127e+01    0.2513122     0.187417  -9.74  0.001221559    1.802    0.445
        56 -11.0191      2.4984    112.5062   1.4064256853e+02   5.1477246276e+01    0.2032149    0.1443098 -43.49  0.001384895    1.435    0.303
        57 -12.0656     85.5953    107.1897   1.1588752327e+02   4.3818784152e+01    0.2916745    0.2250149 -41.61  0.001375291    1.229    0.186
        58 -10.3458     29.6641    111.7005   1.3304622442e+02   4.9659188568e+01    0.1276225    0.0797511 -39.63 0.0005755352    1.657    0.396
        59 -10.6763    205.6427    110.1139   8.7691110350e+01   1.7454133538e+01    0.2852641    0.2238101  46.61 0.0006689627    1.340    0.254
        60 -10.1979     25.0222    108.9841   1.3388930078e+02   5.0663490327e+01    0.1469256    0.1209939 -61.11 0.0003558972    1.033    0.032
        61 -11.1356    160.6334    127.8024   1.0153595200e+02   2.4306981442e+01    0.3216521    0.2440697 -77.68  0.001426609    1.675    0.403
        62 -11.8000    178.5114    226.8135   1.1774793430e+02   7.8226556140e-01    0.2582916     0.173079  41.52   0.00131065    1.308    0.235
        63  -9.9509    124.4846     81.4431   9.7904619113e+01   4.1913707387e+01    0.1469289    0.1423944   2.15 0.0003999686    1.014    0.013
        64 -10.3126    147.4760     79.5195   9.1632858910e+01   3.7123111467e+01     0.149167    0.1474511  44.46 5.722287e-05    1.003    0.003
        65 -10.9218     92.9955     79.0794   1.0604372363e+02   4.8508069372e+01    0.2090624    0.1973628 -20.43 0.0004394228    1.034    0.033
        66 -11.8059     13.2064    245.6234   1.5009072927e+02   2.2397819987e+01    0.4099557   0.08117221 -68.17  0.001815982    4.059    0.754
        67 -12.2083    155.0285    196.8234   1.1744400108e+02   1.0719765880e+01    0.4127803    0.2877983 -83.68  0.001900623    2.071    0.517
        68 -10.8363     13.8165     59.2326   1.2701758676e+02   6.1888719863e+01     0.243771    0.1524052 -32.73  0.001574774    1.391    0.281
        69 -13.0763    175.3803     29.7833   7.1745874898e+01   3.7872681815e+01     0.500711    0.4136605   2.21  0.001725415    1.532    0.347
        70 -10.5135    130.1226     28.2219   7.9630664926e+01   4.8878133351e+01    0.3003577    0.1742631  66.25   0.00141613    1.872    0.466
        71 -11.8436    146.7498    238.4842   1.2570494579e+02   4.4277263785e+00    0.2076719    0.1788738 -63.07 0.0005364682    1.342    0.255
