#   1 NUMBER                 Running object number                                     
#   2 MAG_AUTO               Kron-like elliptical aperture magnitude                    [mag]
#   3 X_IMAGE                Object position along x                                    [pixel]
#   4 Y_IMAGE                Object position along y                                    [pixel]
#   5 X_WORLD                Barycenter position along world x axis                     [deg]
#   6 Y_WORLD                Barycenter position along world y axis                     [deg]
#   7 A_WORLD                Profile RMS along major axis (world units)                 [deg]
#   8 B_WORLD                Profile RMS along minor axis (world units)                 [deg]
#   9 THETA_WORLD            Position angle (CCW/world-x)                               [deg]
#  10 FWHM_WORLD             FWHM assuming a gaussian core                              [deg]
#  11 ELONGATION             A_IMAGE/B_IMAGE                                           
#  12 ELLIPTICITY            1 - B_IMAGE/A_IMAGE                                       
         1 -11.9674     64.9828     10.7561   7.1856115932e+01   6.6393141262e+01    0.2950511    0.1779213 -25.50  0.001055693    1.519    0.342
         2 -12.9656     85.0513      7.5037   6.3263899896e+01   6.2805076366e+01     0.393901    0.3001751  10.47  0.002224809    1.255    0.203
         3 -11.8261    178.1129      7.7933   4.5638603159e+01   3.9435576487e+01    0.2238496     0.184919 -64.61 0.0005679983    1.209    0.173
         4 -12.0555     98.1067      8.3337   6.0006262331e+01   5.9830976595e+01    0.1948548    0.1741987  40.46 0.0008568018    1.101    0.092
         5 -10.7353      2.8396      8.6126   1.0303364309e+02   7.4471430054e+01    0.1391289    0.1003702  27.47 0.0009570973    1.789    0.441
         6 -11.7110    155.0012      2.5018   4.6724790595e+01   4.6057957508e+01    0.2285255    0.1330181  70.77   0.00104571    1.628    0.386
         7 -10.1107    137.0856    240.0482   1.0900332241e+02   8.8183348033e+00    0.1270956    0.1125669  24.76 0.0003948479    1.291    0.225
         8 -13.9296    161.8684    200.2587   9.9182926987e+01   1.0870816959e+01     1.102434    0.5099326 -38.96  0.003615331    2.668    0.625
         9 -15.1080    194.1470    235.4877   9.8468449619e+01   7.7152546218e-01     1.741355     1.203576  14.92  0.009755335    1.463    0.316
        10 -13.8057    178.5885    216.8796   9.8552477793e+01   5.6021806193e+00    0.8140541    0.6282505  53.49  0.003507013    1.417    0.294
        11 -15.7283    186.4770    209.3401   9.5966453444e+01   5.3605920895e+00     1.866593     1.567148  55.90   0.01233457    1.414    0.293
        12 -14.2516    170.4934    197.9202   9.7148911650e+01   9.7570504208e+00     1.069966    0.6693023  -0.51  0.003440622    2.933    0.659
        13 -13.0724    169.3576    229.7516   1.0201921288e+02   5.3103347394e+00    0.6743871    0.4569406  -3.06  0.003252764    2.214    0.548
        14 -12.6306    160.5594    230.9378   1.0374590769e+02   6.5192822205e+00    0.6407583    0.3287701  27.23  0.003274678    2.273    0.560
        15 -12.6497    166.9376    249.0693   1.0486028109e+02   3.1926208827e+00    0.4920303    0.1932675  35.17  0.002274096    2.172    0.540
        16 -13.5792    169.0022    242.5737   1.0372349889e+02   3.6936766363e+00     1.225171    0.5196168  51.35  0.001491095    2.633    0.620
        17 -11.7405    102.5346    250.2295   1.1597473466e+02   1.2284603968e+01    0.2003124    0.1141926  45.37  0.001328472    1.312    0.238
        18 -15.2179     29.2259    175.9755   1.2382585981e+02   3.4918798799e+01     3.208485     1.253713 -55.29   0.01510389    3.177    0.685
        19 -15.0973    124.5795    215.2438   1.0845382911e+02   1.4539873619e+01     1.579121     1.076137 -54.00  0.009840782    1.754    0.430
        20 -17.8769    106.2521    210.3361   1.1141866928e+02   1.8189501768e+01     5.273849     2.255098 -54.77   0.02615754    2.696    0.629
        21 -19.3249     67.8961    213.3604   1.1908287185e+02   2.3005614428e+01     6.473388     4.293154 -83.67   0.04307679    1.489    0.328
        22  99.0000     25.1164    233.2762   1.2789576443e+02   2.4428432720e+01    0.2533619    0.2345911  65.09  0.002250933    1.547    0.353
        23  -6.1253    133.0000    221.1028   1.0756814487e+02   1.2278397726e+01    0.2717328    0.1589012 -64.03 0.0007566087    2.236    0.553
        24 -12.3645    135.8366    231.6135   1.0828256810e+02   1.0230975228e+01    0.4179385    0.2049468 -54.20  0.002330598    2.564    0.610
        25 -11.0838    134.5683    224.9310   1.0773508608e+02   1.1437442412e+01    0.1994577     0.132015 -34.75  0.001180442    2.201    0.546
        26 -14.7063    167.2703    211.9577   9.9916094620e+01   8.1617788514e+00     1.683008     0.555206 -40.84  0.006947814    3.799    0.737
        27 -11.1043    141.0851    229.1047   1.0703664146e+02   9.8000245099e+00      0.17193    0.1341782  38.44 0.0006659665    1.109    0.099
        28 -10.5014      7.6506    228.8668   1.3056760241e+02   2.6906403986e+01   0.09214647   0.07169672 -68.61 0.0005672041    1.756    0.431
        29 -10.6913      6.1742    225.3582   1.3068250285e+02   2.7651237573e+01    0.1477491   0.08629129  88.03   0.00110562    1.411    0.291
        30 -11.6165      1.6021    224.2729   1.3138997405e+02   2.8258379841e+01    0.1589844   0.08951121 -80.99  0.001174348    1.650    0.394
        31 -11.0104    140.0414    223.7959   1.0658589853e+02   1.0761058346e+01    0.2874205    0.1632975  43.84  0.001655586    1.417    0.294
        32 -10.9013    140.6587    219.5190   1.0593813016e+02   1.1323779490e+01    0.3030799    0.1786996  38.56  0.001747037    1.440    0.306
        33 -11.7608    140.7142    215.9950   1.0547692261e+02   1.1868586543e+01    0.2057215    0.1465238  41.73 0.0003678424    1.167    0.143
        34 -15.0358    185.7842    224.5267   9.8374579646e+01   3.4240469803e+00     1.714649    0.8702831  33.22  0.006681575    1.705    0.414
        35 -10.2414    146.5224    222.0934   1.0517253486e+02   1.0000716465e+01    0.2151809    0.1310148  53.33 0.0007974089    1.570    0.363
        36  99.0000     11.5573    209.4918   1.2914351736e+02   3.0000615739e+01    0.2549233    0.1831962  11.61  0.001744338    2.614    0.617
        37  -8.5744     18.0428    220.5250   1.2850882308e+02   2.7366765066e+01    0.3232385    0.1191338  85.41  0.001746204    2.613    0.617
        38 -12.8322     12.8910    216.8922   1.2923052973e+02   2.8520038353e+01    0.2877419    0.2430747  87.83  0.002450363    1.386    0.278
        39 -11.3737    148.2834    214.0622   1.0378752658e+02   1.0953277686e+01    0.3405227    0.2021541  38.86  0.001929805    1.428    0.299
        40 -10.5632     19.3915    211.1340   1.2783714524e+02   2.8941141094e+01     0.215715    0.1045671  53.84  0.001395771    1.559    0.358
        41 -17.0564     90.7401    223.6217   1.1571852803e+02   1.8124611918e+01     1.815102    0.8568386 -74.00   0.00969846    2.620    0.618
        42 -12.5534      2.7429    201.6118   1.3037198810e+02   3.2276379347e+01    0.2521058    0.1721302 -73.98  0.001722235    1.558    0.358
        43 -10.2554      8.7626    197.3792   1.2910306557e+02   3.2551094400e+01    0.1549211    0.1062079 -61.17  0.001102176    1.864    0.463
        44 -12.1926    208.0403    193.9671   8.9482007000e+01   3.8793441125e+00    0.2022097    0.1679565  18.18 0.0007413881    1.014    0.013
        45 -10.1353      1.4789    193.4212   1.3026672625e+02   3.3955943529e+01    0.1558938     0.095419  76.91 0.0001151844    1.184    0.156
        46 -11.9379      3.2291    189.8081   1.2978748984e+02   3.4513724888e+01    0.2115348    0.1583736  77.69 0.0003343818    1.092    0.085
        47 -12.9391      7.5253    187.6299   1.2887503393e+02   3.4573827984e+01    0.3821627    0.1243949  45.83  0.002081892    2.360    0.576
        48 -11.9410    153.8837    187.7171   9.8773042776e+01   1.4347376934e+01    0.2605203    0.2002733 -66.41 0.0006068716    1.626    0.385
        49 -12.8669    164.5407    182.6252   9.5765579159e+01   1.3312680205e+01    0.3577816    0.2320687 -39.85  0.001457145    1.723    0.420
        50 -13.4383    176.6094    181.8602   9.3229703304e+01   1.1245570229e+01    0.4234717    0.3518102 -22.88  0.002207577    1.310    0.237
        51 -10.5259      1.7813    183.4669   1.2977800706e+02   3.5895596684e+01    0.1426205   0.09022882  45.00 0.0004878215    1.528    0.346
        52 -12.1667    154.8011    181.4240   9.7538347131e+01   1.5285191276e+01    0.2386039    0.2183701  33.50 0.0002141209    1.048    0.046
        53 -12.3144    145.1775    239.2924   1.0749187774e+02   7.7141279181e+00    0.2469396    0.2305096 -71.69  0.001297433    1.364    0.267
        54 -12.2871    145.1386    169.8237   9.7548909821e+01   1.9182582535e+01    0.2883446     0.236154  44.12 0.0003779562    1.127    0.113
        55 -10.9846    170.9627    168.5268   9.1891596924e+01   1.4561038280e+01    0.1936162    0.1837577 -19.20 0.0003472615    1.113    0.101
        56 -11.1049      3.4534    169.6120   1.2877082075e+02   3.8597918762e+01    0.2989156   0.08504161  31.98  0.001448885    3.411    0.707
        57 -11.4319    163.9859    168.2510   9.3275534528e+01   1.5937511767e+01     0.193182    0.1715398  36.66 0.0002158713    1.040    0.039
        58 -13.2959    150.6500    159.4717   9.4432942912e+01   2.0131016264e+01    0.5955213    0.3815551 -45.90  0.001770518    1.655    0.396
        59 -12.5736    142.2829    160.7445   9.6512551965e+01   2.1476968572e+01    0.3551953    0.2385199  41.61  0.001167316    1.413    0.293
        60 -13.3604    138.0915    155.9215   9.6535344510e+01   2.3234648266e+01    0.5577887    0.3567994  43.48  0.002706465    1.489    0.328
        61 -11.1772    144.5958    153.2543   9.4552416644e+01   2.2525224540e+01    0.1904539    0.1361787 -37.35 0.0003876839    1.552    0.355
        62 -10.7736    157.1085    154.8060   9.2105285064e+01   1.9772158839e+01    0.2189642    0.1893552  67.21  0.001199701    1.269    0.212
        63 -12.1574    131.3822    144.0428   9.5739269241e+01   2.6980072147e+01    0.2494554    0.2023222  32.12 0.0005982072    1.322    0.244
        64 -10.5348    167.2053    138.8084   8.6490047784e+01   2.0794883706e+01    0.2041038     0.197722  83.19 0.0004255819    1.120    0.107
        65 -12.9776    246.1035    139.6863   7.2008226141e+01   4.7664433880e+00    0.3848222    0.1580895 -36.97   0.00163531    2.298    0.565
        66 -13.3326    249.1980    127.9235   6.8885788042e+01   5.8587413376e+00    0.5781376    0.2856005 -41.89  0.002597832    2.130    0.531
        67 -13.0304    249.6805    116.9436   6.6276818797e+01   7.3350146318e+00    0.6822392   0.09579969 -32.99  0.001759906    5.550    0.820
        68 -13.1536     57.8515    114.5891   1.0942350906e+02   4.5817149254e+01    0.4664711    0.3328528  77.47  0.002507458    1.520    0.342
        69 -12.8128     20.3317    116.4052   1.2048594093e+02   4.9205787306e+01    0.2805324    0.1836482 -72.45   0.00169326    1.224    0.183
        70 -12.9556    147.5081    231.9764   1.0621845785e+02   8.3922777288e+00    0.3851165    0.2909112  25.18  0.001826279    1.388    0.280
        71 -11.8117    151.5296    226.1410   1.0476693991e+02   8.6107793531e+00    0.2110537    0.1670478  38.95 0.0005728048    1.045    0.043
        72 -12.0989      2.2029    104.6420   1.2439341117e+02   5.3231147991e+01    0.2887832    0.1667785 -71.67 0.0006735671    1.322    0.243
        73 -11.3301     19.3055     95.0769   1.1801338541e+02   5.4369992323e+01    0.1835845    0.1343076 -76.65 0.0007164299    1.098    0.089
        74 -13.9162    248.8375     86.0971   5.8948321537e+01   1.1942881176e+01    0.9421031    0.2701827 -27.13   0.00297565    3.593    0.722
        75  -9.6727     86.9360     84.0000   9.3384106056e+01   4.8798085223e+01    0.2285193   0.08526656  39.78 0.0008002607    2.927    0.658
        76 -12.0904    123.5311    243.4249   1.1173503100e+02   1.0323769466e+01    0.2193826    0.1506961  58.30  0.001511663    1.319    0.242
        77  99.0000     31.7868    243.5171   1.2727751589e+02   2.2022961079e+01    0.1736656    0.1460616 -77.14  0.001498584    1.597    0.374
        78 -10.7565     53.6622     79.2401   1.0322573459e+02   5.4818249680e+01    0.2514537     0.186764  13.25  0.001367312    1.724    0.420
        79 -12.1634     14.7589    234.8302   1.2964331725e+02   2.5208974046e+01    0.2076299    0.1230201 -72.73  0.001553603    1.855    0.461
        80  99.0000     24.3132    241.3204   1.2837605186e+02   2.3167219362e+01    0.2631927    0.2451759  24.16   0.00232915    1.841    0.457
        81 -13.0973    249.5960     57.7758   5.1759239710e+01   1.5709666870e+01    0.8807763    0.1089308 -29.32  0.002067872    6.490    0.846
        82  -9.8249     43.6762     58.2639   1.0112919838e+02   6.0793268715e+01     0.121153    0.1002344  81.10 0.0002222839    1.561    0.359
        83 -11.8560      3.0164     58.0504   1.1773183936e+02   6.4039515360e+01    0.3531238    0.1338688 -83.42  0.001415176    3.328    0.700
        84  99.0000     18.6828    242.3685   1.2931016625e+02   2.3568425800e+01    0.3192026   0.05810072  55.21  0.001499284    3.437    0.709
        85 -11.2297    126.5133     39.9712   6.6453558317e+01   4.9008518606e+01    0.4594257    0.2059116  50.06  0.001749084    2.178    0.541
        86  99.0000     17.5387    238.3346   1.2933458087e+02   2.4347784874e+01     0.315404    0.1289529 -89.92  0.001980377    2.239    0.553
        87 -10.8460    154.2128    238.8512   1.0584901276e+02   6.4111972020e+00     0.310862    0.2706296  71.84  0.002341716    1.385    0.278
        88 -10.7852    132.3697    239.2515   1.0974980436e+02   9.6325773710e+00    0.1093335   0.07729518  24.97 0.0006957549    1.632    0.387
        89  -9.9683    156.7509    248.5803   1.0653969472e+02   4.7540912485e+00    0.1634262    0.1257492  80.30 0.0008172081    1.887    0.470
        90 -10.0566    144.0950    246.9924   1.0853695766e+02   6.8244525651e+00    0.2507171    0.1199152  34.38  0.001172032    1.881    0.468
        91 -10.2696     51.1765    247.4380   1.2434255940e+02   1.9229654321e+01   0.08386399   0.06648406 -69.59 0.0006650811    1.668    0.401
        92  99.0000     19.5942    246.5085   1.2932655029e+02   2.2805676156e+01   0.09837868   0.06632579  65.83 0.0008027929    1.031    0.030
        93  99.0000    139.7046    242.9862   1.0886404678e+02   8.0177932082e+00    0.2916209    0.2209609 -38.21  0.001139848    1.802    0.445
