#   1 NUMBER                 Running object number                                     
#   2 MAG_AUTO               Kron-like elliptical aperture magnitude                    [mag]
#   3 X_IMAGE                Object position along x                                    [pixel]
#   4 Y_IMAGE                Object position along y                                    [pixel]
#   5 X_WORLD                Barycenter position along world x axis                     [deg]
#   6 Y_WORLD                Barycenter position along world y axis                     [deg]
#   7 A_WORLD                Profile RMS along major axis (world units)                 [deg]
#   8 B_WORLD                Profile RMS along minor axis (world units)                 [deg]
#   9 THETA_WORLD            Position angle (CCW/world-x)                               [deg]
#  10 FWHM_WORLD             FWHM assuming a gaussian core                              [deg]
#  11 ELONGATION             A_IMAGE/B_IMAGE                                           
#  12 ELLIPTICITY            1 - B_IMAGE/A_IMAGE                                       
         1 -14.4328    159.9108     55.9398   7.6061445446e+01   3.7926806402e+01     1.386083     1.261139  40.62  0.001323162    1.060    0.057
         2 -14.6786    172.7054     41.0311   6.9028735784e+01   3.6909846832e+01     1.261926     1.069714   2.58  0.004063448    1.344    0.256
         3 -14.9036    194.6745      8.3483   5.6255610716e+01   3.5182600576e+01     2.756166    0.8323746  60.64   0.01030254    2.643    0.622
         4 -11.7164    150.5809    247.0111   1.1834735407e+02   4.7397049433e+00    0.2427076     0.227407 -83.28 0.0008964976    1.301    0.232
         5 -12.6899    247.6916    247.5355   1.0177126017e+02  -1.1489965908e+01    0.3983957    0.3072839  20.25  0.002211418    1.049    0.047
         6 -18.5851     68.2260    233.8459   1.3094921314e+02   1.9597708359e+01     8.043839     5.504517 -85.56   0.05731291    1.339    0.253
         7 -10.2552     40.9477    199.5564   1.3268921001e+02   2.9341796961e+01    0.1430122    0.1009789  44.98 0.0009914094    1.551    0.355
         8 -10.3073    166.4079    234.6580   1.1396019307e+02   3.8332019465e+00    0.2369597    0.1522474 -57.42  0.001106315    2.016    0.504
         9 -12.3417    141.3286    188.6165   1.1184691955e+02   1.6234642993e+01    0.4569475     0.231142 -48.00  0.002085261    2.209    0.547
        10 -11.2904    172.3403    188.9947   1.0564360021e+02   1.0168900454e+01    0.3033604    0.1759644  52.68  0.001427018    1.658    0.397
        11  -9.9192     33.2573    206.3961   1.3457319435e+02   2.8893443959e+01    0.1001709   0.07459904 -78.68 0.0003613759    1.284    0.221
        12 -12.2702     38.4601    183.5674   1.3171259324e+02   3.2781401098e+01    0.2063833    0.1506402 -87.51 0.0009541606    1.089    0.082
        13 -10.1772    176.0489    231.4425   1.1177119851e+02   2.6002311089e+00    0.1656601    0.1645009  -3.71 0.0006126047    1.236    0.191
        14 -11.4072    169.1395    178.0864   1.0429763902e+02   1.2782146417e+01    0.3798251    0.2587823 -65.57  0.001298571    1.914    0.478
        15 -11.2023    165.8819    172.9536   1.0399976474e+02   1.4402940885e+01    0.2806061    0.2343973 -77.61 0.0007448955    1.401    0.286
        16 -10.3945    197.7435    176.9726   9.8333734313e+01   7.1368159271e+00    0.2659767    0.2157371  88.72  0.001187283    1.709    0.415
        17 -11.0067    201.8511    167.8071   9.5675986365e+01   7.8632616158e+00    0.4833713     0.245011  34.34  0.001331905    2.193    0.544
        18 -12.2196    189.3149    155.1660   9.5528602194e+01   1.2795984807e+01    0.4764012    0.4727918  -7.15    0.0016752    1.063    0.059
        19 -12.1866    193.2843    165.5620   9.6914618884e+01   1.0057440800e+01    0.3665902    0.3354067 -39.93     0.000812    1.175    0.149
        20 -11.6182    190.2225    161.1196   9.6608113536e+01   1.1508630398e+01    0.4070168    0.3008575  64.74  0.001430547    1.578    0.366
        21 -12.0933    204.4622    176.1198   9.6852843939e+01   5.9085719501e+00     0.449966    0.4073794 -67.46  0.001385193    1.348    0.258
        22 -11.4571    230.0047    166.0077   8.9950354153e+01   2.3782285190e+00    0.2095288    0.1780018 -80.73 0.0007073284    1.688    0.408
        23 -10.7279     25.2120    165.4453   1.3254347824e+02   3.7836931063e+01     0.189572    0.1589033  28.60  0.001245679    1.672    0.402
        24 -19.1314     50.0847    100.9055   1.1765875646e+02   4.9165434924e+01     15.72227    0.7958511 -59.05   0.02570554   16.679    0.940
        25 -10.9572    236.7944    158.3964   8.7105144759e+01   2.2215186966e+00    0.1959466    0.1217969  35.17 0.0003416352    1.610    0.379
        26 -13.2581    134.1007    146.3174   1.0567101109e+02   2.6179350424e+01     1.387389    0.3504109 -55.12  0.003401595    6.055    0.835
        27 -11.8253    165.4939    153.4292   1.0016506583e+02   1.8258807047e+01     0.430483    0.3079607  78.18  0.001480729    1.910    0.477
        28 -12.6146    151.0995    150.4357   1.0268684682e+02   2.1885419012e+01     0.735752    0.4217667 -83.80  0.002011437    5.748    0.826
        29 -12.6608    144.3840    146.0968   1.0328391013e+02   2.4161349483e+01     0.580829    0.3491456 -70.42  0.002314304    2.480    0.597
        30 -10.0129    164.2888    203.6238   1.0971742550e+02   9.1797953778e+00    0.1340548   0.09970336  80.11 0.0007019267    1.728    0.421
        31 -11.4744    174.3723    148.5640   9.7218457681e+01   1.7298381550e+01    0.3560266     0.287079 -70.95  0.001081668    1.488    0.328
        32 -12.3033    135.6771    127.5511   1.0123963555e+02   2.9835070004e+01    0.5999188    0.2041296 -53.37  0.001855423    3.523    0.716
        33 -12.2094    135.0000    120.9802   9.9872534018e+01   3.1359936707e+01    0.4781632    0.2145093 -48.23  0.001818175    2.239    0.553
        34 -11.9699    160.5847    127.6666   9.5489503312e+01   2.4491151761e+01     0.423836     0.329629 -69.30  0.001354236    1.530    0.346
        35 -12.3591    119.1155    128.1340   1.0536598277e+02   3.2957882308e+01    0.4204595    0.2810464 -38.91  0.001111484    1.645    0.392
        36 -12.7860     93.2966    123.7666   1.1085808525e+02   3.8404413046e+01    0.5324506    0.3279386 -77.36  0.002383863    2.188    0.543
        37 -11.5951    107.4909    124.1305   1.0736482998e+02   3.5942009768e+01    0.2943094     0.238459 -36.90 0.0008877298    1.343    0.255
        38 -11.0184    113.5711    118.2825   1.0453320334e+02   3.6114644740e+01    0.3083391    0.2338966  68.39 0.0005230802    1.547    0.353
        39 -11.3490    168.3993    113.4218   9.0251351937e+01   2.5560596564e+01    0.4263938    0.3206148 -83.32 0.0009543608    1.828    0.453
        40 -11.5703    134.7558    106.0145   9.6240774589e+01   3.4526802337e+01    0.5476848    0.1740749 -44.76  0.001744691    3.122    0.680
        41 -10.8307    205.4328    110.1029   8.1748909290e+01   1.7423299681e+01     0.340691    0.2264009  45.84  0.001069744    1.500    0.333
        42 -11.4755    161.2629    199.9840   1.0971666923e+02   1.0383990999e+01    0.2601956    0.2293316  78.17 0.0003619357    1.209    0.173
        43 -10.5995    162.8463    235.2717   1.1468184684e+02   4.3670632780e+00    0.2061112    0.1779078 -80.18 0.0008178529    1.406    0.289
        44 -11.4663    159.5176    196.5183   1.0949076359e+02   1.1328599818e+01    0.3171657    0.2192557  38.67  0.001625872    1.381    0.276
        45 -10.9006     75.7493     86.3995   1.0707790011e+02   4.9051606944e+01    0.2172317    0.1989221  86.34 0.0008443746    1.279    0.218
        46 -10.3850    148.0354     81.2382   8.6246745650e+01   3.6450136176e+01    0.2134754    0.1970781  45.21 0.0004304304    1.071    0.066
        47 -11.5366     89.0255     78.2240   1.0103024072e+02   4.8699682152e+01    0.2939216    0.2280993  44.80  0.001248333    1.428    0.300
        48 -10.6689    114.4638     76.9127   9.3503476304e+01   4.4423711002e+01    0.4414084    0.1985134  54.56  0.001615233    2.919    0.657
        49 -10.9233    235.3011    248.4065   1.0397474809e+02  -9.6480975218e+00    0.1509073    0.1437762 -60.76  0.000269021    1.652    0.395
        50 -10.3084    168.0021    248.0181   1.1546385968e+02   1.6433987539e+00    0.2091349    0.1539651 -49.59  0.001270272    1.745    0.427
        51 -11.3162     13.9924     58.9564   1.1968199630e+02   6.0778894325e+01    0.2703497    0.1607808 -38.44  0.001770935    1.454    0.312
        52 -12.8646    176.8604     34.0716   6.6222626298e+01   3.6776036165e+01    0.4477378    0.3569508  29.15  0.001082337    1.383    0.277
