#   1 NUMBER                 Running object number                                     
#   2 MAG_AUTO               Kron-like elliptical aperture magnitude                    [mag]
#   3 X_IMAGE                Object position along x                                    [pixel]
#   4 Y_IMAGE                Object position along y                                    [pixel]
#   5 X_WORLD                Barycenter position along world x axis                     [deg]
#   6 Y_WORLD                Barycenter position along world y axis                     [deg]
#   7 A_WORLD                Profile RMS along major axis (world units)                 [deg]
#   8 B_WORLD                Profile RMS along minor axis (world units)                 [deg]
#   9 THETA_WORLD            Position angle (CCW/world-x)                               [deg]
#  10 FWHM_WORLD             FWHM assuming a gaussian core                              [deg]
#  11 ELONGATION             A_IMAGE/B_IMAGE                                           
#  12 ELLIPTICITY            1 - B_IMAGE/A_IMAGE                                       
         1 -13.0883    211.6650     54.8538   1.2299592396e+01   3.0612990316e+01    0.8024328    0.6054102 -60.94  0.003700266    1.248    0.198
         2 -13.4298    224.2712     46.3290   9.9381512377e+00   2.9853216850e+01    0.6756224    0.5496068 -76.97  0.002167799    1.359    0.264
         3 -11.6181    249.4676     25.2992   5.2641982484e+00   2.8869526580e+01    0.5546533    0.1611025 -44.79  0.003290264    2.723    0.633
         4  -9.4648    148.5267      8.0252   9.3176116830e+00   4.7502880878e+01    0.1560563   0.05986882 -60.31 0.0008090887    2.463    0.594
         5  -9.4476    194.1771      4.6345   5.1204648475e+00   3.9619767928e+01    0.1259912   0.07271483  76.19 0.0004091422    1.646    0.393
         6  -9.7537      2.2704      2.2103   5.0344487353e+01   7.5970026631e+01    0.1674021    0.1334289 -26.79 0.0008227021    1.443    0.307
         7  -9.1531    223.2710    239.9966   3.8303738951e+01  -1.0551879690e+00    0.1373331   0.06846513 -46.42 0.0008934512    1.522    0.343
         8 -10.0915     75.3443    247.8781   6.9289402361e+01   1.0014429401e+01    0.5584568     0.160424 -54.87  0.002076433    3.170    0.685
         9 -10.0567     39.4133    249.1660   7.8703181514e+01   1.3012243987e+01    0.2776586    0.1818985  37.19 0.0005744498    1.370    0.270
        10 -11.9642     42.9613    245.0846   7.7463845205e+01   1.3664213027e+01    0.4514403     0.302685 -68.40 0.0009134366    1.605    0.377
        11 -14.2885     56.8260    232.2571   7.2650254330e+01   1.5475830010e+01     6.690668     2.823951 -40.15   0.01961211    2.909    0.656
        12  -8.3649     97.0000    238.9998   6.2936899935e+01   9.9034479572e+00    0.2028064   0.07514547 -62.63 0.0005956096    2.822    0.646
        13  -9.3668    185.0220    236.1823   4.3969035588e+01   2.3729924804e+00    0.1985898    0.1318335 -43.74 0.0005239367    1.246    0.198
        14 -11.9168    132.1056    229.7585   5.3587782053e+01   8.3985491438e+00    0.6845391    0.3578012  -1.39  0.003029862    2.600    0.615
        15 -10.0087     72.7860    232.9648   6.8448423777e+01   1.3724566394e+01    0.3113801    0.2523517 -79.36  0.001015118    1.385    0.278
        16 -10.9689     45.4589    229.9162   7.5554532728e+01   1.7143901115e+01    0.6461982    0.3466411  -1.95  0.002188047    2.340    0.573
        17 -10.8782    119.7260    231.2284   5.6574837402e+01   9.3291657112e+00    0.2786541    0.1761434   7.28  0.001442987    1.669    0.401
        18 -12.3855     97.8185    222.4145   6.0765359636e+01   1.3608457581e+01     1.476559    0.7759839  53.75  0.004288321    2.685    0.628
        19 -11.2315     88.4219    221.0798   6.3011492159e+01   1.4940536687e+01     1.006257    0.4962956  58.67  0.003650446    3.369    0.703
        20 -11.3656     81.5556    221.2140   6.4832088547e+01   1.5648045193e+01     0.729762     0.337434  40.40  0.002911047    2.191    0.544
        21 -10.6383    148.3419    228.6110   4.9965093651e+01   7.0430359570e+00    0.2581629    0.1910248 -37.39  0.001588805    1.183    0.155
        22 -10.2193     90.9514    226.4956   6.3004156416e+01   1.3384376143e+01    0.4634315    0.1671801  26.28  0.001659198    2.532    0.605
        23 -10.2319    164.1592    225.8910   4.6440905573e+01   6.0820392413e+00    0.2242689     0.136991 -58.79  0.001262958    1.704    0.413
        24 -10.5393     72.1174    225.6737   6.7853335540e+01   1.5554809758e+01    0.3743331    0.2221511  31.46  0.001340285    1.572    0.364
        25  -9.6784    171.7124    225.3202   4.4932868683e+01   5.4973266486e+00    0.1746335    0.1179648 -27.58 0.0004037651    1.354    0.262
        26  -9.8622    174.9751    223.5175   4.4086241474e+01   5.5410380906e+00    0.2002324    0.1448726   3.09 0.0009020912    1.475    0.322
        27  -8.8816    118.6434    221.7926   5.5611385058e+01   1.1509404918e+01    0.1770392    0.1589137 -48.13 0.0008397445    1.117    0.105
        28 -15.1091      6.8526    143.9682   8.0096390919e+01   4.4236025771e+01     11.59827     1.660666 -76.38    0.0248012    7.180    0.861
        29  -9.5095     96.2362    211.7029   5.9810975458e+01   1.6329865860e+01    0.3680013    0.1970472 -70.21  0.001577771    2.152    0.535
        30  -8.2012    112.3023    215.2819   5.6261210327e+01   1.3673017947e+01    0.1393185   0.09649576 -24.86 0.0002774957    1.551    0.355
        31  -9.6978    211.2043    198.7617   3.4642607115e+01   6.7487700227e+00    0.1864542     0.148978 -31.10 0.0005284958    1.155    0.134
        32  -9.6784    192.0758    193.1740   3.6838787979e+01   9.5991714982e+00    0.5678889    0.2607489 -70.02    0.0015545    8.874    0.887
        33  -9.8565     73.4266    189.1727   6.3087848040e+01   2.4735956700e+01    0.4496538    0.2341772 -75.89  0.001082392    2.264    0.558
        34  -9.2753    207.7924    189.7979   3.3889539775e+01   8.6527810833e+00    0.1725468    0.1211901 -38.86 0.0008962101    1.183    0.155
        35 -14.4552     12.8270    244.7013   8.5443083819e+01   1.6288953652e+01       1.4184     1.134851 -43.44  0.004673551    1.425    0.298
        36 -15.0848      4.7731    234.5772   8.7090506266e+01   1.9399384427e+01     1.759856     0.918848 -69.34   0.00821986    1.970    0.492
        37  -9.1988     94.2585    183.4884   5.6405344361e+01   2.3568804755e+01    0.2554137    0.1753073 -77.43 0.0005990315    1.656    0.396
        38 -10.4824    116.3413    182.0476   5.0468615316e+01   2.1000009522e+01    0.2648948    0.2113094  38.59 0.0009634566    1.321    0.243
        39  -8.6080     83.5060    180.9800   5.9029894329e+01   2.5616378927e+01    0.2198199    0.1453887 -66.17 0.0006752563    1.524    0.344
        40 -15.9491      6.7878    216.9713   8.5604532615e+01   2.3796020101e+01     3.353354     2.150402  23.57   0.01655922    1.475    0.322
        41 -14.7549     10.0326    206.5152   8.4017880525e+01   2.6360785756e+01     1.301308     0.998697  -0.85  0.003399103    1.426    0.299
        42 -10.7849    179.6139    165.5895   3.4743112827e+01   1.6306211366e+01    0.4725849    0.3150822 -76.34  0.002617023    1.947    0.486
        43  -9.9408    171.8421    174.6602   3.7526648233e+01   1.5458610041e+01    0.2661179    0.2113497 -55.93 0.0009292398    1.112    0.101
        44 -11.1320    174.7249    170.4142   3.6347808250e+01   1.5956347666e+01     0.411911    0.3563233 -42.74  0.002787065    1.090    0.083
        45 -12.4100     67.0642    126.2593   5.4962573748e+01   4.2239649295e+01     1.608211     1.094198  67.90  0.007237196    1.773    0.436
        46 -10.7753     72.2987    169.4199   6.0620555450e+01   3.0136932581e+01     1.803306    0.6714799 -76.20   0.00467432    4.611    0.783
        47 -11.7779     81.4144    145.0794   5.3843516543e+01   3.5250537943e+01     1.116215    0.7909918  -2.51  0.004967486    1.991    0.498
        48 -11.7434     78.3213    136.6448   5.3264706705e+01   3.7876622615e+01    0.7028621    0.5369927  60.87  0.002050011    1.393    0.282
        49 -10.3466     73.7285    130.2378   5.3520150147e+01   4.0210107725e+01    0.3544674    0.2540765  78.16 0.0003653853    1.684    0.406
        50 -11.4385     54.3171    140.6857   6.1950077378e+01   4.0275568573e+01    0.7185581    0.4946802   4.12  0.003016434    1.790    0.441
        51 -11.6497     58.5426    161.2680   6.3747498264e+01   3.4126311123e+01    0.5601497    0.3779133 -35.03  0.001521349    1.705    0.413
        52 -11.4400     63.5988    157.4266   6.1519918855e+01   3.4517585510e+01    0.5782811    0.3565944 -36.24  0.001105075    1.927    0.481
        53 -13.7735     72.0409    148.0988   5.7287424489e+01   3.5845381949e+01     2.945954     1.477435  74.07  0.008291142    4.731    0.789
        54  -8.9988    141.9807    163.5298   4.1568097451e+01   2.1741786812e+01    0.2428082    0.1702389 -69.26 0.0006019983    1.495    0.331
        55 -11.0460    238.2413    160.7891   2.5711072651e+01   1.0636830574e+01    0.2238159    0.1779091 -69.00  0.001163497    1.362    0.266
        56  -9.5906    110.4167    166.8495   4.9506678346e+01   2.5484670319e+01    0.2515339    0.2092059  72.14 0.0003318721    1.348    0.258
        57  -9.2540     40.9566    153.7098   6.8637036426e+01   3.8333755988e+01    0.2408975    0.2079739 -82.07 0.0009700728    1.167    0.143
        58  -9.4589    124.3341    152.2559   4.3579421601e+01   2.6884589573e+01    0.3131962    0.2107518  83.90  0.001431412    2.097    0.523
        59  -8.7642    101.7407    167.0019   5.1799333820e+01   2.6690411501e+01    0.2056514    0.1745052 -57.65  0.000358044    1.129    0.115
        60 -10.6842    133.3994    144.9169   4.0199088869e+01   2.7150466823e+01     1.110169    0.3201871 -60.19  0.003241542    4.489    0.777
        61  -9.2769     88.0252    148.0817   5.2404225034e+01   3.3483744280e+01    0.2159375    0.2062026 -82.02 0.0002833687    1.009    0.009
        62 -12.9947     60.4076    145.3177   6.0628400461e+01   3.8212731029e+01     0.783608    0.5814618  -5.94  0.001158244    1.684    0.406
        63 -10.4007    108.9498    145.3855   4.6145801124e+01   3.0893828979e+01    0.3210259    0.2651896  35.14 0.0007006494    1.296    0.228
        64  -8.8625    113.2641    144.6650   4.4911935825e+01   3.0381584231e+01    0.2205977    0.1363852 -63.13 0.0005506081    1.596    0.373
        65 -10.5268     37.1497    142.8024   6.8461559221e+01   4.1798395888e+01    0.4848251    0.3031525  66.99  0.001674975    1.918    0.479
        66  -9.8033     39.5069    139.1371   6.7042668737e+01   4.2540789361e+01    0.2643832    0.2379068  48.65 0.0004586176    1.104    0.094
        67  -8.7779    100.9761    143.9599   4.8001696550e+01   3.2499154005e+01    0.2672659    0.1583118 -86.43  0.001022973    2.620    0.618
        68  -8.8803     27.3914    138.2160   7.1486997631e+01   4.4106318235e+01    0.2790425    0.2014968 -83.65  0.001316909    1.456    0.313
        69 -10.5519     97.7314    133.9833   4.7022040425e+01   3.5438547712e+01    0.5574845    0.3802255  -6.26  0.002317304    2.610    0.617
        70 -11.7334     84.3570    132.0853   5.0543755743e+01   3.8072129788e+01    0.2966089    0.2721444 -68.12 0.0004653119    1.071    0.066
        71 -10.3202    105.6223    130.7684   4.4260326306e+01   3.4893784468e+01    0.3616619    0.3111114 -86.81  0.000983514    1.157    0.136
        72  -9.4420    108.5132    126.2147   4.2611067789e+01   3.5458863399e+01    0.2785684    0.2396728  -7.15 0.0009194319    1.554    0.356
        73 -10.2517     44.2487    131.0555   6.3980224973e+01   4.4162790904e+01    0.3384685    0.3108877 -61.44  0.001077307    1.094    0.086
        74  -9.8034    136.0000    129.4663   3.6787128042e+01   3.0108813199e+01     0.383255   0.08589991 -49.94  0.001168009    4.059    0.754
        75  -9.3119    138.9191    127.3900   3.5781733031e+01   3.0068059794e+01    0.2168338      0.18021 -86.17 0.0002704001    1.191    0.160
        76  -9.5776     25.8607    128.8283   7.0751318577e+01   4.6844785861e+01    0.4862318    0.2520384  42.78  0.001988301    1.954    0.488
        77  -8.3909    219.0258    126.0141   2.2882412816e+01   1.8568709849e+01    0.1346963   0.09560449 -56.74 0.0003368467    1.037    0.036
        78  -9.9007    142.8243    122.2025   3.4004381643e+01   3.0500490312e+01    0.2430167    0.1904399 -82.84 0.0003675912    1.283    0.221
        79 -10.8398     95.0943    121.5503   4.5302904361e+01   3.8829964211e+01    0.3165933    0.2711345  15.12 0.0007675657    1.441    0.306
        80 -10.0219     87.3257    121.4387   4.7541358902e+01   4.0172476555e+01    0.3442792     0.238648  87.83  0.001078472    1.817    0.450
        81  -9.9264     41.0926    121.6604   6.3563709491e+01   4.7051143926e+01    0.3776782    0.2242847 -16.62  0.001467785    2.494    0.599
        82  -9.1335    135.3235    119.1305   3.4950229427e+01   3.2405229418e+01    0.2693485    0.1087043 -46.89  0.001079283    2.481    0.597
        83  -9.4287    115.0675    121.9583   4.0113362308e+01   3.5292561243e+01    0.2159288    0.1756473 -19.77 0.0009589118    1.722    0.419
        84  -9.4641     27.4646    117.9670   6.8412973242e+01   4.9600444427e+01      0.30309    0.2562321 -53.96  0.001254546    1.183    0.155
        85  -9.7735    105.2085    116.5765   4.1520375986e+01   3.8212837700e+01    0.3209587     0.260307 -10.54  0.001359783    1.820    0.450
        86 -11.2160    244.4881    114.5223   1.8462281857e+01   1.7341103629e+01    0.2600928    0.1729618 -85.54   0.00152099    1.788    0.441
        87  -9.5246     38.2419    116.0789   6.3688812013e+01   4.8860751912e+01     0.260623    0.2010772  35.42  0.000275878    1.255    0.203
        88  -9.8243    235.8391    113.7186   1.9194255779e+01   1.8490790297e+01    0.2062387   0.09947065 -64.47 0.0008998871    2.062    0.515
        89  -8.8072    121.1733    113.7969   3.7007898473e+01   3.5995179400e+01    0.1762442    0.1618101 -34.42 0.0002873946    1.332    0.249
        90 -11.0096     53.1110    109.2674   5.6560748395e+01   4.8575770799e+01    0.5338519    0.2936612 -56.41   0.00232148    1.826    0.452
        91 -15.2427     26.6140    178.1069   7.6455914446e+01   3.2901734711e+01     6.637683     2.754221  68.45   0.01649132    3.709    0.730
        92 -10.3669    247.1418    110.1498   1.7586724757e+01   1.7699408421e+01    0.1462216    0.0874043 -63.13 0.0009635023    1.327    0.247
        93  -9.5671    135.6606    107.8421   3.2648277330e+01   3.4651805182e+01    0.3107304    0.1962892 -65.89            0    1.562    0.360
        94  -8.8161    133.3416    103.6656   3.2277587209e+01   3.5897165669e+01    0.2348748    0.1558495  76.52 0.0008292154    1.750    0.428
        95  -9.0674     20.0836    108.5335   7.0010685639e+01   5.2816853197e+01    0.2310761    0.1659316  39.03 0.0006681281    1.388    0.280
        96 -10.8625     24.1826    104.9987   6.7598395733e+01   5.3312699236e+01     0.409689    0.3288267  36.55  0.001791825    1.225    0.183
        97 -10.2449     21.6859    101.3234   6.8051831170e+01   5.4499483801e+01     0.364078     0.191892  39.25  0.001141001    1.872    0.466
        98  -9.2776    114.3962    107.8153   3.7371144124e+01   3.8476726937e+01    0.1943204    0.1238875 -45.84 0.0009449612    1.680    0.405
        99  -9.4359     35.1373    107.4513   6.3351933428e+01   5.1448709933e+01    0.4172787    0.1680974  46.70  0.001159339    2.820    0.645
       100  -9.5977     63.5127    106.5177   5.2163671889e+01   4.7649854262e+01    0.2846444    0.1373315  35.89 0.0005637522    1.982    0.495
       101  -9.4021     42.4099    101.0318   5.9053882157e+01   5.2100468447e+01    0.2601759    0.1930515  37.14 0.0003956528    1.282    0.220
       102  -8.9397     33.2824     99.6432   6.2607763991e+01   5.3618841424e+01    0.4002317    0.0902164 -57.54  0.001226531    3.774    0.735
       103  -9.1806     85.2136     99.3821   4.3421838687e+01   4.5584992964e+01    0.2567856    0.1849408  69.20 0.0008000223    1.533    0.348
       104 -11.0853     54.4520     96.7321   5.3335920806e+01   5.1369563454e+01    0.3642586    0.2649592 -49.36  0.001056531    1.453    0.312
       105  -9.4848     46.0157     95.8434   5.6461873978e+01   5.2835445458e+01    0.2292883    0.1810804  56.50 0.0007098825    1.322    0.243
       106 -10.7162     42.4433     88.8573   5.6353734510e+01   5.4965444625e+01    0.4543541    0.2494652  65.15  0.001441501    2.984    0.665
       107  -8.7825     74.7705     88.8057   4.4228554336e+01   4.9729665302e+01    0.1918162    0.1550037  79.08 0.0004697879    1.324    0.245
       108  -8.3879    163.4814     88.4797   2.3897065892e+01   3.3357396513e+01    0.1241561   0.09992605 -74.02 0.0001111551    1.003    0.003
       109  -8.6713     90.5619     87.7719   3.9135775275e+01   4.7048794904e+01    0.1794965    0.1273494 -71.94 0.0003513615    1.537    0.349
       110 -10.6335     34.4129     87.8826   5.9608102014e+01   5.6281379330e+01    0.2776461    0.2051032  40.55 0.0003954312    1.303    0.232
       111  -8.9402     99.1422     86.6392   3.6508222204e+01   4.5653888829e+01    0.1897868    0.1595839  60.08 0.0006724502    1.126    0.112
       112  -9.2092     23.2107     86.1819   6.4390032147e+01   5.8023435018e+01    0.1885842    0.1545977  51.15  0.000491699    1.297    0.229
       113  -8.7015    137.8580     84.3301   2.7373919678e+01   3.8717278377e+01    0.1959725    0.1391644  83.08 0.0005397259    1.413    0.292
       114  -9.1749    240.6664     83.3016   1.4260501121e+01   2.2471669922e+01    0.1046348   0.05641459 -69.17 0.0005795907    1.656    0.396
       115  -8.0774     90.6886     78.2740   3.6786686127e+01   4.8896148191e+01    0.1366846   0.09816002  79.15 0.0003361184    1.554    0.357
       116  -9.7309    115.6125     75.4622   2.9903233748e+01   4.4567616412e+01    0.2744148    0.1897908 -84.41 0.0009455134    1.569    0.363
       117  -9.5906     29.9335     70.5953   5.7530901860e+01   6.0698805626e+01    0.4007901    0.3439431  36.12  0.002399054    1.099    0.090
       118  -9.2771     59.6910     69.3587   4.4498200801e+01   5.6346439641e+01    0.1403969    0.1008186  74.69 0.0007041674    1.735    0.424
       119 -12.1709    201.2621     61.7976   1.4408391873e+01   3.1263626299e+01    0.4765663    0.3995726  64.34  0.001413203    1.691    0.409
       120  -9.2900    138.1412    247.1374   5.4472468658e+01   4.3086736789e+00     0.153095    0.1404441  31.49 0.0003607766    1.306    0.234
       121  -8.5324     82.9839    245.9260   6.7168453997e+01   9.7244446612e+00    0.1537693    0.1451534 -26.53 0.0004255179    1.089    0.082
       122  -9.3094     38.8824     60.4892   5.0579710108e+01   6.1477614401e+01    0.2342585    0.1823338  59.24 0.0007030704    1.413    0.292
       123  -8.7974     60.5066     54.9948   4.0098822291e+01   5.8838445221e+01    0.1702274    0.1118968 -82.39 0.0005375114    2.357    0.576
       124  -9.8958    103.6912    237.8078   6.1169466708e+01   9.5029430007e+00    0.3065654     0.192146 -45.34 0.0008534591    1.547    0.354
       125 -11.0668      5.4027     42.6065   6.3397150821e+01   6.9097082174e+01    0.4301348    0.1618495  26.57  0.001564527    2.229    0.551
       126 -11.1425      1.8405     39.1257   6.4690787995e+01   7.0078025175e+01    0.3269165    0.2942334  83.20  0.001485273    1.460    0.315
       127  -8.7018     46.3397     50.6820   4.4352008918e+01   6.2079869429e+01    0.1323414   0.09456457  67.43 0.0004023994    1.709    0.415
       128 -11.3799     16.2815     44.8807   5.7493457057e+01   6.7505584992e+01    0.4670064    0.1720594  28.29  0.002012666    2.364    0.577
       129  -9.0537     36.9718     43.0578   4.6075817590e+01   6.4922343303e+01    0.1944663    0.1398659  62.64 0.0005355063    1.666    0.400
       130 -14.6200     40.6362    173.7674   7.1324420215e+01   3.2737207168e+01     9.426097     2.742702  28.82   0.03030015    2.941    0.660
       131 -10.5379      9.4408     28.9701   5.6412710162e+01   7.1104593236e+01    0.2619812    0.1525739  31.46 0.0006003265    1.458    0.314
       132 -10.5881      2.2724     23.1664   5.9191829406e+01   7.2846456644e+01    0.2478382    0.1774463 -51.43  0.001624767    1.637    0.389
       133  -9.5231     61.0006     21.3360   2.9027385212e+01   6.3742756401e+01    0.2362868    0.1707959  71.45 0.0008707704    1.329    0.248
       134  -9.1971    189.4989     15.0014   7.2517649350e+00   3.9270455656e+01    0.1449054   0.08021939 -50.76 0.0006708673    1.557    0.358
       135  -8.7084    125.0000    243.8691   5.6938973954e+01   6.1582441324e+00    0.1966318   0.06873531 -58.48 0.0007920666    2.871    0.652
       136  -8.7487    146.9916    242.9655   5.2101108417e+01   4.3361234769e+00    0.1717023    0.1446918  54.45 0.0005167628    1.634    0.388
