#   1 NUMBER                 Running object number                                     
#   2 MAG_AUTO               Kron-like elliptical aperture magnitude                    [mag]
#   3 X_IMAGE                Object position along x                                    [pixel]
#   4 Y_IMAGE                Object position along y                                    [pixel]
#   5 X_WORLD                Barycenter position along world x axis                     [deg]
#   6 Y_WORLD                Barycenter position along world y axis                     [deg]
#   7 A_WORLD                Profile RMS along major axis (world units)                 [deg]
#   8 B_WORLD                Profile RMS along minor axis (world units)                 [deg]
#   9 THETA_WORLD            Position angle (CCW/world-x)                               [deg]
#  10 FWHM_WORLD             FWHM assuming a gaussian core                              [deg]
#  11 ELONGATION             A_IMAGE/B_IMAGE                                           
#  12 ELLIPTICITY            1 - B_IMAGE/A_IMAGE                                       
         1 -12.2111    198.8783     37.3879   4.5572177448e+01   3.1346997003e+01     1.177536    0.9719393  14.93  0.006543757    1.563    0.360
         2 -11.9529    210.3674     25.0631   4.0997291065e+01   3.0123831507e+01    0.8669193     0.708059  24.19  0.004904241    1.629    0.386
         3  -7.4042    180.0302     11.9639   4.1009411564e+01   3.8876552152e+01    0.1514742    0.1350318  85.08            0    1.005    0.005
         4  -8.3779    236.0295     11.0389   3.5316426442e+01   2.5891551847e+01    0.1792411     0.155198 -72.44 0.0003652803    1.069    0.065
         5  -9.3381    212.1250      7.4972   3.6497409808e+01   3.1640190330e+01    0.2146147    0.1738293 -42.99 0.0006532626    1.247    0.198
         6  -9.9340    234.6481      2.2300   3.3490883843e+01   2.7119706747e+01    0.5988888    0.2195018  77.98  0.002700128    2.653    0.623
         7  -8.4448    216.0801    233.6430   8.7404846334e+01  -4.8400861615e+00    0.2032714    0.1529096 -11.79 0.0003886497    1.265    0.209
         8 -14.9229      3.4203    203.4583   1.2687953547e+02   3.0559111106e+01     1.217625     0.429479 -67.61  0.006309635    2.491    0.599
         9 -18.2609     12.0563    237.5200   1.2703484854e+02   2.3054363694e+01     2.769541     1.979222  85.25   0.02135774    1.176    0.150
        10  -8.4185     76.3331    212.9146   1.1295263064e+02   2.0492235528e+01    0.2472278    0.1750659 -59.72  0.001469891    1.537    0.349
        11  -8.5122     74.4544    209.9330   1.1303257493e+02   2.1368346849e+01    0.2472971    0.1460471 -70.58 0.0006717345    1.711    0.415
        12  -8.6808    202.8365    210.3950   8.5937971885e+01   6.1806354086e-01    0.1954248    0.1714226 -29.07 0.0004640114    1.275    0.216
        13  -9.5967    234.5229    209.3697   7.9783204872e+01  -4.1881756849e+00    0.2289016    0.1876065   4.86  0.000217603    1.052    0.049
        14  -7.9872     69.6058    208.9384   1.1395583626e+02   2.2225939280e+01    0.1976276    0.1620503  38.44 0.0006699208    1.307    0.235
        15  -9.0390    204.7332    206.3143   8.4829976937e+01   9.5571508601e-01    0.2174002    0.1833785 -62.96 0.0006216362    1.784    0.439
        16  -9.5206    123.8756    205.9557   1.0178589279e+02   1.4736561489e+01    0.2558228    0.1993764  72.09            0    1.452    0.311
        17  -8.4152     81.0041    205.8732   1.1117725157e+02   2.1321647839e+01    0.1994461    0.1672618 -88.35 0.0003457809    1.144    0.126
        18  -8.6612    193.7596    198.3545   8.5548193483e+01   4.1192635793e+00    0.3497829    0.3106477 -75.98   0.00203695    1.630    0.387
        19  -9.9591    172.0732    196.3937   8.9696224166e+01   8.2684623688e+00    0.2462717    0.2298496  38.86 0.0003394026    1.137    0.121
        20  -7.9450     90.1405    196.8003   1.0804143752e+02   2.1954921212e+01    0.2095732    0.1638237  67.14  0.001016964    1.228    0.186
        21 -15.2493     41.1088    247.6726   1.2258400729e+02   1.8124301333e+01     1.028545    0.3774653  39.91  0.005551507    2.234    0.552
        22  -9.4427    152.0207    194.9221   9.3786851831e+01   1.2112367729e+01    0.2158914    0.2029786   6.09  0.001281398    1.078    0.072
        23 -15.1781     39.1571    239.6750   1.2242848302e+02   1.9815483687e+01     1.156798    0.4490895  26.47  0.004931419    4.307    0.768
        24  -7.2034    115.4374    192.4218   1.0164207748e+02   1.8935056790e+01    0.1377294    0.1253877  59.46 7.138847e-05    1.031    0.030
        25  -8.6808     74.6387    189.8212   1.1068467466e+02   2.5713622854e+01    0.2567432     0.200379  84.35 0.0009711263    1.223    0.182
        26  -8.4984    117.9299    183.6627   9.9661639663e+01   2.0416481872e+01    0.3327644    0.2368863  18.01 0.0008670511    1.786    0.440
        27  -9.6947     61.5153    181.4576   1.1271207506e+02   2.9351556773e+01    0.4183529    0.2489851  61.12  0.001583318    1.725    0.420
        28 -15.1684     35.7153    233.7007   1.2266835245e+02   2.1328966020e+01    0.5912064    0.4687949  26.62  0.004233328    1.702    0.412
        29  -9.5690     50.4089    180.1780   1.1515210972e+02   3.0996718735e+01    0.2909749    0.2362697  70.54  0.001098396    1.109    0.099
        30  -7.2292    193.6907    181.2824   8.2257960430e+01   7.1387450443e+00     0.129392      0.11494  78.06 0.0002124137    1.566    0.361
        31  -7.9853     85.0178    180.1840   1.0697145708e+02   2.6432730760e+01    0.2795404    0.1929638 -26.43  0.001325386    2.263    0.558
        32 -10.0209     68.9315    179.1272   1.1067402561e+02   2.8928780970e+01    0.3694108    0.2968513 -29.19  0.002094902    1.694    0.410
        33  -8.6457     39.6473    181.2837   1.1772988890e+02   3.1947508729e+01    0.3072841    0.1876882 -52.08  0.001686033    1.848    0.459
        34  -8.3192     37.0107    179.0910   1.1811516929e+02   3.2729715279e+01    0.3205238    0.1433718 -44.36  0.001327946    3.468    0.712
        35  -8.4644    147.2727    179.9146   9.2143908234e+01   1.6009344096e+01    0.2537711     0.185835  48.21 0.0007989331    1.368    0.269
        36  -7.1556    109.3241    178.7099   1.0089556337e+02   2.2962492587e+01    0.1459224    0.1049242  69.24 0.0005695324    1.611    0.379
        37  -8.0372    141.3373    177.2849   9.3027438505e+01   1.7654766041e+01    0.1459884    0.1140605   0.11 0.0006008907    1.628    0.386
        38  -9.7735     73.5653    173.6006   1.0882035564e+02   2.9593447484e+01    0.4103643    0.2458957 -46.86 0.0009239746    1.900    0.474
        39  -9.8518    175.5761    172.8570   8.4390250176e+01   1.2113314867e+01    0.3806941    0.3727123  51.57 0.0009932249    1.154    0.134
        40  -9.7992    134.5379    233.1977   1.0331782611e+02   7.9211550440e+00    0.2627458    0.2053962  78.24   0.00158789    1.596    0.373
        41  -7.2991    134.7180    174.7160   9.4107027244e+01   1.9418604073e+01    0.1401157    0.1142955  -7.23 0.0001634727    1.518    0.341
        42 -10.3940    113.5546    231.4476   1.0734989804e+02   1.1469017240e+01    0.3539696    0.2448402  24.62  0.002013593    1.652    0.395
        43  -9.7070    156.9649    230.1077   9.8352390266e+01   4.8862748044e+00    0.2553797     0.209852  32.24   0.00100538    1.039    0.038
        44  -8.3515     37.0831    170.3412   1.1722396649e+02   3.4752222633e+01    0.2808637    0.1649211 -81.67  0.001207064    1.526    0.345
        45  -8.3936    100.6154    167.7571   1.0120356991e+02   2.6910050563e+01    0.3977107    0.2310625  67.58  0.001594634    2.508    0.601
        46  -7.8903    111.1904    168.0313   9.8609981657e+01   2.5084667535e+01    0.2428573    0.1676646  85.84  0.001084968    1.975    0.494
        47  -8.5237     88.8420    165.1755   1.0374427626e+02   2.9373836429e+01    0.2101689    0.1807309  79.58 0.0002557024    1.150    0.131
        48  -9.2277     82.2537    164.1907   1.0526153769e+02   3.0593560186e+01    0.2729957    0.2198305 -89.54 0.0005863049    1.245    0.197
        49  -9.7883    120.3030    231.9963   1.0604830990e+02   1.0341425859e+01     0.222395    0.1717758  16.96 0.0009519536    1.565    0.361
        50  -8.4587     68.9968    161.0734   1.0817516311e+02   3.3199486568e+01     0.206759    0.1806635  85.24 0.0003697482    1.063    0.060
        51  -8.9989     73.8706    227.1900   1.1488350538e+02   1.7951238754e+01     0.209843    0.1573484  72.13 0.0002470055    1.199    0.166
        52 -10.5387     88.9468    157.3904   1.0241342687e+02   3.1221276005e+01    0.5957058    0.4603476 -21.69  0.002072143    1.738    0.424
        53  -7.2935    171.6906    159.2908   8.2383383546e+01   1.5589770304e+01    0.1440913    0.1216899  84.61 0.0002685339    1.582    0.368
        54  -7.9744     50.1587    157.6583   1.1252833104e+02   3.6357705823e+01    0.1702332    0.1590512  60.28 0.0005301441    1.172    0.147
        55  -7.7413     31.4824    156.3815   1.1709489242e+02   3.8615583705e+01    0.1860215    0.1661869  79.02 9.404401e-05    1.124    0.110
        56  -7.5928     34.2974    154.2967   1.1615314498e+02   3.8845014001e+01    0.1719108    0.1613159  73.86 0.0004802943    1.179    0.152
        57 -10.1630     52.1824    152.4474   1.1130323239e+02   3.7391775633e+01    0.5077612     0.260293  37.76  0.001167626    2.030    0.507
        58  -8.8277     90.2770    225.8845   1.1145059212e+02   1.5944599019e+01     0.310876    0.1655369  33.74  0.001596507    1.875    0.467
        59  -7.7372     98.7585    153.3983   9.9121167910e+01   3.0619862429e+01    0.1870181    0.1426089  22.48 0.0003154641    1.543    0.352
        60  -9.2957     69.1947    152.5683   1.0682388170e+02   3.5240373973e+01    0.3596027    0.2056689 -62.72   0.00131497    1.599    0.374
        61 -11.2273     68.4942    144.6090   1.0571522408e+02   3.7288856169e+01     0.743379    0.4530813  63.94  0.003385116    2.041    0.510
        62  -8.3586     80.6126    151.7110   1.0363782220e+02   3.3850201708e+01    0.2620495    0.2036774 -39.15  0.001370277    1.449    0.310
        63  -8.0133     30.1589    151.1596   1.1684633820e+02   3.9992865112e+01    0.1736845    0.1283544  74.33   0.00028591    1.302    0.232
        64  -7.3112    110.5784    149.4761   9.5244017246e+01   2.9542011410e+01    0.1475971    0.1424382 -60.30 6.602077e-05    1.028    0.027
        65  -8.8798    133.7689    145.9022   8.8482413501e+01   2.6052709781e+01    0.4105476     0.202703 -46.08  0.001585399    2.011    0.503
        66  -7.7942    126.9451    147.3159   9.0532784823e+01   2.7043962210e+01    0.2061672    0.1903177  37.39 0.0003287602    1.097    0.088
        67  -8.3181     82.1342    142.1743   1.0151594676e+02   3.5961357045e+01    0.2418206    0.2043174  57.06 0.0004799283    1.235    0.190
        68  -9.7625     89.3956    142.7675   9.9622690385e+01   3.4703488574e+01    0.4979043    0.3264567  24.59  0.001480573    1.838    0.456
        69  -7.7378     41.9393    146.5193   1.1320465164e+02   3.9963674794e+01    0.1748166     0.131526  32.37  0.000671863    1.523    0.343
        70  -7.8304     30.9502    146.0004   1.1604142194e+02   4.1165919382e+01     0.203718    0.1314797  72.88 0.0004895775    1.620    0.383
        71  -7.6941    112.8960    145.1164   9.3734169017e+01   3.0164124494e+01    0.2207192     0.196741  79.51            0    1.205    0.170
        72  -9.3047    243.0027    143.1486   6.4829736025e+01   4.7987680043e+00     0.322238    0.1794952 -55.08  0.001336217    2.730    0.634
        73  -8.7659    105.0675    133.7896   9.3422015044e+01   3.4268464595e+01    0.2643512     0.204752 -55.62 0.0003434386    1.246    0.198
        74  -8.9867    103.3019    140.9803   9.5450268466e+01   3.2845067551e+01    0.7836671    0.3532592 -34.15  0.002345351    4.077    0.755
        75  -8.4338     98.1506    143.1844   9.7305815033e+01   3.3185006432e+01    0.2602414     0.200439  38.66 0.0003064873    1.350    0.259
        76  -9.5243      7.7185    143.3649   1.2173142242e+02   4.3661614199e+01    0.1952055    0.1440416  83.97 0.0009505623    1.183    0.155
        77  -8.4542     21.7207    142.2050   1.1801989004e+02   4.2885420840e+01     0.209576     0.158442  54.09  0.001306211    1.405    0.288
        78  -7.5400     42.6344    140.2999   1.1216320491e+02   4.1416023077e+01     0.139752   0.09089485  68.34 0.0007033689    1.729    0.422
        79  -8.2701     82.4818    137.4884   1.0052666432e+02   3.7061458740e+01    0.3832521    0.2254515  74.06  0.001275362    2.885    0.653
        80  -9.6663     10.8570    137.7910   1.2038939922e+02   4.4766661743e+01    0.2105444    0.1554311  49.21  0.001056423    1.488    0.328
        81  -8.8174     13.9086    135.4548   1.1934145891e+02   4.5108781364e+01    0.1991227    0.1466598  84.20   0.00124209    1.245    0.197
        82  -8.9537     62.6459    136.4791   1.0596398910e+02   4.0059419296e+01    0.3447003      0.21833 -61.00  0.001714973    1.405    0.288
        83  -7.5580     52.8021    137.3528   1.0889333587e+02   4.1032331047e+01    0.1649508    0.1325618   9.72  0.000186111    1.583    0.368
        84  -8.8006     35.2504    136.0673   1.1361077616e+02   4.3186950329e+01    0.2378981    0.1938421 -31.53  0.001171489    1.479    0.324
        85  -8.5419     24.2140    136.9672   1.1674930088e+02   4.3946205920e+01    0.2158196    0.1430196  50.47 0.0009136252    1.636    0.389
        86  -8.8369     68.3666    135.1446   1.0409667632e+02   3.9645283873e+01    0.3591249    0.2274204  69.88  0.001095941    2.101    0.524
        87  -8.4967    112.1448    132.2686   9.1125729527e+01   3.3356035342e+01    0.2732773    0.2303033 -52.29  0.001384213    1.148    0.129
        88  -8.6867     66.8013    130.2008   1.0363617436e+02   4.1077516463e+01    0.2468071    0.1415208  71.75 0.0009539812    2.843    0.648
        89  -7.3883    141.0652    128.0511   8.2443851511e+01   2.8623424235e+01     0.184892    0.1737985 -36.98 0.0003363839    1.041    0.040
        90  -9.2884    120.1304    128.0854   8.7964657205e+01   3.2835323819e+01    0.2317654    0.2077147  -9.66 0.0005001251    1.228    0.186
        91  -8.5084    124.9540    127.2416   8.6458329701e+01   3.2088277361e+01    0.2211304    0.2033286  42.13 0.0006163542    1.117    0.104
        92  -8.0117     89.4030    124.5632   9.5846030384e+01   3.9151704954e+01    0.2831385    0.1961239  88.17  0.000578548    2.066    0.516
        93  -7.3159    163.7525    124.3720   7.5989044330e+01   2.4553188330e+01    0.1574021    0.1223326 -69.43 0.0004121921    1.630    0.386
        94  -8.6109     10.4137    132.3217   1.1993985365e+02   4.6102892508e+01    0.2134699     0.146147 -19.20 0.0005326184    2.049    0.512
        95  -7.7121    198.1040    120.6749   6.7679959426e+01   1.7748160537e+01    0.1953894    0.1869846  19.91 0.0002885897    1.082    0.076
        96  -7.6298    197.3921    127.4843   6.9495837640e+01   1.6599953920e+01    0.1515521    0.1391169 -28.19 0.0001004097    1.026    0.026
        97  -7.9806     13.2219    121.3162   1.1790605562e+02   4.8554747865e+01    0.1720766    0.1387732 -42.18 0.0005840166    1.356    0.263
        98  -8.1294    104.0692    120.2789   9.0581958818e+01   3.7680400239e+01    0.1993932    0.1952303  65.45 0.0001847946    1.073    0.068
        99  -9.5446    111.9978    224.1804   1.0678761069e+02   1.3059788670e+01    0.3907818    0.2087489  39.06 0.0009568949    1.644    0.392
       100  -8.7689    248.5907    115.7859   5.7841859281e+01   8.3012245272e+00    0.2084333    0.1103308 -43.41 0.0009588647    1.716    0.417
       101  -8.2073     77.1986    116.1241   9.7620546707e+01   4.3092026997e+01    0.2131592    0.1804184 -38.88 0.0003469058    1.170    0.145
       102 -10.2954     72.1700    218.1175   1.1435028252e+02   1.9985969737e+01    0.7307245    0.3265705  57.36  0.003401615    2.313    0.568
       103  -8.5294     99.0443    213.6933   1.0822253266e+02   1.7079174494e+01    0.2599918    0.2071039 -26.72 0.0003565271    1.775    0.437
       104  -9.5177    109.8909    111.8533   8.6787178146e+01   3.8583676382e+01    0.3641888    0.2893982  71.82  0.001722411    1.595    0.373
       105  -7.6619     59.0496    111.5042   1.0228404350e+02   4.6673355591e+01    0.1899936    0.1416186  28.84 0.0005388964    1.517    0.341
       106  -8.1433     42.9652    110.5182   1.0720545389e+02   4.8713136745e+01     0.273514    0.1512633 -50.47 0.0006716932    1.577    0.366
       107  -7.0482    196.6210    107.2965   6.4591064721e+01   2.0600482203e+01    0.1560028    0.1195253 -77.33  0.000702284    1.755    0.430
       108  -8.4538    249.4988    106.4865   5.5604595820e+01   9.6444641413e+00    0.1378718    0.1185676 -31.83 0.0008103405    1.031    0.030
       109  -8.0255    136.1367    106.2674   7.8030102095e+01   3.4484801552e+01    0.2280296    0.1988714  42.43  0.001130023    1.174    0.149
       110  -7.8829    122.4496    105.9898   8.1654516946e+01   3.7435113170e+01    0.2143278    0.1369851 -68.97 0.0004678394    2.370    0.578
       111  -7.8731     95.2136    212.1331   1.0885209166e+02   1.7966863181e+01    0.2590637    0.1302505  47.14 0.0006590029    1.784    0.440
       112  -8.0091    215.0619    216.4917   8.4669370628e+01  -2.2570240975e+00    0.1895019    0.1121921  35.19 0.0006249375    1.555    0.357
       113  -8.0246     68.8300    103.6099   9.7364346974e+01   4.7309811681e+01    0.1928644    0.1323075  44.37  0.000889933    1.655    0.396
       114  -8.7213     36.0368     97.7867   1.0700962163e+02   5.2458005057e+01    0.2466819    0.1830497  71.08  0.001007203    1.707    0.414
       115  -7.3375     88.6656     97.2146   8.9319100724e+01   4.5775037575e+01    0.1381952    0.1136755  65.56 0.0001826139    1.513    0.339
       116  -7.3327    123.2925     96.3131   7.8693701484e+01   3.9376601338e+01    0.1572193    0.1221135  -5.03 0.0003227905    1.593    0.372
       117  -7.2503    112.7098     88.3027   7.9356777667e+01   4.3271215039e+01    0.1478995    0.1235859 -83.15 0.0003234795    1.568    0.362
       118  -7.2377     75.6602     88.2704   9.1106336926e+01   4.9897627200e+01    0.1374879    0.1143295  75.61 0.0002110988    1.605    0.377
       119  -7.4863    157.3631     81.8554   6.5775994468e+01   3.4556453304e+01    0.2234639    0.1455325 -25.25 0.0009396635    1.725    0.420
       120  -9.2093    104.0257     81.5007   7.9878811782e+01   4.6425401187e+01    0.2677523    0.2099922 -40.66 0.0003042932    1.227    0.185
       121  -7.9311    200.4733     79.2942   5.6555620978e+01   2.4699484229e+01    0.2783574    0.1441449 -30.40 0.0006799601    2.001    0.500
       122  -8.4251     85.9551     70.3181   8.2108928713e+01   5.2064264225e+01    0.2370584    0.1900004 -36.95  0.000337196    1.170    0.146
       123  -7.5339     52.5945     69.2105   9.3853182033e+01   5.7258370376e+01    0.1904271    0.1089563 -41.74 0.0003509563    1.521    0.342
       124  -7.4653    118.8911     65.8202   7.0401209488e+01   4.6384841301e+01    0.1920569    0.1760667 -69.75 0.0002652288    1.288    0.223
       125  -7.1391     77.2535     67.5984   8.4215284236e+01   5.4082944849e+01    0.1377796    0.1113187 -70.97  0.000695178    1.706    0.414
       126  -8.4912     44.8339     57.8804   9.3371897897e+01   6.0536341191e+01     0.198585    0.1715903  -7.45 0.0003285004    1.143    0.125
       127 -11.2319    189.1774     44.2167   4.8802252081e+01   3.2804686653e+01    0.5244319    0.4424575  65.77  0.001749173    1.162    0.139
       128  -7.9950    249.3156    248.3273   8.3897133293e+01  -1.1181913607e+01    0.1194543   0.06835954   4.20 -4.656323e-05    1.674    0.402
       129  -7.8199    228.8320    245.8422   8.7065739341e+01  -8.2118331560e+00    0.1448047     0.124193  18.32 0.0007843525    1.319    0.242
       130  -8.3255     39.1942     40.8461   8.9789997952e+01   6.4471376146e+01    0.1777377    0.1524459 -27.10 0.0003500308    1.137    0.121
       131  -7.0226     43.6806     22.6804   8.0132220722e+01   6.6962946314e+01    0.1308493   0.08176507  -5.55 0.0007042668    1.664    0.399
       132  -9.4282    245.3047    244.1035   8.3898988691e+01  -1.0186327330e+01    0.2025441    0.1381489  25.89 0.0002422156    1.299    0.230
       133 -10.1141    125.2598    236.6861   1.0562610296e+02   8.7501920945e+00    0.3655555    0.2145348  17.83  0.001714295    2.630    0.620
       134 -10.1384    105.2570    235.9067   1.0952756417e+02   1.1892542238e+01    0.3243325     0.165453 -50.45  0.001673138    2.378    0.579
