#   1 NUMBER                 Running object number                                     
#   2 MAG_AUTO               Kron-like elliptical aperture magnitude                    [mag]
#   3 X_IMAGE                Object position along x                                    [pixel]
#   4 Y_IMAGE                Object position along y                                    [pixel]
#   5 X_WORLD                Barycenter position along world x axis                     [deg]
#   6 Y_WORLD                Barycenter position along world y axis                     [deg]
#   7 A_WORLD                Profile RMS along major axis (world units)                 [deg]
#   8 B_WORLD                Profile RMS along minor axis (world units)                 [deg]
#   9 THETA_WORLD            Position angle (CCW/world-x)                               [deg]
#  10 FWHM_WORLD             FWHM assuming a gaussian core                              [deg]
#  11 ELONGATION             A_IMAGE/B_IMAGE                                           
#  12 ELLIPTICITY            1 - B_IMAGE/A_IMAGE                                       
         1 -14.7798    154.1345     50.7026   8.4400817612e+01   4.0573614851e+01     1.221564     1.170678 -40.48  0.003529081    1.071    0.066
         2 -14.7628    166.0117     21.1796   7.2490245085e+01   4.1399530457e+01     1.088093    0.8491161 -41.87  0.003830884    1.341    0.254
         3 -13.9613    160.6414     22.4885   7.3794473672e+01   4.2663106662e+01    0.8598554    0.4250434 -36.77  0.002669206    2.065    0.516
         4 -13.5760    189.9257     13.5367   6.6806929034e+01   3.5923878551e+01    0.5611824    0.4154214 -50.71   0.00198502    1.359    0.264
         5 -13.7066    177.2728      5.2418   6.5880600855e+01   4.0073913538e+01     1.726001    0.6127447  89.49  0.004228802    6.654    0.850
         6 -14.0439    189.9590    160.9990   1.0621798756e+02   1.1834941624e+01     1.012498    0.4516665 -43.56  0.002791294    2.403    0.584
         7 -11.5964    189.9554    250.0565   1.2121882033e+02  -1.5372059161e+00    0.3271652    0.1242084  45.36 0.0008392618    2.152    0.535
         8 -20.5933     88.8784    183.3427   1.3193200776e+02   2.6408659596e+01     13.98215     6.572775 -65.34   0.06601049    2.182    0.542
         9 -13.0653    230.4196    167.3195   9.9889036098e+01   2.7498743679e+00    0.4871132    0.2826458 -49.05  0.002260664    2.295    0.564
        10 -12.4678    151.6332    239.4213   1.2662412115e+02   6.0856534101e+00    0.3942262    0.3106932 -16.51  0.002571367    1.882    0.469
        11 -12.4151    149.6829    157.6331   1.1409542943e+02   2.0825028519e+01    0.3348711     0.265528  80.98  0.001136778    1.498    0.333
        12 -13.9608    160.2511    152.9463   1.1079047496e+02   1.9577050792e+01    0.8344045    0.5008863  47.73  0.003158629    1.583    0.368
        13 -11.0494    176.8137    154.9079   1.0763983153e+02   1.5700859518e+01    0.2446436    0.2077903  64.11 0.0005653043    1.272    0.214
        14 -12.6875    174.1346    148.6039   1.0685004239e+02   1.7468393470e+01    0.4355004    0.3425063 -61.50  0.001094457    1.483    0.326
        15 -10.6437     27.6807    228.3661   1.4766060755e+02   2.5553783557e+01    0.1150284   0.08883968  75.99 0.0002128811    1.174    0.148
        16 -10.5662     14.0095    142.0362   1.4431318945e+02   4.4426104131e+01    0.1737067    0.1341129 -86.14 0.0003293348    1.031    0.030
        17 -10.6466    207.7812    226.2318   1.1464969708e+02  -1.4612304721e+00    0.1656942    0.1219241  15.59  0.000505472    1.327    0.246
        18 -11.8972    172.6338    138.8834   1.0499821221e+02   1.9675974017e+01    0.2604479    0.2038839  36.79 0.0005203529    1.286    0.222
        19 -11.9224    207.5573    220.9517   1.1385326904e+02  -7.4078750738e-01    0.2347401    0.2058196 -25.62 0.0009560239    1.347    0.258
        20 -12.5046    147.9997    133.9187   1.0940772173e+02   2.6077986434e+01    0.2881476    0.2235059 -59.48 0.0004554754    1.378    0.274
        21 -10.4059     13.0778    137.0864   1.4407740177e+02   4.5600097080e+01     0.174604    0.1338004  87.86 0.0004269772    1.053    0.050
        22 -11.2377    211.5133    237.9274   1.1578277321e+02  -3.5048987827e+00    0.1498923    0.1139363 -27.21 0.0007120373    1.560    0.359
        23 -10.9975    217.6991    217.6382   1.1151091311e+02  -2.0102168547e+00    0.3281361    0.1617003 -44.65  0.001629681    2.727    0.633
        24 -13.4710    160.4704    128.3131   1.0521534462e+02   2.4494145573e+01    0.5229506    0.4777571 -57.78  0.001666563    1.130    0.115
        25 -10.8312     14.9789    218.4305   1.4927611795e+02   2.8686907719e+01    0.1592623   0.08662959 -85.45  0.000722467    1.537    0.349
        26 -10.7521    186.6998    236.1127   1.1987631642e+02   7.4887620933e-01    0.1579177    0.1347169  27.96 0.0003658314    1.108    0.098
        27 -10.1928     18.0625    213.5001   1.4849255585e+02   2.9291720908e+01    0.1514421   0.09995338  84.85  0.000561231    1.180    0.152
        28 -11.2600      9.7608    212.1675   1.4985380531e+02   3.0359586396e+01    0.1456392   0.09561597  80.87 0.0003518519    1.118    0.106
        29 -10.1191     17.1993    209.0134   1.4839927991e+02   3.0225512591e+01    0.1455848    0.1254299 -83.90  0.001106714    1.437    0.304
        30 -12.0295    141.0782    120.7951   1.0795654549e+02   3.0356408007e+01    0.5522304    0.2833199  63.61  0.001850399    3.038    0.671
        31 -13.1209     11.4758    206.1342   1.4925222722e+02   3.1334487948e+01    0.4402732    0.2784928  35.06  0.002753746    1.900    0.474
        32 -12.3608     40.3497    114.9955   1.3416535271e+02   4.8205295026e+01    0.3306323    0.2098619 -29.07  0.001226047    2.321    0.569
        33 -11.2006    167.7043    112.8142   9.9726187832e+01   2.5944682847e+01    0.3878489      0.28591 -86.54  0.001326125    1.913    0.477
        34 -10.4165     32.3650    204.9430   1.4541389825e+02   2.9417669767e+01    0.1553239    0.1083765  86.59 0.0004747807    1.163    0.140
        35 -10.9952    205.3784    110.1313   9.1372166158e+01   1.7527270474e+01    0.3229214    0.2247638  46.96  0.001008158    1.454    0.312
        36 -11.9312     16.5586    193.0070   1.4758578298e+02   3.3406379461e+01    0.1784164    0.1423339 -85.21 0.0006337292    1.268    0.211
        37 -12.5567    186.8743    241.9278   1.2065665529e+02  -3.3579785837e-02    0.4555762    0.1650552  43.28  0.002150973    2.171    0.539
        38 -11.6687     41.7609    101.2663   1.3140169915e+02   5.1240248095e+01    0.2280119    0.2065477 -22.60 0.0007311066    1.324    0.245
        39 -12.5876     17.9429    183.6418   1.4671897811e+02   3.5166706970e+01    0.3608831    0.1778867 -57.56  0.001573059    2.374    0.579
        40 -14.1667    238.4832    175.3835   1.0011643393e+02   9.7051142744e-02     0.633967    0.5381781  65.16  0.003798677    1.662    0.398
        41 -12.1600    140.8355     83.2778   9.7801249673e+01   3.8149806300e+01    0.4533668    0.2582616 -26.00  0.001382217    2.258    0.557
        42 -11.2864    108.9148     83.0108   1.0628029422e+02   4.5198137135e+01    0.2182736    0.2126787 -42.49 0.0003932507    1.011    0.011
        43 -13.0003    203.9786    174.7663   1.0626554623e+02   6.6804933296e+00    0.5797901    0.3671312 -60.48  0.002535782    2.584    0.613
        44 -14.8371    144.5114     65.2483   9.1295349184e+01   4.0601855990e+01     1.263704     1.223963  88.96  0.001292618    1.069    0.064
        45 -12.1048    207.6979    171.6079   1.0492687568e+02   6.4612032441e+00    0.3723062    0.2333723 -49.68 0.0008309719    1.979    0.495
        46 -13.6633    157.8043     41.8126   8.0724729381e+01   4.0936364409e+01    0.5557506    0.5408211  69.57 0.0008070417    1.017    0.017
        47 -14.0528    195.5431    173.0356   1.0755537567e+02   8.6279043753e+00      2.44435    0.5154647 -46.10  0.006126331    6.864    0.854
        48 -12.9708    192.5374    164.5012   1.0642698341e+02   1.0690148257e+01    0.3646609    0.3061704  -1.52 0.0006377679    1.301    0.231
        49 -11.6366     13.4289     59.8573   1.3268068435e+02   6.2775614901e+01    0.1990782    0.1764851 -56.39 0.0004528861    1.133    0.118
        50 -10.7286    158.3161    242.8286   1.2584522492e+02   4.5054514114e+00    0.1669088    0.1401794 -26.62  0.000328509    1.595    0.373
        51 -12.7728      6.1780     25.3130   1.2632072274e+02   7.0097606938e+01    0.3458245    0.1946376  -6.11  0.001986746    2.077    0.518
        52  -9.8426     45.2089    246.4048   1.4579489941e+02   2.0421253397e+01   0.08732995    0.0705104 -72.31 0.0004092141    1.636    0.389
        53 -10.2909      3.2499    246.0300   1.5230385062e+02   2.5021092478e+01    0.1484052    0.1091502  31.68 0.0007881302    2.085    0.520
