#   1 NUMBER                 Running object number                                     
#   2 MAG_AUTO               Kron-like elliptical aperture magnitude                    [mag]
#   3 X_IMAGE                Object position along x                                    [pixel]
#   4 Y_IMAGE                Object position along y                                    [pixel]
#   5 X_WORLD                Barycenter position along world x axis                     [deg]
#   6 Y_WORLD                Barycenter position along world y axis                     [deg]
#   7 A_WORLD                Profile RMS along major axis (world units)                 [deg]
#   8 B_WORLD                Profile RMS along minor axis (world units)                 [deg]
#   9 THETA_WORLD            Position angle (CCW/world-x)                               [deg]
#  10 FWHM_WORLD             FWHM assuming a gaussian core                              [deg]
#  11 ELONGATION             A_IMAGE/B_IMAGE                                           
#  12 ELLIPTICITY            1 - B_IMAGE/A_IMAGE                                       
         1  -8.4655     55.7826     10.0111   4.1412795994e+01   6.5573577248e+01    0.1736302    0.1513246  71.24  0.000744316    1.335    0.251
         2  -7.7954     47.6162      9.8376   4.4370865015e+01   6.7218017419e+01     0.142423    0.1142587 -42.31 0.0004830271    1.667    0.400
         3  -8.1766     90.9850      8.9945   3.1425946750e+01   5.8080516992e+01    0.1865283    0.1319086 -81.55 0.0006102933    1.647    0.393
         4  -8.1072      6.4607      7.9938   6.5817277739e+01   7.4111765077e+01    0.1257687    0.1092316 -81.92  0.000463293    2.437    0.590
         5  -7.6871    101.3519      7.7198   2.8985201293e+01   5.5870269697e+01     0.122692   0.08127958 -84.36  0.000648194    1.650    0.394
         6  -8.2014     70.4744      6.0085   3.5275111485e+01   6.2850216565e+01    0.1493971    0.1226877 -26.63 0.0005975523    1.542    0.352
         7  -8.5901     33.2796      4.6221   4.8170186062e+01   7.0423157853e+01    0.2222762       0.1757 -61.26  0.001401393    2.190    0.543
         8  -8.3593     79.4270      3.8499   3.2220724114e+01   6.1079557105e+01    0.1905067    0.1138011 -34.58  0.001117316    2.074    0.518
         9  -7.8804     44.6062      2.7951   4.2389237454e+01   6.8472265526e+01    0.1387669    0.1117781 -40.42 0.0005272953    1.676    0.403
        10  -7.6942    115.6184      2.3007   2.5073599326e+01   5.3132226120e+01    0.1252218   0.07532226 -78.65 0.0007022306    1.773    0.436
        11  -7.9112     62.5164      1.4089   3.5710220171e+01   6.4933108698e+01    0.1218986   0.09368028  56.95 0.0001370482    1.058    0.055
        12  -7.4772     39.3260      1.6549   4.4010143000e+01   6.9590905531e+01     0.109127   0.09008461  80.04 0.0001565916    1.744    0.426
        13  -8.7372    201.8956    243.0622   6.0290519124e+01  -2.4784332617e+00    0.2496153    0.1539973 -50.63 0.0008894867    2.010    0.503
        14  -8.7652    248.2341    249.3910   5.3315979103e+01  -7.2969062248e+00    0.3139544    0.1169601 -26.78  0.001666131    2.438    0.590
        15  -9.9461    248.6841    241.8136   5.2163374763e+01  -6.2706302923e+00    0.4214277    0.1717791 -43.98  0.001592502    2.155    0.536
        16  -8.9158    247.9733    234.2964   5.1181656716e+01  -5.1427843882e+00    0.2012675    0.1174798 -35.91 0.0007720163    1.313    0.239
        17  -9.5626    246.7010    228.3771   5.0504987415e+01  -4.1792496202e+00    0.4558812    0.1603498 -43.43  0.001797456    2.294    0.564
        18  -9.1189    232.8303    247.2576   5.5468836461e+01  -5.8183690228e+00    0.3420639    0.1984492 -50.12  0.002090104    2.254    0.556
        19  -8.3476    191.9113    249.7217   6.3181504875e+01  -2.5988975624e+00    0.1814476    0.1646139 -80.25  0.000844004    2.077    0.519
        20  -7.8711     30.0000    249.9887   1.0152111127e+02   1.5067901171e+01    0.1924301   0.07390525 -74.41 0.0007987409    2.917    0.657
        21  -9.0441     78.0510    243.0252   8.8661491040e+01   1.1479937570e+01    0.3662586    0.1840262  56.57  0.001450885    2.923    0.658
        22  -8.9124    169.1864    242.9971   6.6809345762e+01   8.5134777886e-01    0.2132791    0.1931737 -10.11 0.0007759109    1.271    0.213
        23  -8.1351     50.0000    243.0234   9.5923329323e+01   1.4599756887e+01    0.2057122   0.07826135 -69.71 0.0008078896    2.980    0.664
        24  -8.9802    194.1869    239.9622   6.1290956815e+01  -1.2245229653e+00    0.3403421    0.1585498 -48.41  0.001209857    2.281    0.562
        25  -7.9882    153.5075    241.9980   7.0076158836e+01   2.7680566516e+00     0.151584    0.1208688 -89.05 0.0008079178    2.374    0.579
        26  -7.9752     88.3503    242.1539   8.5908693651e+01   1.0461848216e+01    0.1744925     0.134058 -82.74 0.0006101839    1.724    0.420
        27  -9.1489    241.5710    238.3746   5.2767708364e+01  -5.2255386129e+00    0.4738306     0.138359 -32.28  0.002125662    3.144    0.682
        28  -8.4895    214.3156    240.9971   5.7717004730e+01  -3.3015778547e+00    0.1676967    0.1208229 -25.11 0.0008239353    1.106    0.096
        29  -9.1285    183.0348    239.8245   6.3470728143e+01  -6.5882189537e-02    0.2974955    0.2225064  49.49   0.00172149    2.253    0.556
        30  -9.2454    159.9165    239.8431   6.8340201512e+01   2.4395922819e+00    0.2862812     0.222485 -66.17 0.0009749243    1.980    0.495
        31  -8.4318    209.1277    238.2206   5.8232012453e+01  -2.3860761327e+00    0.1850315     0.148774 -59.31 0.0006447012    2.026    0.506
        32  -8.9255    120.0089    245.2678   7.8367442849e+01   6.0445101476e+00    0.3076043    0.2230671  61.63  0.001432042    2.129    0.530
        33  -9.0553    135.6106    238.5345   7.3692405780e+01   5.5170476580e+00    0.1924826    0.1713013  85.20 0.0006949918    1.682    0.405
        34  -7.9798     40.7516    239.0360   9.7980219718e+01   1.6462550580e+01    0.1637358    0.1161617 -76.51 0.0007126541    1.570    0.363
        35  -9.4222    231.2431    236.9467   5.4218748794e+01  -4.1646058032e+00    0.2386029    0.2097138  76.93  0.001623496    2.652    0.623
        36  -9.2312    210.8796    246.1082   5.9090348862e+01  -3.7865654350e+00    0.2379496    0.1454185 -48.72 0.0008625074    1.955    0.488
        37  -7.8797    189.6218    237.2283   6.1766280629e+01  -3.0520462410e-01    0.1707194   0.09429786 -33.92 0.0004708101    1.562    0.360
        38  -8.7912     13.5122    237.5470   1.0484311210e+02   1.9367644972e+01    0.2543199   0.08044622  33.69  0.001033485    2.413    0.586
        39  -9.9200    214.8477    232.9411   5.6409932470e+01  -2.0816861006e+00    0.4467716     0.350832 -89.27  0.002359175    3.807    0.737
        40  -8.8319    203.1571    234.5952   5.8778082404e+01  -1.2265196261e+00    0.2553487    0.1792635 -57.99 0.0009796376    2.190    0.543
        41  -9.6764    175.6998    233.1867   6.3961856685e+01   1.8815949998e+00    0.4616545    0.2435881 -56.87  0.002158955    2.690    0.628
        42  -8.0488    170.4065    235.5181   6.5428667853e+01   2.0502031372e+00    0.1280553    0.1051052 -10.48 0.0001794887    1.042    0.040
        43  -9.0422    109.3065    234.4374   7.9575085979e+01   9.5703707667e+00    0.4592231    0.2396436  47.23  0.001934631    2.436    0.590
        44  -8.6070     99.7703    234.4370   8.2014798715e+01   1.0749006037e+01    0.3032282    0.1999227  86.93  0.001347062    2.620    0.618
        45  -9.7405      8.1763    234.4816   1.0600755863e+02   2.0524275239e+01    0.2355665    0.1769104 -86.58  0.001393127    1.365    0.267
        46  -8.2229    122.9334    233.9587   7.6101398780e+01   7.9818598077e+00    0.2120873    0.1616133  54.51 0.0009217153    1.769    0.435
        47  -8.6324     78.4319    233.7504   8.7517783130e+01   1.3491015050e+01    0.2433791    0.1454785 -73.81  0.001072336    2.144    0.534
        48  -8.4324    194.3479    232.2867   6.0090277388e+01   4.5189293271e-02    0.1972512      0.13992 -44.39 0.0006782346    1.504    0.335
        49  -8.2286    145.0260    233.1706   7.0702705477e+01   5.4365317718e+00    0.2133535    0.1392862  45.92 0.0009656622    2.040    0.510
        50  -9.1111     68.1992    231.8984   9.0036509817e+01   1.5114888351e+01    0.4732254      0.24062  59.28  0.001845288    2.855    0.650
        51  -8.5867    132.3909    232.2705   7.3554644103e+01   7.1573634918e+00    0.1704401     0.134601 -62.98 0.0004465142    1.642    0.391
        52  -8.3298     92.9093    232.1054   8.3499824796e+01   1.2105267874e+01    0.2516004    0.1397791  48.34  0.001090427    2.131    0.531
        53  -9.2693    236.1504    230.0467   5.2395406749e+01  -3.5446054816e+00    0.3899893    0.1384537 -39.86  0.001960453    2.155    0.536
        54  -8.8506      1.8101    230.5097   1.0739447198e+02   2.1958026416e+01    0.2590161    0.1409858  68.96  0.001287352    1.857    0.462
        55 -10.0239    149.6743    226.0845   6.8553461482e+01   6.2593823060e+00    0.6037703    0.4092174 -87.79   0.00244569    3.877    0.742
        56  -8.3878    139.9805    229.9647   7.1402863818e+01   6.6844998296e+00     0.198281    0.1604763  49.65 0.0005512699    1.639    0.390
        57  -8.8618    229.9363    228.7161   5.3201157140e+01  -2.7994031668e+00    0.1922041    0.1259197 -45.88  0.001111668    1.632    0.387
        58  -9.4924      8.6000    228.0036   1.0553578853e+02   2.2006686777e+01    0.3094949    0.1448006  76.63  0.001342842    2.450    0.592
        59  -8.7845    128.1147    227.2226   7.3851662078e+01   8.7286024594e+00     0.305642    0.2180433  58.85  0.001491794    2.130    0.530
        60  -8.0643    120.1889    227.7419   7.5893860679e+01   9.6258699189e+00    0.2157957    0.1366808  58.81 0.0007250904    2.604    0.616
        61  -8.1565    223.5246    226.8392   5.3982525229e+01  -1.9245336773e+00     0.287425   0.08092498 -40.80  0.001146805    2.774    0.640
        62  -9.4283    225.7390    221.6602   5.2817099314e+01  -1.3130235321e+00    0.2449764    0.2260994  24.84  0.001628094    1.597    0.374
        63  -8.4139     49.6058    226.4347   9.4500245468e+01   1.8482233981e+01    0.3348738    0.1726976  82.52  0.001306849    2.941    0.660
        64  -8.4142    200.1394    226.1141   5.8031420177e+01   4.9154006462e-01    0.1526442    0.1317116 -31.63 0.0005172064    1.305    0.234
        65  -7.9303     38.5823    224.8169   9.7352678387e+01   2.0024516875e+01    0.1885018    0.1269988  80.70 0.0008277493    1.708    0.415
        66  -8.9117    216.5205    223.1143   5.4607120245e+01  -6.6175600415e-01    0.2475703    0.1735852 -51.38 0.0009384484    1.772    0.436
        67  -8.8256    180.3770    224.1380   6.1586769678e+01   2.9841992834e+00    0.2411724    0.1756486  31.99 0.0008711498    1.564    0.361
        68  -8.8611    104.7817    223.5503   7.9244237081e+01   1.2511748364e+01    0.3330618    0.2482105  79.03  0.001599791    2.028    0.507
        69  -8.6257     93.6324    223.7253   8.2217702741e+01   1.3898122820e+01    0.2656305    0.1994879  63.01 0.0009504913    1.723    0.420
        70  -8.6000    162.2530    227.7096   6.5983781657e+01   4.4263428908e+00    0.2805156    0.2125342  49.91  0.001551909    1.939    0.484
        71  -7.5801    233.4970    223.4931   5.1831943906e+01  -2.3127588603e+00    0.1142419   0.08361743 -23.74 2.416536e-05    1.012    0.012
        72  -8.5520    173.0681    222.8513   6.2896564352e+01   4.0621945682e+00    0.2130634    0.1624796 -55.80 0.0007052909    1.676    0.403
        73  -8.2536    140.1549    222.8378   7.0275836898e+01   8.1028241865e+00    0.1980998    0.1807221  23.24 0.0006620279    1.225    0.184
        74  -9.3501    186.4972    230.5097   6.1352449737e+01   1.1773769714e+00    0.3194206     0.257547 -75.75  0.001465407    2.328    0.570
        75  -9.4046    239.0496    220.8177   5.0548823068e+01  -2.3969243314e+00    0.3297351    0.1362672 -38.53  0.001838513    1.835    0.455
        76  -9.3398    192.3622    221.1105   5.8723378898e+01   2.1850155632e+00    0.2934838    0.2261759 -56.20  0.001146031    1.744    0.427
        77  -8.1574    162.9833    222.4933   6.5004296759e+01   5.3306676146e+00    0.2001862    0.1589777  52.07  0.001121559    1.851    0.460
        78  -8.8495    159.0099    220.4985   6.5564314675e+01   6.2015372974e+00    0.2791011    0.1991132  49.34  0.001153009    2.006    0.501
        79  -9.2173    120.5910    219.1713   7.4526151290e+01   1.1414975442e+01    0.4909054    0.2580397  52.65  0.001844671    3.152    0.683
        80  -8.0517     27.5221    220.9558   1.0004205936e+02   2.2043613900e+01    0.2018723     0.132753 -72.16  0.001026928    1.589    0.371
        81  -8.2928    202.6699    220.0507   5.6606192352e+01   1.2569991438e+00    0.1752903    0.1275377 -30.39  0.000466022    1.139    0.122
        82  -8.3731     82.6295    220.2881   8.4743388428e+01   1.6080509660e+01    0.2316694    0.1573827  55.93  0.001087184    1.774    0.436
        83  -7.8382     72.6487    219.8744   8.7440229278e+01   1.7408247159e+01    0.1935907    0.1389268 -84.51 0.0006001602    1.751    0.429
        84  -8.6376    206.1215    225.6222   5.6848459757e+01  -3.9179562906e-02    0.2845805    0.1516201 -51.13  0.001252411    2.184    0.542
        85  -8.5662    210.2156    219.1609   5.5097021481e+01   6.2088696597e-01    0.1847353     0.163864   6.57 0.0007214827    1.328    0.247
        86  -8.5851    249.1186    218.0731   4.8609542029e+01  -2.8564826563e+00    0.1880414      0.14563  51.97  0.001294258    2.571    0.611
        87  -9.3832    133.0088    215.9033   7.0920102175e+01   1.0476035427e+01    0.5154443    0.3349602  66.19  0.002093977    3.161    0.684
        88  -8.8641     51.6517    217.1806   9.3001068266e+01   2.0501249424e+01    0.2854448    0.1811155  88.18 0.0008664856    1.974    0.493
        89  -8.7953    169.3584    215.9476   6.2573119909e+01   5.8055005676e+00    0.2828429    0.2200644 -75.36  0.001041546    2.173    0.540
        90  -8.4186    142.9753    216.5226   6.8614039806e+01   9.0358631803e+00     0.267983     0.215761  81.22  0.001120001    2.052    0.513
        91  -8.1602     61.7972    216.9645   9.0125041463e+01   1.9401993517e+01    0.2389492    0.1521627  65.27 0.0008102712    1.990    0.497
        92  -9.0017    243.4511    215.4689   4.9062673741e+01  -1.9715638775e+00    0.1572291   0.08620881 -46.39 0.0007228057    1.729    0.422
        93  -8.6496    232.1691    214.5570   5.0673384795e+01  -7.9640266804e-01    0.2082534    0.1559504 -53.25 0.0007928128    1.757    0.431
        94  -8.1454    154.2501    214.4409   6.5660052982e+01   7.9987169286e+00    0.2124292    0.1716429 -72.20  0.000810498    1.818    0.450
        95  -8.1334     41.2140    214.4733   9.5670572892e+01   2.2290535093e+01    0.2845137    0.1133924 -87.91 0.0008793926    4.251    0.765
        96  -7.7989     18.4850    215.5301   1.0209921277e+02   2.4198055823e+01    0.1349362     0.125236  48.86 0.0008097092    1.009    0.009
        97  -9.4418    214.0902    212.1048   5.3295918192e+01   1.3999558219e+00    0.2997701     0.275479  66.76  0.001691466    1.833    0.454
        98  -8.3831    185.5052    213.8249   5.8895239334e+01   4.2669093294e+00    0.2436066     0.170149 -46.04  0.001308715    1.459    0.315
        99  -8.8623     92.9764    213.7329   8.1025585926e+01   1.6296724016e+01    0.4169415    0.1934049  48.29  0.001522482    2.768    0.639
       100  -9.2529     73.5089    211.8910   8.6204680417e+01   1.9230909208e+01    0.8072553    0.2795548  48.92  0.002311985    4.412    0.773
       101  -8.0112    224.9622    212.2199   5.1476130977e+01   2.7464385256e-01    0.1513828    0.1143575 -49.75 0.0005498861    1.579    0.367
       102  -9.0939    204.3513    210.8675   5.4827084295e+01   2.6539343672e+00    0.2526646    0.1989008 -50.96 0.0007475783    1.532    0.347
       103  -9.4841    175.5455    209.9398   6.0282371086e+01   6.1879616176e+00    0.3803054    0.2874971  68.13  0.001682017    2.576    0.612
       104  -8.5481    161.6889    212.0512   6.3601770483e+01   7.5207996828e+00    0.2237559    0.2006695 -29.90  0.001064445    1.180    0.153
       105  -8.0122    106.4764    212.5124   7.7197992567e+01   1.4785183315e+01    0.1464344    0.1334431  17.74 0.0001237266    1.069    0.065
       106  -8.2095    192.2882    210.3968   5.7007024395e+01   4.0982998782e+00     0.192741    0.1478165 -58.05 0.0006557488    1.734    0.423
       107  -8.7359    148.0766    210.2458   6.6396820300e+01   9.6596297970e+00     0.295907    0.2334124  74.60  0.001372453    2.132    0.531
       108  -8.8130    116.3621    210.3437   7.4260120842e+01   1.3937210064e+01    0.3595358    0.2294888  56.99  0.001065878    2.320    0.569
       109  -9.0740      6.7311    209.1851   1.0489078926e+02   2.6743965397e+01    0.5198646    0.1758096  66.12  0.001629057    4.335    0.769
       110  -8.4264     85.1674    209.2032   8.2556889027e+01   1.8398749059e+01    0.2639166    0.1857302  73.17  0.001193403    1.991    0.498
       111  -8.2749     46.3624    209.3460   9.3683412816e+01   2.3031174167e+01    0.2944004     0.164795  56.81  0.001247882    2.065    0.516
       112  -9.4352    236.5450    207.4782   4.8888104055e+01  -9.6234642146e-02    0.3962912    0.1864818 -45.67  0.001936491    1.852    0.460
       113  -7.9684     31.6959    209.3491   9.7895836866e+01   2.4533607443e+01     0.153875   0.09494627  56.17 0.0007040938    1.698    0.411
       114  -9.9386    246.4691    207.1093   4.7339196302e+01  -9.6648972630e-01    0.2508672    0.1505993 -38.26  0.000748643    1.270    0.212
       115  -9.4816    250.1022    201.2668   4.5920196353e+01  -4.0576628989e-01    0.4401247    0.1458064 -46.44  0.002147313    2.578    0.612
       116  -9.5164    245.5650    193.2534   4.5327502594e+01   1.2647671481e+00    0.2497918    0.1929949 -64.38  0.001067754    1.978    0.495
       117  -8.0609    126.4273    208.2402   7.1340332554e+01   1.3024780752e+01    0.1859129    0.1428995 -66.20 0.0005636531    1.637    0.389
       118  -9.0746     99.4285    205.9879   7.8125264239e+01   1.7262491819e+01    0.3796335    0.2553043  70.10  0.001178983    2.339    0.572
       119  -9.3010    194.9048    203.3605   5.5345398818e+01   5.0607771588e+00    0.3373376    0.2628097 -45.63  0.001162042    1.344    0.256
       120  -9.2955    192.3153    197.2468   5.4809320007e+01   6.4895285479e+00    0.3541332    0.2538826 -55.42   0.00129909    1.658    0.397
       121  -9.1311    183.9301    203.9678   5.7578070731e+01   6.2776386812e+00    0.3100048     0.244875  58.47   0.00147877    2.029    0.507
       122  -8.1455    109.1903    205.1908   7.5351161884e+01   1.6104198294e+01    0.1964009    0.1713527  55.47 0.0005186146    1.358    0.264
       123  -8.1023     56.0727    205.0393   9.0381277224e+01   2.3035663638e+01    0.2437026    0.1615084  58.49   0.00111371    1.725    0.420
       124  -9.5961    163.8129    202.8417   6.1594470067e+01   9.0730513425e+00    0.3972738    0.2478992  45.19  0.001177314    2.066    0.516
       125  -8.6782    131.1426    203.6623   6.9404839006e+01   1.3378163644e+01    0.2790391    0.2263968  72.90  0.001219134    1.811    0.448
       126  -8.9797    243.2670    200.5900   4.6804059443e+01   3.4077704043e-01    0.2686312    0.1370189 -48.20   0.00102597    1.852    0.460
       127  -8.4989    210.8937    201.5479   5.2144354557e+01   3.5394426959e+00    0.2261385    0.1460375 -55.18 0.0007457064    1.911    0.477
       128  -8.8761    140.6244    201.0547   6.6633380117e+01   1.2615273919e+01    0.3270709    0.2539692  67.26  0.001301944    1.976    0.494
       129  -8.4995     80.3272    201.3566   8.2831494795e+01   2.0956111938e+01    0.3454933    0.1976578  57.99  0.001240666    2.433    0.589
       130  -8.3705     48.4434    201.9362   9.2267518372e+01   2.4691274675e+01    0.2081893    0.1169003  72.56 0.0008072929    2.490    0.598
       131  -8.1027    222.0290    201.0890   5.0186295306e+01   2.4042967512e+00    0.1666665    0.1342411 -58.30  0.000680864    1.687    0.407
       132  -9.3692    149.7605    198.6258   6.4048275048e+01   1.1851809536e+01    0.4170655    0.3137581  78.42   0.00139574    2.401    0.584
       133  -8.7495    124.0808    199.0638   7.0433998620e+01   1.5405751776e+01    0.3247546    0.2503307  83.21  0.001069275    2.009    0.502
       134  -9.1948    113.0521    198.3794   7.3223024283e+01   1.7145182115e+01    0.4732217    0.2883593  60.83  0.001844177    2.739    0.635
       135  -9.0059    237.1158    198.3186   4.7365578076e+01   1.3010259969e+00    0.2482396    0.1312128 -45.88  0.001029668    1.647    0.393
       136  -8.6126    177.1430    198.9207   5.8096409757e+01   8.0946031005e+00    0.2224762    0.2088388 -43.86  0.001094535    1.290    0.225
       137  -8.9960     88.7165    198.4185   7.9987853150e+01   2.0557564263e+01    0.3591117    0.2610401  69.55  0.001364741    1.860    0.462
       138  -8.4856    202.5007    197.6741   5.2991800245e+01   5.1819822807e+00      0.20848      0.18963  82.10  0.001238326    1.729    0.422
       139  -8.9171     61.4334    196.9148   8.7787838110e+01   2.4477215224e+01    0.4994101    0.2554558  58.37  0.001817079    2.754    0.637
       140  -8.5599     12.7749    197.4353   1.0235954613e+02   2.9265993617e+01    0.3391134    0.1651053  73.54  0.001364799    2.470    0.595
       141  -8.8273    216.0606    195.4840   5.0264637744e+01   4.0021046222e+00    0.2586968    0.1750042 -59.12  0.001276481    2.012    0.503
       142  -8.9930    185.3078    194.7415   5.5737450528e+01   7.8390400056e+00    0.2596122    0.2041977 -57.50 0.0006654243    1.552    0.356
       143  -8.4292    133.0292    195.7586   6.7597836716e+01   1.4856539020e+01    0.2404342    0.1927975 -70.99  0.000659265    1.619    0.383
       144  -7.8233     36.3243    196.6450   9.5307782662e+01   2.7345783490e+01    0.1605971    0.0990819  56.35 0.0007046284    1.766    0.434
       145  -8.6575    224.5939    194.0723   4.8633997466e+01   3.2983975325e+00    0.2578348    0.1503128 -55.67  0.001407894    2.165    0.538
       146  -8.9395    160.7879    194.1282   6.0758507982e+01   1.1245778702e+01     0.286083    0.2429234  75.44   0.00118829    1.771    0.435
       147  -9.0414     43.9397    193.3960   9.2646825425e+01   2.7402232203e+01    0.4948641     0.240675  56.42  0.001837049    2.614    0.617
       148  -7.9076    231.1360    194.1631   4.7618741371e+01   2.5847473479e+00    0.1491625    0.1204974 -45.68 0.0004904629    1.339    0.253
       149  -8.6751     76.9857    193.6053   8.2690803069e+01   2.3344876441e+01    0.2610495    0.2143436  79.91 0.0005641266    1.472    0.321
       150  -8.5377    172.4665    191.7834   5.7830070048e+01   1.0109205126e+01    0.2336573    0.2138348  80.43  0.001009488    1.545    0.353
       151  -9.1156    139.5874    190.6272   6.5080727475e+01   1.5031284571e+01     0.347389    0.2607797  66.02  0.001240214    2.030    0.507
       152  -9.8093    129.0113    190.1204   6.7634495410e+01   1.6711486755e+01    0.4732361     0.259692 -48.07  0.001061883    1.789    0.441
       153  -8.2519    138.9681    207.6471   6.8135939665e+01   1.1432331550e+01    0.2586018    0.1979787 -76.97  0.001289406    1.959    0.490
       154  -7.9384    205.4590    191.5391   5.1432628286e+01   5.9212448231e+00    0.1234903    0.1030208 -29.90 0.0008069428    1.071    0.066
       155  -8.1553    198.8505    191.3511   5.2587660522e+01   6.7601629175e+00    0.1736048    0.1396604 -40.83 0.0005856428    1.192    0.161
       156 -10.3039     92.5840    188.7663   7.7364431016e+01   2.2406846426e+01     1.092125    0.2968009  39.90  0.003073369    3.703    0.730
       157  -8.6456    148.7773    189.3003   6.2644988823e+01   1.3969934813e+01    0.2486872     0.194558 -79.22  0.001241647    1.901    0.474
       158  -8.4441    237.2955    188.2453   4.5738270852e+01   2.8990518399e+00    0.1994688    0.1063773 -40.03 0.0005979314    1.442    0.306
       159  -8.8571     34.2019    187.8999   9.5027022926e+01   2.9863580511e+01    0.3639245    0.2037876  68.78  0.001470973    2.279    0.561
       160  -8.8571    216.5406    187.6638   4.8888903974e+01   5.2897145902e+00     0.218674    0.1779411 -51.30 0.0008947852    1.389    0.280
       161  -8.8725    191.4670    187.1250   5.3231929354e+01   8.4747855683e+00    0.2697326    0.1949968 -63.85 0.0009048827    1.906    0.475
       162  -9.3763    155.9457    187.1792   6.0612751277e+01   1.3373752421e+01    0.3478054     0.221476 -57.64 0.0009398624    1.824    0.452
       163  -9.4825    120.6256    186.0179   6.9094917031e+01   1.8914685127e+01    0.4960784    0.3083516 -74.94  0.001968645    2.601    0.616
       164  -9.1042     54.6981    186.5435   8.8483064820e+01   2.7990464097e+01    0.4772395    0.2676059  67.28  0.001741261    2.599    0.615
       165  -8.9864    249.3377    185.5972   4.3601108268e+01   2.0869947095e+00    0.2451435    0.1499323 -53.11  0.001555981    1.787    0.440
       166  -8.1749    230.4892    187.0533   4.6569763761e+01   3.8211792421e+00    0.1787456   0.09265429 -43.33 0.0007698626    1.553    0.356
       167  -8.7206    164.9642    186.4861   5.8489411331e+01   1.2217869768e+01    0.2439799    0.1899799 -62.05 0.0007201274    1.583    0.368
       168  -9.1492    109.6425    186.0109   7.2067769874e+01   2.0574352805e+01    0.4013232    0.2716866  64.23  0.001199053    2.215    0.549
       169  -8.6144    202.7446    184.3954   5.0695778066e+01   7.5346999194e+00    0.2147078    0.1791402 -59.82 0.0006625916    1.491    0.329
       170  -8.6663    183.0277    184.7123   5.4437289669e+01   1.0053263707e+01     0.251162    0.2038012 -59.41 0.0009468588    1.485    0.327
       171  -9.1622     66.7547    184.4747   8.4451774952e+01   2.7040632656e+01    0.4613999    0.2665732  50.57  0.001256561    1.990    0.498
       172  -8.6770    210.1236    184.0748   4.9360397541e+01   6.6790550504e+00    0.1872959    0.1504052 -33.75 0.0005614167    1.050    0.047
       173  -8.9563    174.3336    183.6047   5.5992315270e+01   1.1470301488e+01     0.251902    0.2171365  88.98 0.0007819437    1.704    0.413
       174  -8.2684    242.9995    183.4734   4.4151311134e+01   3.0675901135e+00    0.1250045   0.09835543  71.55 0.0007041764    2.436    0.589
       175  -8.5155    223.9789    183.0450   4.6921754668e+01   5.2184026088e+00    0.2131267    0.1333601 -45.83 0.0007218007    1.399    0.285
       176  -8.0710    197.1787    183.2270   5.1493671597e+01   8.4571458175e+00    0.1658042     0.140433 -54.45 0.0004806892    1.363    0.266
       177  -9.0214     44.5784    182.2760   9.1113137569e+01   3.0281031884e+01    0.4376724    0.2267109  55.77  0.001013746    2.400    0.583
       178  -7.9471      1.8553    183.5889   1.0456826461e+02   3.3685674892e+01    0.2028699    0.1114936  34.11 0.0009409072    1.749    0.428
       179  -7.5537    235.2867    181.6393   4.4970845428e+01   4.1857834171e+00    0.1079948   0.08179861 -59.72 0.0007022676    1.685    0.407
       180  -9.1792    147.5303    180.3728   6.1321623267e+01   1.6077092426e+01    0.3099593    0.2648847  83.90  0.001052352    1.630    0.387
       181  -9.3910     25.6455    178.6297   9.6729414447e+01   3.3157244739e+01    0.7728021    0.3250732  70.81  0.002315212    4.264    0.765
       182  -8.4704    137.5153    179.0974   6.3506712814e+01   1.7899452945e+01    0.2836299    0.2195281  71.48  0.001065279    1.915    0.478
       183  -7.8236    240.5107    179.4979   4.3869298117e+01   3.9667152359e+00    0.1150973    0.0866418 -33.89 0.0008105829    1.008    0.008
       184  -9.3978    191.6176    178.2494   5.1644251002e+01   1.0118783186e+01    0.2618225    0.2293136  78.35 0.0006715772    1.664    0.399
       185  -8.5686     37.0255    178.4823   9.3061362908e+01   3.2101468514e+01    0.4065099    0.2115728  59.75  0.001296558    2.473    0.596
       186  -8.7039     34.6955    174.3397   9.3318607754e+01   3.3456859667e+01    0.2899729    0.1807074  80.82  0.001233504    1.982    0.495
       187  -8.6931    250.5185    172.5152   4.1384631275e+01   4.0092002540e+00    0.2292249    0.1162908 -40.97 0.0005615549    1.470    0.320
       188  -9.1829    248.9269    177.3003   4.2353043157e+01   3.4261928419e+00    0.2781846    0.2045769 -63.21  0.001250295    1.873    0.466
       189  -8.2946    247.2972    173.6720   4.1997695570e+01   4.1687581368e+00    0.1361832    0.1100645  35.00 0.0003711539    1.630    0.387
       190  -8.5989    204.9386    177.3413   4.9092703403e+01   8.5282905370e+00    0.2153483    0.1506272 -48.16 0.0005855266    1.352    0.261
       191  -8.1461    169.2441    178.2334   5.6080628481e+01   1.3275355619e+01    0.1755571    0.1594982 -68.70 0.0005982212    1.359    0.264
       192  -8.4624    129.1262    177.1823   6.5270253295e+01   1.9645270767e+01    0.2614401    0.1984004 -87.64 0.0008172339    1.992    0.498
       193  -8.7433    231.0231    176.4442   4.4753082331e+01   5.5167423139e+00    0.2550423    0.1310093 -48.70 0.0009978268    1.743    0.426
       194  -8.4376    217.2164    176.9254   4.6972207975e+01   7.0647622126e+00    0.1775594    0.1413724 -47.64 0.0005253967    1.253    0.202
       195  -8.6835     88.9156    176.5110   7.6404668131e+01   2.6023123995e+01    0.2810733    0.2208484  88.11 0.0007851552    1.644    0.392
       196  -9.9744     57.5280    173.1901   8.5709432866e+01   3.1198944796e+01    0.9617157    0.4756141  73.30  0.002686598    4.776    0.791
       197  -8.4136     12.9870    176.3292   1.0053896138e+02   3.4828992539e+01    0.2686931    0.1776815  64.26 0.0009476632    1.624    0.384
       198  -8.4133    211.4508    176.2135   4.7794157647e+01   7.9021822342e+00     0.167431    0.1033979 -51.30 0.0005484587    1.604    0.377
       199  -9.1720    183.1588    175.9293   5.2840867918e+01   1.1730510485e+01    0.2305895    0.2013804 -59.66 0.0007662649    1.342    0.255
       200 -10.6265    101.8062    175.5812   7.2442782203e+01   2.4308163714e+01    0.5155917    0.3540443  15.83            0    1.536    0.349
       201  -8.8072    224.6475    174.3308   4.5365840009e+01   6.6143544490e+00    0.2110996    0.1211679 -50.16 0.0005905191    1.640    0.390
       202  -9.0963    158.5866    174.6635   5.7728320614e+01   1.5604823093e+01    0.2952742    0.2426614  79.22 0.0009641721    1.782    0.439
       203 -10.7635     75.7873    169.8687   7.9321047583e+01   2.9641173038e+01     1.394719    0.6076092 -75.21  0.003984931    4.271    0.766
       204  -9.6820     81.2581    155.0708   7.4918922231e+01   3.2681959372e+01    0.5719603    0.5061083 -53.64  0.001743138    1.163    0.140
       205  -9.7880    175.8400    171.7772   5.3533423138e+01   1.3600033022e+01    0.4156308    0.2353232 -43.29  0.001177924    1.589    0.371
       206  -8.4105    143.1250    172.5346   6.0907771938e+01   1.8474404606e+01    0.2222538    0.2032627 -83.94 0.0005390078    1.349    0.259
       207  -8.4476    134.8543    171.5747   6.2759370962e+01   2.0010425140e+01    0.2754991    0.2012969 -72.26  0.000802569    1.848    0.459
       208  -9.6432    121.3904    170.2963   6.6008448817e+01   2.2479740122e+01    0.4267019    0.3098502 -80.62 0.0009557023    2.008    0.502
       209  -9.1701     45.1860    170.9550   8.9432651095e+01   3.3261623811e+01    0.4219724    0.2504907  74.98  0.001654265    2.354    0.575
       210  -8.8751    230.2986    169.2958   4.3676357337e+01   6.7893866303e+00    0.3742747    0.1529111 -50.28  0.001799598    2.334    0.572
       211  -8.6631    237.1154    169.2197   4.2682949679e+01   6.0083005602e+00    0.2040803    0.1407514 -48.28    0.0008852    1.303    0.233
       212  -8.3168    205.6956    169.7766   4.7641457807e+01   9.7923154320e+00    0.2313496    0.1338414 -59.69 0.0006537062    2.282    0.562
       213  -8.5726    198.2700    169.8166   4.8934348572e+01   1.0784653092e+01    0.2236428    0.1793279 -62.55 0.0007940174    1.502    0.334
       214  -8.7474    149.9202    169.3033   5.8685350315e+01   1.8097762217e+01    0.2775659    0.2158066  59.26 0.0009251386    1.674    0.403
       215  -8.5217    244.6076    169.1245   4.1633153181e+01   5.1818210407e+00    0.1772093    0.1158983 -51.31 0.0005839107    1.460    0.315
       216  -9.2691    167.1126    168.3242   5.4690422731e+01   1.5609179767e+01     0.308591    0.2558918  77.43  0.001090391    1.717    0.418
       217  -8.4316     88.8343    168.7092   7.5060487325e+01   2.8021623113e+01     0.287971    0.2051331  77.81 0.0009946836    2.038    0.509
       218  -8.9040    218.1271    168.2377   4.5345606396e+01   8.4566240675e+00    0.2355871    0.1723067  32.42  0.001330071    1.635    0.388
       219  -8.2145    211.5488    167.7853   4.6320110283e+01   9.3787412790e+00    0.1751812     0.102911 -52.25 0.0007781947    1.687    0.407
       220  -8.8074    111.9258    167.4688   6.8061915415e+01   2.4687977849e+01     0.375434    0.2489883  57.95  0.001279631    2.025    0.506
       221  -8.8533    191.8616    166.3034   4.9452707107e+01   1.2334184723e+01    0.2917106    0.1637028 -50.26 0.0006432667    1.696    0.410
       222  -8.9303    184.9696    166.4101   5.0755169222e+01   1.3308640347e+01    0.2450993    0.1730458 -58.22 0.0006977282    1.593    0.372
       223  -9.5664    137.5915    164.7042   6.0752138987e+01   2.1110219569e+01    0.6965876     0.303634  51.05  0.002282698    3.579    0.721
       224 -10.1159     94.9727    162.6074   7.2070512855e+01   2.8614351698e+01    0.9095938    0.4906223  65.64  0.002621199    4.487    0.777
       225  -8.7367     20.5895    166.1381   9.7043744489e+01   3.6983737817e+01    0.3637556    0.1494676  38.07  0.001377256    2.376    0.579
       226  -8.1985    234.0656    164.7131   4.2371487612e+01   7.1022910054e+00    0.2007711    0.1261138 -48.35 0.0006387825    1.380    0.276
       227  -8.7956    159.6464    164.1830   5.5507457694e+01   1.7633899138e+01    0.2907745     0.226558 -75.37 0.0009490431    1.747    0.428
       228  -9.4681     33.8981    163.3621   9.2207384994e+01   3.6523653131e+01    0.6974245    0.2593865  46.01  0.002283779    3.137    0.681
       229  -8.4999    240.0940    163.7167   4.1368969000e+01   6.5594809319e+00    0.1990817    0.1248994 -48.77 0.0006356083    1.381    0.276
       230  -8.7301    212.9630    163.4737   4.5339647837e+01   9.9539623432e+00    0.2266045    0.1490989 -54.67 0.0006571505    1.573    0.364
       231  -8.7387    246.1629    162.8771   4.0420071346e+01   6.0024546472e+00    0.1640599     0.122959 -48.34 0.0004447393    1.215    0.177
       232  -8.4185    204.7845    162.4146   4.6491815460e+01   1.1243093053e+01    0.2258908    0.1342807 -52.10 0.0005890817    1.640    0.390
       233  -9.2985      3.1926    162.0894   1.0245411246e+02   3.9346813407e+01    0.4622276    0.2107268  47.69  0.001867532    2.369    0.578
       234  -9.3463    177.6814    160.6376   5.1085408337e+01   1.5525698532e+01    0.2989165    0.2425882 -79.62  0.001244906    1.679    0.404
       235  -8.9124     60.6175    160.0043   8.2613620377e+01   3.4335321444e+01    0.4128147     0.259888  59.42  0.001289038    2.046    0.511
       236  -8.8661    151.8288    160.7978   5.6598780732e+01   1.9616398231e+01    0.2864179    0.2353565 -88.97 0.0009553999    1.668    0.401
       237  -9.1031    242.1849    159.6342   4.0420205523e+01   6.9749862792e+00    0.3629213    0.1893166  21.97  0.001848009    3.521    0.716
       238  -9.0663    246.5818    155.5045   3.9175074585e+01   7.1234383851e+00    0.2635203    0.1381994 -34.92 0.0009643605    1.677    0.404
       239  -8.6931    227.3521    158.8045   4.2342694520e+01   8.9046709191e+00    0.2727952    0.1457408 -57.28  0.000998263    2.233    0.552
       240  -9.7483    250.2158    157.5232   3.9038454910e+01   6.3907984818e+00    0.2869556    0.1198153 -44.64 0.0008670819    1.808    0.447
       241  -8.2159    128.0378    158.8028   6.2008878070e+01   2.4050389488e+01    0.2407133    0.1694943  62.53 0.0007606546    1.961    0.490
       242  -9.5819    105.9112    157.8998   6.7917058654e+01   2.8001187484e+01    0.5177845     0.333908  63.95  0.001160307    2.363    0.577
       243  -8.6053    196.7394    157.8547   4.7042094986e+01   1.3210921929e+01    0.2282457    0.1584774 -57.86  0.000707739    1.567    0.362
       244  -8.1880    188.1866    157.4448   4.8493205826e+01   1.4548104532e+01    0.2119153    0.1379586 -49.22 0.0005138922    1.421    0.296
       245  -9.0827    167.7561    157.2240   5.2433444439e+01   1.7768373974e+01    0.3182858    0.2451089  89.32  0.001221809    1.981    0.495
       246  -8.5797    218.0594    156.5149   4.3329782221e+01   1.0493898560e+01     0.237243    0.1416759 -54.50 0.0007611212    1.700    0.412
       247  -9.0976     49.9501    155.2442   8.5485103291e+01   3.6965228254e+01    0.5243912    0.2497439  52.06  0.001810591    2.789    0.641
       248  -9.0381    157.6742    155.8150   5.4308060639e+01   1.9705273093e+01     0.271923    0.2138358 -58.36 0.0009098001    1.361    0.265
       249  -9.3337    119.6398    154.9611   6.3467137067e+01   2.6378496367e+01    0.3903683     0.291116  84.04  0.001371762    2.015    0.504
       250  -9.5985    241.7732    154.0197   3.9555549763e+01   7.9248854060e+00    0.2904818    0.1988378  73.65  0.001720341    2.786    0.641
       251  -8.1355    204.5723    155.0545   4.5207186549e+01   1.2600303561e+01    0.1944616    0.1058249 -46.04  0.000738611    1.572    0.364
       252  -9.1954    144.7760    154.0145   5.6888070862e+01   2.2263632705e+01    0.3911763     0.241099 -44.93  0.001322323    1.555    0.357
       253  -9.6152     68.0368    153.4922   7.8982080435e+01   3.5051838659e+01    0.4824919    0.2818727  59.92  0.001382917    2.464    0.594
       254  -7.8346    232.9503    153.7832   4.0702585042e+01   9.0395393774e+00    0.1654286    0.1277138 -81.61 0.0007240791    1.940    0.484
       255  -9.7402    132.9879    152.8399   5.9532319554e+01   2.4557032023e+01    0.4435584    0.3370794  72.75  0.001367119    1.852    0.460
       256  -9.1409    133.6753    147.9728   5.8354897192e+01   2.5528452349e+01    0.3316203    0.2288733 -33.10 0.0008990453    1.552    0.356
       257  -9.6726     29.4358    150.5717   9.2053589248e+01   4.0453379998e+01    0.5243863    0.2495511  56.91  0.001836141    2.946    0.661
       258  -8.1186     20.1846    152.4467   9.5604629446e+01   4.0756867395e+01    0.2062945    0.1257393  34.76 0.0006439069    1.653    0.395
       259  -9.5410    248.9560    149.2828   3.7870795224e+01   7.8270819086e+00     0.288233    0.1244953 -45.27 0.0008053472    1.758    0.431
       260  -9.0215    243.2252    149.9271   3.8696072421e+01   8.4057089477e+00    0.2350759    0.1193781 -50.96 0.0009109682    1.731    0.422
       261  -8.9658    189.4807    149.9832   4.6860355269e+01   1.5762986520e+01    0.2960285    0.1985554 -66.01 0.0008650696    1.945    0.486
       262  -8.2422    182.6364    151.2755   4.8356329349e+01   1.6579817979e+01    0.1986826    0.1514805 -75.31  0.001065955    1.772    0.436
       263  -8.2500    162.6647    150.5355   5.2185518048e+01   1.9967576131e+01    0.2296683    0.1661171 -67.11 0.0007146096    1.721    0.419
       264  -8.7806     98.3634    150.6234   6.8693103739e+01   3.1052199098e+01    0.3283243    0.2500956  70.38 0.0008252163    1.744    0.427
       265  -9.8034     40.0284    146.9564   8.7690826383e+01   4.0357030192e+01    0.7937206    0.4978728  88.37  0.003284136    2.105    0.525
       266  -8.2291    212.9147    149.3600   4.2857720440e+01   1.2437450582e+01    0.1612177     0.143173 -38.46 0.0005185006    1.074    0.069
       267  -8.4403    198.8497    149.0130   4.5056595473e+01   1.4526441155e+01    0.1894596    0.1562613 -59.16 0.0005170063    1.266    0.210
       268 -10.6275    149.0279    145.1207   5.4083813201e+01   2.3438466866e+01    0.6492104    0.4467753 -83.09  0.001666868    2.457    0.593
       269 -10.0127     89.2446    146.1191   7.0598032220e+01   3.3691641581e+01    0.6935804    0.4264213  85.14  0.002307821    3.430    0.708
       270  -9.4006    233.5019    147.4972   3.9568771714e+01   1.0003284267e+01    0.2127111    0.1493976 -42.99 0.0006816516    1.118    0.106
       271 -10.1061     56.5953    135.2868   7.9577811397e+01   4.1446614022e+01    0.5649724    0.2703474   4.41  0.001707315    3.652    0.726
       272  -8.5080    223.1288    146.6497   4.0864303921e+01   1.1503227246e+01    0.1999286    0.1336945 -49.68 0.0005160653    1.289    0.224
       273 -10.1168    139.3388    145.0780   5.6353649580e+01   2.5162871493e+01    0.5467171    0.3371686 -72.91  0.001509733    2.730    0.634
       274 -10.2073    106.5507    143.8234   6.4842399720e+01   3.1301673227e+01    0.8108252    0.5480042  87.68  0.002415997    2.590    0.614
       275  -9.0590     77.9418    146.7780   7.4396335846e+01   3.5332542586e+01    0.2704482     0.211597 -85.30 0.0007535729    1.604    0.376
       276  -9.1374     13.4587    146.1665   9.7269122085e+01   4.2989362350e+01    0.3913114    0.2035005  43.83  0.001358866    2.084    0.520
       277  -7.9514    206.4133    146.2642   4.3317519997e+01   1.3909654774e+01    0.1710593    0.1032771 -51.77 0.0004293775    1.533    0.348
       278  -8.1391    175.5199    145.9662   4.8682212088e+01   1.8752223741e+01    0.2057671    0.1227223 -48.40 0.0005600542    1.549    0.354
       279 -10.5580    241.7707    142.6537   3.7682918875e+01   9.7433799702e+00    0.5883471    0.2434639 -33.99  0.002796855    2.705    0.630
       280  -9.8563    125.2982    142.6922   5.9395290742e+01   2.8215822645e+01    0.5719664    0.3929326  89.80  0.001786918    2.538    0.606
       281  -8.8390    247.1069    143.6603   3.7186377603e+01   8.9291714332e+00    0.2108044    0.1234016 -41.52 0.0005115973    1.315    0.240
       282  -8.8681    165.5965    143.8303   5.0233865491e+01   2.0834911159e+01    0.2490509     0.208304  88.20 0.0007201939    1.522    0.343
       283 -10.7810     69.5061    140.9221   7.6091881515e+01   3.8131220603e+01     0.630982    0.4391664 -87.93  0.002161536    2.015    0.504
       284 -10.2226     68.8121    134.4044   7.5011331004e+01   3.9917444380e+01    0.4960346    0.2752297  18.01  0.001668691    2.037    0.509
       285  -7.4927    194.3374    143.6870   4.4827262462e+01   1.6186423245e+01    0.1260117   0.09779029 -77.85 0.0005838444    1.691    0.409
       286  -9.2641      2.6114    141.4264   1.0069831920e+02   4.4972346194e+01    0.4513453    0.2371153  72.31   0.00148156    2.401    0.584
       287 -10.4230     54.9386    144.5042   8.1900745211e+01   3.9226989821e+01    0.9078366    0.4759672  64.73  0.002884836    3.586    0.721
       288  -8.4395    182.0376    141.3561   4.6554300281e+01   1.8576381861e+01    0.2301165    0.1739254 -67.25  0.000778275    1.547    0.353
       289  -8.4293    250.4924    140.8848   3.6328985220e+01   8.9544123379e+00    0.1704447   0.08358134 -44.19  0.000710015    1.533    0.347
       290  -9.2132    140.0368    136.7744   5.4427059608e+01   2.6836660890e+01    0.3295853    0.2142232 -12.47  0.001319795    2.583    0.613
       291  -9.7986     23.4477    137.8722   9.2474737300e+01   4.4454114790e+01    0.5439877    0.2907916  60.32  0.001801981    2.573    0.611
       292  -8.7055    172.4137    138.1262   4.7729260552e+01   2.0804429612e+01    0.2980415    0.2008306 -67.98 0.0008232864    1.928    0.481
       293  -7.9641    218.5297    138.4750   4.0088815655e+01   1.3523727221e+01     0.120985   0.09875493 -48.87 0.0008086961    1.059    0.056
       294  -8.4532    207.8223    137.7858   4.1551935788e+01   1.5199062439e+01    0.2280137    0.1418683 -63.63  0.000822723    1.980    0.495
       295  -8.6154    197.3663    137.0434   4.3070490041e+01   1.6927254309e+01    0.2555344    0.1632362 -58.36 0.0007385409    1.648    0.393
       296  -7.8948     89.3549    137.2964   6.8710399360e+01   3.5871871564e+01    0.1641207    0.1201679 -11.79 0.0003189016    1.694    0.410
       297  -8.9639    248.5957    134.9377   3.5588471113e+01   1.0107882413e+01    0.2321687    0.1305071 -50.35 0.0007600987    1.441    0.306
       298  -8.6445    250.8011    130.8892   3.4677323130e+01   1.0458414818e+01    0.3775491   0.07696187 -42.54  0.001435942    3.893    0.743
       299  -8.3653    187.8546    135.7610   4.4429482294e+01   1.8679843669e+01     0.172343    0.1439808 -69.57 0.0006144837    1.311    0.237
       300  -8.5134    162.5070    136.1474   4.9305395232e+01   2.2913929444e+01    0.2133316    0.1860157 -88.21 0.0006553927    1.340    0.254
       301  -9.3097     39.1751    135.8087   8.6173214976e+01   4.3459908553e+01    0.3063066    0.2460156  58.52  0.000735828    1.424    0.298
       302 -10.4229     83.4697    132.9207   6.9680092228e+01   3.7948115510e+01    0.5688526    0.3910831 -75.47  0.001362165    1.940    0.485
       303  -7.6203    231.2812    133.9950   3.7566537593e+01   1.2501499615e+01    0.1447254   0.08316208 -44.90  0.000300031    1.379    0.275
       304  -8.7907    179.4721    133.8518   4.5548217963e+01   2.0428838903e+01    0.2446134    0.1702439 -59.00 0.0008001237    1.498    0.333
       305  -9.0676    112.8740    133.0259   6.0671073061e+01   3.2699130916e+01    0.3629072    0.2707644  74.51  0.001004764    1.860    0.462
       306  -7.5548    237.4915    133.4814   3.6688787978e+01   1.1755077254e+01    0.1151767   0.08892665 -50.82 7.879267e-05    1.089    0.082
       307 -10.0758    132.1847    131.2131   5.5133797563e+01   2.9494960273e+01     0.453975    0.3166184 -81.24  0.001014858    2.198    0.545
       308  -9.3388    143.0635    131.3935   5.2553388303e+01   2.7420566855e+01    0.3333169     0.228286 -59.99  0.000793361    1.611    0.379
       309 -10.0111     12.8972    128.8829   9.5293436158e+01   4.7705338068e+01    0.5657223     0.304302  74.32  0.001855623    2.664    0.625
       310  -8.2869    246.9077    130.0700   3.4990392409e+01   1.1073713126e+01    0.1699828    0.1172743 -54.77 0.0005948773    1.265    0.209
       311  -8.0076    204.7323    130.1671   4.0619486198e+01   1.7001876044e+01    0.1984265    0.1337251 -58.96 0.0005626078    1.499    0.333
       312  -8.2056    192.6949    130.0392   4.2504643113e+01   1.8938988735e+01    0.1821343    0.1447472 -47.22 0.0003790561    1.103    0.093
       313  -9.4136    168.3523    129.4361   4.6752239830e+01   2.3202917318e+01    0.2770665    0.2148599 -75.38 0.0004379504    1.558    0.358
       314  -9.6714    152.7592    128.8813   4.9837448169e+01   2.6140465975e+01    0.3930837     0.257246 -61.61 0.0009988231    1.755    0.430
       315  -9.3155     97.9794    127.9501   6.3920549872e+01   3.6614992700e+01    0.5497323    0.2271411 -52.79  0.001921559    2.510    0.602
       316  -8.4693     99.1793    120.3843   6.1791805039e+01   3.8155312811e+01    0.4508405    0.2535938 -14.75  0.001247239    4.953    0.798
       317 -10.0098     73.0149    128.6977   7.2321068794e+01   4.0712106105e+01    0.4609453    0.3129615 -77.19  0.001312754    1.990    0.498
       318  -7.8267    220.4787    129.5612   3.8234368659e+01   1.4744814634e+01    0.1190027   0.09746329 -49.31 7.651678e-05    1.022    0.021
       319  -7.9942    211.5131    128.9775   3.9392660879e+01   1.6169434946e+01    0.1891432    0.1016891 -47.52  0.000900871    1.566    0.362
       320  -8.1416    186.6375    129.3300   4.3386628824e+01   2.0068310616e+01    0.1335997   0.09828565 -79.81 0.0007039289    1.803    0.445
       321 -10.7251     45.3589    123.8534   8.1581218983e+01   4.5895372634e+01      1.20132    0.6314909  66.85  0.003693663    4.133    0.758
       322  -7.7991      1.3403    129.6716   9.9905999449e+01   4.8200804927e+01    0.1490899   0.09876082  54.30 0.0007051589    1.737    0.424
       323 -10.5132     60.2612    125.0629   7.6140554828e+01   4.3576354356e+01     0.771489    0.4784211  73.97  0.002811258    2.894    0.654
       324  -9.8976    117.9533    124.8697   5.7413516909e+01   3.3586442266e+01     0.550038    0.4080974  87.92  0.001693091    1.955    0.488
       325  -8.9034    179.2910    124.5741   4.3724846511e+01   2.2201122809e+01    0.2641566    0.1961156 -77.64 0.0007735461    1.695    0.410
       326 -11.1275    131.5739    119.1132   5.2559546293e+01   3.2190488112e+01    0.8827928    0.5219498 -72.58  0.002986354    3.035    0.671
       327 -10.1716    133.5039    109.7350   4.9913908776e+01   3.3729870297e+01    0.6534806    0.3516791 -47.71  0.002233432    1.867    0.464
       328 -10.2341     28.6932    122.3871   8.7953612548e+01   4.8119688795e+01    0.8018935    0.4301073  68.61  0.002822029    3.261    0.693
       329  -9.7195     27.1549    113.7911   8.7036497019e+01   5.0510763893e+01      0.47631    0.2375889  -3.85  0.001777991    2.590    0.614
       330  -8.0773    188.4142    123.2787   4.1898465610e+01   2.0871249995e+01    0.1870934    0.1093564 -53.74 0.0009464891    1.640    0.390
       331 -10.0774    158.6637    120.9982   4.6907118134e+01   2.6611188773e+01    0.4409035    0.2840647 -56.34  0.001460689    1.602    0.376
       332  -8.0512    195.0199    121.5241   4.0487326936e+01   2.0077249250e+01    0.2265949    0.1127769 -50.89 0.0006674852    1.845    0.458
       333  -8.6038    171.9408    121.3218   4.4395360144e+01   2.4111100135e+01    0.2239199    0.1698518 -58.40 0.0004936613    1.299    0.230
       334  -7.6625    203.2790    121.7149   3.9257554966e+01   1.8697531389e+01    0.1189681   0.08775753 -69.99 0.0002026792    1.515    0.340
       335  -9.6675     70.9930    119.6946   7.1021337018e+01   4.3269889100e+01    0.3988819    0.3109977  89.64  0.001154121    1.723    0.420
       336 -10.0774    141.7004    117.8748   4.9877306332e+01   3.0470810995e+01    0.6355262    0.3407491 -56.92  0.001398388    2.132    0.531
       337  -9.6415      3.1862    117.1785   9.7641496423e+01   5.1413558870e+01    0.6291779    0.3006389  61.35  0.002349159    3.135    0.681
       338  -7.8145    231.5281    117.4535   3.4690937291e+01   1.5122105147e+01      0.11628   0.08973019 -56.10 0.0008059515    1.107    0.097
       339  -8.3428    185.9254    115.9321   4.0854368044e+01   2.2615863522e+01    0.2001859    0.1440934 -72.69 0.0005403007    1.631    0.387
       340  -9.9213    109.4473    114.0901   5.7242463840e+01   3.7600366487e+01    0.5002184    0.3482272 -81.36  0.001349907    2.207    0.547
       341  -8.3552    193.1241    114.9607   3.9509631033e+01   2.1545934018e+01    0.1943372    0.1500254 -64.26  0.000436836    1.279    0.218
       342  -8.7392     85.3000    122.1078   6.6632698213e+01   4.0268766015e+01    0.4835772    0.2510912  20.49  0.001714789    2.551    0.608
       343 -10.1425     92.7800    112.3306   6.1847392510e+01   4.1186330302e+01    0.6085236    0.3562385 -65.57  0.001389485    2.357    0.576
       344  -8.2110     93.7477    104.3927   5.9546597438e+01   4.2761879772e+01    0.2583242    0.1866506 -23.43  0.001177612    1.721    0.419
       345  -9.9484     79.1424    112.4303   6.6415491272e+01   4.3637658771e+01    0.5900591    0.4197505  82.92  0.001964247    2.241    0.554
       346  -8.9227     78.3149    104.8729   6.4817389889e+01   4.5524217519e+01    0.3835919    0.2668772   1.54  0.001446164    1.927    0.481
       347  -8.6340     59.6219    114.6319   7.4072504206e+01   4.6285508778e+01    0.3955094    0.1940535  11.22  0.001289136    3.129    0.680
       348  -8.0869    167.4105    114.2214   4.3752736621e+01   2.6270003524e+01    0.1867369    0.1191076 -55.26 0.0004487683    1.560    0.359
       349  -9.6758    121.9387    112.4064   5.3428086612e+01   3.5494283647e+01    0.3297036    0.2610901  86.69 0.0006492027    1.605    0.377
       350  -8.7258    174.7420    111.2909   4.1808716124e+01   2.5451715136e+01    0.3608622    0.1589686 -49.36  0.001265425    2.151    0.535
       351  -8.9108    159.3737    111.8186   4.4779459473e+01   2.8238444367e+01    0.2510979    0.2008553 -84.55 0.0006858811    1.445    0.308
       352  -9.8255     66.6356    110.4793   7.0443657467e+01   4.6204482754e+01    0.4416938    0.3105177  67.79   0.00134119    2.066    0.516
       353  -9.7751     14.5181    111.0992   9.1948198006e+01   5.2278884645e+01    0.4095351    0.2328474  51.00  0.001140056    2.240    0.554
       354  -9.3553     43.4370    109.0531   7.9252822092e+01   4.9904231339e+01    0.4605972     0.192452  11.94  0.001447703    3.419    0.708
       355 -10.6507    249.6750    105.6949   3.0707181534e+01   1.4396613675e+01    0.5736156    0.1474936 -44.07  0.002574071    2.938    0.660
       356  -9.2160    109.7665    106.8977   5.5387583617e+01   3.9079181337e+01    0.3840688    0.1956924  26.80  0.001332109    2.975    0.664
       357 -10.7099     22.8847    102.4811   8.6708468738e+01   5.3786647393e+01    0.7698081    0.4516075  61.46  0.002232831    2.633    0.620
       358  -9.5557    150.6848    102.8233   4.4520996845e+01   3.1624121177e+01    0.4092746    0.2551046 -68.60   0.00119609    2.150    0.535
       359  -9.2504    139.8136    104.3851   4.7204270961e+01   3.3511775943e+01    0.3290422    0.2462265  85.86 0.0006800905    1.703    0.413
       360  -8.7142     67.5992    105.1587   6.8773780822e+01   4.7302566493e+01    0.4270498    0.1168516  28.81  0.001103438    4.525    0.779
       361 -10.5645     45.7569    102.1017   7.6693077750e+01   5.1306565652e+01    0.8006626    0.4589999  61.42  0.002919166    3.107    0.678
       362  -8.6591    166.7927    104.0958   4.1703108937e+01   2.8240244225e+01    0.2074031    0.1664221 -71.77 0.0005509488    1.290    0.225
       363 -10.1814    128.8906    100.9836   4.8927819805e+01   3.6396439950e+01    0.5994715    0.3477664 -39.69  0.001925278    1.854    0.461
       364 -10.7890    109.6283     99.0636   5.3450239683e+01   4.0727140797e+01    0.8494002    0.4643539  66.58  0.002608422    3.321    0.699
       365  -8.7987    107.2299     92.4728   5.2412161034e+01   4.2534252810e+01      0.27278     0.229959   3.94 0.0008843182    1.447    0.309
       366  -9.2845      6.8183    102.8791   9.3981358168e+01   5.4900952259e+01    0.3185472    0.2209862  72.03  0.001146464    1.881    0.468
       367  -7.9562    175.5908    101.8134   3.9683460421e+01   2.6977609538e+01    0.1877201    0.1100932 -55.53 0.0006884597    1.690    0.408
       368  -8.2426    159.7433    100.5933   4.2241656006e+01   3.0238375165e+01    0.2258536    0.1513169 -64.68 0.0005402145    1.672    0.402
       369  -9.1773     82.1631     99.9498   6.2208481241e+01   4.5920928994e+01    0.3459243    0.2597782 -78.03 0.0009375827    1.846    0.458
       370  -9.1665     95.0617     96.9805   5.7206624951e+01   4.4082250932e+01     0.309759    0.2443274 -67.39  0.000649175    1.518    0.341
       371 -10.1631     63.8480     95.5899   6.7732913349e+01   5.0110480338e+01    0.5875524    0.4069711  81.40   0.00163543    2.572    0.611
       372  -8.3021     64.0023     88.0048   6.5609732593e+01   5.1747817867e+01    0.2948704    0.1848177 -22.33 0.0008276899    2.142    0.533
       373  -7.7022    183.5519     96.5401   3.7309094806e+01   2.6398319823e+01    0.1268355    0.1111163 -65.73 4.637987e-05    1.009    0.009
       374  -8.6912    151.2302     94.9079   4.2602646693e+01   3.2960307611e+01    0.2531185    0.1825648  22.95  0.001180019    2.092    0.522
       375  -8.3639    164.8494     94.0600   3.9869163687e+01   3.0388024137e+01    0.2061972    0.1641346 -72.34 0.0005008646    1.274    0.215
       376  -9.2924    138.9780     92.0248   4.4454699007e+01   3.5997035388e+01    0.3874797    0.2631838 -85.70 0.0009223021    2.100    0.524
       377  -8.0679    188.4198     93.2277   3.5904838358e+01   2.6053440988e+01    0.1781982    0.1025249 -54.41 0.0005842636    1.624    0.384
       378  -8.1276    176.2657     93.1599   3.7753633703e+01   2.8331273558e+01    0.1801589    0.1352552 -72.54 0.0005080932    1.379    0.275
       379  -9.4120    120.4204     92.7744   4.8976070287e+01   3.9734129115e+01    0.3115152    0.2398073  51.18  0.001622825    1.245    0.197
       380  -9.8573    124.6469     90.7144   4.7409349089e+01   3.9236489582e+01    0.4153896    0.3050077  89.59 0.0008019865    1.794    0.442
       381  -9.5828      5.2008     91.6312   9.2813523884e+01   5.7803107861e+01     0.400032    0.2256567  48.31  0.001294223    2.318    0.569
       382  -8.1282    157.8353     91.3904   4.0540666510e+01   3.2246071780e+01    0.1866262    0.1561845 -65.93 0.0004740979    1.152    0.132
       383  -9.4891     34.8483     89.6792   7.8437487615e+01   5.5630321563e+01    0.4179663    0.2895082  79.32  0.001562503    2.399    0.583
       384  -9.0149     22.7529     90.1281   8.4155920817e+01   5.6820670652e+01    0.4066457    0.2441028  -0.53   0.00133948    1.755    0.430
       385  -8.2606    150.9739     88.9958   4.1288094567e+01   3.4056377034e+01    0.2166087    0.1546571 -76.17 0.0005951832    1.659    0.397
       386 -10.1915     86.4632     85.8766   5.6936196958e+01   4.8040477050e+01    0.5994416    0.4324665 -67.96  0.001464714    1.847    0.459
       387  -7.9407    163.9789     86.9617   3.8455893264e+01   3.1768978773e+01    0.2071679    0.1453734 -74.59 0.0006119313    1.616    0.381
       388  -9.8232     48.7390     84.4174   7.0876882666e+01   5.4959447393e+01    0.5831477    0.3578527  61.89  0.002026406    2.878    0.653
       389  -7.7298    179.3528     85.2363   3.5609105783e+01   2.9045305088e+01    0.1819812    0.1020473 -53.12 0.0005325802    1.683    0.406
       390  -9.1361     46.2003     92.1305   7.4035008543e+01   5.3594340179e+01    0.4261852    0.2256393   8.42  0.001592757    2.539    0.606
       391  -9.7065    104.7531     82.9723   5.0560684120e+01   4.4867349584e+01    0.4077978    0.2900755 -68.27 0.0009173626    1.825    0.452
       392  -9.2657    140.8562     82.3661   4.1724953496e+01   3.7306986781e+01    0.3128207      0.18625 -51.44  0.000790176    1.731    0.422
       393  -7.8098     64.2911     82.6487   6.3977574237e+01   5.2826884819e+01    0.1432289     0.115753  71.75 0.0007028203    1.673    0.402
       394  -9.6652     24.7186     80.2906   8.0866286609e+01   5.8916395102e+01    0.4838855     0.333474  81.92  0.001605069    2.443    0.591
       395  -9.2549      9.8105     80.7109   8.8399998908e+01   6.0120939886e+01    0.3720137    0.1864034  49.34  0.001452536    3.000    0.667
       396  -8.1486    189.1792    107.7201   3.8695227698e+01   2.3483211542e+01    0.2258857     0.147635 -55.28 0.0006883428    1.424    0.298
       397  -8.4294    150.3427     80.4074   3.9403691838e+01   3.5646999352e+01    0.2252366     0.145349 -62.31 0.0007675099    1.705    0.413
       398  -8.8627     74.7605     80.1886   5.9334118481e+01   5.1426141626e+01    0.3262083     0.229689 -72.34   0.00100094    2.148    0.534
       399  -8.8561    119.3146     79.8518   4.5905511756e+01   4.2338690511e+01    0.2642972    0.2018334 -73.04  0.001010115    1.557    0.358
       400  -8.2676    166.8087     79.2001   3.6268708157e+01   3.2472959762e+01     0.163032     0.151092 -28.00 0.0006192009    1.331    0.249
       401  -8.4428    158.1313     83.7506   3.8757503858e+01   3.3485397163e+01    0.2253032    0.1639983 -58.78 0.0005232289    1.350    0.260
       402  -7.4853    174.7032     77.7001   3.4714216416e+01   3.1142984126e+01    0.1126401    0.1013954  15.37  0.000213741    1.575    0.365
       403  -7.7412    157.1361     76.1867   3.7204677757e+01   3.4925033466e+01    0.1815497     0.139084 -76.22  0.000415395    1.338    0.253
       404  -8.6314    140.6599     75.2813   4.0035407218e+01   3.8535141742e+01    0.2325297    0.1884562 -78.02 0.0006481526    1.277    0.217
       405  -9.2765    128.0847     75.1237   4.2631062889e+01   4.1262728649e+01    0.3231502    0.2238495 -69.00 0.0006613771    1.752    0.429
       406 -10.0134     63.0999     73.1184   6.1612422431e+01   5.4948744959e+01    0.5344912    0.3078531 -55.12  0.001307546    2.155    0.536
       407  -8.4991    163.4806     73.3984   3.5515929373e+01   3.4062262079e+01    0.2362203    0.1629504 -55.24  0.001015056    1.391    0.281
       408  -9.8622     94.6548     71.9747   5.0378340075e+01   4.8979213016e+01     0.387349    0.2981565 -27.64 0.0009449596    1.536    0.349
       409  -9.6707     82.5336     72.4254   5.4335285333e+01   5.1387955498e+01     0.397239    0.2856349 -73.38 0.0009441299    2.083    0.520
       410  -8.4319     42.8208     72.7021   7.0137513425e+01   5.8314825861e+01    0.2431533    0.1896711  84.24 0.0009404782    2.063    0.515
       411  -7.5502    175.6730     72.2934   3.3417221290e+01   3.1785414856e+01    0.1291887    0.0864573 -76.66 0.0003430423    1.624    0.384
       412  -9.2516    106.0587     71.5914   4.7046354732e+01   4.6621726819e+01     0.276492    0.2091175 -80.30  0.000788709    1.716    0.417
       413  -7.5202    170.6914     71.3210   3.3939098398e+01   3.2923462372e+01    0.1316116   0.08752876 -74.60 0.0003058002    1.643    0.391
       414  -9.3986     51.5557     69.6593   6.5314774857e+01   5.7587734139e+01    0.4207397    0.3014695 -76.97  0.001480006    2.351    0.575
       415  -8.9611     28.6939     70.4671   7.6253291882e+01   6.0635561950e+01    0.3290132    0.1654856 -24.78  0.001317055    2.562    0.610
       416  -9.2561     16.8607     69.6318   8.2103600548e+01   6.2053688829e+01    0.4166038    0.2479557 -67.58  0.001170068    2.103    0.524
       417  -7.6636    162.3282     69.2983   3.4778445896e+01   3.4929682125e+01    0.1190413    0.1006333  29.54 0.0001735653    1.637    0.389
       418  -8.8970    146.9611     67.5955   3.6976574835e+01   3.8411698594e+01    0.2810689    0.1745375 -48.58  0.000907738    1.623    0.384
       419  -8.6740    138.7586     65.9026   3.8085119879e+01   4.0434932035e+01    0.2418819    0.1656727 -64.08 0.0006658785    1.604    0.377
       420  -8.9337    121.6572     65.6693   4.1581001672e+01   4.4201752982e+01    0.2533838    0.2144544 -87.40 0.0006010997    1.229    0.187
       421  -8.5711    115.6628     72.6065   4.4863936912e+01   4.4375320565e+01    0.2456223    0.1706154 -49.67 0.0005400992    1.552    0.356
       422  -8.7408     37.4200     64.2151   7.0072569053e+01   6.0795641709e+01     0.250461     0.206895  63.66  0.001373653    1.709    0.415
       423  -9.1748    110.1149     63.1230   4.3610565603e+01   4.7134865299e+01    0.3850238    0.2389067 -45.52  0.001918079    1.768    0.434
       424  -8.4916     64.6846     62.7030   5.7708155208e+01   5.6596913676e+01    0.2281814    0.1598195   7.28  0.001099855    1.823    0.451
       425  -7.9469    158.4219     61.5177   3.3622432397e+01   3.6899449939e+01    0.1267957    0.1101509 -84.24 0.0001072442    1.014    0.013
       426  -9.1301     97.5323     60.3686   4.6121408060e+01   5.0309085772e+01    0.2577149    0.1909155  57.25 0.0008159999    1.247    0.198
       427  -9.5876     73.3817     59.3066   5.3386187871e+01   5.5509781997e+01    0.3389157    0.2508058 -55.08 0.0009444922    1.680    0.405
       428  -7.7339    147.2327     58.9621   3.4845933743e+01   3.9644448778e+01    0.1594377    0.1041413 -44.33 0.0004027596    1.584    0.369
       429  -8.6726    130.9549     57.3033   3.7408829344e+01   4.3429533452e+01    0.2741327    0.1685637 -50.88 0.0009127933    1.733    0.423
       430  -9.9006     23.5539     56.2835   7.4630764586e+01   6.4127448603e+01    0.4265825    0.3048842  69.39  0.001996873    2.636    0.621
       431  -9.5106      7.5882     57.0860   8.3820264745e+01   6.5507374090e+01    0.3128581    0.2480285  64.96  0.001412253    1.897    0.473
       432  -8.1909    139.9858     55.9484   3.5369388251e+01   4.1646664780e+01     0.204386    0.1416511 -76.97 0.0004531239    1.618    0.382
       433  -8.9480    119.2186     55.6605   3.9402810657e+01   4.6263443471e+01    0.2632247    0.1853152 -71.07 0.0006766071    1.717    0.418
       434  -8.6083     44.0873     55.3176   6.3973224609e+01   6.1478402079e+01    0.2582398    0.1939948 -55.26  0.001134624    1.708    0.414
       435  -9.2511     62.8417     54.4572   5.5682727548e+01   5.8357104909e+01    0.3238715    0.1988171 -49.54   0.00077146    2.004    0.501
       436  -9.0067     54.3205     54.0327   5.8992340908e+01   5.9985214103e+01     0.303646    0.2285405 -67.96  0.001009508    2.046    0.511
       437  -8.6561    105.8072     53.0844   4.1789336827e+01   4.9610092323e+01    0.1986437    0.1731616  89.84 0.0005145403    1.214    0.176
       438  -9.4820     92.4700     50.3433   4.4473194653e+01   5.2931564154e+01    0.3729881    0.2311646 -55.99    0.0012671    2.099    0.523
       439  -8.3592    144.6745     48.8242   3.2803855195e+01   4.1614526149e+01    0.1745641    0.1057728 -50.48  0.000582272    1.686    0.407
       440  -8.4077    129.8546     49.0935   3.5471438868e+01   4.4832217653e+01    0.2003852    0.1610316 -83.29 0.0004855143    1.246    0.197
       441  -8.1505    120.9146     47.2684   3.6734858006e+01   4.7068606991e+01    0.1832612     0.155938  66.77 0.0007854272    1.034    0.033
       442  -8.2293    112.4820     46.9545   3.8443952934e+01   4.8993148860e+01    0.1788776    0.1306125 -43.77 0.0005660654    1.533    0.348
       443  -9.0008     82.2757     46.2946   4.6169887012e+01   5.5703836821e+01    0.2683912    0.2216223 -70.78  0.000759952    1.540    0.351
       444  -8.6462     45.0375     44.5579   5.9691670113e+01   6.3154517586e+01    0.2103028    0.1935515 -68.91 0.0005582052    1.513    0.339
       445  -8.8027     16.9422     44.5382   7.4422301817e+01   6.7097605672e+01    0.2005397    0.1892533 -75.68 0.0007232687    1.532    0.347
       446  -8.5788    132.9543     43.0318   3.3321920378e+01   4.4950587084e+01    0.2040155    0.1372382 -75.36 0.0003536265    1.675    0.403
       447  -8.5664     92.7416     42.4337   4.1904959674e+01   5.3981300975e+01    0.2126041    0.1642866   9.71  0.001177659    1.750    0.428
       448  -9.3008     69.7406     41.4403   4.8614105264e+01   5.8999523912e+01    0.3584171    0.2644167 -69.02  0.001314887    2.072    0.517
       449  -9.0475     58.1855     42.2187   5.3194229701e+01   6.1159846457e+01    0.3073725    0.2028493 -59.99  0.001159087    2.423    0.587
       450  -9.7986      5.2620     41.7088   8.0583247593e+01   6.8743665422e+01    0.3733133    0.2562705 -76.64  0.002008072    2.409    0.585
       451  -7.7176    140.4485     41.4708   3.1665778189e+01   4.3498640307e+01    0.1272283    0.1064919  86.50 3.211951e-05    1.036    0.035
       452  -8.5493    106.0634     41.0544   3.8169849783e+01   5.1211562060e+01    0.2039165    0.1484599 -80.73 0.0007024634    1.674    0.402
       453  -8.8327     36.8221     40.4402   6.2073216932e+01   6.5148428421e+01    0.2503863    0.1999136 -51.92  0.001111366    1.668    0.400
       454  -7.9965    160.6224     39.7980   2.8340974199e+01   3.9370325413e+01    0.1706767   0.09663206 -52.43 0.0004715009    1.718    0.418
       455  -8.8742     95.7357     37.9099   3.9692537880e+01   5.3913512281e+01    0.2230525    0.1712861 -65.25 0.0006710343    1.581    0.367
       456  -8.0542     80.4720     36.2821   4.3354109774e+01   5.7451546604e+01    0.1619895    0.1255445 -54.03 0.0009356372    1.601    0.375
       457  -9.3983     26.2108     35.1801   6.5606265387e+01   6.7558921544e+01    0.2706914    0.2234437 -57.31 0.0008873118    1.754    0.430
       458  -8.0665    125.9758     35.3085   3.2509027640e+01   4.7468144667e+01    0.1771748    0.1416503  71.58 0.0004160833    1.058    0.055
       459  -8.6236    111.9350     34.4745   3.4956726494e+01   5.0717808385e+01    0.2291891    0.1636013 -61.40  0.000616556    1.602    0.376
       460  -8.9048     48.6317     33.1343   5.3704238242e+01   6.4240813921e+01    0.2376055    0.2088814  83.99  0.000770618    1.665    0.399
       461  -8.3297    119.3997     33.1793   3.3123766958e+01   4.9195410735e+01    0.1674968    0.1111058 -52.94 0.0009397596    1.669    0.401
       462  -8.7487     60.8983     32.4122   4.8493137906e+01   6.2002549045e+01    0.2113161    0.1824941 -63.54 0.0006444737    1.564    0.361
       463  -8.6224     72.1927     30.9418   4.4042671001e+01   5.9880929205e+01    0.1869455      0.16351  78.54 0.0006480551    1.330    0.248
       464  -8.8484     12.9702     30.2525   7.1495709371e+01   7.0026265909e+01    0.2403307    0.1826865 -58.28 0.0009899753    1.909    0.476
       465  -8.5919    101.6842     29.1670   3.5554287980e+01   5.3642500692e+01    0.1942663    0.1503921 -71.52 0.0009030336    1.492    0.330
       466  -7.6559     42.2852     29.6694   5.5154171200e+01   6.5850744399e+01     0.115637   0.09941524  65.89 0.0005537083    1.614    0.381
       467  -8.9070     81.6385     27.2208   3.9900072387e+01   5.8303497153e+01    0.2630117    0.1991459 -76.38    0.0010002    1.762    0.432
       468  -9.2893      3.7219     27.4855   7.6499094102e+01   7.1428518028e+01    0.2373182    0.1754524 -62.19  0.001326537    1.980    0.495
       469  -8.8107     91.9063     26.2407   3.6895988264e+01   5.6155868835e+01    0.2468765    0.1683846 -56.07 0.0007945591    1.829    0.453
       470  -8.2623    104.4022     22.8324   3.3035716432e+01   5.3729124147e+01    0.1477956    0.1239217  -2.11 0.0005397086    1.617    0.382
       471  -8.8984     63.6931     20.8444   4.3060325172e+01   6.2831850134e+01    0.2284775    0.1858845 -55.89 0.0007651247    1.639    0.390
       472  -8.8867     48.2888     21.2760   4.9018800518e+01   6.5836305695e+01    0.2224314    0.1984035 -44.82 0.0008556914    1.484    0.326
       473  -7.9833     34.3676     22.7072   5.6030764305e+01   6.8136607756e+01    0.1189651   0.09299283  56.93 0.0007027343    1.716    0.417
       474  -8.0940     19.5684     21.4831   6.3667051922e+01   7.0556167176e+01    0.1250296   0.09766489  13.77  7.09732e-05    1.009    0.009
       475  -9.0171     74.0492     19.0822   3.9157742424e+01   6.0837018052e+01     0.244387    0.1760075 -46.09 0.0006563294    1.747    0.428
       476  -8.0960     87.9525     17.4871   3.4943902635e+01   5.7958264695e+01     0.168765    0.1602879  71.12 0.0005048679    1.181    0.153
       477  -8.2238     38.8611     18.1349   5.1828238378e+01   6.7940101786e+01      0.17759    0.1544534  45.88 0.0005198216    1.295    0.228
       478  -7.8244    112.7437     16.9905   2.9725669912e+01   5.2448711433e+01    0.1321824    0.1078929 -37.06 0.0003529942    1.490    0.329
       479  -8.3698     30.2098     15.9809   5.5137216413e+01   6.9681478504e+01    0.1604206    0.1427258 -80.33 0.0007086358    1.923    0.480
       480  -8.2243     97.3522     15.1706   3.2099388731e+01   5.6086752877e+01    0.1558634    0.1089019 -47.85 0.0005036087    1.694    0.410
       481  -7.9437      7.6702     15.3342   6.8547646472e+01   7.2942916105e+01    0.1102806   0.08717266  41.52 0.0007052062    1.725    0.420
       482  -7.6802     17.0079     13.9693   6.1741820745e+01   7.1946998104e+01    0.1492037    0.1125411  17.83 0.0005243835    1.015    0.015
       483  -9.2606    175.7139    247.7227   6.6138716441e+01  -6.5555848817e-01    0.2778991    0.2364999 -76.51  0.001195217    2.134    0.531
       484  -8.1866     93.7108    248.8322   8.5326122938e+01   8.4222641161e+00    0.2381225    0.1604343  75.34 0.0009607105    2.395    0.582
       485  -9.3932    243.0873    245.7757   5.3602200753e+01  -6.4065352616e+00    0.3659902    0.1202169 -38.21  0.001946674    2.261    0.558
       486  -8.7212    218.5081    247.5817   5.7950045485e+01  -4.6804830679e+00    0.2601702   0.09057233 -42.92  0.001177497    2.458    0.593
       487  -8.5013    156.1956    247.9188   7.0335286824e+01   1.3895909528e+00    0.1796753    0.1624982  12.70 0.0006189717    1.295    0.228
       488  -8.6480    132.2418    247.7637   7.5776836296e+01   4.1242522195e+00    0.2233841    0.1893215  48.01  0.000736214    1.546    0.353
       489  -7.8833    113.0000    247.9967   8.0433112797e+01   6.3278288378e+00    0.1980521   0.07739531 -56.42 0.0007962934    2.900    0.655
       490  -9.0620    103.7775    246.7057   8.2550586775e+01   7.6776223802e+00    0.4208002    0.2480848 -81.60  0.001792838    3.156    0.683
       491 -10.0517    224.0258    244.0127   5.6472356130e+01  -4.6137565861e+00    0.4290371    0.2092806 -50.03  0.002321933    2.533    0.605
       492  -9.9067    147.2190    245.3324   7.1973467822e+01   2.8643321319e+00    0.3560311    0.2911522 -34.50  0.001280673    1.279    0.218
       493  -8.7977     67.5113    244.5000   9.1538762603e+01   1.2360157785e+01    0.2488189    0.1377139 -65.56 0.0009276325    2.075    0.518
