#   1 NUMBER                 Running object number                                     
#   2 MAG_AUTO               Kron-like elliptical aperture magnitude                    [mag]
#   3 X_IMAGE                Object position along x                                    [pixel]
#   4 Y_IMAGE                Object position along y                                    [pixel]
#   5 X_WORLD                Barycenter position along world x axis                     [deg]
#   6 Y_WORLD                Barycenter position along world y axis                     [deg]
#   7 A_WORLD                Profile RMS along major axis (world units)                 [deg]
#   8 B_WORLD                Profile RMS along minor axis (world units)                 [deg]
#   9 THETA_WORLD            Position angle (CCW/world-x)                               [deg]
#  10 FWHM_WORLD             FWHM assuming a gaussian core                              [deg]
#  11 ELONGATION             A_IMAGE/B_IMAGE                                           
#  12 ELLIPTICITY            1 - B_IMAGE/A_IMAGE                                       
         1 -14.5422    193.7756     15.5079   7.0467900024e+01   3.4629300425e+01     2.896627     1.743769  27.47   0.01267676    2.205    0.547
         2 -10.6653     32.8655      6.5968   1.0794038108e+02   7.0037199832e+01    0.3527877   0.06382712 -39.12  0.001200493    4.620    0.784
         3 -10.4883    198.9914    246.9798   1.2318557458e+02  -1.3567039845e+00    0.1674886    0.1263669  61.25  0.001140128    1.720    0.418
         4 -11.3178    248.8405    248.3424   1.1540587981e+02  -9.0012156684e+00    0.2929025     0.226004  -1.93  0.002297919    1.302    0.232
         5 -11.4275    140.6170    250.1965   1.3321429655e+02   7.3887262294e+00    0.4393468     0.109371  43.21  0.001857569    3.074    0.675
         6 -10.8409    126.0574    249.9211   1.3557664491e+02   9.6315578929e+00    0.2937978    0.1102834  50.04  0.001530437    2.092    0.522
         7 -11.5184     98.8776    249.1984   1.3992456092e+02   1.3681730227e+01    0.3546411    0.2143666  56.22  0.001804216    1.249    0.199
         8 -11.5616    102.6950    248.3262   1.3923354001e+02   1.3272500443e+01    0.2988159    0.1769336  48.03  0.001570351    1.310    0.236
         9 -10.1348     88.8940    249.1833   1.4152073433e+02   1.5063362633e+01    0.1912186    0.1308106  78.32 0.0006543393    1.363    0.266
        10 -12.1724     81.2067    248.3910   1.4267907010e+02   1.6216949485e+01    0.5954689    0.2528688  49.58  0.003601618    1.743    0.426
        11 -11.2619     84.1588    245.1598   1.4195886437e+02   1.6318873450e+01     0.460661    0.2071909  72.54  0.002355881    2.979    0.664
        12 -11.4226     65.8882    249.5927   1.4515902777e+02   1.8009776788e+01     0.314995    0.2439015  42.51   0.00251821    1.560    0.359
        13 -11.8262     68.9996    244.0455   1.4429055897e+02   1.8481493248e+01    0.3698139    0.1994811  44.54  0.002484003    1.604    0.377
        14  -9.5093     56.8331    250.1743   1.4658342827e+02   1.9035050501e+01    0.1594983   0.09641466  63.21 0.0006324875    1.190    0.160
        15 -13.3644     32.8802    246.6104   1.4997401583e+02   2.2349694785e+01     1.223282    0.4369192  43.11  0.007532584    2.291    0.564
        16 -15.5888     11.8987    236.9188   1.5261153276e+02   2.6082094137e+01     6.844437    0.9894156 -68.72   0.03033126    5.450    0.817
        17 -11.5139    173.9524    222.2630   1.2403626884e+02   5.8436163861e+00    0.3853791    0.3093204  73.46  0.002512809    1.575    0.365
        18  -9.3046    152.6808    212.9473   1.2656112812e+02   1.0856867742e+01    0.1581424    0.1452002  61.19 0.0003668081    1.126    0.112
        19 -11.1375     34.9919    206.5902   1.4729210625e+02   2.8963532255e+01     0.335524    0.1922876  56.33  0.001747598    1.414    0.293
        20 -11.6298     73.3028    197.3939   1.3958907663e+02   2.6031788752e+01    0.3249068    0.2309855 -47.79  0.001989044    1.987    0.497
        21 -11.3719     95.6267    240.6685   1.3971798292e+02   1.5435296933e+01    0.2562778    0.2164531 -45.29  0.001629095    1.842    0.457
        22 -10.6664    192.5109    194.0045   1.1619664266e+02   6.6410492799e+00    0.5453676    0.2940775 -62.68  0.001970409    4.818    0.792
        23  -8.5493     65.6642    194.7350   1.4077097446e+02   2.7551354955e+01   0.09558541   0.09281914 -29.54 0.0006973625    1.587    0.370
        24 -11.7554     77.9024    189.9178   1.3791594771e+02   2.6842726225e+01    0.2581146    0.2116084 -58.46 0.0007694639    1.473    0.321
        25 -11.1475     85.9437    177.6109   1.3483909655e+02   2.8142009257e+01    0.2209727    0.1941879  78.29 0.0003827856    1.080    0.074
        26 -13.2963     73.8806    175.2802   1.3704435398e+02   3.0325673635e+01    0.4276508    0.2735852 -43.61  0.001610533    2.250    0.556
        27 -11.0928    117.2065    175.0378   1.2795725155e+02   2.3696982062e+01    0.7567822    0.1403617  44.63  0.002233694    4.744    0.789
        28 -12.4522     91.9133    168.5863   1.3236932926e+02   2.9096981585e+01     1.068339    0.4618324  50.77  0.002024906    2.252    0.556
        29 -11.7741     79.2423    160.3501   1.3396887712e+02   3.2698946603e+01     1.394512    0.5834438  66.97  0.004180164    5.808    0.828
        30 -13.0637     67.4024    144.0925   1.3433675735e+02   3.7855391291e+01    0.9401717    0.5464076  73.58  0.004196633    2.096    0.523
        31 -13.1274     58.1082    132.2063   1.3479522025e+02   4.1679829482e+01     1.871725    0.5903603 -73.64  0.005386123    5.654    0.823
        32 -10.1906    103.1701    151.8749   1.2727087175e+02   3.0825212075e+01    0.2936213    0.2466926  79.24 0.0008437688    1.141    0.124
        33  -9.5700    105.7756    147.6265   1.2592997475e+02   3.1298637853e+01    0.3580736    0.2301414 -32.40  0.001638421    2.357    0.576
        34 -12.2143     92.4330    151.3263   1.2963816623e+02   3.2669579180e+01    0.2546125     0.250474 -36.48   0.00146686    1.270    0.213
        35 -13.8004      9.2757    207.8290   1.5167138926e+02   3.1328333761e+01     1.047704    0.7349926 -62.95  0.004356846    1.840    0.456
        36 -12.1047     40.6591    146.4718   1.4082732666e+02   4.0500207538e+01    0.3876156    0.2124413 -64.07  0.002216456    1.587    0.370
        37  -9.1066    134.0000    144.4884   1.1884698676e+02   2.6829416446e+01    0.3092643   0.08077016 -48.96 0.0009320466    3.913    0.744
        38  -8.6443    192.0067    144.0534   1.0637932700e+02   1.4877832077e+01       0.1699    0.1605116  -9.87 0.0003942161    1.061    0.058
        39  -9.2302    242.3135    138.7003   9.6026507592e+01   5.2421638485e+00    0.1287276    0.1096422 -63.66  0.000250599    1.608    0.378
        40 -10.0728    113.0530    136.7688   1.2216613763e+02   3.2373084085e+01    0.3201199    0.2669309  -5.39  0.001083391    1.675    0.403
        41 -10.7068    100.6798    134.2462   1.2465586851e+02   3.5067226574e+01    0.2792775     0.222927 -38.17 0.0007353109    1.460    0.315
        42 -10.5239     70.1524    135.1553   1.3229783290e+02   3.9476260351e+01    0.1924831    0.1718565 -58.77 0.0008366903    1.206    0.170
        43 -12.4860     43.5323    129.3708   1.3798007493e+02   4.3973007385e+01    0.4050814    0.2980336  80.74  0.002549683    1.300    0.231
        44 -12.8398     50.7969    231.6980   1.4634506942e+02   2.2738477648e+01    0.3344536    0.2549966 -68.36  0.001274644    1.636    0.389
        45 -15.3001     58.6418    218.9687   1.4413491939e+02   2.3973746439e+01     6.224273    0.8283419  43.71   0.02389737    4.452    0.775
        46 -10.8973    168.3691    113.3961   1.0392485727e+02   2.5783341723e+01    0.4141339    0.3238996 -77.76  0.001303855    1.676    0.403
        47 -15.5658      2.6387    135.9868   1.4830343879e+02   4.6092626585e+01       14.986          nan -73.96   0.03042427   14.008    0.929
        48 -11.0068     39.1360    231.9648   1.4821748219e+02   2.4042090947e+01    0.2960572    0.1181634  54.56  0.001390082    1.881    0.468
        49  -9.4857    109.1236    123.9504   1.2046103715e+02   3.5869960220e+01    0.2040866    0.1909484 -83.65 0.0003773971    1.020    0.019
        50 -10.3344    228.5070    228.0089   1.1554776558e+02  -3.9162111424e+00    0.3196591    0.2072073 -51.76  0.001826655    2.780    0.640
        51 -10.0682    162.9379    249.5067   1.2945284468e+02   4.0156135603e+00    0.1802859   0.08581468  44.12  0.001031057    1.585    0.369
