#   1 NUMBER                 Running object number                                     
#   2 MAG_AUTO               Kron-like elliptical aperture magnitude                    [mag]
#   3 X_IMAGE                Object position along x                                    [pixel]
#   4 Y_IMAGE                Object position along y                                    [pixel]
#   5 X_WORLD                Barycenter position along world x axis                     [deg]
#   6 Y_WORLD                Barycenter position along world y axis                     [deg]
#   7 A_WORLD                Profile RMS along major axis (world units)                 [deg]
#   8 B_WORLD                Profile RMS along minor axis (world units)                 [deg]
#   9 THETA_WORLD            Position angle (CCW/world-x)                               [deg]
#  10 FWHM_WORLD             FWHM assuming a gaussian core                              [deg]
#  11 ELONGATION             A_IMAGE/B_IMAGE                                           
#  12 ELLIPTICITY            1 - B_IMAGE/A_IMAGE                                       
         1 -19.5352    219.4306    163.0913   1.7367726527e+01   9.5921715628e+00     5.385209     4.502426 -26.68   0.03096284    1.085    0.078
         2 -13.8625      6.7170     47.3813   5.6510606356e+01   6.9671789705e+01    0.9846149    0.4245165  38.02  0.003715091    2.572    0.611
         3 -12.4400    220.7386     38.1489   3.5184628630e+02   2.7901528381e+01    0.8131381    0.2691876 -47.05  0.002981045    2.229    0.551
         4  -9.8551    120.4340      9.5620   3.5397925117e+02   5.3235458534e+01    0.2692695    0.2457514 -57.82  0.001183974    1.152    0.132
         5 -10.8738    206.3139      8.3331   3.4622774352e+02   3.4018597685e+01    0.2249134    0.1723562  67.59 0.0008016498    1.579    0.367
         6 -10.7515    246.7737      3.1555   3.4338713515e+02   2.7208123773e+01     0.292364    0.1615256  76.55  0.001503172    2.046    0.511
         7 -11.4216    235.4281      3.1506   3.4380531664e+02   2.9141925340e+01    0.3602728    0.1579365  86.18  0.002160762    2.335    0.572
         8 -10.1710    119.9719    156.0154   3.6024216848e+01   2.6072809630e+01    0.2156548    0.2078551 -14.67            0    1.017    0.017
         9 -10.3258    136.4984    250.5268   4.6332096875e+01   5.4097978635e+00    0.4495282     0.186721  20.21  0.001019139    2.236    0.553
        10 -10.8250    133.6116    247.8217   4.6615397505e+01   6.1516596017e+00    0.4074705    0.2708108  62.16  0.001436159    2.800    0.643
        11 -10.1339     99.0794    152.7016   4.1081382922e+01   3.0288361192e+01    0.3084606    0.2167791 -61.63 0.0006046674    1.487    0.327
        12  -8.7805     51.2054    153.1474   5.6004857661e+01   3.7093995982e+01    0.2185253    0.1915453 -48.14 0.0005582817    1.212    0.175
        13 -10.4249    128.4864    239.7844   4.6750444277e+01   8.0446051386e+00    0.2127782    0.1991329  29.16  0.001083863    1.261    0.207
        14 -10.6584     69.7586    145.5752   4.8758132233e+01   3.6630581729e+01    0.4066255    0.3525084 -75.37  0.001124288    1.168    0.144
        15 -11.5041     66.1792    142.9945   4.9492803148e+01   3.7826294369e+01    0.7088815    0.4737981 -56.05  0.002508364    1.487    0.327
        16  -8.3398     94.2900    138.3295   3.9687771548e+01   3.4622827158e+01    0.1558369     0.118249 -23.14 0.0003172538    1.622    0.383
        17  -9.0741    234.2372    225.4734   2.5264232899e+01  -8.7566459770e-01    0.1288853   0.08636811  11.78  0.000392667    1.387    0.279
        18 -10.8983    177.5096    233.1876   3.5987657874e+01   3.6544637542e+00    0.4531215    0.3356311 -18.82   0.00314341    1.185    0.156
        19  -8.9500     20.0749    118.3048   6.2729421869e+01   4.9965202693e+01    0.2568475    0.1769678 -64.22 0.0005988467    1.358    0.263
        20 -10.3824     75.2713    116.1507   4.1076392443e+01   4.3483298778e+01    0.3569252    0.2588021 -48.65 0.0005889838    1.388    0.280
        21  -9.9763      8.8541    112.3529   6.6656984727e+01   5.2451019404e+01    0.4329359    0.2035192 -66.89  0.001480321    1.881    0.468
        22 -10.6095    194.4760    222.0108   3.1271626089e+01   3.4996020949e+00    0.3726092     0.242101   1.09  0.001841016    1.428    0.300
        23  -8.5665     96.7670    103.8044   3.0887661774e+01   4.2606222926e+01    0.2061739    0.1767854  83.53 0.0003571716    1.293    0.227
        24 -11.2751    150.2105    100.8884   1.6399001617e+01   3.2239423587e+01    0.3539562    0.2952944  60.68  0.001902722    1.282    0.220
        25 -10.1424    101.9413     98.5918   2.7899895538e+01   4.2777162501e+01    0.2950927    0.2261007 -60.42 0.0007175758    1.343    0.255
        26 -12.8299     65.4476     79.1931   3.4976972165e+01   5.4390740366e+01    0.7813651    0.7326474 -51.78 0.0006799395    1.069    0.065
        27 -12.5456     78.4579     91.4439   3.3639572370e+01   4.9081174283e+01    0.9974333    0.6998747  59.42  0.001406966    1.628    0.386
        28 -13.6272     74.1300     83.5900   3.2931558879e+01   5.1754840637e+01     2.053504     1.141791  49.67  0.007561482    1.912    0.477
        29 -10.5242    138.8124     95.2349   1.7386446440e+01   3.5730102624e+01     0.252714    0.2337181 -64.82 0.0006064816    1.026    0.026
        30 -10.8540    139.6277    218.0552   4.1524601160e+01   1.0510836689e+01    0.3179567    0.2261994 -62.75  0.001817003    1.894    0.472
        31 -10.1932    182.1117    232.9108   3.5091487456e+01   3.2076590688e+00    0.4032704    0.2023847   3.74  0.002024949    2.508    0.601
        32  -8.6149      7.1368     82.7976   6.3651111759e+01   6.0645000545e+01     0.205793    0.1469278 -44.13 0.0008415413    1.345    0.256
        33 -10.3072    134.8461     79.0269   1.3813554714e+01   3.9715584188e+01    0.3439055    0.2181247 -25.65   0.00138289    2.091    0.522
        34 -11.4571    134.7001    209.1321   4.1340598468e+01   1.2775159168e+01    0.3838687    0.3509815 -21.67  0.002503994    1.132    0.116
        35 -10.7181    140.5263     79.2880   1.2678742027e+01   3.8402103174e+01    0.3740553    0.2477984  69.41  0.001176569    1.707    0.414
        36  -9.5352    109.3866     78.2222   1.9824071310e+01   4.5570576917e+01    0.3324389    0.2509157 -15.36  0.001234589    1.861    0.463
        37  -9.6891    247.9085     78.1762   3.5777913618e+02   1.8155423126e+01    0.2195486    0.1570529  72.90  0.001080967    1.794    0.442
        38 -13.1496     45.8612     70.4615   4.0897163762e+01   5.9727030808e+01     1.008091    0.9569089  22.13  0.003556271    1.053    0.050
        39 -11.7092    142.0383     70.9831   1.0026682758e+01   3.9547578421e+01    0.4944117    0.3516529  54.23  0.001782289    1.466    0.318
        40 -10.5408    148.2609     65.8713   7.4026540687e+00   3.9008776648e+01    0.3615941    0.2316923  30.94   0.00113397    2.530    0.605
        41  -9.1954    107.1968     70.3396   1.7953083160e+01   4.7617070087e+01    0.4803878     0.284492 -16.36  0.001601376    3.751    0.733
        42 -11.3065    218.5247     70.3104   3.5895617134e+02   2.4044970384e+01    0.4451587    0.1994214  58.58  0.002288681    2.642    0.621
        43 -10.0775    170.3792    234.5581   3.7531970020e+01   4.2138932113e+00    0.3296355    0.1938919  41.82   0.00173671    2.208    0.547
        44 -10.0053    158.2401     67.9522   6.2527297700e+00   3.6437127425e+01    0.2316267     0.198103  61.49 0.0003999484    1.256    0.204
        45  -8.8369     24.3029     68.3137   5.1421559666e+01   6.3027501424e+01    0.1502416    0.0994388 -31.78 0.0002793479    1.615    0.381
        46 -10.6760    225.9508     65.8773   3.5729263918e+02   2.3368605173e+01    0.2422019    0.1658391  66.16  0.001064745    1.756    0.431
        47 -10.7501    213.4621     65.4309   3.5841530364e+02   2.5641162854e+01    0.2946496    0.2122047 -88.58  0.001110281    1.551    0.355
        48 -11.1093    140.4267    206.5826   3.9690930674e+01   1.2509365892e+01     0.509898    0.2702251 -65.91  0.002066343    3.324    0.699
        49 -11.3797    174.4079     62.2580   2.3004173944e+00   3.3828900131e+01     0.366128    0.2895437 -31.08 0.0006406556    1.368    0.269
        50 -11.5001    174.5114     55.2026   4.7077266331e-01   3.4857360558e+01    0.5648299     0.299477  42.60 0.0003704165    2.860    0.650
        51 -10.4370    206.5346     60.8974   3.5812070129e+02   2.7563731609e+01    0.3101492    0.2019656 -34.26 0.0009081492    1.453    0.312
        52 -10.0020    194.5031     62.1732   3.5973674626e+02   2.9710729748e+01    0.2470942    0.1667473 -68.10 0.0006906613    1.487    0.327
        53  -9.6844     47.7062    235.4852   6.4911210476e+01   1.7814918815e+01    0.2076823     0.184979 -23.56 0.0003006254    1.368    0.269
        54 -10.6735    220.2924     59.2406   3.5641080095e+02   2.5263225216e+01    0.2417168    0.2021123  69.29 0.0006937624    1.446    0.308
        55 -11.6691    141.7741    231.3910   4.2870509210e+01   7.9348305726e+00    0.4140353    0.2767769 -12.70  0.002433744    1.583    0.368
        56  -9.7127    241.6264    231.5020   2.5038421470e+01  -2.2685567323e+00    0.1582604    0.1182572 -13.05 0.0005974755    1.149    0.130
        57 -10.1903    144.4462     59.7044   6.3177103668e+00   4.0886266465e+01    0.2645119    0.2353489 -78.24 0.0006453702    1.038    0.037
        58  -9.6500    239.1405     55.9827   3.5414457149e+02   2.2458930499e+01    0.1695185    0.1372237 -62.46 0.0004025484    1.154    0.133
        59  -9.0603    213.9769     56.4498   3.5639274944e+02   2.6786815726e+01    0.1607487    0.1148034  75.40  0.000770438    1.574    0.365
        60  -9.8666    196.0359     55.9855   3.5810247298e+02   3.0288778292e+01    0.1921917    0.1630959 -57.58 0.0004755426    1.051    0.049
        61  -8.9937    224.6800    247.3358   2.9832194263e+01  -2.7583113924e+00    0.1186803    0.1108589  -0.62 0.0005841046    1.823    0.451
        62 -11.1626    244.9013    227.4201   2.3973646884e+01  -2.0483988971e+00    0.2189173    0.1490051 -29.78 0.0006704811    1.336    0.251
        63 -10.3829    105.1150    167.5190   4.2052288961e+01   2.5797922827e+01     0.385453    0.2592162 -73.37  0.001765673    1.865    0.464
        64 -11.0739    219.7106     51.8191   3.5486796569e+02   2.6355727313e+01    0.4214433    0.1933901  62.47  0.002256426    2.517    0.603
        65 -10.0937    244.3733     51.0670   3.5278197089e+02   2.2226044590e+01    0.1828747    0.1447555 -81.80 0.0003835049    1.359    0.264
        66 -11.2123    119.3870    230.8375   4.7665803505e+01   1.0661860375e+01    0.2712271    0.2444879  34.02 0.0008662001    1.199    0.166
        67  -8.8442    126.0087     50.4947   7.0107324622e+00   4.6677381478e+01     0.212025    0.1329997  59.08 0.0005921441    1.554    0.356
        68 -10.1705    181.9977     45.7900   3.5716141973e+02   3.4581211473e+01    0.2340269    0.1900239 -89.11 0.0007727172    1.203    0.169
        69  -8.1615    169.2441     46.3403   3.5881949520e+02   3.7267609355e+01    0.1172218    0.1037892   3.21 0.0002587905    1.561    0.359
        70 -10.1206     71.1603    195.2267   5.5312125051e+01   2.4002977380e+01    0.3159881    0.2283287 -23.64 0.0009427016    1.732    0.423
        71  -9.8805    163.1886     42.2431   3.5848084085e+02   3.9182918423e+01    0.2585118    0.2047798  48.01 0.0009464082    1.553    0.356
        72 -10.3905     22.9003     43.3062   4.4191338495e+01   6.9078118071e+01    0.2251318    0.1648499  43.17  0.001205832    1.507    0.336
        73  -9.2217    147.9783     42.1666   5.7238429031e-01   4.2693062910e+01    0.3245296    0.1421908  45.99  0.001242295    3.152    0.683
        74  -8.1742      1.2726    178.6833   7.3872948248e+01   3.5056743898e+01    0.1426815   0.08094454  56.94  0.000326777    1.562    0.360
        75 -11.1940    193.4366     39.5002   3.5443582465e+02   3.3025758395e+01    0.3661311    0.2575703  60.59  0.001454638    1.656    0.396
        76  -9.6141    208.7882     34.0833   3.5185876287e+02   3.0646831777e+01    0.1993679    0.1584348  86.67  0.000574683    1.315    0.240
        77 -10.4857    170.1966     34.1547   3.5544748401e+02   3.8672868229e+01    0.2524302    0.2236428  75.84 0.0006396183    1.236    0.191
        78 -11.4553    225.5084     26.1984   3.4898991047e+02   2.8446814301e+01    0.3181619    0.2035743  84.54  0.001272125    1.643    0.391
        79 -11.6475    231.1761     50.8416   3.5372044720e+02   2.4457558292e+01    0.4812665    0.2537453  83.17  0.002073793    2.336    0.572
        80  -8.4582    130.0238     26.5507   3.5841504079e+02   4.9027872601e+01    0.1933925     0.122176  70.79 0.0003044501    1.471    0.320
        81  -9.2809    197.4110     27.2036   3.5116114108e+02   3.3724733635e+01    0.1836559    0.1506134  79.68 0.0006138807    1.324    0.245
        82  -9.0713    155.5725     24.4680   3.5438650240e+02   4.3182043329e+01    0.2837248    0.1769777  36.48  0.001268682    2.505    0.601
        83 -10.4058    179.7316     23.7915   3.5179091282e+02   3.7832429012e+01     0.426611    0.2064919  76.00  0.002168011    2.045    0.511
        84 -11.4544    123.4460    174.3884   3.8493251465e+01   2.1429140295e+01    0.4943681    0.3616457 -88.95  0.002351151    2.084    0.520
        85 -10.9047    229.7685     14.9797   3.4643161453e+02   2.8920883084e+01    0.3043667    0.1414618  75.84  0.001247693    2.310    0.567
        86  -9.3582    189.9952     15.4796   3.4890644030e+02   3.6576581369e+01    0.1711188    0.1056001  86.13 0.0005034559    1.548    0.354
        87 -10.0608    181.8892     12.9448   3.4886127357e+02   3.8565509102e+01    0.3595814    0.1291473  63.46  0.001639867    2.832    0.647
        88  -9.0484    225.7174    240.9080   2.8783203593e+01  -2.0605590257e+00     0.134496   0.09613831 -10.13 0.0002036317    1.027    0.026
        89  -8.2753    151.4800     10.4683   3.5072586092e+02   4.5662431255e+01    0.1259977    0.1087893 -81.58  0.000439073    1.074    0.069
        90  -8.1591    234.6955    240.9703   2.7409669668e+01  -2.8318990855e+00    0.1246132   0.08878442  -6.80 0.0005407252    1.067    0.063
        91 -11.6068    126.4488    166.2068   3.6294850703e+01   2.2747321439e+01    0.5909852    0.3157855 -52.70 0.0004679642    1.906    0.475
        92  -9.3040     36.7358    160.4082   6.1614880410e+01   3.6787593656e+01    0.2658681     0.187642 -77.36 0.0006558896    1.402    0.286
