#   1 NUMBER                 Running object number                                     
#   2 MAG_AUTO               Kron-like elliptical aperture magnitude                    [mag]
#   3 X_IMAGE                Object position along x                                    [pixel]
#   4 Y_IMAGE                Object position along y                                    [pixel]
#   5 X_WORLD                Barycenter position along world x axis                     [deg]
#   6 Y_WORLD                Barycenter position along world y axis                     [deg]
#   7 A_WORLD                Profile RMS along major axis (world units)                 [deg]
#   8 B_WORLD                Profile RMS along minor axis (world units)                 [deg]
#   9 THETA_WORLD            Position angle (CCW/world-x)                               [deg]
#  10 FWHM_WORLD             FWHM assuming a gaussian core                              [deg]
#  11 ELONGATION             A_IMAGE/B_IMAGE                                           
#  12 ELLIPTICITY            1 - B_IMAGE/A_IMAGE                                       
         1 -16.3716     21.2819    133.4812   1.3556826332e+02   4.5961802323e+01     7.171504     3.805502  24.37   0.03807822    2.362    0.577
         2 -11.2366    170.9310     37.7858   7.0747346168e+01   3.8016297902e+01    0.9407525    0.5457693 -51.95  0.004486899    1.895    0.472
         3 -10.2098      3.2791      2.3827   1.0798413397e+02   7.2346986863e+01    0.6592588    0.2722496 -29.98  0.004011058    1.995    0.499
         4 -11.6905     10.5312      4.9973   1.0558421974e+02   7.1404351077e+01       1.2672    0.5008156 -21.76  0.006435986    2.899    0.655
         5 -10.1898    190.3162      8.3924   6.0632686836e+01   3.6709953040e+01    0.5430513     0.313222 -87.95  0.002837202    1.729    0.422
         6  -9.6320    194.1144      4.8727   5.9396834990e+01   3.6171402534e+01    0.4905922    0.2597375 -69.06   0.00245009    2.075    0.518
         7 -10.4988     26.1772      8.4360   9.9910436781e+01   6.9402352287e+01    0.2853903    0.1401653   9.31   0.00151701    2.532    0.605
         8  -9.9347     42.2846      3.9612   9.1221682191e+01   6.7841815879e+01    0.3570901    0.1677898  14.27  0.001737714    2.870    0.652
         9  -7.8142     90.3857      7.7746   7.7537891125e+01   5.9335011514e+01    0.1498178    0.1063703   2.51 0.0003163601    1.489    0.329
        10  -7.6966     89.5520      1.4751   7.5379286601e+01   6.0009712109e+01    0.1210315   0.09536987  35.29 5.539132e-05    1.039    0.038
        11  99.0000     12.3238    220.4037   1.4619558804e+02   2.7040893372e+01     0.193407     0.137724 -38.42  0.001185418    2.557    0.609
        12 -10.4930    159.4388    215.5488   1.1545517332e+02   5.7555139958e+00    0.7220384    0.4431478  41.11 0.0005783812    1.497    0.332
        13 -12.9578    192.9712    195.2353   1.0468336117e+02   3.3721245314e+00     2.117561     1.806247  87.06  0.009581571    1.543    0.352
        14  99.0000     39.9019    189.4154   1.3802912431e+02   3.0871514950e+01     1.727682    0.8578698  41.67  0.008848949    2.032    0.508
        15 -14.9975    107.3557    228.4122   1.2837301981e+02   1.2405399846e+01     1.014199    0.7096685 -54.89  0.005641789    1.606    0.377
        16 -18.3582     67.2968    241.2235   1.3773818590e+02   1.5977488137e+01     5.298527     2.602859  52.57   0.02807952    1.719    0.418
        17 -15.9236     85.2253    227.7035   1.3281487723e+02   1.6099385553e+01     1.183232    0.5812589  55.63  0.005635167    1.920    0.479
        18  99.0000     16.4436    216.5072   1.4516934133e+02   2.7436360945e+01    0.1832371    0.1451949 -41.15  0.001221962    2.031    0.508
        19 -10.9602     19.3059    215.2868   1.4454674049e+02   2.7394910497e+01    0.1189375   0.09477804  66.73 0.0008328239    1.195    0.163
        20  -9.0457      8.3756    221.3904   1.4696708074e+02   2.7234938404e+01    0.1176722    0.1129581  73.35  0.000929592    1.539    0.350
        21 -10.3363    122.8580    213.2926   1.2295668170e+02   1.2891881443e+01    0.2137267    0.1796541  66.83 0.0003081753    1.118    0.106
        22 -10.2398    109.7049    202.7465   1.2424540377e+02   1.7501862792e+01    0.3769946    0.2253107 -53.01  0.001124921    1.763    0.433
        23 -12.1924    106.7854    212.8099   1.2637269222e+02   1.5788727695e+01    0.3079214    0.2251285  73.46 0.0009613019    1.400    0.286
        24 -11.1995    108.8327    209.5241   1.2545277397e+02   1.6154883647e+01      0.23596    0.2057139 -88.48 0.0003993753    1.108    0.097
        25  99.0000     10.3133    211.1223   1.4591663146e+02   2.9207400251e+01    0.3887872    0.1733291  68.68  0.001994458    2.141    0.533
        26  99.0000     16.2662    210.3328   1.4474325739e+02   2.8777107220e+01     0.211024    0.1348086  44.27  0.001350321    1.628    0.386
        27  -9.3015    117.9323    209.2383   1.2341418599e+02   1.4632420066e+01    0.1853596    0.1588571  66.77 0.0002501218    1.072    0.067
        28  -9.5892    167.0040    207.9819   1.1253039103e+02   5.8256102084e+00    0.3223515    0.2242156  64.03 0.0007004069    1.788    0.441
        29  -9.3770    163.5975    205.8091   1.1286996174e+02   6.9008540077e+00    0.2308651    0.1951957  51.54  0.000512868    1.151    0.131
        30 -10.2843    163.5141    201.3923   1.1208819460e+02   7.8071508002e+00    0.4531598    0.3052137  51.50 0.0005751271    1.494    0.330
        31  -8.5573    158.3357    207.8288   1.1435979030e+02   7.4908448843e+00    0.2497178    0.1801036  51.50 0.0006639038    1.356    0.262
        32 -11.1370     53.5820    208.2339   1.3714318267e+02   2.4875910946e+01    0.1594307    0.1183217 -81.87 0.0003127705    1.178    0.151
        33  -8.4662    129.0000    205.6904   1.2041408213e+02   1.3409299411e+01    0.2999855   0.08132574 -54.06 0.0009301551    3.898    0.743
        34  99.0000     21.5784    206.5669   1.4342702451e+02   2.9041774311e+01    0.1875812   0.09483481 -75.47  0.000847134    1.640    0.390
        35 -11.6046     23.5600    203.5255   1.4278398036e+02   2.9500711410e+01    0.1790233    0.1412262  36.55 0.0007675377    1.593    0.372
        36 -12.8337     19.8642    203.0332   1.4347158158e+02   2.9998137897e+01    0.2461456    0.1904826  59.24  0.001692103    1.271    0.213
        37 -10.9439    118.0038    201.2411   1.2214912623e+02   1.6372763708e+01    0.2585032    0.1899113 -64.96 0.0002575287    1.401    0.286
        38 -12.1117    115.1587    198.1167   1.2229016471e+02   1.7578888631e+01    0.4592643    0.2930699 -79.18 0.0004169183    1.931    0.482
        39 -11.2759     98.2954    201.8059   1.2665651601e+02   1.9655509422e+01    0.2159449    0.1875044  66.72 0.0003559466    1.046    0.044
        40 -13.5201    119.2874    220.9372   1.2485285462e+02   1.1917375476e+01     1.600304    0.8898682  78.31  0.006104385    3.267    0.694
        41 -10.9197     10.3819    201.1463   1.4516916607e+02   3.1358927862e+01   0.08774316   0.08270386  23.73 0.0004133414    1.597    0.374
        42  99.0000     17.2193    197.4884   1.4353437637e+02   3.1495702325e+01    0.2399888    0.1498218  24.65  0.001404883    2.284    0.562
        43  99.0000     26.3635    194.8112   1.4144161889e+02   3.1150584547e+01     0.251736    0.1741952 -80.96  0.001125139    1.176    0.150
        44  99.0000     22.6664    194.8104   1.4220132769e+02   3.1539847060e+01     0.288652    0.1436483  42.93   0.00157829    2.008    0.502
        45  -9.0517     23.8242    191.6389   1.4167289582e+02   3.2136353026e+01     0.158445    0.1138574 -89.67  0.000339391    1.103    0.093
        46 -10.1213      3.8631    196.5141   1.4608145727e+02   3.2977420359e+01    0.1775732   0.08909034  62.11  0.001004629    1.844    0.458
        47 -14.1893     80.1031    198.4436   1.3024923565e+02   2.3332973788e+01     1.620731     1.503629  41.82   0.01001394    1.290    0.225
        48  -7.7262    135.6198    196.1426   1.1732181333e+02   1.4253771090e+01    0.1449745   0.09100418  53.56 0.0002701371    1.600    0.375
        49 -10.4892    102.5539    194.0573   1.2452232553e+02   2.0705568904e+01    0.3282726    0.1942886  35.85  0.001024996    1.815    0.449
        50 -12.9247    187.7216    243.4249   1.1428354404e+02  -4.1739620760e+00     3.135188     1.757739  38.41   0.01635561    1.552    0.356
        51  -8.5081    108.3266    188.0771   1.2222161610e+02   2.1086234209e+01    0.1796168    0.1571265 -87.86 0.0002550856    1.090    0.082
        52 -13.0333    180.5167    222.8474   1.1231883978e+02   5.4792747315e-01     3.283687     1.855027  33.88   0.01565684    1.709    0.415
        53 -10.3534     20.7180    184.8872   1.4169187512e+02   3.3989648802e+01    0.1365647    0.1006698 -86.35 0.0002301193    1.062    0.059
        54 -10.4562    208.6598    181.7729   9.8805404834e+01   2.9472724404e+00    0.4364344    0.3330698  -2.60  0.002205878    1.563    0.360
        55  -7.8887    156.7058    183.9915   1.1029778672e+02   1.2798546524e+01    0.2013346    0.1945163 -62.44 0.0003988029    1.061    0.058
        56 -10.5180    181.9388    179.5166   1.0384742691e+02   8.6590650017e+00    0.4538052    0.3059723  29.26  0.001343465    1.661    0.398
        57 -10.6256    180.2423    175.0020   1.0327561762e+02   9.9386582540e+00    0.4557043    0.3509638  26.15  0.001677499    1.435    0.303
        58  -8.6785    151.8891    181.2583   1.1085285326e+02   1.4359770728e+01    0.3112959    0.1908039  34.97  0.001339277    1.742    0.426
        59  -8.3560    147.0490    180.2763   1.1176934754e+02   1.5545012169e+01    0.2501749    0.2153764 -79.14 0.0004633136    1.252    0.201
        60  -9.9330    196.8850    171.8874   9.9115143684e+01   7.1912357402e+00    0.4387393    0.2676319 -46.13  0.001091985    1.640    0.390
        61 -11.9722     30.2668    174.7804   1.3855891480e+02   3.5357111228e+01    0.2964969     0.235114  -8.61  0.001781727    2.002    0.501
        62 -10.9546     61.7953    173.3323   1.3099952198e+02   3.1921278892e+01    0.2109465      0.18034 -75.88 0.0003015355    1.071    0.067
        63 -11.7523     48.1092    171.5617   1.3402679954e+02   3.4104062915e+01    0.2246067    0.1716798 -75.62 0.0002877588    1.116    0.104
        64  -8.9419     24.8547    172.7524   1.3956032278e+02   3.6384789424e+01    0.1088035   0.06914575 -64.79 -0.000430966    1.372    0.271
        65 -13.0176     45.8853    200.4356   1.3792698836e+02   2.7619517713e+01     1.193924    0.7555051  43.62  0.006830452    1.607    0.378
        66  -8.7580    170.8576    171.1425   1.0451597997e+02   1.2689224205e+01     0.231221    0.2061114 -86.78 0.0004354369    1.254    0.203
        67  -8.1968    143.9522    169.5303   1.1033923314e+02   1.8592666266e+01    0.2376371    0.1495247  42.33  0.001026922    1.582    0.368
        68 -12.5544     40.3130    168.0351   1.3542300246e+02   3.5860954827e+01    0.3056414    0.2190761  74.57  0.001067664    1.367    0.268
        69 -11.3001    122.8664    248.7712   1.2784704230e+02   5.8840760499e+00    0.1966171    0.1791725  43.09 0.0002943175    1.190    0.160
        70 -10.8769    132.3934    138.7862   1.0643493425e+02   2.8102972545e+01    0.6037394    0.3435592  33.27  0.002282253    2.102    0.524
        71  -8.0341    173.9654    153.0521   9.9875400815e+01   1.5941719693e+01    0.2380788     0.191055  -3.26 0.0005454739    1.621    0.383
        72  -8.4171     76.7878    167.6662   1.2646605401e+02   3.1152042217e+01    0.2250798    0.1430822  50.35   0.00109054    1.610    0.379
        73  -8.3428    220.9235    147.6354   8.9138521156e+01   7.0984337768e+00    0.2422003    0.1983936 -10.38  0.000656313    1.406    0.289
        74  -8.9831    143.1865    147.2299   1.0570407516e+02   2.3879446611e+01    0.2950147    0.2064178 -39.38  0.001305075    1.516    0.340
        75  -7.9450    149.7660    146.9665   1.0405714858e+02   2.2536336748e+01    0.2134733    0.2071891 -52.81  0.000517255    1.044    0.042
        76  -9.0858    241.5244    141.9998   8.4313537485e+01   4.0958589426e+00    0.2261591    0.1258913 -39.91  0.001014416    1.606    0.378
        77  -9.3555    142.4715    141.4682   1.0455213164e+02   2.5357030451e+01    0.4014867    0.2531025  70.29   0.00152011    2.340    0.573
        78 -13.5253     67.4243    143.2961   1.2468164660e+02   3.8462387730e+01     1.578267     0.889892  68.92  0.006215284    2.747    0.636
        79  -9.1961    144.1241    135.2093   1.0266700344e+02   2.6431816757e+01    0.2361946    0.2176407   7.49 0.0005037859    1.238    0.192
        80 -10.4703    136.0519    133.6959   1.0430726096e+02   2.8510239755e+01    0.5320971    0.2352631  48.61  0.001880604    2.357    0.576
        81  -8.9235    239.3081    129.0495   8.1862088489e+01   6.9035054594e+00    0.2025367    0.1619291 -44.29 0.0003806545    1.117    0.105
        82  -8.0348    162.6509    129.3133   9.6835865488e+01   2.3632343174e+01    0.2527733     0.202255  78.30 0.0006935418    1.467    0.318
        83  -9.0624    160.2382    126.4480   9.6684880849e+01   2.4802531552e+01    0.2841826    0.2098624  66.18 0.0009918706    1.542    0.351
        84  -9.9895    138.7055    123.8405   1.0122163010e+02   3.0176255737e+01    0.3624463     0.263413  43.05  0.001026547    1.410    0.291
        85 -10.4775    134.9427    121.1638   1.0149670797e+02   3.1590042685e+01    0.4767081    0.3199174 -33.87  0.002051009    1.672    0.402
        86  -8.7312    168.6392    114.6492   9.1819470852e+01   2.5382116058e+01    0.3216486    0.2502228 -80.31 0.0009549045    1.558    0.358
        87  -8.9513    196.5524    107.0471   8.4207597745e+01   2.0379541466e+01    0.2763102    0.2229961  62.13 0.0004874975    1.274    0.215
        88  -9.3854    135.1143    106.2459   9.7558093996e+01   3.4806405155e+01    0.2907714    0.2268803 -53.70   0.00065652    1.305    0.234
        89  -9.6076     23.1727    168.6124   1.3949311395e+02   3.7518066934e+01    0.2939028     0.146376  48.24 0.0008350734    2.093    0.522
        90  -7.8057     50.1491    165.5682   1.3272327093e+02   3.5296290450e+01    0.1518644    0.1293954  48.58 7.746419e-05    1.291    0.225
        91  -8.2142    156.1491     78.1393   8.4784058639e+01   3.5440719502e+01    0.2030273    0.1732426 -88.69 0.0002950898    1.277    0.217
        92  -7.6955     97.4411    164.5564   1.2075421572e+02   2.8582874495e+01    0.1475953    0.1356022 -85.52 0.0001622521    1.001    0.001
        93  -7.8142    155.4845    168.4930   1.0743414663e+02   1.6460305312e+01    0.1524475    0.1489079  76.58 0.0001808458    1.002    0.002
        94  -7.9023    146.4985     76.0048   8.6325882162e+01   3.8106118905e+01     0.199228    0.1348553  -6.31 0.0005071536    2.353    0.575
        95  -8.8278    235.0826     73.6216   7.0190317649e+01   1.7535757213e+01    0.2434612    0.1887998 -41.15 0.0004859416    1.289    0.224
        96  -8.3317    121.0170     67.7100   9.0064937391e+01   4.5318457290e+01    0.1987745    0.1751864  45.69 0.0002683069    1.106    0.096
        97 -11.4646    160.0401     53.1616   7.6928278274e+01   3.8552305821e+01    0.5866188    0.4402829 -14.83  0.002980735    1.688    0.407
        98 -13.5535    108.4146    245.0666   1.3022806273e+02   8.9448611682e+00    0.4143054    0.3828331  50.06  0.002782013    1.223    0.182
        99 -10.7804    172.1419     47.7666   7.3247867120e+01   3.6380691401e+01     0.659811    0.2664975  56.31  0.002629505    2.227    0.551
       100 -10.1668    176.5450     31.1945   6.8121910748e+01   3.7477482928e+01    0.4999939    0.3308409 -14.54  0.001280023    2.118    0.528
       101 -10.1437    135.6626    153.7364   1.0899513862e+02   2.3937754348e+01    0.8064836    0.4932709 -89.50  0.002452905    3.378    0.704
       102  -7.1907    132.6927     38.2687   7.8044491217e+01   4.7064474853e+01    0.1301375    0.1040691 -83.57  0.000191698    1.537    0.350
       103  -7.9897     15.1795     31.8428   1.1427394550e+02   6.7254059929e+01    0.1547384   0.09968002 -20.72 0.0003122727    1.290    0.225
       104  -8.2591    228.3439     25.1312   6.0414930787e+01   2.6036753575e+01    0.2447672    0.1595911 -23.74   0.00131899    2.144    0.534
       105  -9.5524    115.4666    246.7814   1.2905174574e+02   7.4715087183e+00    0.1523178    0.1244289 -64.46 0.0006896711    1.387    0.279
       106  99.0000    125.4429    241.3730   1.2638967951e+02   6.8237797450e+00    0.1299341    0.1097173  49.76 0.0002052102    1.062    0.058
       107 -10.6031    116.2022    241.1773   1.2821206268e+02   8.4088071486e+00    0.1955622    0.1517725  64.03 0.0002948522    1.168    0.144
       108 -11.8686    114.0617    237.3511   1.2815616329e+02   9.5037652982e+00    0.2104078    0.1831379  84.56 0.0002222417    1.144    0.126
       109  -9.2329     42.0346     10.4713   9.4213246340e+01   6.7202001581e+01    0.1653894   0.09513418  33.57  0.001031421    1.591    0.371
       110 -11.8025    247.4315    237.0304   1.0202107589e+02  -1.2518556810e+01    0.2146886    0.1856653  10.06 0.0003011294    1.171    0.146
       111 -11.5025    133.5538    144.7297   1.0751233604e+02   2.6476845659e+01    0.7315528    0.4748099 -55.76  0.002211653    1.560    0.359
       112 -15.2374     61.0156    206.0357   1.3534481406e+02   2.4370471773e+01      2.50945     0.649736 -67.37  0.008673151    3.783    0.736
       113 -15.1819     85.2957    210.6372   1.3071890269e+02   1.9771237002e+01    0.9866326    0.7719226 -48.25  0.005623528    1.574    0.365
