#   1 NUMBER                 Running object number                                     
#   2 MAG_AUTO               Kron-like elliptical aperture magnitude                    [mag]
#   3 X_IMAGE                Object position along x                                    [pixel]
#   4 Y_IMAGE                Object position along y                                    [pixel]
#   5 X_WORLD                Barycenter position along world x axis                     [deg]
#   6 Y_WORLD                Barycenter position along world y axis                     [deg]
#   7 A_WORLD                Profile RMS along major axis (world units)                 [deg]
#   8 B_WORLD                Profile RMS along minor axis (world units)                 [deg]
#   9 THETA_WORLD            Position angle (CCW/world-x)                               [deg]
#  10 FWHM_WORLD             FWHM assuming a gaussian core                              [deg]
#  11 ELONGATION             A_IMAGE/B_IMAGE                                           
#  12 ELLIPTICITY            1 - B_IMAGE/A_IMAGE                                       
         1 -12.6057      3.4437     49.6253   7.5025615245e+01   6.5213176264e+01    0.9150683    0.4121538 -57.72  0.004959661    1.859    0.462
         2 -12.5472     38.9008     50.3015   6.0278329059e+01   6.2022342886e+01    0.5576463    0.4512224 -19.74  0.002834912    1.045    0.043
         3 -12.2990    133.0006     18.9246   2.0345653490e+01   4.8644217914e+01    0.3048289    0.2286547  47.24 0.0003575693    1.216    0.178
         4 -12.3549     28.8724     19.6122   5.2614841369e+01   6.8153668546e+01    0.2825381    0.1974198  11.27 0.0007274377    1.299    0.230
         5 -10.9740     20.1689     17.3810   5.5715296979e+01   6.9432039389e+01    0.2996918    0.2607252  -2.58  0.001720566    1.300    0.231
         6 -10.5905     11.6496     12.8370   5.7914908433e+01   7.0919239836e+01    0.2161953    0.1336982 -37.93 0.0008019381    1.480    0.324
         7 -11.3508      9.7578      9.1162   5.7177749193e+01   7.1619664866e+01    0.3938665    0.2640329  31.13  0.002722559    1.834    0.455
         8 -11.7551      4.0582     18.3520   6.4211294582e+01   7.0717336404e+01    0.4174802    0.2586161  -6.69  0.002604638    1.500    0.333
         9 -12.2452      3.2193     13.4631   6.2595359117e+01   7.1536151004e+01    0.4141565     0.249101 -27.95  0.001427584    1.278    0.218
        10 -11.2487    137.1051     15.0637   1.8362960612e+01   4.8051803638e+01    0.2090771    0.1814233 -55.79 0.0003834237    1.292    0.226
        11 -11.1982     75.0430     10.8058   3.1083592329e+01   6.1986236015e+01     0.575326    0.1712774  45.32  0.002362146    2.768    0.639
        12 -11.0614    102.2648      9.3147   2.3307232283e+01   5.6546645909e+01    0.3937355    0.1917118 -19.14  0.001906812    2.301    0.565
        13 -10.8355     60.2485     13.9009   3.7276405763e+01   6.4336515810e+01    0.1711694      0.13687   0.96 0.0007414677    1.103    0.093
        14 -11.3317    119.5442     11.6539   2.0478610806e+01   5.2472747797e+01    0.2583354     0.209484  26.16   0.00017031    1.248    0.199
        15 -10.1949     27.1525     11.3596   4.9623675943e+01   6.9472500003e+01    0.2615628    0.1043818 -25.00  0.001225994    2.713    0.631
        16 -10.1737    176.2978     11.0295   1.1521514372e+01   3.9022193504e+01    0.2835476    0.1421002 -80.83  0.001192335    2.680    0.627
        17 -10.1798    145.0092     11.2643   1.5872790290e+01   4.6523344896e+01    0.2134507    0.1610021  58.99 0.0006553035    1.160    0.138
        18 -10.9556    145.2551      8.0008   1.4837730690e+01   4.6757813310e+01    0.3092096    0.2381603 -12.87  0.001102611    1.534    0.348
        19 -11.5996    234.6271      9.4701   5.5567273161e+00   2.5849018340e+01    0.2306245    0.1437559 -73.40  0.001367385    1.451    0.311
        20 -10.7225     71.5728     15.3176   3.4084487931e+01   6.2175477325e+01    0.3246157    0.2457707  50.49  0.002007748    1.425    0.298
        21 -11.0520    159.4773      8.5637   1.2976772659e+01   4.3296340180e+01    0.3368464    0.1713793  75.99  0.001590337    1.901    0.474
        22 -10.2757    154.2199      8.0085   1.3536936395e+01   4.4609782638e+01    0.2243378    0.1664735  68.67 0.0004271469    1.175    0.149
        23 -10.2948     82.0853      7.1027   2.7495480858e+01   6.0957350504e+01     0.192403    0.1542434  11.99 0.0003838047    1.170    0.146
        24 -10.4227     36.3422      7.6952   4.3733317470e+01   6.8727987914e+01    0.2491193    0.1893577  28.31  0.001734935    1.320    0.242
        25 -10.3137     19.8715      6.3510   5.0688387501e+01   7.0956161196e+01    0.3312776     0.123086 -37.99  0.001688564    2.572    0.611
        26 -11.0987     16.0508      3.1848   5.1018939758e+01   7.1772010421e+01    0.2429775    0.2147941  -7.77  0.001918163    1.463    0.316
        27 -11.3497     10.9443      2.4887   5.3316839308e+01   7.2389959749e+01    0.2686132    0.1751283  -2.99 0.0008725033    1.270    0.213
        28 -11.2990     26.7697      2.1554   4.5264797067e+01   7.0629966832e+01    0.3127218    0.1787103  22.48  0.001962466    1.577    0.366
        29 -11.2485    164.7828      5.0153   1.1295592917e+01   4.2341319078e+01    0.2719502    0.1942269 -53.37 0.0007465521    1.488    0.328
        30 -11.4409    168.2034      2.0156   1.0063953286e+01   4.1785175058e+01    0.2250351    0.1770992  80.66 0.0002904954    1.109    0.098
        31 -10.6479    222.9634      5.6176   5.6519335629e+00   2.8779504148e+01    0.2071195    0.1623791 -46.42 0.0001464734    1.272    0.214
        32 -11.2812    229.9096      2.5797   4.4760372224e+00   2.7580828243e+01    0.3165256    0.1700288 -27.08  0.001098752    2.180    0.541
        33  -9.4635     68.5467      5.4907   3.0774114471e+01   6.3706886794e+01    0.1237468   0.09837618  22.75 0.0001667001    1.031    0.030
        34 -12.1348    242.6357      3.0921   3.6820488803e+00   2.4842368418e+01    0.3357641    0.1731937  72.08 0.0008847131    1.819    0.450
        35 -10.9663    178.9756      3.8874   9.3443033664e+00   3.9055420176e+01    0.1857123    0.1704586 -78.88 0.0002768555    1.105    0.095
        36 -10.6067    125.9683      3.0437   1.6367302852e+01   5.1718473697e+01    0.2495464    0.1834556  -1.77 0.0008984272    1.598    0.374
        37 -11.0985     74.2107      2.7378   2.7865432942e+01   6.2878351085e+01    0.3070947    0.2247274 -44.12   0.00113601    1.872    0.466
        38 -10.3345    140.9816      1.6514   1.3530529522e+01   4.8305205865e+01    0.1836745    0.1352389  66.67 0.0002064799    1.168    0.144
        39  -9.9129     91.0142      2.2522   2.3217317588e+01   5.9537097837e+01    0.1627658    0.1376947  38.06 0.0002155435    1.029    0.028
        40 -10.3034     22.5075      1.5278   4.6965438295e+01   7.1230383287e+01    0.2255514    0.1456345  -9.49  0.001368255    1.300    0.231
        41  -9.3565    145.2692    190.3241   6.3042382708e+01   1.4061837165e+01    0.1388913    0.1107516  -8.55 0.0003752521    1.571    0.363
        42  -9.8639    109.9843    250.0198   7.9051591273e+01   8.5844158039e+00    0.1500749    0.1223233  50.60 0.0007655877    1.005    0.005
        43 -12.5727     20.8916    248.2794   9.5180478127e+01   2.0524811814e+01    0.6047365     0.172122  49.74  0.003045645    2.578    0.612
        44 -11.0886      6.8458    249.1537   9.7560665878e+01   2.1815850129e+01    0.2395843    0.1802761 -81.60  0.001119603    1.377    0.274
        45 -11.6986     10.4486    248.5075   9.6937711155e+01   2.1571846750e+01    0.3911918    0.1514237  56.31   0.00187298    2.005    0.501
        46 -10.9806    244.6838    187.9999   4.2802431607e+01  -3.0636902725e+00    0.1847514    0.1486413 -18.71 0.0005251018    1.079    0.073
        47 -10.1057     61.8677    184.3694   8.1417700816e+01   2.8932929968e+01    0.2326642    0.1642559 -82.84   0.00129237    1.358    0.263
        48 -12.1324     16.2764    182.0464   9.1451598832e+01   3.4581551585e+01     0.378079    0.2371613  67.09  0.002126186    1.476    0.323
        49 -11.0790     23.1202    180.2722   8.9792454780e+01   3.4328271129e+01    0.3599101     0.157516  62.78  0.001644702    2.596    0.615
        50 -11.6888    244.3521    178.6214   4.1010100826e+01  -1.5645863024e+00    0.3584367    0.1396122 -32.01  0.001488263    2.475    0.596
        51 -10.3022      1.7454    180.2218   9.4411652249e+01   3.6247050809e+01    0.1532777    0.1165874 -64.31  0.001057969    1.363    0.266
        52 -10.7851     18.2883    173.0395   9.0199045559e+01   3.6430615752e+01    0.2165208     0.132328  54.12  0.001238123    1.610    0.379
        53 -11.4751    248.1080    168.8296   3.8414271688e+01  -6.2988795216e-01    0.1925339     0.170862 -39.18 0.0007079088    1.273    0.214
        54 -10.0835     67.6250    165.8039   7.7460086793e+01   3.2487687563e+01      0.19849    0.1217356 -76.15 0.0008406074    1.685    0.406
        55  -9.2000     33.3294    166.2771   8.5980436522e+01   3.6520267920e+01    0.1202699   0.09092508 -42.86 0.0001965507    1.596    0.373
        56  -9.5362     36.5142    165.5216   8.5122302130e+01   3.6361117253e+01    0.1288323    0.1088463 -84.76  0.000112605    1.011    0.011
        57 -11.2732      7.5285    163.8683   9.1814064106e+01   3.9451378628e+01    0.1997944    0.1924234 -32.16 0.0003520665    1.388    0.280
        58  -9.7415      1.3148    164.6428   9.3295416147e+01   3.9759080536e+01    0.1267199   0.07059658  70.84 0.0007044305    1.746    0.427
        59 -10.8059     50.9985    161.4823   8.1016946355e+01   3.5667144379e+01    0.4037597    0.1891945 -71.58  0.001556779    2.074    0.518
        60  -8.9920    132.6596    161.6832   6.0474553885e+01   2.2557234840e+01    0.1529588    0.1195237  -5.53 0.0007048671    1.708    0.415
        61 -12.0797    247.1040    156.8130   3.6111811001e+01   1.4609409476e+00    0.3172868    0.1695534 -31.59  0.001208984    1.692    0.409
        62 -10.9169     20.3011    157.2381   8.8127921537e+01   3.9898866743e+01    0.2833378    0.2052444 -66.76  0.001738846    1.209    0.173
        63 -10.2600     67.0570    157.7680   7.6357849266e+01   3.4481146679e+01     0.197016    0.1685671  77.08 0.0003402671    1.151    0.131
        64 -10.2263    216.4607    154.4812   4.0905489576e+01   7.3669249903e+00    0.1410854    0.1292961 -21.03 7.175809e-05    1.029    0.028
        65  -9.7992     40.7728    153.0092   8.2458482452e+01   3.8865881701e+01    0.1884458    0.1402691 -72.04 0.0005841778    1.165    0.142
        66 -10.1911     10.6670    152.8719   9.0021064997e+01   4.1731568508e+01    0.2230239    0.1247263  42.79  0.001263029    1.911    0.477
        67  -9.8658    158.9631    153.5269   5.2543824352e+01   1.9091488918e+01    0.2407612    0.1478862  41.25  0.001041735    1.630    0.386
        68 -10.9295     13.9755    147.9971   8.8685022599e+01   4.2601108573e+01    0.1825702    0.1474858 -81.24 0.0003062037    1.010    0.010
        69 -10.0379    234.0209    146.9626   3.6184808424e+01   5.4014062960e+00    0.1775093     0.140583 -31.79   0.00078168    1.129    0.114
        70 -10.1677    216.7919    145.4018   3.8852064744e+01   8.9303071836e+00    0.1945984    0.1313387  32.34 0.0005417635    1.646    0.392
        71  -9.6172     14.2796    140.2915   8.7728209992e+01   4.4382992118e+01    0.1209458   0.07946619 -49.67 0.0001701888    1.527    0.345
        72 -10.2137     65.3191    139.0138   7.3621946256e+01   3.9234883731e+01    0.2013574    0.1603159 -62.78 0.0004677172    1.143    0.125
        73 -10.7334    236.2500    137.9740   3.3866019510e+01   6.5219349743e+00    0.1947211    0.1694807 -27.88 0.0008129118    1.019    0.018
        74  -9.2291    144.2866    137.2816   5.2280846159e+01   2.5623705414e+01    0.1499926    0.1219575  -2.42 0.0002420247    1.522    0.343
        75 -13.2391     37.5079    135.4703   8.0788028678e+01   4.3416213106e+01    0.3656298    0.2932564 -79.03 0.0005036311    1.132    0.117
        76 -11.4235     37.7461    130.0206   7.9859573570e+01   4.4697881074e+01    0.5051032    0.1979376 -57.49     0.001099    2.083    0.520
        77 -10.5491      2.7433    136.0838   9.0261886983e+01   4.6208924779e+01    0.3507827   0.07567268 -70.39  0.001295805    3.351    0.702
        78  -9.7283     21.0000    134.9673   8.5266288805e+01   4.5087254812e+01    0.2135768   0.06071691 -68.67  0.000797186    2.906    0.656
        79 -12.7153    242.5960    133.0511   3.1782754772e+01   6.1793887148e+00    0.4768964    0.3221478  32.05   0.00249139    1.763    0.433
        80 -10.3376     53.2755    131.7768   7.5713246142e+01   4.2533264806e+01    0.2502788    0.1994167 -86.94  0.001407304    1.299    0.230
        81 -10.8610      4.4023    130.1209   8.9158784366e+01   4.7481479086e+01    0.1998551    0.1552198 -33.61 0.0007791606    1.533    0.348
        82 -10.8444     73.4195    129.0086   6.9382359946e+01   4.0495975532e+01    0.2616719    0.2147397  43.04  0.000598031    1.304    0.233
        83 -10.2480     59.0096    131.4740   7.4013771835e+01   4.1888300524e+01    0.2212115    0.1679826 -61.26 0.0005392972    1.181    0.154
        84  -9.8111    234.3143    127.2876   3.1826598502e+01   8.7125366141e+00    0.1355069    0.1047496   1.67 0.0002519048    1.585    0.369
        85 -10.9638     56.3656    126.9282   7.3922668759e+01   4.3316897983e+01    0.2330979    0.2018629   7.72 0.0005628852    1.374    0.272
        86 -11.5996      4.2244    123.3594   8.8400926056e+01   4.9062814685e+01    0.3720858     0.162124 -62.57  0.001911214    1.740    0.425
        87 -11.0526     16.0400    125.4968   8.5361138024e+01   4.7725491817e+01     0.299373    0.1557305  32.70  0.001339338    2.194    0.544
        88 -11.1337     19.9124    122.3901   8.3809921394e+01   4.8150284956e+01    0.2605977    0.1555402 -73.72 0.0008680967    1.467    0.319
        89  -9.8094     30.5118    124.5113   8.1058735954e+01   4.6723280133e+01    0.1306417    0.1105406 -69.53 1.437665e-05    1.022    0.022
        90 -11.5768     10.2354    122.3951   8.6586340966e+01   4.8881473327e+01    0.3364586    0.1874887 -77.74  0.001077554    1.587    0.370
        91 -10.6165     69.0532    121.7336   6.9132177524e+01   4.2861115887e+01    0.3436631    0.2088072  18.75  0.001539002    2.188    0.543
        92 -10.3766     56.4036    121.1788   7.2789547581e+01   4.4687216099e+01    0.1993581    0.1240162 -71.47 0.0006839247    1.695    0.410
        93 -12.2939    249.7268    118.0806   2.7469471715e+01   7.3396599266e+00    0.4159319    0.2132759 -42.63  0.001972175    1.709    0.415
        94 -10.6468      1.3966    118.5523   8.8601300529e+01   5.0351184521e+01    0.2245421   0.09270056 -70.30  0.000217628    1.881    0.468
        95 -11.1936     25.5983    106.5645   7.9496088103e+01   5.1386253813e+01     0.359234    0.2275688 -20.09  0.001813909    2.041    0.510
        96 -11.8433     16.4326    115.3530   8.3777933295e+01   5.0074315300e+01    0.2882166     0.241868  53.77 0.0006699937    1.382    0.276
        97 -12.9531     16.1066    110.3737   8.3101134280e+01   5.1258902080e+01    0.6647994    0.4509361  15.37  0.003980731    1.840    0.456
        98 -11.3506     52.5871    115.7251   7.2843445008e+01   4.6453047143e+01    0.3010643    0.2144522 -64.43 0.0001304232    1.302    0.232
        99 -10.3131    182.4839    114.3853   3.8108345963e+01   2.1984476121e+01    0.2587147    0.2316694  66.31 0.0005118064    1.197    0.165
       100 -10.0370    105.8007    114.7993   5.6810771489e+01   3.8376783149e+01    0.2082674    0.1817876 -88.21 0.0006643807    1.332    0.249
       101 -10.9023     55.2407    109.7334   7.0753485059e+01   4.7536075460e+01    0.2540922    0.2075218 -43.33 0.0006571269    1.141    0.124
       102  -9.4884     70.5245    108.3705   6.5667923988e+01   4.5781931056e+01    0.1376161    0.1301358 -42.81 5.699751e-05    1.034    0.033
       103 -10.2399     72.2136    115.6279   6.6840940858e+01   4.3845539416e+01    0.2435027    0.1817098  89.85   0.00119179    1.747    0.428
       104 -12.0004    249.1331    111.7936   2.6190078294e+01   8.4746583825e+00    0.2727091    0.2414551  16.07 0.0009606246    1.328    0.247
       105  -9.6815    111.8258    105.8577   5.2789535659e+01   3.9191413037e+01    0.1913152    0.1730641  75.45            0    1.254    0.203
       106 -11.1518     31.3720    108.9295   7.8108708988e+01   5.0320314636e+01    0.3167542    0.1814411 -85.36  0.001465395    2.305    0.566
       107 -10.3223     66.8943     97.8396   6.4217680866e+01   4.8703633409e+01    0.2240836    0.1854276   7.97 0.0002945168    1.351    0.260
       108 -11.4067     61.9649     98.6733   6.6023926397e+01   4.9203885233e+01    0.4407779    0.2307466 -47.58  0.001611553    1.706    0.414
       109 -11.2200     33.0812     97.6806   7.5330427484e+01   5.2759490095e+01    0.4766548    0.2758486  81.67  0.001933625    3.355    0.702
       110 -10.5981     23.1620     99.8466   7.9036409458e+01   5.3140086306e+01    0.3176062    0.1777423  44.65 0.0009424115    2.226    0.551
       111  -9.5560      9.7941     99.1600   8.3255998008e+01   5.4278356174e+01    0.1613371    0.1122834 -50.45 0.0003089476    1.215    0.177
       112 -10.7025     15.4117     96.9165   8.1036676097e+01   5.4403858284e+01    0.2358539    0.1473751 -23.21  0.001314097    1.909    0.476
       113 -10.2637    241.3276     96.6671   2.3942515426e+01   1.2443404055e+01    0.1420565    0.0959403 -64.06 0.0006495605    1.716    0.417
       114 -11.1079    249.6246     91.2260   2.1643225459e+01   1.1669564691e+01    0.1882911    0.1150394 -29.56 0.0005714731    1.652    0.395
       115 -10.2415    231.5433     91.4821   2.4135934709e+01   1.5284207315e+01     0.138556     0.122916 -50.23 5.548097e-05    1.014    0.013
       116 -10.2109     56.5076     90.5602   6.5772785524e+01   5.1738640235e+01    0.2687293     0.121133 -52.13 0.0006703959    1.969    0.492
       117 -11.1355     10.5649     90.8381   8.1545713905e+01   5.6106681563e+01    0.2013604    0.1713997 -38.48 0.0003551071    1.168    0.144
       118 -10.4166    159.1043     90.0972   3.6615759065e+01   3.1988366266e+01    0.2441025    0.2146253  13.93  0.001249136    1.284    0.221
       119  -9.1612     49.2728     90.2883   6.8158296310e+01   5.2697410276e+01    0.1342497   0.09187975 -30.16 0.0001918284    1.510    0.338
       120  -9.5639     87.3024     89.2996   5.5397957352e+01   4.7321149892e+01    0.1957242    0.1362994  46.85 0.0003320844    1.584    0.369
       121 -10.2292     83.3660     88.7417   5.6471384503e+01   4.8114849709e+01    0.2321504    0.1910489  -8.35  0.001233625    1.324    0.244
       122  -9.4810     60.6700     89.3268   6.4047399698e+01   5.1456463478e+01    0.1342265    0.1087905  81.93 0.0007050956    1.707    0.414
       123 -10.9647     22.1546     87.5308   7.6907408062e+01   5.6003938391e+01    0.3668801    0.2081324 -84.33  0.001701825    2.618    0.618
       124 -10.0785     95.4759     88.6908   5.2717825312e+01   4.5978065197e+01    0.3955454    0.1264508  46.48   0.00124788    3.557    0.719
       125 -11.3151    107.3294     84.7286   4.8058129193e+01   4.4490345782e+01    0.2821133    0.2593489  84.54 0.0003109978    1.286    0.223
       126 -10.1239     65.4999     86.0051   6.1519320246e+01   5.1497994439e+01    0.2212295    0.1258706 -48.30  0.001036443    1.603    0.376
       127 -11.3538     30.5932     81.9875   7.2663058240e+01   5.6496424066e+01    0.4514373    0.1936554 -51.58   0.00186827    1.865    0.464
       128 -11.1242    247.2192     84.4102   2.0457812283e+01   1.3205450390e+01    0.1708573     0.124546  82.82 0.0006908689    1.625    0.385
       129  -9.5268    117.2725     83.6493   4.4957806483e+01   4.2649089719e+01    0.1484239     0.118877 -73.99 0.0005062698    1.632    0.387
       130 -10.7419     76.8647     82.1868   5.6652044733e+01   5.0560150009e+01    0.3079786    0.1895399  47.25  0.001049251    1.893    0.472
       131 -10.6261      7.0373     81.4889   8.0997551336e+01   5.8396109231e+01    0.3026154    0.1462668 -50.17  0.001641042    1.595    0.373
       132 -11.0232     13.0435     79.6668   7.8473067402e+01   5.8408594932e+01    0.2858878    0.1570804  33.08 0.0007846309    2.197    0.545
       133 -10.3945     18.5130     77.9748   7.6109407333e+01   5.8382506352e+01    0.2795797    0.1248251 -43.90  0.001381033    1.880    0.468
       134 -10.9948     21.5255     74.9801   7.4294613622e+01   5.8790634649e+01    0.2387832    0.1805606 -39.40  0.001518725    1.120    0.107
       135  -9.5415    138.2005     78.6008   3.8089963151e+01   3.8959128382e+01    0.1900387     0.138828  39.34 0.0001230965    1.402    0.287
       136  -9.5497      3.0000     78.0380   8.1768980159e+01   5.9378738291e+01    0.1930266   0.05485881 -64.89 0.0003892541    2.808    0.644
       137 -10.9287     99.8632     76.3113   4.7658358444e+01   4.7608037407e+01    0.3040168    0.2084996 -45.72  0.001345411    1.485    0.327
       138 -10.8424     37.6938     76.3126   6.8644411546e+01   5.7017563608e+01    0.3512876    0.1877405 -28.93  0.001659595    2.136    0.532
       139 -10.3552     44.6712     74.5893   6.5615734102e+01   5.6613336655e+01    0.2009987    0.1571705  36.83  0.001187414    1.493    0.330
       140 -11.9897    167.7434     73.4403   3.0185820617e+01   3.2872222684e+01    0.2619472    0.2424347 -61.91 0.0002939068    1.088    0.081
       141 -11.2832      6.6691     73.4905   7.9498981772e+01   6.0146151077e+01    0.3131942     0.160237  13.08  0.001169045    2.367    0.577
       142  -9.4698     61.5198     73.4598   5.9235471212e+01   5.4675586758e+01    0.1366495    0.1201883 -24.49 -4.898558e-06    1.010    0.010
       143  -9.9655     25.7476     72.4013   7.2069862873e+01   5.8984457439e+01    0.1643881    0.1124191  -3.67 0.0009505598    1.673    0.402
       144 -14.1633     16.7658     67.2294   7.4197939335e+01   6.0790232019e+01    0.4808187    0.3323551 -40.96  0.001232068    1.178    0.151
       145  -9.8139     68.8320     71.0220   5.5938296109e+01   5.4076842250e+01    0.2088561    0.1494168   3.71   0.00106634    1.648    0.393
       146  -9.5312     91.1892     70.1397   4.8328950045e+01   5.0427641880e+01    0.1775731    0.1675481  86.91 0.0002347186    1.309    0.236
       147 -11.4432     50.2653     68.1963   6.1683120042e+01   5.7241144905e+01     0.266536    0.1879053 -31.87  0.000517268    1.291    0.225
       148 -10.3690      6.9036     68.6133   7.8340537521e+01   6.1164646777e+01    0.2386698    0.1735001 -74.99 0.0009923145    1.508    0.337
       149 -11.0872    122.6953     67.5021   3.8535326000e+01   4.4420913059e+01    0.2514791    0.2338468 -46.96 0.0004701935    1.142    0.124
       150 -12.4673    146.9626     65.5637   3.2186872197e+01   3.9145463086e+01    0.2751774    0.2625475 -71.67    0.0003419    1.095    0.087
       151 -12.0230     30.4731     63.7997   6.7910304465e+01   6.0323644027e+01    0.4657456    0.3020906  28.50  0.001345769    1.743    0.426
       152 -11.4148     28.5200     61.0000   6.7866212812e+01   6.1068929249e+01    0.4515861    0.2027254  13.98   0.00154469    2.937    0.659
       153  -9.6664     93.5716     66.5075   4.6408623110e+01   5.0642681651e+01     0.140533    0.1319247  -9.11 0.0001062095    1.036    0.035
       154 -11.6451      2.9381     63.5154   7.8721092374e+01   6.2454891089e+01    0.3512475    0.2591582 -71.27  0.001723495    1.424    0.298
       155 -10.1089    110.2132     64.5177   4.0904427542e+01   4.7638649721e+01    0.2638747    0.1883488 -72.67  0.001166411    2.272    0.560
       156 -10.0224     81.3414     65.0151   4.9786364216e+01   5.3154319735e+01    0.1928062    0.1758882 -11.90 0.0005374681    1.019    0.018
       157  -9.6953    106.3057     64.2695   4.1916785754e+01   4.8498735242e+01    0.1432538    0.1079631  12.69            0    1.536    0.349
       158 -10.0024     61.9605     64.0576   5.6114826296e+01   5.6452268131e+01    0.2067529    0.1450942 -12.32 0.0003208783    1.581    0.367
       159 -10.7207    202.0502     62.4353   2.1411746378e+01   2.6429690042e+01      0.21684    0.1854629 -30.27  0.001219065    1.249    0.200
       160  -9.8832    155.9379     63.0195   2.9548576349e+01   3.7404787425e+01    0.1766895    0.1731431 -51.55  0.001003469    1.044    0.043
       161 -10.7520     52.1810     61.9760   5.9013828289e+01   5.8208556314e+01    0.2919315    0.2000857  -7.67  0.001563579    1.657    0.396
       162 -12.4112    231.8254     59.1708   1.6699171705e+01   2.0194433725e+01    0.5883324    0.2918525 -49.55  0.002750447    1.877    0.467
       163 -11.8014     46.4871     60.6071   6.0722136402e+01   5.9195888283e+01     0.349932    0.2121459 -23.88  0.000802056    1.762    0.432
       164 -11.9641     11.4599     58.4156   7.4033837686e+01   6.2968498665e+01    0.5651488    0.3459553 -52.09  0.001873032    1.320    0.243
       165 -13.3576     12.5417     47.7028   7.0533567574e+01   6.4984718381e+01    0.5118529    0.3659707 -45.63 0.0005612824    1.171    0.146
       166 -10.0912    247.4764    249.5251   5.3324650056e+01  -1.1772591956e+01    0.1147513   0.08591662   6.46 0.0002943606    1.004    0.004
       167  -9.7656      7.0419     41.2426   7.0976800093e+01   6.6578477005e+01    0.2289619    0.1651982 -27.59   0.00157961    1.136    0.120
       168 -10.2514    150.6925     60.9636   3.0016006393e+01   3.8987583295e+01    0.1970258    0.1835722 -40.46 0.0002495097    1.104    0.095
       169 -10.0324     90.0520     61.0376   4.5666980687e+01   5.2278540015e+01     0.199343    0.1737965 -85.21 0.0003818106    1.599    0.375
       170  -9.6599    109.2081     60.1885   3.9755576987e+01   4.8579892503e+01    0.1735842    0.1644721 -69.27 0.0002438714    1.234    0.190
       171 -10.9928    135.7536     58.3955   3.2488321894e+01   4.2928748978e+01    0.3694812     0.244935  70.56  0.001665675    1.835    0.455
       172 -10.4096    127.1366     58.8411   3.4662813838e+01   4.4848695908e+01    0.1999287    0.1918982  82.99 0.0002377861    1.136    0.120
       173 -10.4665     58.4574     58.6270   5.5579043223e+01   5.7973560269e+01    0.2811828    0.2123448  -5.56   0.00121122    1.357    0.263
       174 -10.9574     80.0897     56.6876   4.7361458046e+01   5.4850023753e+01    0.4409949    0.2733094  -6.89  0.001588199    2.307    0.567
       175  -9.5484    177.2493     55.9755   2.3607774779e+01   3.3311126591e+01    0.1737942    0.1202526 -36.17 0.0003714155    1.469    0.319
       176  -9.3740    145.7133     54.2873   2.9035433218e+01   4.1196339594e+01    0.1405614    0.1110771 -74.03 0.0001865663    1.532    0.347
       177 -12.5183    105.0328     52.5047   3.8314291837e+01   5.0692283777e+01    0.2790024    0.2512068   1.17 0.0003201019    1.077    0.071
       178 -10.9530    224.4882    248.2036   5.7106048834e+01  -8.5442841946e+00    0.2660637    0.1091645 -38.27  0.001332485    2.689    0.628
       179 -11.4310    129.1748     49.9690   3.1313937459e+01   4.5727137379e+01    0.4696047    0.2590158  49.24  0.001330662    1.697    0.411
       180  -9.9263     89.7619     50.4140   4.2058481011e+01   5.4094789910e+01    0.1904151    0.1216028  33.51 0.0006834012    1.560    0.359
       181 -10.7073     52.2980     48.8642   5.4482594762e+01   6.0580600790e+01    0.2911156    0.2150256 -27.94  0.000862101    1.201    0.167
       182 -10.9394     51.3046     45.6392   5.3689573108e+01   6.1268181218e+01    0.3463546    0.1778818 -51.85  0.001590486    2.515    0.602
       183  -9.9007    164.0100     48.3493   2.3743655944e+01   3.7621278243e+01    0.1975476    0.1712276  67.02 0.0003634501    1.099    0.090
       184  -9.7797     62.0314     47.6107   5.0375640268e+01   5.9371090576e+01    0.1799918     0.152633   6.53 0.0005134228    1.085    0.078
       185 -11.2267     44.6094     43.5231   5.5551101234e+01   6.2516515570e+01    0.5055445     0.272594 -53.45   0.00243013    2.458    0.593
       186 -11.6791     45.0928     38.1617   5.3322643890e+01   6.3337257029e+01    0.2502511     0.231125 -22.23   0.00172132    1.291    0.225
       187 -10.0499     83.0304     46.4739   4.2748266664e+01   5.5981201594e+01    0.2553024    0.1780919 -10.76  0.001330035    1.570    0.363
       188 -10.0139     78.4109     47.4902   4.4625404256e+01   5.6663064504e+01    0.1349648    0.1180726  -1.07 7.900926e-05    1.024    0.024
       189 -11.2130    121.9034     43.8560   3.1003506760e+01   4.8261037929e+01    0.3429002    0.2052672 -25.91  0.001230896    1.813    0.448
       190 -11.8407    112.2934     45.4406   3.3927702823e+01   5.0186026793e+01    0.2485778    0.2225482  19.28 0.0003073328    1.071    0.066
       191  -9.6962    104.4899     46.4624   3.6363032935e+01   5.1717784286e+01     0.139037    0.1271524  20.47 7.802421e-05    1.003    0.003
       192 -10.5273    153.1905     45.0868   2.4757669664e+01   4.0700152241e+01    0.2385749    0.1848374  60.06 0.0003855993    1.217    0.178
       193 -10.3599    142.0157     45.2323   2.6999373460e+01   4.3371506753e+01    0.4078612    0.1616241  63.08  0.001468295    2.766    0.638
       194 -10.8667     23.9302     42.2297   6.3778320607e+01   6.5041239125e+01    0.3993625    0.2228193 -55.74  0.001101943    2.033    0.508
       195 -12.8236     27.6378     37.6902   6.0521698793e+01   6.5466577751e+01    0.2498474    0.2082227 -23.64 0.0004063977    1.109    0.098
       196 -11.6551     24.4060     34.8115   6.0879342303e+01   6.6279210330e+01     0.302913    0.1662393 -29.04  0.001116826    1.621    0.383
       197 -11.0246     97.5172     41.4411   3.6520462513e+01   5.3889409692e+01    0.3615848    0.2232184  17.17 0.0008412857    2.106    0.525
       198 -10.2791     72.9775     43.0178   4.4787285637e+01   5.8313573114e+01    0.1841457    0.1661689 -78.06 0.0004638214    1.641    0.391
       199 -10.0277     55.6608     43.2560   5.1126740519e+01   6.1043408945e+01    0.2327373    0.1543527  44.33  0.001276547    1.811    0.448
       200 -10.4839     27.5902     53.7732   6.6046106017e+01   6.2564451398e+01    0.2127085    0.1601305  10.08  0.001228869    1.396    0.284
       201 -10.1043    130.9713     41.7062   2.8216707637e+01   4.6459539007e+01    0.1969063    0.1714695  55.79 0.0004483881    1.096    0.088
       202 -10.8213     89.2131     41.3217   3.8918276391e+01   5.5570426022e+01    0.2352672    0.2129094  36.52 0.0006337761    1.150    0.130
       203 -10.8066     83.9130     36.4094   3.8698374480e+01   5.7283727793e+01     0.364211    0.2955433 -36.60  0.002160577    1.366    0.268
       204 -10.8811     78.2570     41.0838   4.2287901775e+01   5.7669692585e+01    0.1799222     0.158994 -11.31 0.0003485258    1.092    0.084
       205 -10.5825    235.9962     40.0213   1.1968779454e+01   2.1920347366e+01    0.1795011    0.1531774  32.57 0.0005375465    1.613    0.380
       206 -11.0976    226.2171     39.5420   1.2872027290e+01   2.4112929534e+01    0.3093356    0.1678418 -31.88  0.001537135    1.907    0.476
       207 -10.7140    109.6616     38.2582   3.2096864987e+01   5.1747362034e+01    0.2113723    0.1852704 -33.75 0.0003707523    1.237    0.192
       208 -11.8780    111.3323     34.8382   3.0466958428e+01   5.1821993151e+01    0.3097134    0.2322416  38.33 0.0004314852    1.239    0.193
       209 -12.1773     57.1660     34.9377   4.7322489356e+01   6.2111653485e+01    0.4745205    0.2979613  -0.70  0.002478621    1.878    0.468
       210 -10.5125    161.4331     41.8034   2.2297470598e+01   3.9133512445e+01    0.4871274    0.1793119  64.92  0.001747504    2.817    0.645
       211 -11.6315    248.0183     36.4239   1.0058605464e+01   1.9857678224e+01     0.227898    0.1882075 -72.76 0.0002405017    1.057    0.054
       212 -12.4188    241.4839     34.4114   1.0230006542e+01   2.1473170872e+01    0.4971907    0.2036425  57.06  0.002060426    2.641    0.621
       213 -10.1789      1.4318     37.1278   7.2259822447e+01   6.7687835504e+01    0.2817603   0.08337734 -53.86  0.001099233    2.589    0.614
       214 -10.1857      1.5528     31.2261   7.0273067872e+01   6.8737519829e+01    0.1895809   0.08856193 -51.60 0.0006941241    1.789    0.441
       215 -10.0773     97.3181     36.1128   3.4625395865e+01   5.4656688972e+01    0.1780489    0.1638685 -10.56 0.0004645016    1.122    0.109
       216 -11.0629     74.9983     35.5643   4.1242083395e+01   5.9051029009e+01    0.3583641    0.2407117   5.25  0.001463306    1.682    0.405
       217 -10.3239     73.2797     31.9590   4.0393085639e+01   5.9853978333e+01    0.2309743    0.2044309  13.34 0.0007889959    1.074    0.069
       218  -9.3902    201.9702     37.2572   1.5115902059e+01   2.9944911641e+01     0.164704    0.1083305  71.58 0.0003842405    1.456    0.313
       219 -10.8145      9.5037     34.4740   6.7606075721e+01   6.7625452181e+01    0.2230834    0.1710526  -4.19  0.001592251    1.259    0.205
       220 -11.3170      7.3835     30.5148   6.7213726224e+01   6.8468455806e+01     0.367041    0.2950302  68.46  0.002381953    2.441    0.590
       221 -10.9569     19.1879     30.8940   6.1770858189e+01   6.7431613006e+01    0.2375482    0.1893972 -11.65 0.0007218685    1.092    0.084
       222 -10.8077     15.7022     31.6861   6.3695773432e+01   6.7610221113e+01    0.2965935    0.1386712 -30.08  0.001529445    1.965    0.491
       223 -11.2152     65.0195     36.7669   4.5160881146e+01   6.0593909738e+01    0.2002225    0.1655756 -14.94 0.0002458744    1.108    0.098
       224  -9.6069    193.3568     34.0216   1.5388869425e+01   3.2389034771e+01    0.2376627   0.06517327 -48.97  0.000704199    4.580    0.782
       225  -9.8928    146.2798     33.9408   2.2651536826e+01   4.3803905510e+01    0.1801003    0.1662333 -18.36 0.0003580669    1.183    0.155
       226  -9.3228    134.6981     34.3884   2.5046177089e+01   4.6517428280e+01    0.1431611    0.1029656 -65.82 0.0007015069    1.796    0.443
       227 -10.4754    122.7073     33.2864   2.7245244376e+01   4.9450002504e+01    0.2804407    0.1605127  47.14  0.001341482    1.594    0.373
       228  -9.8123     34.2597     33.4886   5.6024443372e+01   6.5433114170e+01    0.1460651    0.1098888  33.31 0.0009297866    1.567    0.362
       229  -9.1248    221.3689     31.7030   1.1596802208e+01   2.6185623466e+01    0.1398661   0.08376378 -68.58  0.000703004    1.730    0.422
       230 -10.7105    161.5848     20.2457   1.6025132817e+01   4.1641285031e+01    0.3126787    0.1893765   2.96  0.001423554    2.608    0.616
       231 -10.9086    156.8836     28.1832   1.9066335175e+01   4.1912862051e+01    0.2359696    0.1935712  63.34 0.0003160105    1.111    0.100
       232 -11.1392    160.0897     25.0273   1.7632337333e+01   4.1488537587e+01    0.2422058    0.2111983 -34.41 0.0003697125    1.251    0.201
       233 -11.8107    248.0944     26.5350   8.0077706972e+00   2.1070779683e+01    0.3075238    0.1639296 -55.72 0.0008606699    1.650    0.394
       234 -10.6205    198.7787     28.3065   1.3281386362e+01   3.1796183167e+01    0.2680946    0.1148698  77.58  0.001079826    2.623    0.619
       235 -11.2365    112.4010     26.8746   2.7382072323e+01   5.2540280907e+01    0.3493335    0.2297542  -0.35  0.001761351    1.874    0.466
       236 -10.1303    101.1046     28.2560   3.0689388675e+01   5.4844944947e+01    0.1763206    0.1642563  32.15 0.0005764446    1.086    0.079
       237  -9.9112    176.6409     26.7939   1.5710653328e+01   3.7270295094e+01    0.1781827    0.1158123 -43.70  0.000370523    1.573    0.364
       238 -10.6034    118.6254     27.5333   2.6184659052e+01   5.1062060772e+01    0.2750996    0.1207549  56.54    0.0011749    2.056    0.514
       239  -9.8578     61.3783     26.7436   4.2410236201e+01   6.2591593679e+01    0.1767373    0.1065295 -18.05 0.0009344504    1.687    0.407
       240 -11.2313    216.4463     25.3672   1.0647274528e+01   2.8058949335e+01    0.2703868    0.2020462  65.04 0.0005374142    1.346    0.257
       241 -12.2059    128.6396     23.9539   2.2845018458e+01   4.9144956461e+01    0.2646266    0.2502488 -55.82 0.0003881342    1.185    0.156
       242 -10.1632     90.9313    249.1667   8.2600287636e+01   1.1530799284e+01    0.1884539    0.1341887  62.78 0.0004525915    1.262    0.208
       243 -10.3478     54.3782     23.4761   4.3628596083e+01   6.4141444085e+01    0.2634581    0.1751085 -46.99  0.001466661    2.105    0.525
       244 -11.0663     22.2449     24.0200   5.7586816086e+01   6.8230349595e+01    0.2648369    0.1766813 -10.38  0.000637946    1.340    0.254
       245 -10.1708    148.3072    248.3193   7.1424574764e+01   2.9530898663e+00    0.1202834   0.09046844   8.27 0.0004371275    1.636    0.389
       246 -10.6365     32.3071     15.2470   4.9087202830e+01   6.8331830111e+01    0.3572771    0.1802659  24.56  0.001974627    1.971    0.493
       247 -10.4587     24.1898     20.1562   5.5022827638e+01   6.8603338342e+01    0.1803544    0.1408301 -13.29 0.0006023358    1.043    0.041
       248 -10.1992     83.5104    248.3461   8.3924013438e+01   1.2730423486e+01    0.2177153    0.1075649  54.03  0.000865043    1.798    0.444
       249 -11.6829      9.2058     24.7443   6.4165565811e+01   6.9297458268e+01    0.8094911     0.275077  26.43  0.004021846    3.095    0.677
       250 -10.4618     15.1940     13.2096   5.6286077955e+01   7.0529407742e+01    0.1705133    0.1293137 -12.48 0.0004241354    1.032    0.031
       251 -10.0870    156.6609    245.6775   6.9441425111e+01   2.0562067982e+00    0.1256848   0.09023389   8.74 0.0007050714    1.719    0.418
       252 -10.9369     72.8539    244.8600   8.5607838908e+01   1.4839357001e+01    0.2733444     0.206022  49.87  0.001208752    1.149    0.129
       253 -12.0271     75.1623    238.9791   8.4617763240e+01   1.5625038991e+01    0.4624166    0.4026987 -75.08  0.003265533    1.290    0.225
       254 -11.0367     35.3042    237.8813   9.1998713667e+01   2.0881318354e+01    0.1864757    0.1136889  77.91  0.001186161    1.438    0.304
       255 -10.9405     64.7355     19.5315   3.8164816809e+01   6.2925338518e+01     0.192973    0.1775106  -6.08 0.0004210503    1.244    0.196
       256 -10.1358     82.8470     22.0127   3.3374712318e+01   5.9297903759e+01    0.2407161    0.1681439  32.74 0.0009496557    1.284    0.221
       257  -9.9808     34.7059     21.7689   5.0951656046e+01   6.7142759552e+01    0.2719234    0.2025892   4.76   0.00178687    1.159    0.137
       258 -11.2372    249.0548     20.9005   6.7845908542e+00   2.1544904771e+01    0.1965956    0.1481556 -53.69 0.0003460531    1.143    0.125
       259  -9.8868    193.1868     20.8661   1.2076121358e+01   3.3970012183e+01    0.1711647    0.1448125  49.12  0.000315585    1.325    0.245
       260 -10.0630     12.0018     29.3108   6.4556323659e+01   6.8318522434e+01    0.1508813    0.1161466 -14.59 0.0002995694    1.104    0.094
       261 -10.3413     59.0856     21.0485   4.0826736891e+01   6.3696059318e+01     0.185177    0.1547679   8.92   0.00043599    1.036    0.035
       262 -10.4600     87.0756     20.0188   3.1348208748e+01   5.8682385870e+01    0.1922024    0.1582004  24.55 0.0002852553    1.063    0.059
       263 -11.5618    233.3156     15.3801   6.9009089527e+00   2.5480991155e+01    0.2373432     0.194678 -66.73 0.0008818791    1.046    0.044
       264 -12.1516    238.3450     17.7588   6.9907813609e+00   2.4139045069e+01    0.2554657    0.2193375  75.00 0.0002323482    1.266    0.210
       265 -11.4700    243.3466     14.0971   5.8443449953e+00   2.3503394648e+01    0.1921299    0.1459621  75.35 0.0005071301    1.321    0.243
       266  -9.9291     41.3842     19.2640   4.6976511866e+01   6.6604185509e+01    0.1532592    0.1018603 -34.68 0.0008075539    1.552    0.356
       267 -10.4581    193.6690     16.3819   1.0901542754e+01   3.4342430731e+01    0.2639576    0.1723906  87.79  0.001241283    1.472    0.321
       268 -10.1302    169.4637     17.5072   1.4144827897e+01   4.0018151892e+01    0.1316198    0.1170283  71.69 0.0003097919    1.041    0.039
       269  -9.3028     94.4715     17.4958   2.8343194903e+01   5.7432439373e+01    0.1329313    0.1087558  29.06 0.0003015159    1.079    0.073
       270 -11.3912    249.4507     15.3066   5.6322260029e+00   2.2109530109e+01    0.2307694    0.1649957 -66.11 0.0005591857    1.149    0.130
       271 -10.1567    215.7235     16.1565   8.6109068210e+00   2.9271346603e+01    0.3586668   0.05264958  65.68  0.001124664    4.799    0.792
       272 -10.0604    142.9792     16.5634   1.7837139143e+01   4.6505388481e+01    0.1964606    0.1154909  62.08 0.0003352468    1.491    0.329
       273 -11.4217      5.5090    244.3534   9.7546934465e+01   2.2828500798e+01    0.2726634    0.1681682  65.95  0.001089437    1.205    0.170
       274  -9.8823     76.5130     15.6045   3.2660239934e+01   6.1219890047e+01    0.1759124    0.1001437  41.50 9.826127e-05    1.541    0.351
       275 -10.1925    195.4894    238.5269   6.0888718755e+01  -2.9629433068e+00    0.2245831    0.1203902 -39.50  0.001124948    2.082    0.520
       276  -9.5532     99.7736     13.9612   2.5651396785e+01   5.6658370790e+01    0.1523713    0.1044587 -16.94 0.0003320869    1.573    0.364
       277 -10.8655    160.3650    235.2790   6.7217301893e+01   3.1405215355e+00     0.243548    0.1381538  29.77 0.0009117547    1.704    0.413
       278 -11.7452     31.0718    233.4053   9.2457110709e+01   2.2228536512e+01    0.4215973    0.1508863 -68.21  0.002133207    2.609    0.617
       279 -10.1861     80.0863     26.1385   3.5869980919e+01   5.9344339055e+01    0.2038383    0.1550311  15.89 0.0006392995    1.238    0.193
       280 -10.8096     54.0037     14.0259   3.9603363504e+01   6.5356746521e+01    0.1802279    0.1459662  13.22 0.0004719645    1.036    0.034
       281 -11.1132    183.0588    234.2239   6.2590605892e+01  -3.6054136322e-01    0.2362443    0.1624084  48.19    0.0013415    1.564    0.361
       282  -9.5617     24.2811    232.2937   9.3615796859e+01   2.3191743898e+01   0.09473597   0.08167774 -63.16 0.0003043932    1.534    0.348
       283 -11.4173    184.9628    228.2307   6.1255808658e+01   2.6952753506e-01    0.3963095    0.2382473 -16.29  0.001917783    2.338    0.572
       284 -10.6642     39.6406    229.4256   9.0576311573e+01   2.2029996381e+01    0.2270042    0.1303614  59.70  0.001368513    1.480    0.324
       285  -9.2804     59.3293    229.3114   8.6786488424e+01   1.9622381098e+01    0.1057899   0.09473161 -29.48 0.0007042348    1.668    0.401
       286  -9.6218    151.5302    228.5241   6.7986380535e+01   5.7354042429e+00    0.1306725    0.1138477  38.84 0.0001596293    1.032    0.031
       287  -9.9087    191.6115    226.8276   5.9728937655e+01  -5.8698192325e-01    0.1677969    0.1218126 -50.87 0.0009532599    1.770    0.435
       288  -9.3513    107.6784     10.3037   2.2464078039e+01   5.5270266114e+01    0.1216892   0.09814485 -73.62 0.0007029618    1.634    0.388
       289 -10.3269      3.5016    226.0009   9.6947304602e+01   2.6520610828e+01    0.1615648   0.08601508 -82.97 0.0009061385    1.572    0.364
       290  -9.8088     16.3242    222.3114   9.4422265921e+01   2.6002406432e+01   0.09951648   0.08128848 -55.28 0.0004796333    1.657    0.396
       291  -9.9353    211.6264    218.7427   5.4513904604e+01  -2.5458865211e+00    0.1637411    0.1170761 -42.38 0.0009406243    1.620    0.383
       292 -10.9698     48.0988    219.1296   8.8084986720e+01   2.3100988576e+01    0.2853774     0.144163  26.30  0.001386817    2.728    0.633
       293  -9.5350    135.5477    216.5211   6.9496343429e+01   1.0600756437e+01     0.133451    0.1203106  42.55 0.0008083446    1.010    0.010
       294 -10.4012     23.9998    216.0002   9.2548672675e+01   2.6493726935e+01    0.1430958    0.1074886  83.79 0.0004393124    1.075    0.069
       295 -12.8593      4.8892    208.3924   9.5678810440e+01   2.9945043756e+01    0.6520655     0.247193 -83.25  0.003305362    2.323    0.569
       296 -10.5656     29.7104    215.5540   9.1410975159e+01   2.5972538523e+01    0.1966228    0.1113036  31.80  0.001129527    2.027    0.507
       297 -10.8039     14.5288    215.4683   9.4312616392e+01   2.7571085332e+01    0.1703147    0.1355478  40.87 0.0007536741    1.457    0.313
       298 -12.4596     12.1540    210.8456   9.4457526637e+01   2.8756036924e+01     0.477531    0.2115832  85.52  0.001908056    2.180    0.541
       299  -9.6513    110.6213    211.7224   7.4135642486e+01   1.5684290205e+01    0.1296108    0.1046671   3.28 0.0007005549    1.707    0.414
       300 -10.1751    217.3542    210.1697   5.1901431645e+01  -2.1475103633e+00    0.1771808    0.1150999 -44.01 0.0009510574    1.776    0.437
       301  -9.8019    147.5136    205.9929   6.5266702568e+01   1.0551905263e+01    0.1855675     0.116201 -23.50 0.0008087093    2.415    0.586
       302 -10.2518     63.4961     22.4736   3.9853645574e+01   6.2783207772e+01    0.2252136    0.1142097 -24.13  8.53872e-05    2.005    0.501
       303 -11.4286     20.1688    200.8969   9.2171516016e+01   3.0068803011e+01    0.4739903    0.1337083 -61.99  0.002047489    3.127    0.680
       304 -10.9282    175.3319    202.3502   5.8749611408e+01   6.2946706886e+00    0.2383893    0.2172302  34.37 0.0004861382    1.091    0.084
       305  -9.9465     67.2431    202.9730   8.2454256405e+01   2.4054080279e+01    0.1785925    0.1500731  86.31 0.0004216704    1.073    0.068
       306  -9.3719    134.6028    196.4982   6.6499952129e+01   1.4722727780e+01     0.136704    0.1306186  47.70 8.943533e-05    1.023    0.022
       307 -12.1544     15.6931    192.0668   9.2397862813e+01   3.2419334856e+01    0.3353408    0.3072666 -65.55  0.001881204    1.362    0.266
       308  -9.5258    186.5029    193.4779   5.4802384528e+01   5.8955606523e+00    0.1398823    0.1259595   9.96 0.0002583902    1.025    0.025
