#   1 NUMBER                 Running object number                                     
#   2 MAG_AUTO               Kron-like elliptical aperture magnitude                    [mag]
#   3 X_IMAGE                Object position along x                                    [pixel]
#   4 Y_IMAGE                Object position along y                                    [pixel]
#   5 X_WORLD                Barycenter position along world x axis                     [deg]
#   6 Y_WORLD                Barycenter position along world y axis                     [deg]
#   7 A_WORLD                Profile RMS along major axis (world units)                 [deg]
#   8 B_WORLD                Profile RMS along minor axis (world units)                 [deg]
#   9 THETA_WORLD            Position angle (CCW/world-x)                               [deg]
#  10 FWHM_WORLD             FWHM assuming a gaussian core                              [deg]
#  11 ELONGATION             A_IMAGE/B_IMAGE                                           
#  12 ELLIPTICITY            1 - B_IMAGE/A_IMAGE                                       
         1 -13.6150    225.0528     28.4429   2.8930322396e+02   6.1668237453e+00   0.07769606   0.03898381 -55.99   0.00605832    2.017    0.504
         2 -14.9130    242.0885     26.1728   2.8907850021e+02   6.0951569063e+00   0.07339775   0.04369561  75.90  0.005496529    2.508    0.601
         3 -16.5115    245.4079      7.2763   2.8893394952e+02   6.2951783070e+00    0.2624263    0.1634898 -55.31   0.02627132    1.655    0.396
         4 -10.2467    112.9919     30.0208   2.9071087019e+02   6.7911145373e+00    0.0291051   0.01710162  15.74  0.002552093    1.761    0.432
         5  -9.9705    191.7921     16.7179   2.8965412637e+02   6.4939983764e+00   0.01738386   0.01453534  70.84  0.001848498    1.342    0.255
         6  -9.0332    167.8218     15.2772   2.8994550523e+02   6.6482911030e+00   0.02247755    0.0117469 -80.04  0.001872842    2.621    0.618
         7  -8.9897    176.8475     14.8006   2.8983021135e+02   6.6020384575e+00    0.0129182   0.01147343  17.25 0.0004099449    1.074    0.069
         8  -8.0988    171.8916     11.6904   2.8987512554e+02   6.6665646645e+00  0.009947965  0.008215985  29.62 0.0008510739    1.130    0.115
         9  -9.2304    160.1535      4.6565   2.8998336156e+02   6.8155076797e+00   0.01793189   0.01237519  87.65  0.001011767    1.841    0.457
        10  -7.8692    167.0561      3.9497   2.8989329158e+02   6.7841179624e+00   0.01067838  0.007715077 -26.52 0.0004356899    1.582    0.368
        11  -8.5024    181.3863      2.5259   2.8970658282e+02   6.7183945337e+00    0.0118794   0.01032414 -54.47 0.0005830775    1.211    0.174
        12  -9.7116    242.1831    140.3981   2.8969986941e+02   4.7685420190e+00   0.03932622   0.01182511 -43.63  0.002406083    4.495    0.778
        13  -8.0320     58.1185    249.9698   2.9258717933e+02   4.5460364110e+00   0.01014116  0.009530514  15.51 0.0003397518    1.023    0.023
        14  -9.6151    241.1844    135.6312   2.8968636428e+02   4.8296509467e+00   0.01675548   0.01056861 -73.74  0.001634396    1.823    0.451
        15  -6.8461    153.3151    141.6716   2.9081424464e+02   5.2629732797e+00  0.007251204  0.004895675  56.27 0.0003612617    1.675    0.403
        16  -8.7069    248.2467    132.3925   2.8958081821e+02   4.8267304634e+00    0.0224395   0.01181767  81.83  0.001650247    3.522    0.716
        17  -8.9895    236.6410    128.0086   2.8970145141e+02   4.9442778664e+00   0.01598643   0.01060147 -42.11  0.001302202    1.628    0.386
        18  -8.3556    242.7623    117.2304   2.8956655604e+02   5.0343294480e+00   0.01122093  0.009832078 -56.37 0.0006473744    1.203    0.169
        19  -8.4039    243.6041    109.3540   2.8951318243e+02   5.1209716372e+00   0.01368259  0.008494888  19.85  0.001331591    1.575    0.365
        20  -9.5160    247.4503     98.9581   2.8940865987e+02   5.2195992137e+00   0.01975486   0.01242446  41.54   0.00120768    1.543    0.352
        21 -10.6067    242.1512     94.8862   2.8945246551e+02   5.2973271939e+00   0.02525764   0.01631722 -69.75  0.002530557    1.710    0.415
        22  -7.3891    226.6752     99.3248   2.8966942148e+02   5.3346699388e+00   0.00729477  0.004871773  55.69 0.0007048579    1.689    0.408
        23  -7.6937     39.8006     98.6062   2.9199817760e+02   6.4113546227e+00   0.01299812   0.00506966 -61.20  0.001026364    2.575    0.612
        24  -8.6623    228.7702     96.0240   2.8962534300e+02   5.3609756858e+00    0.0176141  0.007980051  36.70  0.001056333    2.012    0.503
        25  -9.1308    219.6392     90.3881   2.8970842223e+02   5.4788599920e+00   0.01365423   0.01215899  89.16 0.0006618469    1.241    0.194
        26 -10.6574     11.4563    210.7031   2.9295751711e+02   5.2680919238e+00   0.04477368   0.01847521 -54.82  0.003703374    2.397    0.583
        27 -10.4306      6.4260    209.1151   2.9301172000e+02   5.3151107862e+00   0.03654061   0.02134616 -53.05  0.003536942    1.757    0.431
        28  -6.9215    180.6936    198.7071   2.9078240737e+02   4.4431482336e+00  0.006947668  0.005057694 -22.80 0.0002432046    1.580    0.367
        29  -8.5828    227.2163     82.6245   2.8957170695e+02   5.5255058412e+00   0.01011375  0.008846051  51.61 0.0003688133    1.172    0.147
        30  -9.5220    222.5699     79.8485   2.8961448305e+02   5.5844271367e+00   0.02902784   0.01117377  40.01  0.002272446    2.457    0.593
        31  -8.5800    216.4463     78.4355   2.8968310525e+02   5.6360015877e+00   0.01156217   0.01109701  70.26 0.0004945811    1.107    0.097
        32 -11.6414    218.6528     73.2552   2.8962737740e+02   5.6834833901e+00    0.0230333   0.01663605 -84.74  0.001661559    1.653    0.395
        33  -8.1117    236.6718     90.7040   2.8949792717e+02   5.3773702360e+00   0.01132992  0.009690291 -15.11 0.0009666955    1.241    0.194
        34  -9.2053    202.7855     72.2173   2.8981954118e+02   5.7866374362e+00   0.02065558   0.01229778 -79.29  0.001357073    2.098    0.523
        35  -7.9192    175.0433     75.5487   2.9018372936e+02   5.9070701120e+00    0.0110587  0.006354996  25.26  0.001039132    1.624    0.384
        36  -8.1838    212.1787     73.4005   2.8970887156e+02   5.7189746246e+00   0.01160402  0.009948153 -15.62 0.0006877303    1.237    0.192
        37  -7.8360    181.9790     70.5228   2.9006983069e+02   5.9256859659e+00    0.0098918  0.009428827 -87.50 0.0006183364    1.131    0.116
        38  -7.7291    195.7267     70.6037   2.8989878096e+02   5.8458863393e+00  0.009714011  0.005850407  34.30  0.000935904    1.528    0.346
        39  -8.5826    225.2079     67.6338   2.8951503917e+02   5.7110955439e+00   0.01172658   0.01001845 -35.34  0.001347573    1.236    0.191
        40  -8.6783    190.9857     66.6890   2.8993659206e+02   5.9185511283e+00   0.02022992    0.0119795  32.11   0.00196608    1.544    0.352
        41  -8.3726    195.2883     64.3680   2.8987027991e+02   5.9208169925e+00   0.01378469   0.00920803 -41.34 0.0008022257    1.622    0.383
        42  -7.4430    157.3350     90.2903   2.9048491405e+02   5.8372416562e+00  0.007071348  0.005055215 -20.87 0.0004315234    1.635    0.388
        43  -8.7064    200.2310     62.7770   2.8979996545e+02   5.9109238716e+00   0.01290983   0.01064728 -38.45 0.0007210643    1.283    0.221
        44  -8.8351    201.0133     58.1965   2.8976524762e+02   5.9596184791e+00   0.01246359   0.01047255 -11.54 0.0003019175    1.268    0.211
        45  -9.6410    196.5798     58.2776   2.8982098738e+02   5.9841259792e+00   0.02108702   0.01363216 -28.59  0.001041062    1.861    0.463
        46  -7.3498    193.8195     84.2156   2.8999669263e+02   5.6987269463e+00  0.009402319  0.007701146 -18.23 0.0004984192    1.325    0.245
        47  -8.7037    173.3654     59.5302   2.9011745090e+02   6.1027480013e+00   0.01320608  0.008506972 -58.57  0.001327725    1.611    0.379
        48  -7.5866    187.4186     58.7267   2.8993771762e+02   6.0314815037e+00  0.009249203  0.006167284 -49.75 0.0005807428    1.563    0.360
        49  -7.5745    132.6803     58.3121   2.9061879753e+02   6.3499151186e+00  0.007212325   0.00487856  54.97 0.0007036846    1.648    0.393
        50  -7.9632    150.3736     56.4976   2.9038795551e+02   6.2697156965e+00   0.01336601  0.008558333 -58.21  0.001340397    1.618    0.382
        51  -8.1050    180.8007     54.3699   2.8999655541e+02   6.1200369153e+00   0.01348225  0.009958912  62.50  0.001414515    1.554    0.356
        52  -8.6009    193.9246     45.4777   2.8978434992e+02   6.1479739666e+00   0.01348974   0.01072166 -68.17 0.0009913221    1.358    0.263
        53  -7.6636    198.4666     44.4748   2.8972222102e+02   6.1335402508e+00  0.006839715  0.006375593   0.67 0.0002167263    1.072    0.068
        54  -8.5642    195.7861     40.9300   2.8973633539e+02   6.1900780486e+00   0.01127444  0.009323936  22.78 0.0003633196    1.138    0.121
        55  -8.7093    189.1781     40.0174   2.8981380537e+02   6.2386049164e+00   0.01093968   0.00933178  21.41 0.0003184254    1.107    0.096
        56  -9.8903    123.0372     35.6507   2.9061596217e+02   6.6682946592e+00   0.02429857   0.01681797 -56.61 0.0009728178    1.501    0.334
        57  -8.0118    171.4545     36.9856   2.9001848445e+02   6.3754862893e+00   0.01320322  0.008460619  40.01  0.001318525    1.494    0.330
        58  -7.3849    151.5022     37.5285   2.9027057456e+02   6.4835471915e+00  0.006827619  0.006401713  19.00  9.17698e-05    1.014    0.013
        59  -9.3607    115.7167     34.3882   2.9070057997e+02   6.7248182003e+00   0.01577266   0.01325536 -78.50 0.0009807308    1.317    0.241
        60  -8.1029    170.1281    195.8578   2.9089859551e+02   4.5367113072e+00   0.01084319  0.009111709  52.77 0.0008305454    1.234    0.189
        61  -7.9797    159.0744     33.0667   2.9015170359e+02   6.4919604378e+00    0.0117166  0.007605172  56.22  0.001134918    1.770    0.435
        62  -8.4454    192.5551     32.1443   2.8972874399e+02   6.3106031652e+00   0.01204059  0.009465556  13.66 0.0006080613    1.257    0.204
        63  -8.9567    141.3090     30.6410   2.9036038451e+02   6.6218982773e+00   0.01248609   0.01104062   3.11 0.0004572668    1.135    0.119
        64  -8.9540    201.6249     28.2688   2.8959444737e+02   6.3034929563e+00   0.01309109  0.008603995 -62.12   0.00132687    1.601    0.375
        65  -7.1690    185.4500     28.5336   2.8979771980e+02   6.3932978745e+00  0.006791858  0.006397817  13.86 -8.359882e-06    1.028    0.027
        66  -8.0505    146.1394     25.1136   2.9026993037e+02   6.6584063700e+00   0.00950912   0.00774591  58.77 0.0004783487    1.325    0.245
        67  -7.7191    181.0300     21.6739   2.8981548263e+02   6.4982757027e+00  0.009889013  0.008235539  27.80 0.0005568457    1.120    0.107
        68  -9.2053    201.7925     33.3656   2.8962015612e+02   6.2433826025e+00   0.01415917   0.01191786  36.04  0.001228684    1.127    0.113
        69  -8.3413    187.3778     19.9794   2.8972700965e+02   6.4815018843e+00   0.01551581  0.006624274 -64.91  0.000717696    2.499    0.600
        70  -8.0526    164.2366     19.3766   2.9001262664e+02   6.6212776925e+00   0.01295261  0.008379752  35.99  0.001303977    1.440    0.306
        71 -10.1532     40.5592    186.0896   2.9246168468e+02   5.3892676782e+00    0.0254004     0.015089 -40.90  0.001880879    1.869    0.465
        72 -10.8955     51.0437    174.7880   2.9226980302e+02   5.4611647252e+00   0.03785737   0.02885055 -44.84  0.003082759    1.381    0.276
        73  -9.5042    179.2955    151.5449   2.9054389805e+02   4.9995009770e+00   0.02521509   0.01802195  73.52  0.002576536    1.735    0.423
        74  -8.6590    175.5462    149.4927   2.9057949234e+02   5.0448237685e+00   0.01461171  0.008566985 -60.23  0.001337522    1.767    0.434
        75  -7.3797    125.9672    145.0186   2.9117358069e+02   5.3803827599e+00  0.008296316   0.00734611  24.24 0.0003894488    1.059    0.055
        76  -7.6572     66.4942    144.5237   2.9191327474e+02   5.7253586790e+00   0.00684274  0.006392068  26.64 6.516016e-05    1.012    0.012
