#   1 NUMBER                 Running object number                                     
#   2 MAG_AUTO               Kron-like elliptical aperture magnitude                    [mag]
#   3 X_IMAGE                Object position along x                                    [pixel]
#   4 Y_IMAGE                Object position along y                                    [pixel]
#   5 X_WORLD                Barycenter position along world x axis                     [deg]
#   6 Y_WORLD                Barycenter position along world y axis                     [deg]
#   7 A_WORLD                Profile RMS along major axis (world units)                 [deg]
#   8 B_WORLD                Profile RMS along minor axis (world units)                 [deg]
#   9 THETA_WORLD            Position angle (CCW/world-x)                               [deg]
#  10 FWHM_WORLD             FWHM assuming a gaussian core                              [deg]
#  11 ELONGATION             A_IMAGE/B_IMAGE                                           
#  12 ELLIPTICITY            1 - B_IMAGE/A_IMAGE                                       
         1 -15.9420     29.7293    146.6971   1.0779811356e+02   4.1497517021e+01     3.410567      1.42247 -49.53   0.01412265    2.320    0.569
         2 -18.7284     72.8383    190.2642   1.0186229649e+02   2.5269031057e+01     7.821898     6.408453 -10.45   0.04177722    1.598    0.374
         3 -18.0048     69.0350    125.8923   9.1828882255e+01   4.2138566208e+01     5.040836     2.337122  41.60   0.01974062    2.302    0.566
         4 -13.0387    216.7277     14.4623   3.0963455726e+01   3.0260998338e+01    0.2723725    0.1841395  71.12  0.001213073    1.433    0.302
         5 -12.1822     93.5768      9.2323   4.6811437554e+01   5.8632024138e+01    0.1624535    0.1154221   4.56 0.0009520367    1.648    0.393
         6 -12.2443    210.1014      7.6024   3.0071629936e+01   3.2387970282e+01    0.1985668    0.1680131 -42.30 0.0008768713    1.374    0.272
         7 -10.9704    102.3071      8.2991   4.4489411178e+01   5.6798000910e+01    0.1302339   0.08005635  37.40 0.0002532767    1.594    0.373
         8 -12.2767     84.1676      8.3744   4.8843791020e+01   6.0709857616e+01    0.1728209    0.1076458  66.15 0.0005228931    1.698    0.411
         9 -11.9989    144.2824      5.2011   3.6309406545e+01   4.7432368426e+01    0.2365342    0.1627174  74.74   0.00082833    1.239    0.193
        10 -12.3101    233.2879      3.2907   2.7568513603e+01   2.8102640141e+01    0.1728819    0.1436479 -89.01 0.0004646199    1.228    0.186
        11 -12.6160    131.2894      3.5757   3.7690834344e+01   5.0585654584e+01    0.2347507    0.2025667 -67.65 0.0005892738    1.255    0.203
        12 -11.7953    113.5046      1.4787   3.9938646463e+01   5.4831351730e+01    0.2497681    0.1025328  64.92 0.0007081013    2.008    0.502
        13 -11.4789     66.3198      1.7096   5.1155559014e+01   6.4873907011e+01    0.1054572   0.09290592 -89.44 0.0002347217    1.602    0.376
        14 -16.4232    188.4595    224.7347   8.0295241925e+01  -3.0280804999e-01      1.65842    0.6899178 -44.87   0.00658649    2.518    0.603
        15 -13.5652    180.2372    244.3821   8.5152141310e+01  -2.4005169818e+00    0.2934235    0.2325407 -40.54  0.001741728    1.440    0.306
        16 -15.1467    181.3034    213.9025   7.9908216646e+01   2.7105228718e+00    0.6513797     0.349818  29.02  0.001516877    1.835    0.455
        17 -12.0767    221.8992    231.4640   7.4930614054e+01  -6.0321611836e+00    0.1761436    0.1079063  26.62 0.0009511095    1.547    0.353
        18 -12.1358    112.9630    228.8771   9.7434485719e+01   1.0544806052e+01    0.2984215    0.2068977 -77.76  0.001540772    1.851    0.460
        19 -11.5835    156.5258    243.0760   8.9872880426e+01   1.2498748251e+00    0.2067678    0.1881952 -34.69  0.000660357    1.248    0.199
        20 -13.8032    194.2748    219.3555   7.8191681021e+01  -2.3597327421e-01     0.330304    0.2389802   7.34  0.001643895    1.365    0.267
        21 -13.9096    173.6931    226.6759   8.3684055664e+01   1.5713257474e+00    0.3226591    0.2623023  72.27  0.001787484    1.937    0.484
        22 -14.1878    178.4039    223.7681   8.2210713821e+01   1.3741521824e+00    0.2981013    0.2205118 -29.95  0.001310799    1.354    0.261
        23 -15.4930    173.5717    220.1074   8.2612916017e+01   2.7777439769e+00    0.8395522    0.4818765 -23.48  0.003829343    2.208    0.547
        24 -12.5607    238.0449    248.6040   7.4844353856e+01  -1.0438790717e+01    0.1979689    0.1402966 -23.60 0.0004096627    1.264    0.209
        25 -12.2836    173.0506    248.3053   8.7212129762e+01  -2.0210069842e+00    0.2184724    0.1706651  -9.85 0.0006629718    1.275    0.216
        26 -13.1259    165.5047    201.4600   8.1095608635e+01   7.6557312990e+00    0.2643874    0.2443659 -50.15 0.0007750153    1.218    0.179
        27 -11.6878    106.3564    219.8843   9.7730967385e+01   1.3441903536e+01    0.3465139    0.1735249 -43.67   0.00148359    2.412    0.585
        28 -13.3281    145.8920    202.8282   8.5790966767e+01   1.0679096514e+01    0.3310941    0.3210807 -10.03  0.001027072    1.062    0.058
        29 -11.9819    223.2417    220.1618   7.2738230036e+01  -4.4603454029e+00    0.1793896    0.1391913 -10.51 0.0003317213    1.079    0.073
        30 -12.5351    115.0318    203.8529   9.3301487001e+01   1.5593462356e+01    0.3500265     0.256512 -14.14   0.00151314    1.863    0.463
        31 -12.8029    114.3895    199.7493   9.2805724382e+01   1.6623632560e+01    0.3280335     0.284404  -7.52  0.001168811    1.327    0.246
        32 -12.2366    207.1158    201.9341   7.2508502594e+01   8.8185269452e-01    0.1971762    0.1710684 -13.95 0.0003119555    1.041    0.040
        33 -14.0962    182.8314    201.8114   7.7410598794e+01   4.7246034499e+00    0.5406392    0.2025215  43.37   0.00198596    2.939    0.660
        34 -12.7021    212.7074    200.3160   7.1131071323e+01   3.2344338469e-01     0.271396    0.2305956  79.34  0.001200761    2.000    0.500
        35 -12.5093    121.6785    200.5606   9.1158514516e+01   1.5238167569e+01    0.3307118    0.2402486 -30.19  0.001468055    1.638    0.390
        36 -12.3450    124.7575    195.9099   8.9630090007e+01   1.5765117749e+01    0.4049457    0.2148231  42.08  0.001444346    1.820    0.450
        37 -13.4981    224.5336    197.2324   6.8353173219e+01  -8.8599619952e-01    0.4320358     0.217455 -28.69  0.002034729    1.987    0.497
        38 -13.3735    192.5158    198.4839   7.4778979846e+01   3.7863855145e+00    0.2517966    0.2161578 -20.67 0.0006828864    1.073    0.068
        39 -13.8383    195.2375    195.6257   7.3685862787e+01   3.8812898235e+00    0.4073321    0.2611175  -4.25  0.001587283    2.059    0.514
        40 -14.0809    190.7671    195.4076   7.4558428059e+01   4.6462407309e+00    0.4131712    0.2541684  26.30  0.001876722    1.699    0.411
        41 -13.8418    150.6821    196.3896   8.3535703317e+01   1.1219721577e+01    0.6171243    0.3867324  76.58  0.002105936    4.046    0.753
        42 -12.8343    141.5589    196.5843   8.5706695104e+01   1.2747794258e+01    0.3504833    0.2919949  37.11   0.00188205    1.161    0.139
        43 -11.3426    238.5244    196.4563   6.5734487373e+01  -2.7224573999e+00    0.1269813     0.103582 -18.08 0.0001330014    1.019    0.018
        44 -11.9065    137.8606    199.1359   8.7031482501e+01   1.2827897549e+01    0.2402593    0.1855895  46.91 0.0005148387    1.320    0.242
        45 -11.9053    212.6974    194.5557   7.0051692533e+01   1.3357062060e+00    0.2198892    0.1579168 -55.27 0.0007428496    1.807    0.447
        46 -13.2120    184.3727    194.0925   7.5640957189e+01   5.9505819048e+00    0.2394993    0.1844937  17.16 0.0005072515    1.308    0.235
        47 -13.0567     20.4605    190.8660   1.1505070390e+02   3.1313734551e+01    0.5268589    0.2908542 -42.23  0.002538689    2.448    0.591
        48 -12.9246    201.5482    192.2499   7.1777483093e+01   3.4943577639e+00    0.2220738    0.1911189 -36.39 0.0007027024    1.186    0.156
        49 -14.1307    159.9457    191.3231   8.0469962303e+01   1.0679860226e+01    0.4675487    0.3884377 -89.79  0.001717631    1.669    0.401
        50 -13.4884    166.8938    191.1921   7.8879587711e+01   9.4995663969e+00    0.3937598    0.2248451  44.37  0.001750922    1.850    0.459
        51 -14.7197    180.7152    210.6355   7.9454844693e+01   3.4058567478e+00    0.5673242    0.3407313 -10.86  0.002474463    2.404    0.584
        52 -11.6238    228.3061    192.3034   6.6749131305e+01  -5.9675247074e-01    0.1325847   0.08923835  -9.34 0.0002025555    1.600    0.375
        53 -11.7010    138.9958    217.9450   8.9889773425e+01   8.6934794368e+00    0.1981757    0.1871846  31.34 0.0005561848    1.059    0.056
        54 -12.5524    206.0850    190.8239   7.0612839098e+01   3.0339636887e+00    0.1956643    0.1889819 -20.82  0.001227239    1.224    0.183
        55 -12.8298    174.2882    189.9817   7.7017203375e+01   8.4686213106e+00    0.2053717    0.2027512 -63.41 0.0005211767    1.193    0.162
        56 -14.2682    176.2065    184.0757   7.5451845846e+01   9.3291597543e+00    0.5001048    0.3139145 -49.37   0.00125154    1.661    0.398
        57 -12.3960    179.9890    180.9992   7.4026499461e+01   9.2882733244e+00     0.211334    0.2040242 -59.76  0.000514733    1.204    0.169
        58 -13.5357    156.0868    212.8508   8.5193680585e+01   6.9447029378e+00    0.5213178    0.4582185 -69.95  0.002989624    1.418    0.295
        59 -12.2551    226.4103    187.9793   6.6268547435e+01   4.1980164750e-01     0.199318     0.163875  19.47 0.0007317213    1.260    0.206
        60 -12.3945    208.6895    186.6035   6.9294117022e+01   3.3903755008e+00    0.2587688    0.1573226 -42.69 0.0007999981    1.569    0.363
        61 -11.8945    248.6224    185.8491   6.2076780124e+01  -2.3749276637e+00    0.1970466    0.1539439   4.60 0.0006499098    1.299    0.230
        62 -11.4828      9.1642    182.8408   1.1710898968e+02   3.4260904214e+01    0.2004882    0.1401323  74.59  0.001185104    1.282    0.220
        63 -13.5497    149.5447    173.0201   7.9325838110e+01   1.6508992585e+01    0.4987801    0.2262963 -40.74  0.001437159    2.334    0.572
        64 -13.8379    143.3910    172.4537   8.0697488738e+01   1.7776551373e+01    0.6364812    0.4449758 -73.27  0.002773823    1.984    0.496
        65 -12.2298    148.7452    179.7332   8.0851365687e+01   1.5166418004e+01    0.2732498    0.2369248 -60.64 0.0007641668    1.261    0.207
        66 -12.4203    145.0323    181.2260   8.2029173317e+01   1.5507612051e+01    0.3387409    0.2775187  -0.01 0.0006982312    1.382    0.277
        67 -12.3219    140.6207    181.7280   8.3190602688e+01   1.6189866696e+01    0.2637223    0.2057084  21.23 0.0006213741    1.360    0.265
        68 -14.0775    191.8045    178.6343   7.1075304671e+01   7.7002151808e+00    0.4823468    0.3056109 -36.78  0.001631061    1.495    0.331
        69 -13.6336    170.2786    181.1887   7.6183601219e+01   1.0969321418e+01    0.4431162    0.2054963  35.75  0.001756789    2.212    0.548
        70 -11.8848    149.1460    214.7446   8.7069009197e+01   7.6967814063e+00    0.3902033    0.2028408 -29.13   0.00153881    2.792    0.642
        71 -11.7117     17.4673    174.9933   1.1437371152e+02   3.5465478239e+01    0.2769626    0.1839395  26.77  0.001546368    1.716    0.417
        72 -11.3829    178.2967    177.3180   7.3653060860e+01   1.0335241623e+01    0.1487041    0.1093682  -9.32 0.0007016961    1.611    0.379
        73 -13.3756    174.6149    174.6937   7.3921808935e+01   1.1537262798e+01    0.4340159    0.2439895 -36.28  0.001185332    1.813    0.448
        74 -13.3787    160.0657    170.5400   7.6345045269e+01   1.5097143986e+01    0.5044481     0.276106 -31.70  0.001984842    2.209    0.547
        75 -13.2419    153.2841    166.9930   7.7198743589e+01   1.7150010219e+01    0.3266044     0.256109  52.87  0.001598181    1.408    0.290
        76 -13.8637    157.0162    164.7536   7.5849780917e+01   1.6937941709e+01    0.5147043    0.3272626 -27.09  0.002124579    1.921    0.480
        77 -11.5159    152.4564    225.5128   8.8073436799e+01   5.0680301345e+00    0.1353094    0.1216795  20.27 9.984869e-05    1.021    0.020
        78 -16.1043     62.7043    158.0563   9.9811845024e+01   3.4786629340e+01     2.252908     1.083262 -79.19  0.008040275    2.903    0.656
        79 -13.1531    202.6872    167.7526   6.6691330931e+01   7.9273732372e+00    0.2335404    0.2113331  27.96 0.0009542222    1.184    0.155
        80 -13.4517    171.7505    167.1799   7.3001795762e+01   1.3635817566e+01    0.3427364    0.2291289 -45.00  0.001212031    1.456    0.313
        81 -12.4096    166.9084    160.6870   7.2709162442e+01   1.5934590923e+01    0.2026879     0.187345  37.09 0.0003125221    1.122    0.109
        82 -13.9120    154.6719    158.5233   7.5073741133e+01   1.8768206349e+01    0.3609402    0.3086293   5.08  0.001611234    1.292    0.226
        83 -11.9004    232.9673    215.2894   7.0117304026e+01  -4.9814744049e+00    0.1686045     0.134273   2.51 0.0003108635    1.116    0.104
        84 -13.2420    159.8217    157.3088   7.3602647088e+01   1.8036608273e+01    0.2797076    0.2449278 -31.54 0.0005879512    1.123    0.109
        85 -12.3501    164.9882    157.2565   7.2404102030e+01   1.7044820771e+01    0.2082483    0.1968582  25.87 0.0003816762    1.080    0.074
        86 -12.7304    198.5071    215.0763   7.6591067738e+01  -1.2389768091e-01    0.1995737    0.1211139 -37.77  0.001034173    1.598    0.374
        87 -11.9485    106.7021    214.3521   9.6874714022e+01   1.4589282421e+01     0.286381    0.1613635  54.40 0.0008573239    2.000    0.500
        88 -12.2917    211.9651    154.1632   6.2121525091e+01   8.8957197290e+00     0.240884    0.1854696 -41.29 0.0005199201    1.180    0.152
        89 -13.5770    180.6866    150.8998   6.7568322022e+01   1.5345898289e+01    0.3895668    0.3101729  85.37  0.001080176    1.766    0.434
        90 -11.7120    103.7136    213.6436   9.7484341135e+01   1.5208023374e+01    0.1911312    0.1394729  16.05 0.0006759904    1.612    0.380
        91 -11.0243    243.2711    150.6632   5.6146205688e+01   4.3087814317e+00    0.1262207   0.09270132 -58.34 0.0002654966    1.600    0.375
        92 -12.1166     12.2077    150.1533   1.1329694910e+02   4.2113378799e+01     0.211565    0.1856278  21.89 0.0006740933    1.362    0.266
        93 -11.4074      8.7537    149.3593   1.1418649058e+02   4.2569348527e+01     0.177471    0.1283444  32.56 0.0004616428    1.564    0.361
        94 -11.4437    224.7068    149.3691   5.8884234665e+01   7.5757973605e+00    0.1743051    0.1267686  29.07 0.0008482683    1.613    0.380
        95 -13.5117    165.1549    148.4525   7.0424239580e+01   1.8918320650e+01    0.3711818    0.2728658 -76.03   0.00164208    1.927    0.481
        96 -12.6942    171.3279    144.7263   6.8208628948e+01   1.8484810901e+01    0.3450543    0.2286994 -12.70   0.00049869    2.303    0.566
        97 -12.5252    165.3388    209.8587   8.2628605689e+01   6.0248518011e+00    0.2310785     0.162231 -28.40 0.0006760762    1.511    0.338
        98 -12.7584    178.0308    142.6505   6.6293068683e+01   1.7582001789e+01    0.3699138    0.2223733  58.63  0.001535761    2.160    0.537
        99 -11.7545     14.4134    142.3301   1.1177665624e+02   4.3920073306e+01    0.2818799    0.1135311 -73.38 0.0007832387    2.162    0.537
       100 -11.6369    167.2526    140.3811   6.8120742784e+01   2.0233323512e+01    0.1560712     0.116411 -16.49  0.000695979    1.659    0.397
       101 -13.6308     50.9645    138.0663   9.9969757403e+01   4.1438360517e+01    0.3563898    0.2562639  78.78  0.001048717    1.660    0.398
       102 -11.5722    118.0056    213.5365   9.4080009387e+01   1.2986342377e+01    0.2037095    0.1286928  36.93 0.0003859946    1.461    0.315
       103 -13.6886    134.0836    137.0268   7.5333214401e+01   2.7757086685e+01    0.3384928     0.310035   9.00  0.001117787    1.170    0.145
       104 -13.8166    131.4751    132.0560   7.4832600768e+01   2.9434470883e+01    0.5573698    0.4521792 -13.33  0.001491554    1.479    0.324
       105 -13.3204    209.6378    211.8236   7.3825077758e+01  -1.2015169214e+00    0.3094061    0.1770875  40.04  0.001331758    1.915    0.478
       106 -12.3151     17.4784    136.4715   1.1013043370e+02   4.5166309507e+01    0.3080998      0.20879  35.14  0.001289695    1.643    0.391
       107 -12.6970     20.1771    133.8371   1.0894781010e+02   4.5619234887e+01    0.2877391    0.2187212  19.78 0.0009449223    1.538    0.350
       108 -11.4822      3.3748    136.3065   1.1435483632e+02   4.6198730535e+01    0.1740427    0.1052527 -83.32 0.0003595002    1.479    0.324
       109 -12.0638    211.9288    143.9318   5.9964124265e+01   1.0836076998e+01    0.2182946    0.1685111 -69.98  0.001126462    1.676    0.403
       110 -12.3452    140.6199    134.3114   7.3019863959e+01   2.7046676565e+01    0.4549104    0.2590078  27.59  0.001708004    2.322    0.569
       111 -11.1299    231.6683    225.3207   7.2101466757e+01  -6.3530466225e+00    0.1025519    0.1006927 -79.91 0.0007049144    1.696    0.410
       112 -11.7847     10.1224    131.1082   1.1170860487e+02   4.7058518506e+01    0.2576433    0.1569334 -84.01 0.0009520525    1.561    0.360
       113 -11.6657    247.6293    131.2794   5.1636531905e+01   6.9316602956e+00    0.1254263   0.09343413 -69.05  0.000701114    1.692    0.409
       114 -12.2618    138.1062    130.9766   7.2857388948e+01   2.8321466033e+01      0.23071    0.2274969 -11.36 0.0007022246    1.022    0.022
       115 -14.2280    154.1876    128.9723   6.8428943464e+01   2.5405850370e+01    0.7797393    0.6079555 -44.94  0.002190841    1.246    0.197
       116 -13.2809    157.5147    128.5188   6.7542713820e+01   2.4802705102e+01    0.4591917    0.3984364 -14.30  0.001531603    1.283    0.221
       117 -13.5120    174.5553    244.3396   8.6305208242e+01  -1.5865818173e+00    0.2470109    0.2175994  56.67  0.001087793    1.536    0.349
       118 -11.8472    212.4123    224.2840   7.5486876924e+01  -3.6485618593e+00    0.1646865    0.1146422 -43.44 0.0009472361    1.608    0.378
       119 -12.2734    170.9593    127.9269   6.4397440926e+01   2.2098064258e+01    0.2289514    0.2192549 -51.11  0.000485751    1.025    0.024
       120 -13.4742     23.7141    124.4846   1.0645479006e+02   4.7695077714e+01    0.3864333     0.228725 -16.19  0.001811812    2.293    0.564
       121 -13.9659     30.4752    118.6340   1.0323480542e+02   4.8572303967e+01    0.4815767     0.410415 -55.89  0.002856967    1.030    0.029
       122 -13.8939     23.6048    115.7832   1.0508481429e+02   4.9886424011e+01    0.4275064    0.2728862  25.27  0.001414275    1.765    0.433
       123 -12.7948    195.5694    121.9453   5.8073991696e+01   1.8202971213e+01    0.2500338    0.2154619  50.35 0.0003722108    1.259    0.206
       124 -11.7114    190.1906    121.9332   5.9082199297e+01   1.9305230841e+01    0.2223163    0.1943381 -77.40  0.001196551    1.266    0.210
       125 -12.3794    201.8291    120.3587   5.6577453548e+01   1.7243169639e+01    0.1866742    0.1332306  37.99 0.0002444139    1.628    0.386
       126 -11.5802      4.9909    119.7409   1.1188742734e+02   5.0218978053e+01    0.1736715    0.1516567 -56.67 0.0004934564    1.093    0.085
       127 -12.9266    155.3235    116.9301   6.5202472204e+01   2.7741506026e+01     0.305692     0.267058 -47.54 0.0006025007    1.115    0.103
       128 -13.2726     11.3785    116.0146   1.0926565062e+02   5.0739408915e+01    0.4880281    0.2027436 -39.66  0.002075188    2.555    0.609
       129 -11.5916    194.3727    115.7500   5.6864559326e+01   1.9637646450e+01    0.2023104    0.1303403 -33.66 0.0003621076    1.583    0.368
       130 -11.9843    143.8909    114.9624   6.7423648463e+01   3.0637626811e+01    0.3042133    0.2110783  76.37  0.001245969    2.119    0.528
       131 -13.3766    125.0096    220.3799   9.3471341044e+01   1.0427138152e+01    0.3919334    0.2982856 -39.36  0.002133725    1.456    0.313
       132 -12.7492    165.4042    111.2427   6.1531420933e+01   2.6715447509e+01    0.2812163    0.1903301 -50.97  0.001281178    1.476    0.323
       133 -12.9568     19.0086    114.4724   1.0644084157e+02   5.0577572855e+01    0.2082039     0.170849  84.83 0.0004769996    1.320    0.243
       134 -12.9569    141.7970    107.8284   6.6089393763e+01   3.2607954699e+01     0.488984    0.3990792  32.86   0.00191088    1.317    0.241
       135 -12.2256    159.6404    222.0987   8.5949012516e+01   4.5870894026e+00    0.2203627    0.1749022  40.94 0.0005039112    1.279    0.218
       136 -13.9414     14.5751    107.0841   1.0677006628e+02   5.2719596172e+01     0.442859    0.3605042   1.19  0.002433037    1.410    0.291
       137 -12.6505     16.6746    102.6985   1.0526241106e+02   5.3637983644e+01    0.2140773    0.1517311 -47.13 0.0002631375    1.223    0.183
       138 -13.5762      2.3095    104.0528   1.1062589025e+02   5.4202712486e+01    0.6051116     0.209418 -65.03  0.001929078    2.182    0.542
       139 -14.1608    167.1088    219.8409   8.3952838645e+01   3.8367530283e+00     0.386333    0.3132997 -20.63  0.002160881    1.243    0.196
       140 -12.6233    123.5875    214.0175   9.2840272329e+01   1.1989841425e+01    0.4652963     0.337138 -32.74  0.002385409    1.617    0.382
       141 -13.1050     78.6232    105.1023   8.3728101540e+01   4.5710775256e+01     0.277706    0.2187166  22.15 0.0004785266    1.352    0.260
       142 -12.9674    213.2381    103.9219   5.0969819906e+01   1.7966336286e+01    0.2379512    0.2079856  65.00 0.0005061767    1.255    0.203
       143 -15.6608     77.1846     97.8582   8.2283775689e+01   4.7617171239e+01     1.000389    0.6599503  34.34  0.002916678    1.559    0.359
       144 -13.4739    162.4135    100.7451   5.9510856102e+01   2.9462530150e+01    0.3264138    0.2436955 -79.29  0.001301021    1.716    0.417
       145 -15.5936     67.6527     84.7761   8.1939546263e+01   5.2046212854e+01     1.080289    0.6025369  56.43  0.004162515    3.003    0.667
       146 -15.5558     54.8219     85.5613   8.6922072684e+01   5.3745054021e+01    0.8939991    0.6095731  58.51  0.004218684    2.158    0.537
       147 -14.2503     59.9544     96.1890   8.7887272343e+01   5.0633682536e+01    0.5612208    0.3143446 -41.57  0.002138238    1.716    0.417
       148 -12.3237    188.5726     99.7240   5.4126904552e+01   2.3875736697e+01    0.2714484    0.1760411  43.19  0.001273433    1.747    0.428
       149 -12.4237    177.6611     99.1925   5.6026193328e+01   2.6363066187e+01    0.3206694    0.2280856 -86.00  0.001456872    1.900    0.474
       150 -13.2406     69.3377     96.0676   8.4510321077e+01   4.9279544492e+01    0.2611609    0.2197066 -26.80 0.0004296914    1.166    0.143
       151 -11.6549    194.0159     99.5098   5.3115339937e+01   2.2743676092e+01    0.2046875    0.1419577  57.40 0.0005283328    1.536    0.349
       152 -13.0818    150.0048     95.5098   6.0872793481e+01   3.3277164221e+01    0.4196725    0.2382717  52.98  0.001460739    1.799    0.444
       153 -11.2887    153.0876    220.8795   8.7192191529e+01   5.8568715665e+00    0.1827202    0.1490199  -8.09 0.0003576718    1.299    0.230
       154 -12.9918     11.9820     98.3048   1.0620387411e+02   5.5016943613e+01    0.1759732    0.1522736 -46.18 0.0003829604    1.064    0.061
       155 -11.4363    203.9792     96.9437   5.0852214831e+01   2.1096185911e+01    0.1694514     0.151832 -55.75 0.0004020981    1.008    0.008
       156 -13.1787     38.5736     95.7949   9.5703620398e+01   5.3355368014e+01    0.2810343     0.196205 -24.64  0.001123943    1.517    0.341
       157 -16.3471     95.4878    153.8743   8.9611012892e+01   3.0879320506e+01     2.061116     1.570476 -35.40  0.009860137    1.441    0.306
       158 -12.8405    214.2785     92.1085   4.8170178446e+01   1.9806705240e+01     0.263506    0.2362319 -13.41  0.001459555    1.367    0.269
       159 -12.7420    229.3987    206.4551   6.9171494361e+01  -3.0990281134e+00    0.2561084    0.1925952 -36.99  0.001184933    1.320    0.242
       160 -12.4835    184.7298     91.9915   5.2936057103e+01   2.6123216361e+01    0.2021474    0.1828088 -58.41 0.0004250963    1.035    0.034
       161 -12.8160     20.8386     91.2052   1.0147679489e+02   5.6067317971e+01    0.2176774     0.198609 -44.20 0.0006929599    1.081    0.075
       162 -13.4701      2.7291     91.1562   1.0843358718e+02   5.7248538141e+01    0.2769529    0.2102661 -26.99  0.001019239    1.327    0.246
       163 -13.3442     39.9174     91.2245   9.4103087592e+01   5.4279680233e+01    0.2498725    0.1798701 -13.03  0.000657007    1.531    0.347
       164 -13.1894    171.0176     88.3380   5.4567555036e+01   2.9855229462e+01    0.3245399    0.2004655 -42.20 0.0008470833    1.574    0.365
       165 -13.7772     11.8811     88.3601   1.0439004062e+02   5.7371700254e+01    0.3992367    0.2051349 -74.17  0.001888871    2.086    0.521
       166 -13.2326     79.1933     88.7650   7.9038159756e+01   4.9292832733e+01    0.4012542    0.2073854  33.60  0.001667897    2.011    0.503
       167 -12.8640    162.8530     87.8310   5.6057485518e+01   3.1806904495e+01    0.2237848    0.2072844  19.04 0.0006864161    1.235    0.190
       168 -14.3095     31.0879     87.5570   9.6651101762e+01   5.6027492417e+01    0.3645128    0.2607327  13.93   0.00113612    1.521    0.342
       169 -12.4278    207.1935     86.6241   4.7979469464e+01   2.2203577883e+01    0.2521566    0.2126378  55.13  0.001464421    1.313    0.238
       170 -13.2523    163.5202     83.5477   5.4793549595e+01   3.2428690330e+01    0.2964224    0.2314431 -79.35 0.0008128595    1.477    0.323
       171 -13.4607    107.3759     81.5549   6.7909864557e+01   4.5385370437e+01    0.4593557    0.4059153 -66.81  0.001674514    1.297    0.229
       172 -12.5943     20.9061     83.4952   9.9768325582e+01   5.7845726929e+01    0.1805649     0.126866  14.90 0.0009773164    1.565    0.361
       173 -11.5310    222.6022     82.2272   4.4827691667e+01   1.9759046682e+01    0.1727076    0.1177452 -34.41 0.0003246198    1.498    0.333
       174 -13.1942    213.9784     79.2296   4.5328190415e+01   2.2005999247e+01    0.3178491    0.2776148   5.71  0.001563057    1.589    0.371
       175 -12.8493    153.2229     80.1978   5.6012983440e+01   3.5400271787e+01    0.2569456    0.2304551  72.02 0.0003961754    1.111    0.100
       176 -12.7718     87.3556     79.4999   7.3508421753e+01   4.9758268738e+01    0.3254311    0.2642436  49.60  0.001703764    1.337    0.252
       177 -12.8932    189.4477     77.7098   4.8635170417e+01   2.7547169212e+01    0.2853195     0.243307  32.71 0.0009396169    1.457    0.314
       178 -13.6027     53.7641     76.0415   8.4577128476e+01   5.5943776794e+01     0.357388    0.2119512 -66.15  0.001543814    2.471    0.595
       179 -13.5685     74.9874     75.7478   7.6568341490e+01   5.2724971829e+01    0.3912899    0.2944093  51.90    0.0010067    1.576    0.365
       180 -13.0532     58.2663    100.3986   8.9570352488e+01   4.9884264919e+01     0.366141    0.2490985  48.82  0.001731365    1.762    0.432
       181 -13.1550     21.9874     76.2468   9.7602694489e+01   5.9387270331e+01    0.2287399    0.1668337 -51.65 0.0005421343    1.201    0.167
       182 -11.6493     67.3285     76.3193   7.9513197401e+01   5.3874584817e+01    0.1486068    0.1046564 -11.05 0.0005109292    1.685    0.407
       183 -13.4181     15.4548     76.0127   1.0029050713e+02   5.9941548222e+01    0.3289027    0.1747862  23.60  0.001407701    2.067    0.516
       184 -12.9273    199.1544    207.8790   7.5170449566e+01   1.0404668618e+00    0.1889332    0.1824198   0.54 0.0004405186    1.251    0.200
       185 -12.6072    115.9790     74.8933   6.3452092333e+01   4.4806333337e+01    0.2624329    0.2115876 -37.92 0.0007441313    1.274    0.215
       186 -14.1171     31.8670     74.5902   9.3033396255e+01   5.8850657287e+01    0.3905971    0.2385891   7.38  0.001997955    1.848    0.459
       187 -12.1252    125.1520     73.5216   6.0621023586e+01   4.3020707566e+01    0.2304727    0.2003554  12.58 0.0005793756    1.293    0.226
       188 -13.1519      2.6911     73.4510   1.0511591995e+02   6.1293152891e+01    0.3033847    0.1675197 -23.72  0.001637018    1.848    0.459
       189 -12.4617    160.7491     73.0167   5.2528525680e+01   3.4895678277e+01    0.2058927    0.1839811 -51.97 0.0005627549    1.114    0.102
       190 -12.1300    220.0138     72.4850   4.3036128319e+01   2.1829836361e+01    0.1885969    0.1259899  68.13   0.00103039    1.587    0.370
       191 -13.0898     86.2939     70.5853   7.1036867781e+01   5.1688972714e+01    0.4356041    0.2353779 -32.76  0.001709926    2.028    0.507
       192 -12.0928    196.5383     70.5535   4.5812523004e+01   2.7137051139e+01    0.2553265    0.2182072 -63.95 0.0008315431    1.064    0.060
       193 -13.8228    197.0766     66.9335   4.4873386862e+01   2.7586524582e+01    0.4496387    0.3551224   2.79  0.002381016    1.956    0.489
       194 -13.3651     99.7794     67.2433   6.5685749554e+01   4.9628685060e+01    0.3699987    0.2810127 -40.50   0.00191531    1.365    0.268
       195 -12.8707    102.5521     62.9442   6.3463333132e+01   4.9797154659e+01    0.2615105    0.1873111  31.30 0.0003655035    1.443    0.307
       196 -12.1931     78.3649     67.6453   7.2768269679e+01   5.3703093302e+01    0.3070492    0.1733509 -33.67  0.001010825    1.857    0.462
       197 -12.8188    230.2633     72.4051   4.1762571262e+01   1.9778693007e+01     0.336408    0.2562077 -74.29  0.001882425    1.269    0.212
       198 -12.1569      1.9973     68.4913   1.0435469695e+02   6.2418254807e+01    0.1654997    0.1161383   4.54 0.0009864066    1.561    0.359
       199 -11.5604    220.4058     67.2395   4.1841449580e+01   2.2555618921e+01    0.1796753    0.1046537 -49.85 0.0003869137    1.512    0.339
       200 -11.6712    250.0149     66.3249   3.8375733900e+01   1.6924158380e+01    0.1576208    0.1314996 -74.87 0.0002565355    1.131    0.116
       201 -12.7122    188.1012     65.1704   4.5778117750e+01   2.9865543409e+01    0.2552311    0.1856328 -57.67 0.0006429894    1.327    0.247
       202 -12.4896    206.0245     64.1605   4.2987392047e+01   2.6057128464e+01    0.2719504      0.18827  -1.20  0.001232983    2.867    0.651
       203 -13.1123    114.1454     63.6365   6.0442478476e+01   4.7178670569e+01    0.3728062    0.2649579 -69.04  0.001028942    2.016    0.504
       204 -12.0138    229.4515     62.7016   3.9811679137e+01   2.1398740977e+01    0.2411993    0.1685646  61.02  0.001100943    1.581    0.368
       205 -14.4802     43.2937     60.6225   8.3992173054e+01   6.0438963750e+01    0.5745006    0.2585983  35.77  0.002586192    2.336    0.572
       206 -12.3244     74.0191     65.9780   7.3748509875e+01   5.4783583190e+01    0.2093094    0.1953693   3.63 0.0003573915    1.051    0.049
       207 -12.9629    109.3285     60.0113   6.0585725524e+01   4.8833228301e+01    0.2352205     0.232148 -46.55 0.0008186846    1.096    0.088
       208 -13.0956      2.9319     59.2663   1.0178152566e+02   6.4337933616e+01    0.3182472    0.2068646 -33.98  0.001142478    1.284    0.221
       209 -13.2938     98.8876     57.5620   6.2756090320e+01   5.1461995378e+01    0.3493114    0.2921849 -26.12  0.001169092    1.243    0.195
       210 -12.7303    193.0406     58.0520   4.3326349184e+01   2.9831529550e+01    0.2266766    0.1468633 -69.13 0.0009832034    1.678    0.404
       211 -12.4929    178.2923     57.9283   4.5485000210e+01   3.3207627543e+01    0.2301892    0.1575087 -56.27  0.001186737    1.462    0.316
       212 -12.0101    153.2422     57.7185   4.9767753238e+01   3.9100025950e+01    0.2185929    0.1994742 -40.61 0.0005947031    1.164    0.141
       213 -14.1735     30.6533     56.9966   8.8342236132e+01   6.2605775625e+01    0.3682078    0.2223426   7.27  0.001805065    1.803    0.445
       214 -13.3549     26.6831     56.3311   8.9932334870e+01   6.3138792757e+01    0.2229216    0.2061878  58.99  0.001125724    1.517    0.341
       215 -13.4612    127.3080     54.9608   5.4423555646e+01   4.5586125089e+01    0.4627638    0.2710038 -27.84  0.002103361    1.977    0.494
       216 -11.6523    139.3078     56.6770   5.2274802096e+01   4.2535495052e+01    0.1445019     0.107869 -75.87 0.0003595032    1.646    0.392
       217 -12.7659    175.3520     50.5212   4.4046223336e+01   3.4963294987e+01    0.2892689     0.198014  18.41 0.0008281174    2.572    0.611
       218 -12.5533    163.2097     54.8851   4.7174144882e+01   3.7174654811e+01    0.2116222    0.1803284 -78.67 0.0005606351    1.163    0.140
       219 -13.2737    110.4368     53.9202   5.8294677525e+01   4.9555448125e+01    0.4166712    0.2536395  52.09  0.001984858    1.556    0.357
       220 -11.6866    207.4843     53.5321   4.0377717710e+01   2.7305249104e+01    0.2354085    0.0965522 -47.58  0.001021313    2.228    0.551
       221 -11.3258     65.8515     52.3787   7.2019756890e+01   5.8603644978e+01    0.1804091    0.1173234  26.23 0.0004259882    1.530    0.347
       222 -14.1557    195.0435    205.6933   7.5599017061e+01   2.0639641525e+00     0.600567    0.2286799 -31.10  0.002066583    3.621    0.724
       223 -12.8934     95.3464     49.7279   6.1127128947e+01   5.3432987846e+01    0.3317577    0.2398438 -13.78  0.001137728    1.603    0.376
       224 -13.7581     38.2247     50.1444   8.2611574262e+01   6.3037132333e+01    0.3425442    0.2010526  35.30  0.001021014    1.830    0.454
       225 -12.1720     20.4889     46.5150   8.9632435417e+01   6.5605803996e+01    0.1856369   0.09419534 -40.02 0.0009691367    1.675    0.403
       226 -11.1285    149.6545     50.7421   4.8474953106e+01   4.0972445152e+01    0.1393867    0.1013343  36.72  0.000485733    1.593    0.372
       227 -12.9403    219.3627    206.5069   7.1017403999e+01  -1.7050006180e+00    0.3219544    0.1829643  28.34  0.001673281    1.801    0.445
       228 -13.0199    172.7620    201.9830   7.9597903110e+01   6.3433799114e+00    0.2276984    0.1902846  25.83 0.0003240375    1.147    0.128
       229 -12.3560      1.4693     46.8282   9.9169969144e+01   6.6940299032e+01    0.2012122     0.128406 -65.66  0.000605599    1.744    0.427
       230 -13.0413    142.7120     45.4424   4.8266348582e+01   4.3352284109e+01    0.3198383    0.2850438   0.74 0.0008538504    1.339    0.253
       231 -11.1989     39.3085     46.2757   8.0723391027e+01   6.3591248082e+01    0.1296039   0.08656085  -9.42 0.0002174829    1.552    0.356
       232 -11.7367    226.5009     45.5024   3.6521193986e+01   2.4423457633e+01    0.1241858     0.102722 -68.57 -0.0002468103    1.023    0.022
       233 -12.0287    153.0241     44.7914   4.6172408650e+01   4.1002249899e+01    0.2212797    0.1957757 -40.72 0.0005077905    1.216    0.178
       234 -13.5101     17.1425     49.7374   9.2317844217e+01   6.5286685065e+01    0.4261771    0.1733016 -51.68  0.002030999    2.150    0.535
       235 -12.0389    195.7665     44.5863   3.9760353308e+01   3.1124127270e+01    0.1810725    0.1144429  83.67 0.0009428847    1.614    0.381
       236 -12.4152     99.9622     44.2998   5.7900671790e+01   5.3253126255e+01      0.19397    0.1619254  43.42  0.000287427    1.097    0.088
       237 -12.5811    188.6690     43.1910   4.0333365761e+01   3.2909441392e+01    0.3408214    0.1706549  65.60  0.001244944    1.892    0.471
       238 -11.9191     51.6951     42.9558   7.4102692328e+01   6.2425941996e+01    0.1819701    0.1502811 -15.96 0.0003967872    1.112    0.101
       239 -12.4038     52.5231     39.0681   7.2238986631e+01   6.2914045107e+01    0.2383976    0.1177696 -33.72  0.001143858    2.031    0.508
       240 -13.7028    165.9897    197.5070   8.0264070874e+01   8.3688507893e+00    0.6454461    0.3499228  10.70   0.00221288    3.601    0.722
       241 -12.4932    146.0134     39.7008   4.5970356648e+01   4.3332866321e+01    0.2101844    0.1923396 -46.44  0.001281678    1.176    0.150
       242 -11.5886    104.4205     39.7540   5.5108992877e+01   5.2910064838e+01    0.1732997    0.1308281 -11.65 0.0003842506    1.530    0.347
       243 -12.4552     60.1498     37.9388   6.8730351426e+01   6.1853615590e+01    0.2861357    0.1754214 -45.01  0.001131622    1.958    0.489
       244 -13.0086      9.2964     38.6767   9.2593590036e+01   6.7980700963e+01    0.1924044    0.1621465  -7.14 0.0005377622    1.169    0.144
       245 -13.4315     12.1634     36.8967   9.0472634977e+01   6.8079223076e+01     0.351835     0.287372  54.74  0.001830184    2.013    0.503
       246 -13.2805     26.7241     37.1828   8.3188166406e+01   6.6641990434e+01    0.3571085    0.1807794 -24.41  0.001762112    2.132    0.531
       247 -12.7014     31.8557     32.4000   7.8781126902e+01   6.6827751866e+01    0.2485805    0.1626859 -12.56 0.0008570484    1.482    0.325
       248 -11.9812    231.6960     37.3796   3.4357232993e+01   2.4445598356e+01    0.2005592    0.1121145 -68.11  0.001096485    1.732    0.423
       249 -12.1315    110.4719     37.4644   5.2783074379e+01   5.1867176002e+01      0.13569    0.1219258  45.41 8.103894e-05    1.004    0.004
       250 -11.7956    117.8125     36.2112   5.0625102222e+01   5.0363796438e+01    0.1842921    0.1495808  25.51 0.0005640581    1.338    0.253
       251 -12.7119    222.2839     34.9725   3.4733835440e+01   2.6669784732e+01    0.2068915    0.1610358  75.76 0.0003628656    1.285    0.222
       252 -13.7536     44.7574     34.0376   7.3517371897e+01   6.4846937491e+01    0.4207554    0.2151546  29.08  0.002130311    1.883    0.469
       253 -12.2589     22.9541     33.7565   8.3727838619e+01   6.7619638177e+01    0.2104263    0.1505349 -32.02 0.0005965353    1.238    0.192
       254 -11.9256    143.6396     33.0565   4.4457310650e+01   4.4720852215e+01    0.1752403    0.1656966 -45.61  0.000405244    1.169    0.144
       255 -12.4877    106.6259     32.4067   5.1998446181e+01   5.3356314992e+01    0.2409566    0.2167659  15.47 0.0007459532    1.158    0.136
       256 -12.3827    218.7760     32.3857   3.4523402213e+01   2.7725065459e+01    0.1584681    0.1025559  64.85 0.0002882448    1.585    0.369
       257 -12.1420    155.9668     30.0472   4.1570326765e+01   4.2164967220e+01    0.1976964     0.174505  85.76 0.0003090061    1.031    0.030
       258 -11.1475     89.3480     30.2971   5.5865983967e+01   5.7339830404e+01    0.1398018   0.08990975  26.64 0.0003049588    1.679    0.404
       259 -13.1456     69.6871     29.3972   6.1778182183e+01   6.1340811778e+01    0.3015509    0.1990161  56.69  0.001443837    1.807    0.446
       260 -12.9063     39.3103     28.9288   7.3820185383e+01   6.6379052328e+01    0.2667613    0.2003157   3.10 0.0008216788    1.167    0.143
       261 -11.7540    213.7826     28.0136   3.4068328221e+01   2.9314076303e+01    0.1669316    0.1358489 -69.14 0.0002473443    1.044    0.042
       262 -12.0743     82.1300     27.8604   5.7089086662e+01   5.9114637577e+01    0.1792907    0.1362049  21.05 0.0002505632    1.294    0.227
       263 -13.3127    101.3506     25.8338   5.0996284362e+01   5.5287331087e+01     0.317785    0.2014801  60.66  0.001256327    1.507    0.337
       264 -11.7021     20.5151     22.8464   8.0451194382e+01   6.9608558086e+01     0.172163   0.09997056 -35.03  0.001020821    1.567    0.362
       265 -13.2288     84.2093     24.0597   5.4989252803e+01   5.9133939575e+01    0.3102073    0.2641271  86.88   0.00189214    1.582    0.368
       266 -14.1101    168.9527    205.1196   8.0996530997e+01   6.3584762756e+00    0.4554172    0.2925042  41.93  0.001330049    1.594    0.373
       267 -11.7824    172.4678     21.1083   3.6925677108e+01   3.9315740757e+01    0.1739361    0.1233057 -35.66 0.0006829336    1.545    0.353
       268 -11.6797    142.5582     20.7663   4.1044243411e+01   4.6355120913e+01    0.2231426    0.1337324 -19.55  0.001136641    2.122    0.529
       269 -13.5755    204.6833    245.6429   8.0513947871e+01  -5.9296147639e+00     0.452018    0.1783442 -35.07  0.002089594    2.607    0.616
       270 -12.2594    102.1712     15.6927   4.7166630806e+01   5.6158880726e+01    0.2467196    0.1105396  67.34 0.0007989368    2.445    0.591
       271 -10.8846    132.5459     13.5274   4.0515639255e+01   4.9420095500e+01    0.1276459    0.1099442  72.50 0.0001193073    1.034    0.032
       272 -11.4131     68.2141     11.3953   5.4767437009e+01   6.3644300522e+01    0.1736664     0.108576  58.62 0.0009585269    1.724    0.420
       273 -10.9317     40.2642     10.6447   6.5068934103e+01   6.8603022243e+01   0.09940158   0.09378202 -41.37 0.0002640743    1.625    0.385
       274 -14.3062    186.6922    244.0784   8.3802437273e+01  -3.2561252942e+00    0.3969336    0.3262184  47.09  0.002347027    1.574    0.365
       275 -11.9603    154.8991    230.2350   8.8280392081e+01   3.8024157458e+00    0.2945452    0.1666702  31.77 0.0009438068    1.605    0.377
       276 -13.2722    159.6328    233.4761   8.7762683062e+01   2.4865111062e+00    0.5182775    0.2635338  30.59  0.002447367    1.808    0.447
       277 -12.7472    159.5417    242.0345   8.9082008876e+01   9.8576629187e-01    0.2509074    0.2172119 -22.05 0.0006718612    1.213    0.175
       278 -12.8636    169.1097    243.0152   8.7227278984e+01  -5.8212367736e-01    0.1925733    0.1656206  12.60 0.0004199982    1.023    0.023
       279 -13.6847    206.4092    236.5529   7.8709284346e+01  -4.7710453848e+00    0.2921906    0.2221349  44.50  0.001776512    1.733    0.423
       280 -14.4553    176.9948    234.5681   8.4275039952e+01  -3.0023473428e-01     0.386827    0.2680993  32.95  0.001632428    1.337    0.252
       281 -13.0820    169.4317    234.8797   8.5902569178e+01   7.6451997870e-01    0.2740287    0.1589155  17.05  0.001321807    1.916    0.478
