#   1 NUMBER                 Running object number                                     
#   2 MAG_AUTO               Kron-like elliptical aperture magnitude                    [mag]
#   3 X_IMAGE                Object position along x                                    [pixel]
#   4 Y_IMAGE                Object position along y                                    [pixel]
#   5 X_WORLD                Barycenter position along world x axis                     [deg]
#   6 Y_WORLD                Barycenter position along world y axis                     [deg]
#   7 A_WORLD                Profile RMS along major axis (world units)                 [deg]
#   8 B_WORLD                Profile RMS along minor axis (world units)                 [deg]
#   9 THETA_WORLD            Position angle (CCW/world-x)                               [deg]
#  10 FWHM_WORLD             FWHM assuming a gaussian core                              [deg]
#  11 ELONGATION             A_IMAGE/B_IMAGE                                           
#  12 ELLIPTICITY            1 - B_IMAGE/A_IMAGE                                       
         1 -13.7789     67.4033    145.9077   5.7714764997e+01   3.7086859826e+01     2.720294     1.509685 -88.72   0.01032624    2.629    0.620
         2 -12.6261    202.3045     48.9551   2.1491668410e+00   2.8219528200e+01     1.061259    0.9353713 -38.07  0.006821696    1.164    0.141
         3 -11.0711    227.6595     37.8812   3.5729401056e+02   2.4418606196e+01    0.4041935     0.235763 -36.34  0.002356087    1.435    0.303
         4 -11.6964    240.8956     15.6492   3.5166453415e+02   2.4371933169e+01     0.826707    0.4425735 -41.53  0.004809496    1.405    0.288
         5 -11.0062    234.8475     17.1153   3.5228654622e+02   2.5354826054e+01    0.6788403    0.1783266 -37.06  0.002911409    2.529    0.605
         6  -9.2406    116.3290     12.3326   1.9567140120e+00   5.3703428255e+01    0.2984123    0.2131642  53.42    0.0014343    1.370    0.270
         7 -11.1568    120.2432      8.9576   4.6446313837e-02   5.2996550895e+01    0.5831382    0.4284384  67.45  0.001777489    1.226    0.184
         8  -9.0438    100.9143      8.8338   3.2339727610e+00   5.8079608766e+01    0.2047137    0.1680981  52.78 0.0002867834    1.175    0.149
         9 -10.2128    144.3903      6.9177   3.5632347179e+02   4.6898087817e+01    0.3029007     0.236691  15.54  0.001691693    1.715    0.417
        10  -9.5124    172.3167      3.9836   3.5297616723e+02   4.0213269619e+01    0.4176069    0.1278055 -50.69   0.00162939    2.895    0.655
        11  -9.3084     14.5075     13.0017   4.4198752883e+01   7.6112265082e+01     0.190232    0.1182463 -45.82  0.001038409    1.609    0.378
        12  -9.0579    218.5138     11.2442   3.5187658308e+02   2.9189786332e+01    0.1974398     0.144111 -83.91 0.0007325569    1.294    0.227
        13 -12.9670    211.8833     40.8524   3.5926384727e+02   2.7228597732e+01     1.288244    0.8507376 -13.44  0.001268273    2.036    0.509
        14  -9.3439    153.2757    200.4105   4.4114358755e+01   1.1863991476e+01    0.2563213     0.113445  28.75  0.001053383    2.147    0.534
        15  -9.1405    124.9477    250.1210   5.6729391068e+01   7.5980937270e+00    0.1768784    0.1563569 -28.40  0.001235998    1.376    0.273
        16  -9.5284     96.1750    248.2476   6.2619391777e+01   1.1409015055e+01    0.3440551    0.2240194  -5.37  0.001936227    2.169    0.539
        17 -14.8201     50.5801    178.8559   6.7084736610e+01   3.1142306688e+01      10.9436     1.807269  44.55   0.02974608    5.019    0.801
        18  -8.7561     64.4789    196.7086   6.5121948167e+01   2.5314819372e+01    0.2628479    0.1827965 -77.87  0.001190682    1.611    0.379
        19  -9.1297     85.1905    202.8520   6.0473796369e+01   2.1264751256e+01    0.2435802    0.1822332  49.40 0.0006057869    1.251    0.200
        20 -10.1666     66.1333    189.6400   6.3933330617e+01   2.6681582391e+01    0.2454186    0.2071467  69.49 0.0004041007    1.187    0.157
        21  -9.2041    114.7612    188.7870   5.1179571210e+01   1.9873516198e+01     0.310683    0.1937174   8.12 0.0006394644    2.178    0.541
        22  -8.1539    125.4935    186.5060   4.8205035578e+01   1.8665426955e+01    0.1388132    0.1237784  34.08 -0.0001319622    1.079    0.073
        23 -14.5571     41.5683    192.0249   7.0771016245e+01   2.9100405622e+01     3.167176     1.695232  68.28  0.009332021    2.024    0.506
        24  -9.4989    181.5485    181.1862   3.5051230246e+01   1.0881967934e+01    0.5341803    0.1703577 -36.77  0.002019818    3.288    0.696
        25  -9.1742    180.5048    175.4842   3.4217003037e+01   1.1983387294e+01    0.3009005    0.1847677 -51.97  0.001508744    2.093    0.522
        26  -8.9166     93.8898    182.7921   5.5634906731e+01   2.4321102968e+01    0.2708017    0.2162641 -28.79  0.001032474    1.488    0.328
        27  -8.8465    221.0000    175.9871   2.7118752633e+01   6.0396257735e+00    0.1939187   0.05869713 -37.19 0.0007911173    2.942    0.660
        28 -10.0326    122.3121    173.6568   4.6849716063e+01   2.1795159178e+01    0.3573627    0.2216548  48.94  0.001664493    1.724    0.420
        29  -8.8314    239.3300    175.6572   2.4249119394e+01   3.7189581636e+00    0.1023566   0.08612907 -48.78 0.0007051063    1.748    0.428
        30  -9.3760    140.5638    174.2447   4.2544061451e+01   1.8652893411e+01    0.2539786    0.1390072 -54.64  0.001122935    2.177    0.541
        31 -10.6097    111.2333    169.4575   4.8963802803e+01   2.4521735734e+01    0.7006842    0.4832201 -79.68  0.002352741    2.061    0.515
        32 -11.8135     98.6125    170.2135   5.2458433799e+01   2.6400107011e+01      1.93848    0.4161836  44.69 0.0008261732    5.579    0.821
        33 -11.1318     53.3343    147.3387   6.2471142614e+01   3.8659803836e+01     1.140231    0.6301526  45.30  0.004812312    1.720    0.419
        34 -10.5887     80.3881    155.7048   5.5296486117e+01   3.2685096454e+01     0.490853    0.3202244 -56.53  0.002301206    1.598    0.374
        35  -8.5982    120.2391    249.2282   5.7612059605e+01   8.3111956266e+00    0.1644805    0.1135041  41.16 0.0007205316    1.358    0.264
        36 -10.3079    230.9423    167.8167   2.4090091642e+01   5.8571037753e+00    0.2613232    0.1474424 -36.66    0.0015278    1.586    0.369
        37 -10.5502    245.0311    163.5081   2.1267501042e+01   4.6116577977e+00    0.2646863    0.1712338 -39.36  0.001709017    1.528    0.346
        38  -9.7393    183.3200    209.8023   3.9532420222e+01   6.1680243392e+00    0.4609532    0.1697228 -50.78  0.001711794    4.852    0.794
        39  -9.6951     49.1587    162.3663   6.5707960356e+01   3.5353445827e+01    0.5417007    0.2429207  44.32  0.001869101    2.030    0.507
        40  -7.6427    203.6064    161.2968   2.7278676524e+01   1.0720604726e+01    0.1160002    0.1025383 -84.30 0.0007007359    1.795    0.443
        41  -9.2616     60.0514    155.2358   6.1438240567e+01   3.5752951240e+01    0.3300161    0.2389662 -85.45 0.0008863966    1.482    0.325
        42 -17.3248      9.4258    237.7217   8.0951984897e+01   2.2687057697e+01     4.603571     3.915117  44.68   0.03057299    1.178    0.151
        43 -10.5759    133.8180    145.1291   3.8499134116e+01   2.5795518382e+01     1.269352    0.3353282 -52.92  0.003318415    5.187    0.807
        44 -10.8154     88.0050    149.1856   5.1902510013e+01   3.3059797236e+01    0.6584922    0.4967711 -17.98  0.003094948    1.743    0.426
        45  -7.6311    112.3244    151.3275   4.5361537546e+01   2.8375257387e+01     0.153429    0.1167573 -10.07 0.0007049437    1.695    0.410
        46  -7.8563    123.2952    149.3185   4.2043444847e+01   2.6843127751e+01    0.1495085    0.1155736  -9.15  0.000565171    1.609    0.379
        47  -9.4702     36.9957    145.4561   6.7606187943e+01   4.1101138567e+01    0.4721355     0.216084  38.52  0.001147665    1.978    0.494
        48  -9.0148     32.4069    143.7202   6.8940095508e+01   4.2043527903e+01    0.3783965    0.2273772 -73.96   0.00179263    1.612    0.380
        49  -7.8197    143.0000    143.9755   3.6024962785e+01   2.4308428448e+01    0.2361845   0.08254003 -46.14 0.0007038836    2.897    0.655
        50 -11.1171     89.3492    136.0350   4.8987886385e+01   3.6051248883e+01    0.4092156    0.3402328  76.85 0.0004471555    1.341    0.254
        51  -9.4177     25.3252    138.6755   7.0802623881e+01   4.4070049526e+01    0.2951339    0.2004521  44.50  0.001503718    1.395    0.283
        52  -9.6842    101.8602    136.7440   4.5364484927e+01   3.3649348160e+01    0.5548248    0.3653629 -18.91  0.002206166    2.388    0.581
        53  -8.2224    155.8487    137.0137   3.1565105505e+01   2.3256543956e+01    0.1870698     0.178792  -2.94            0    1.008    0.008
        54  -9.8998     48.4689    133.5073   6.2086225526e+01   4.2901128617e+01     0.389598    0.2678512 -62.27  0.001227957    1.435    0.303
        55 -10.5565     43.9107    130.6793   6.3267227660e+01   4.4213350075e+01    0.4959013    0.2974417  59.07  0.001563658    1.818    0.450
        56  -8.6717    118.9446    132.2918   3.9563314674e+01   3.1449460263e+01     0.268009     0.215579 -87.25  0.000709293    1.576    0.365
        57  -9.5761    136.0463    130.2144   3.4650771462e+01   2.8524278393e+01    0.4973415    0.1889892 -45.76  0.001731623    2.647    0.622
        58  -9.0982     31.1328    131.1744   6.7907571224e+01   4.5498469327e+01    0.4858446    0.1825144  56.04  0.001596918    3.401    0.706
        59  -8.6740     28.4562    140.4832   6.9921865267e+01   4.3292912351e+01    0.2393485    0.1763916  39.15  0.001257143    1.302    0.232
        60  -9.1072    111.4230    128.5353   4.0801176832e+01   3.3769062893e+01    0.3110919    0.2638997   2.97 0.0007299738    1.383    0.277
        61 -10.5619    244.0000    125.0238   1.4132551409e+01   9.9883842174e+00    0.3525499    0.1267038 -41.28   0.00162652    2.385    0.581
        62 -10.7856     46.8879    125.4935   6.1384293970e+01   4.5227861218e+01    0.6875423     0.275936  35.51  0.002165031    2.299    0.565
        63  -8.0540     90.4011    124.8278   4.6284521172e+01   3.8621696855e+01    0.2283726    0.1957584  28.32 0.0005160905    1.200    0.167
        64  -9.6810     98.1658    124.1777   4.3715692707e+01   3.7340225097e+01     0.289538    0.2457137   4.77 0.0004806657    1.389    0.280
        65 -11.0087     67.2761    167.3754   6.0912408290e+01   3.1756425886e+01    0.4428278    0.3303708 -16.07   0.00154294    1.806    0.446
        66 -10.0620    240.4812    116.9769   1.2966527499e+01   1.1636108630e+01    0.2861829   0.08648078 -39.82  0.001203573    2.670    0.625
        67  -8.3773     84.7845    119.8598   4.6986929709e+01   4.0864488919e+01    0.2247899    0.2060398   5.87  0.001154755    1.205    0.170
        68  -8.3756     71.3176    119.6093   5.1510584011e+01   4.3236849780e+01    0.2442569    0.1717835  64.03  0.001079463    1.651    0.394
        69 -10.0784     33.7743    119.1861   6.5298852480e+01   4.8440875819e+01    0.3503661    0.2331543 -56.10 0.0008817086    1.474    0.322
        70  -7.6987    231.6958    118.3607   1.4363480429e+01   1.2814772732e+01    0.1240788   0.08469014 -55.02 0.0007038457    1.727    0.421
        71  -8.4980    107.6440    118.0628   3.9419881866e+01   3.6940097451e+01    0.2087524    0.1906097 -50.62 0.0003877064    1.114    0.103
        72  -8.1712    158.8606    115.7985   2.5974721490e+01   2.6768916008e+01    0.1977794    0.1691799 -72.65 0.0003440912    1.360    0.265
        73  -9.0871     45.0360    115.7291   6.0411827962e+01   4.8066110867e+01     0.368665    0.1950576  47.90  0.001512386    1.976    0.494
        74  -9.8094    244.0519    114.2906   1.1994918766e+01   1.1463111466e+01    0.1637564     0.140963 -30.16  0.001167468    1.087    0.080
        75 -10.8718     71.9469    163.0103   5.8929872403e+01   3.2160349776e+01    0.3313356    0.2947392  21.54 0.0009763513    1.174    0.148
        76 -10.8914     52.7440    111.3363   5.6610777860e+01   4.8214368268e+01    0.4895944    0.3714879  52.64  0.002398261    1.353    0.261
        77  -9.0643     39.8495    114.1123   6.2139350973e+01   4.9127157505e+01    0.2214802    0.1884071  65.93 0.0003008234    1.181    0.154
        78 -11.0082     32.4246    109.7880   6.4371175009e+01   5.1113170039e+01    0.6278605    0.4164915  45.86  0.003023383    1.527    0.345
        79 -10.4041    237.7968    109.7292   1.1821047425e+01   1.3072831796e+01    0.3918125    0.1411141 -42.45  0.001756857    2.388    0.581
        80  -8.3451    127.5065    110.4978   3.1999449026e+01   3.4497477757e+01    0.1518079    0.1503979  80.79 -0.0001742152    1.007    0.007
        81  -9.0965     64.0831    106.2031   5.1159843348e+01   4.7857763824e+01    0.2316013    0.2109571 -15.78 0.0006359635    1.219    0.180
        82 -10.6191     42.4694    104.3553   5.9298536260e+01   5.1420049509e+01    0.5740986    0.2729645  46.60  0.001673096    2.262    0.558
        83 -10.2947     36.4721    101.6818   6.1273966305e+01   5.2845161767e+01    0.4547714    0.3093019  57.02  0.001476448    1.609    0.379
        84  -9.8225     35.1411     96.9128   6.0919251803e+01   5.4265492599e+01    0.4830993    0.2477873  27.64  0.001797526    1.972    0.493
        85  -8.0613     79.6759    104.9739   4.5156992671e+01   4.5489885704e+01     0.267857    0.1450151  63.41 0.0007800927    3.098    0.677
        86  -8.5153     60.0699    100.1596   5.1277466718e+01   5.0047916677e+01    0.2156237    0.1994019 -22.64            0    1.166    0.143
        87 -10.3531     22.5292     98.0044   6.6631458619e+01   5.5234510120e+01    0.4933904    0.3205253  88.23  0.001786348    1.647    0.393
        88  -9.6903     17.3135     90.9217   6.7839171432e+01   5.7558798554e+01    0.3213671    0.1747449  37.49  0.001462337    1.885    0.470
        89  -8.0292    112.3966     90.2406   3.0525821949e+01   4.2159549247e+01    0.1980972    0.1483935 -55.48 0.0002195152    1.397    0.284
        90 -10.3799      2.7285     91.5073   7.4616623337e+01   5.8331238871e+01    0.4761229    0.2162339 -73.95   0.00208821    1.929    0.482
        91  -9.6124     10.4485     86.2199   7.0335914775e+01   5.9294383920e+01     0.259532    0.1925483  28.46 0.0006952144    1.432    0.302
        92 -10.1845      3.0043     84.5319   7.3671794748e+01   6.0161144207e+01    0.3280285    0.2611803  28.85  0.001581417    1.360    0.265
        93  -9.9477      3.3246     81.6581   7.3150867165e+01   6.0901033190e+01    0.3411366    0.1884161  62.31  0.001506862    2.074    0.518
        94  -8.3268    234.2213     83.0526   6.6235166339e+00   1.7385074269e+01    0.1628217   0.08421859 -34.07 0.0003044869    1.599    0.375
        95  -8.1481    153.1295     77.9131   1.7137773620e+01   3.5038324616e+01    0.1846181    0.1702778  -5.48 -0.0006383859    1.244    0.196
        96 -11.7063    190.2361     57.3151   5.6366382540e+00   2.9715999733e+01    0.5487432    0.4773837  64.60 0.0007887273    1.260    0.206
        97  -8.8459    104.8166    249.2137   6.0862248106e+01   1.0201970753e+01    0.1563337    0.1214088   9.13 0.0006144175    1.311    0.237
        98  -8.2212     25.3494     58.3057   5.6372868747e+01   6.5197618898e+01    0.1501992   0.09722844 -27.69 0.0007042123    1.703    0.413
        99  -9.6511     72.3649    203.9276   6.3833354387e+01   2.2742715731e+01    0.3317819    0.2414775  84.89  0.001212716    1.604    0.377
       100  -7.9661    141.8214     42.1724   8.3091485739e+00   4.3485308125e+01    0.1908965    0.1650108  42.97 0.0002716382    1.303    0.233
       101  -9.9233    119.0218    242.3064   5.7121282107e+01   9.5465319305e+00    0.3640465    0.1804073 -57.22   0.00179769    2.656    0.623
       102  -9.0994    233.7544     35.6040   3.5635065967e+02   2.3517147014e+01    0.1534451   0.09956682 -79.56  0.000674207    1.596    0.373
       103  -7.8843    102.6216     25.1842   9.8625563349e+00   5.5865337653e+01    0.1776505    0.1407228  -8.57  0.000377214    1.521    0.343
       104  -8.2366     86.5135     24.5257   1.3742806764e+01   6.0036375574e+01    0.1431935    0.1321065  63.29 8.524971e-06    1.025    0.024
       105  -8.1762     90.5716    246.4628   6.3667921885e+01   1.2383222184e+01    0.2166568    0.1008239  19.58  0.001021456    2.306    0.566
       106  -7.9076     79.6278    244.1743   6.5862332565e+01   1.4086307819e+01    0.1323463    0.1124916 -47.75 0.0004127591    1.503    0.335
       107  -7.6622    189.6942     15.6820   3.5483316773e+02   3.4974886182e+01    0.1175956   0.09637233  39.51 0.0007028934    1.630    0.387
       108 -15.0231      9.2810    208.7667   7.9994338114e+01   2.8547303038e+01     1.220982    0.9832346 -15.25  0.006843098    1.731    0.422
       109  -8.2163     86.5291    240.3102   6.4001437912e+01   1.3927704053e+01    0.2231376   0.08997673  30.17  0.001058611    1.947    0.487
       110  -9.8620    193.1706    195.3772   3.5325832857e+01   6.9904762979e+00    0.6403112    0.3675566 -61.22  0.002361828    5.601    0.821
       111  -9.9985     93.3524    236.5060   6.2123890393e+01   1.3750139678e+01    0.3905692    0.1571179 -62.35  0.001836017    3.154    0.683
       112  -9.6064    110.0499    235.6316   5.8330767337e+01   1.1783166979e+01     0.388658    0.1666894  34.06  0.001912322    1.813    0.448
       113  -9.4020    185.8676    226.6495   4.1613389457e+01   3.4442282095e+00    0.4004301    0.1501326 -45.36  0.001788178    3.294    0.696
       114  -8.4633    167.4741    226.9753   4.5179728337e+01   5.7017309411e+00    0.1594943    0.1131821 -35.99 0.0006691716    1.557    0.358
