#   1 NUMBER                 Running object number                                     
#   2 MAG_AUTO               Kron-like elliptical aperture magnitude                    [mag]
#   3 X_IMAGE                Object position along x                                    [pixel]
#   4 Y_IMAGE                Object position along y                                    [pixel]
#   5 X_WORLD                Barycenter position along world x axis                     [deg]
#   6 Y_WORLD                Barycenter position along world y axis                     [deg]
#   7 A_WORLD                Profile RMS along major axis (world units)                 [deg]
#   8 B_WORLD                Profile RMS along minor axis (world units)                 [deg]
#   9 THETA_WORLD            Position angle (CCW/world-x)                               [deg]
#  10 FWHM_WORLD             FWHM assuming a gaussian core                              [deg]
#  11 ELONGATION             A_IMAGE/B_IMAGE                                           
#  12 ELLIPTICITY            1 - B_IMAGE/A_IMAGE                                       
         1 -16.3473    132.4748     19.8028   7.8117757876e+01   5.0182647017e+01     10.61317     4.266078 -33.38   0.04198453    2.511    0.602
         2 -15.0964    211.5392     70.1158   7.9776004588e+01   2.2748629333e+01     1.954077     1.155156 -79.92  0.007322226    2.764    0.638
         3 -18.4491    235.8060     49.3372   7.1000355800e+01   1.9858130392e+01     8.433185     4.333132 -23.93   0.03333762    2.190    0.543
         4 -14.3259     67.4101    147.6296   1.3198411725e+02   3.7401443839e+01     1.561255     1.284756 -35.19  0.003402588    1.623    0.384
         5 -12.3797    205.6836     34.0725   7.0685335643e+01   2.9407145065e+01    0.5013154    0.2221268 -26.44  0.001467823    2.424    0.587
         6 -10.4580    203.6888     11.1571   6.4566929396e+01   3.2594742886e+01    0.1650045     0.144151  -5.74 0.0003545577    1.385    0.278
         7 -10.5850     92.7627      9.0388   8.3323635436e+01   6.0495017953e+01    0.2784973    0.1748713 -19.54  0.000604965    1.609    0.378
         8 -11.1608    233.1707      8.1505   6.1015705384e+01   2.5548259654e+01    0.2773769    0.1389181  54.44  0.001286951    2.197    0.545
         9 -11.0777    227.1712      6.3652   6.1080542582e+01   2.7192657226e+01      0.25258    0.1030945  65.94  0.001033446    2.253    0.556
        10 -11.2786    215.5268      2.7692   6.1180288115e+01   3.0442388594e+01    0.1481804    0.1255498  19.83 0.0004927659    1.533    0.348
        11 -11.5918    210.5039    178.5494   1.0577552994e+02   4.8204517538e+00    0.7671042    0.4741082  69.97   0.00250201    3.477    0.712
        12 -12.2770    246.3417    248.8641   1.1161694086e+02  -9.9055055412e+00    0.7238735    0.3052622  40.35  0.004082112    1.977    0.494
        13 -10.8108    237.2861    249.8368   1.1322841762e+02  -8.7113789450e+00    0.2188521    0.1607939  28.58 0.0008470563    1.112    0.101
        14 -11.3246    206.7942    177.5476   1.0627774672e+02   5.6894341635e+00     1.535233    0.5853298  57.69  0.003794727    7.410    0.865
        15  -8.7808    143.3919    181.2140   1.1981801792e+02   1.7398867246e+01    0.1825579    0.1306447 -69.25 0.0009315917    1.678    0.404
        16 -11.6721    220.8149    170.3225   1.0222724968e+02   4.1194004355e+00    0.4640199    0.2691221 -34.32  0.002276872    1.769    0.435
        17 -11.7933    214.2673    169.0424   1.0317259589e+02   5.5848589332e+00     1.144609    0.7760648 -79.47  0.004469673    3.759    0.734
        18  -8.6655    187.2943    178.6441   1.1027363802e+02   9.3143027347e+00    0.1344613    0.1103366  86.95 0.0007031786    1.691    0.409
        19 -11.9121    190.8019    170.9363   1.0807414083e+02   9.9310575893e+00    0.8523496    0.4037478  61.63  0.002711448    4.257    0.765
        20 -11.5624    180.6054    165.3797   1.0902021319e+02   1.2981203360e+01    0.6529748    0.3395086  60.26  0.001833853    2.721    0.632
        21 -10.8420    230.1442    172.8721   1.0106805846e+02   1.9784929415e+00    0.5393613     0.217547  48.86  0.001404873    2.630    0.620
        22 -10.5481    230.3297    166.8539   9.9809067049e+01   2.8364448324e+00    0.2621735    0.2038656 -45.56  0.001240764    1.526    0.345
        23 -11.2243    202.9206    166.5880   1.0482054799e+02   8.2301845257e+00    0.4165359     0.325598  78.98  0.001609078    1.892    0.471
        24 -11.0807    203.3925    160.8714   1.0354198205e+02   9.0918974748e+00    0.4113247    0.2789982 -59.65  0.001818196    2.099    0.524
        25 -10.9126    195.5114    167.7081   1.0649326396e+02   9.5340525373e+00    0.3141846    0.2295457  61.21 0.0007768503    1.631    0.387
        26  -9.4563     59.8417    248.6043   1.4354344763e+02   1.8250759002e+01    0.1552409    0.1246159  88.48 0.0005962857    1.331    0.249
        27  -9.6527    132.5105    137.4843   1.1389823632e+02   2.8562518702e+01    0.3505106    0.2364982 -64.14  0.001194326    1.671    0.402
        28 -10.6541    159.5265    146.4964   1.0957603617e+02   2.1017972804e+01    0.2967401    0.1902157  57.88  0.001151136    1.684    0.406
        29 -11.6733    162.5215    145.0436   1.0859372239e+02   2.0666873460e+01    0.5235326     0.237949 -44.41  0.002004894    2.298    0.565
        30 -10.9430    144.4514    146.6230   1.1302705734e+02   2.4163779199e+01    0.4866776    0.2763796 -70.13  0.001774297    2.938    0.660
        31 -11.7253    156.9437    139.7341   1.0866458319e+02   2.2942558756e+01    0.5433425    0.3424539 -69.70  0.001751474    2.396    0.583
        32  -9.4082    126.5501    142.7896   1.1646446115e+02   2.8598805535e+01    0.3479901    0.2265311  76.68  0.000846316    2.208    0.547
        33 -13.7193      9.3084    236.4614   1.5101487878e+02   2.6042802220e+01     1.427575    0.7236985  73.11   0.01017567    1.446    0.309
        34 -10.0225    146.9169    130.5242   1.0887847642e+02   2.7025367680e+01    0.2410722    0.2096154 -49.29 0.0009587258    1.174    0.148
        35 -10.4017    146.5556    158.0893   1.1488691894e+02   2.1366684608e+01    0.5072557    0.3652686  80.57  0.002367946    1.848    0.459
        36 -11.2117    221.9980    243.5013   1.1482338286e+02  -5.7750489861e+00    0.3476942    0.1454913  23.82  0.001464974    3.457    0.711
        37 -12.2307     56.3395    155.3265   1.3571970117e+02   3.7093762307e+01     0.383115    0.3310149  83.63 0.0008626106    1.064    0.060
        38  -9.8891     97.5139    112.4977   1.1736372342e+02   4.0861516644e+01    0.4218698    0.2359004 -70.92  0.001307797    2.464    0.594
        39  -8.7868     94.6333    106.7859   1.1682177921e+02   4.2666569260e+01    0.2028586    0.1304755 -64.47 0.0003924237    1.654    0.395
        40  -9.6042    139.7886    106.4209   1.0460765991e+02   3.3687573177e+01    0.2683522    0.2045285  35.71  0.001254558    1.412    0.292
        41 -11.1841    144.1157    103.5669   1.0277457510e+02   3.3304742185e+01    0.5189865    0.3037778  45.35  0.001482454    1.716    0.417
        42 -11.0050    155.0933    159.1913   1.1320604935e+02   1.9407658588e+01    0.6333196    0.3922614 -89.84  0.002189177    3.631    0.725
        43 -11.5828    125.8687     90.0154   1.0364274498e+02   4.0191931968e+01     0.507496    0.3287627 -52.80  0.002229111    1.622    0.384
        44 -11.7496     83.3718    145.1178   1.2760826613e+02   3.5667746102e+01     0.722026    0.4390354 -80.35  0.002434068    1.861    0.463
        45  -8.7695     31.8344     87.2247   1.3187651319e+02   5.5392180387e+01    0.1658213    0.1185669 -49.77 0.0003939131    1.251    0.201
        46 -10.1380     42.1395    247.1439   1.4633186653e+02   2.0662189513e+01    0.1513392    0.0852745  65.10 0.0004167234    1.301    0.232
        47 -11.5199    198.3431    152.7514   1.0279061261e+02   1.1534918781e+01    0.3907651    0.3111806 -28.87  0.001050652    1.300    0.231
        48 -10.6907     80.8863     80.8855   1.1418733867e+02   5.0733137400e+01    0.4775313    0.2010015 -58.17  0.001740307    2.819    0.645
        49  -9.6915    134.6127    151.8482   1.1638337248e+02   2.5056777022e+01    0.3558635    0.2207277 -70.63  0.001511129    2.152    0.535
        50 -11.9052    197.2406     64.4027   8.0508559573e+01   2.7265708068e+01    0.4665172    0.3269584 -85.04  0.001389997    1.784    0.439
        51 -10.0025    133.7874    147.2635   1.1565272867e+02   2.6197484100e+01    0.4546911    0.2148494 -56.11  0.001761127    2.353    0.575
        52  -9.8282    175.8046     52.1148   8.0615064633e+01   3.4731284457e+01     0.363151    0.2099256 -48.63  0.001507885    1.861    0.463
        53 -10.4511    192.2066    193.6806   1.1208762719e+02   5.9156728246e+00    0.7891901    0.3950127 -61.96  0.002373848    6.457    0.845
        54 -11.9326    204.4716     27.5254   6.9013094813e+01   3.0537229538e+01    0.3152075    0.2278599  -2.39  0.001541148    1.837    0.456
        55 -10.9990    201.6821     26.7282   6.9137583708e+01   3.1357220003e+01    0.2341451    0.1871667  65.64 0.0002905916    1.208    0.172
        56 -10.5202    190.0492     35.2420   7.3179449508e+01   3.3338487093e+01    0.1889777    0.1697498  81.98  0.001031629    1.058    0.054
        57  -9.7616    166.9767     34.8570   7.6756473374e+01   3.9480683000e+01    0.2381405    0.2144141 -39.55 0.0004942834    1.153    0.133
        58 -11.2294     92.0093     31.0690   9.3075959755e+01   5.7911198200e+01    0.5688304    0.1911453 -32.18   0.00209088    2.963    0.662
        59  -9.6493     78.5080     32.2204   9.7999009002e+01   6.0295222280e+01    0.3179432    0.1239154 -33.05 0.0009514058    2.522    0.604
        60  -9.4281    177.5083     25.5445   7.2104155243e+01   3.7856653246e+01    0.1453516    0.1349584  78.10 -4.384755e-05    1.005    0.005
        61 -11.2433    199.4714     22.2143   6.8136643759e+01   3.2466326575e+01    0.2085514     0.170474 -11.85 0.0006492067    1.445    0.308
        62 -10.0773     78.8978     18.3098   9.1803313530e+01   6.2185256679e+01    0.2745158    0.1671974 -21.44  0.001040706    1.614    0.380
        63  -9.8612    133.0000    141.5352   1.1464856830e+02   2.7586801272e+01    0.4131433    0.1844381 -55.40  0.001530744    2.488    0.598
        64 -10.1649     90.1035     15.6269   8.7041406868e+01   6.0319209687e+01    0.2453271    0.1772049 -11.40 0.0005971574    1.376    0.273
        65  -9.6275    181.5551    196.9797   1.1472699505e+02   7.3806630031e+00    0.1862435    0.1598836  38.61 0.0003260855    1.023    0.023
        66 -10.5027    208.8340    186.1857   1.0755611104e+02   3.9616426258e+00    0.2866992    0.2348027 -60.62 0.0008768963    1.690    0.408
        67 -12.9206     22.7353    181.4533   1.4561826058e+02   3.5151540459e+01      1.24538    0.4688694  65.73  0.005867368    2.773    0.639
        68 -13.6786     30.2382    167.9323   1.4297883814e+02   3.7257809305e+01     2.128046    0.8143854  44.67  0.009041796    2.369    0.578
