#   1 NUMBER                 Running object number                                     
#   2 MAG_AUTO               Kron-like elliptical aperture magnitude                    [mag]
#   3 X_IMAGE                Object position along x                                    [pixel]
#   4 Y_IMAGE                Object position along y                                    [pixel]
#   5 X_WORLD                Barycenter position along world x axis                     [deg]
#   6 Y_WORLD                Barycenter position along world y axis                     [deg]
#   7 A_WORLD                Profile RMS along major axis (world units)                 [deg]
#   8 B_WORLD                Profile RMS along minor axis (world units)                 [deg]
#   9 THETA_WORLD            Position angle (CCW/world-x)                               [deg]
#  10 FWHM_WORLD             FWHM assuming a gaussian core                              [deg]
#  11 ELONGATION             A_IMAGE/B_IMAGE                                           
#  12 ELLIPTICITY            1 - B_IMAGE/A_IMAGE                                       
         1 -12.6217     43.7639     20.0585   7.3057178082e+01   6.7249563462e+01      0.54387    0.2757408  29.43  0.001442016    1.918    0.479
         2 -12.4229    216.6152     13.0210   3.4294658162e+01   2.9877517176e+01    0.3455434    0.2458792 -86.78 0.0004753448    1.234    0.190
         3 -13.3316    187.3207      7.2464   3.5615027391e+01   3.7207027253e+01     0.924578    0.3767695 -52.46   0.00408127    2.553    0.608
         4 -10.4851    115.0266     12.2672   4.7555613696e+01   5.4077859939e+01    0.1934195    0.1470029  55.54  0.001129824    1.144    0.126
         5 -10.8462     65.6178     11.1347   6.0288242857e+01   6.4652720211e+01    0.2282908    0.1528739  36.92 0.0005322403    1.288    0.224
         6 -12.2941     57.7524      5.8548   6.0570615557e+01   6.6610161171e+01    0.5532227    0.4166698  62.17  0.003420508    1.797    0.444
         7 -10.4150    103.4839      5.5133   4.7471657904e+01   5.7304035914e+01    0.1284511    0.1094482  47.05 2.717608e-05    1.001    0.001
         8 -10.4936    109.5053      8.5331   4.7329766999e+01   5.5683238047e+01    0.1293071    0.1123171  51.15 0.0008096686    1.018    0.018
         9 -10.3075    109.2766    232.9860   1.0389324746e+02   1.1215232659e+01    0.1479334    0.1139614 -65.69 0.0008807788    1.463    0.317
        10 -10.4611     71.7782    229.1133   1.1132242034e+02   1.7439730514e+01     0.194389    0.1450228  67.71 0.0006758617    1.199    0.166
        11 -11.9772     97.1694    221.8222   1.0511586457e+02   1.5269335475e+01    0.3000853    0.2413158  54.42  0.001258093    1.095    0.087
        12 -10.4016    173.6904    222.1737   8.8804820548e+01   2.8379129648e+00    0.2428246    0.1214589 -52.89  0.001080936    2.597    0.615
        13 -10.4827    211.6948    218.3428   8.0640191022e+01  -2.5445721759e+00    0.2183661    0.1533143 -45.45  0.001103905    1.721    0.419
        14 -11.5411    149.4065    222.1694   9.3877077373e+01   6.8292868637e+00    0.4782682    0.2491779 -53.62  0.002241658    2.259    0.557
        15 -10.8010    234.5712    215.7964   7.5992951096e+01  -5.5159300581e+00    0.1650618    0.1090426 -41.56 0.0009506258    1.730    0.422
        16 -11.0353    149.0027    197.8353   8.9970271437e+01   1.1592046893e+01    0.3266363    0.2062865 -70.53  0.001409711    2.431    0.589
        17 -10.3492    236.6689    197.3381   7.2228217192e+01  -3.0650186277e+00    0.1142709    0.1032811 -67.29 0.0007051954    1.739    0.425
        18 -10.2905    112.3300    197.6618   9.8362244675e+01   1.7980669298e+01    0.1492111    0.1034695  69.75 0.0004487885    1.736    0.424
        19 -10.2608    133.0412    195.7420   9.3236866673e+01   1.4844862058e+01    0.2553482    0.1884297 -73.00  0.001273937    1.667    0.400
        20 -11.9940    160.7976    193.0987   8.6497319298e+01   1.0430084752e+01    0.5579416    0.4201634  77.13  0.002692507    1.994    0.498
        21 -10.7270    156.4684    187.5004   8.6420162506e+01   1.2345168154e+01    0.2805784    0.2430449  47.45 0.0009327295    1.172    0.147
        22  -9.8851    215.2927    193.9464   7.5472471868e+01   8.0940994998e-01    0.2015093     0.102001 -56.56 0.0007029301    4.168    0.760
        23 -10.6255     67.1299    190.7823   1.0812426703e+02   2.6465697211e+01    0.4786802    0.1839923 -47.62   0.00175183    3.449    0.710
        24 -10.2802     94.6782    187.0085   1.0094649190e+02   2.3261506280e+01    0.2293484    0.1144531 -84.85 0.0007049229    4.292    0.767
        25 -10.3246    182.8717    183.7636   7.9949005335e+01   8.2401046653e+00    0.2747455    0.1686775 -52.51  0.001253715    1.902    0.474
        26 -10.2970    224.0000    182.5072   7.1621110566e+01   1.2996248276e+00    0.2973399   0.06996813 -39.73  0.000938941    3.969    0.748
        27  -9.7078    210.4890    183.4850   7.4341703659e+01   3.3980282802e+00    0.1374335    0.1221626  -7.18 4.261898e-05    1.011    0.011
        28 -10.9525    147.4897    180.0026   8.7047458422e+01   1.5574783376e+01    0.3340405    0.1471494 -55.64  0.001210648    2.711    0.631
        29 -10.3992    217.9812    176.3010   7.1483335888e+01   3.3676854103e+00     0.243303    0.1927242 -55.12  0.001337138    1.586    0.370
        30 -10.3595    191.7091    177.2109   7.6800279066e+01   7.8693231646e+00    0.3390339    0.1224203 -40.49  0.001219922    2.744    0.636
        31 -10.4173     34.3118    173.3243   1.1406341039e+02   3.4622226752e+01    0.1277866   0.09176456 -45.88 0.0006124189    1.658    0.397
        32 -10.2003    176.0000    170.9858   7.8828295834e+01   1.2029296141e+01    0.2451053   0.08217204 -44.36 0.0008075294    2.978    0.664
        33 -10.1311    168.0000    168.9981   8.0170365186e+01   1.3976357641e+01    0.2436354   0.08358365 -45.35 0.0008000723    2.926    0.658
        34 -10.2281    121.3001    169.6526   9.1378408556e+01   2.2739236697e+01    0.1544798     0.116167  79.28 0.0004025417    1.685    0.406
        35 -10.2497    138.7168    164.7413   8.6110537887e+01   2.0587332989e+01     0.306598    0.1906728 -73.24  0.001176837    2.517    0.603
        36 -10.3263     37.6560    164.3303   1.1221164833e+02   3.6448189691e+01    0.1438141   0.08735457  68.15 0.0003384684    1.752    0.429
        37 -10.4009     52.5237    162.0175   1.0803254950e+02   3.5305579055e+01    0.2096714    0.1237779 -69.33 0.0005486904    1.545    0.353
        38 -11.7108    106.5371    158.0063   9.2926382341e+01   2.8147704941e+01    0.6234381    0.3857434  64.57  0.002547749    2.171    0.539
        39 -10.9891    118.1936    157.6370   8.9809646623e+01   2.6121503449e+01    0.2982059    0.2453839 -36.59 0.0006966558    1.310    0.237
        40 -10.6800    218.3019    156.1503   6.7219628009e+01   6.8795849995e+00    0.3339242    0.1557006 -41.81  0.001410012    1.995    0.499
        41 -10.9141    167.8367    156.3311   7.7496216243e+01   1.6649459689e+01    0.3543054    0.2581329 -44.79  0.001694625    1.363    0.266
        42 -10.2262     81.3434    154.6715   9.9084099775e+01   3.3144340309e+01     0.156277    0.1080091  72.25 0.0007050944    1.746    0.427
        43 -10.1705     23.3811    153.7488   1.1471095872e+02   4.0458274749e+01    0.1777357    0.1015297 -65.60  0.000343323    1.486    0.327
        44 -10.1604    196.2357    157.2449   7.1671275696e+01   1.0831970989e+01    0.2370567    0.1113646 -50.32 0.0008915309    2.442    0.590
        45 -10.3531    189.3946    149.6236   7.1372485638e+01   1.3670654823e+01    0.2990222    0.1250354 -53.22 0.0009599252    3.309    0.698
        46 -10.6240     22.7163    159.3755   1.1549432325e+02   3.9145661202e+01    0.2182164     0.127638  66.62  0.001124443    1.782    0.439
        47 -11.6442    107.5617    145.7353   9.0161525169e+01   3.0926232287e+01    0.5867903    0.3450291  72.79  0.001994962    3.256    0.693
        48 -10.7791     55.2424    145.2294   1.0477657726e+02   3.9157089080e+01    0.3126766    0.1762454  70.39  0.001286209    2.493    0.599
        49 -10.6182    148.4715    144.9906   7.9455840448e+01   2.3065855256e+01    0.2212256    0.1371995 -70.10 0.0006105847    2.535    0.605
        50 -10.2143    181.6444    141.3325   7.1093310543e+01   1.6919944806e+01    0.2369323    0.1855539 -78.40   0.00109156    1.736    0.424
        51 -10.3604     82.8515    132.0328   9.4254259685e+01   3.8531749798e+01    0.2531553    0.1721543  89.79  0.001085245    2.025    0.506
        52 -12.6265     99.4042    128.7009   8.8678732448e+01   3.6531434958e+01    0.7064497    0.4429691  70.09  0.002704137    2.554    0.608
        53 -11.3884     43.3198    122.5004   1.0446798635e+02   4.6246881255e+01    0.6527794    0.3163231 -88.05  0.002210925    3.832    0.739
        54  -9.7223    188.3566    123.6791   6.5523357513e+01   1.9027619718e+01    0.1560788    0.1191919 -78.91 0.0007045466    1.761    0.432
        55 -10.9342     28.1697    122.3504   1.0917765804e+02   4.7787025013e+01     0.301249    0.1420617  87.40  0.001092216    3.483    0.713
        56 -10.3249    130.3255    118.6491   7.7634591436e+01   3.2793508221e+01    0.1637899    0.1259375 -88.18 0.0007048345    1.758    0.431
        57 -10.2249    192.3978    117.1549   6.3144419890e+01   1.9418617805e+01     0.226568     0.131758 -49.29  0.000954444    1.736    0.424
        58 -10.8583    108.3038    112.8320   8.2200476358e+01   3.8617153207e+01    0.5449022    0.2871287 -66.36  0.001801168    3.139    0.681
        59 -11.5096     78.5323    112.1865   9.1074501303e+01   4.4070483206e+01    0.5115648      0.27721 -77.80  0.001635319    3.850    0.740
        60 -10.8581    163.2072    112.8185   6.8107828181e+01   2.6793951037e+01    0.3337126    0.2558512  60.46 0.0009376279    1.420    0.296
        61 -10.9589     92.4932    112.6555   8.6850868119e+01   4.1608947010e+01    0.4119346    0.2002089 -62.34  0.001456421    2.635    0.620
        62 -10.3936    174.1266    110.6366   6.5180464959e+01   2.4761303095e+01    0.2860792    0.1989411 -49.51  0.001158384    1.435    0.303
        63 -11.1308     14.1130    108.6143   1.1152177972e+02   5.2259280623e+01    0.5768694    0.1794749 -62.64  0.002394713    2.349    0.574
        64 -12.3796    128.0391    100.4714   7.3348364013e+01   3.7263876805e+01    0.5996724    0.3040203 -54.11  0.002196655    2.312    0.567
        65 -11.9588    160.5815    106.3254   6.6992509213e+01   2.8713765141e+01    0.5966581    0.3032648  46.50  0.001862973    2.015    0.504
        66 -10.2408    222.4980    104.4647   5.4890807685e+01   1.5323124845e+01    0.1421197    0.1262863 -48.70 6.323825e-05    1.026    0.025
        67 -11.5039     63.0301     95.7480   9.2079488932e+01   5.0280446891e+01    0.4145358    0.2108422 -73.27  0.001359732    3.883    0.742
        68 -12.6490    140.8718    102.7252   7.0675443013e+01   3.3940801894e+01    0.7325721    0.4640116 -39.06  0.003147404    1.585    0.369
        69 -12.0928    108.0358     99.1149   7.8555086662e+01   4.1760126697e+01    0.9419355    0.6084813 -81.28  0.003370625    3.087    0.676
        70 -10.1634    169.4957     91.0111   6.0961041807e+01   2.9619662485e+01    0.2176493    0.1470792 -40.21 0.0003188304    1.447    0.309
        71 -11.0398    151.5391     87.7723   6.3934869385e+01   3.4465184456e+01     0.474239    0.1533155 -37.44  0.001453699    3.214    0.689
        72 -11.3324     86.3853     86.8106   8.1686360553e+01   4.8552150765e+01    0.3758919    0.2737401  87.94   0.00163807    2.307    0.566
        73 -12.2635     44.5857    100.5986   9.9661565600e+01   5.1459650634e+01    0.7567765    0.4377235 -85.13   0.00311863    2.748    0.636
        74 -11.4837    104.0239     83.4939   7.5144136046e+01   4.5880299670e+01     0.504127    0.3302398 -41.16  0.002312315    1.502    0.334
        75 -11.5342     46.0905     82.7107   9.4746930546e+01   5.5436993823e+01    0.4664232    0.3099727  70.91  0.001659092    2.670    0.625
        76 -10.5224    140.5786     83.2898   6.5201448688e+01   3.7883447526e+01    0.3024886     0.142562 -44.24  0.001133521    2.142    0.533
        77 -10.2013     14.1009     83.1924   1.0702629178e+02   5.8251741287e+01    0.2103346    0.1378217 -40.59  0.001221868    1.364    0.267
        78 -10.7257    119.4781     80.9850   6.9933428192e+01   4.3113344936e+01    0.2162751    0.1294421 -62.47 0.0007428415    2.508    0.601
        79 -10.8554     24.0012     80.4886   1.0264042212e+02   5.8131538037e+01    0.2735609    0.1574934 -81.49  0.001263299    2.447    0.591
        80 -10.3784      8.9975     80.9797   1.0852699391e+02   5.9079154208e+01    0.2192385    0.1240088  86.16  0.001030111    2.634    0.620
        81 -11.3884     62.6467     72.7275   8.5635231011e+01   5.5406900903e+01    0.5872346    0.1596473 -51.21  0.001847287    3.785    0.736
        82 -11.5351     81.8392     72.7671   7.8831487906e+01   5.2271780011e+01    0.4537069    0.2676722 -68.88  0.001596286    3.676    0.728
        83 -10.3533    116.3477     73.6618   6.8504101190e+01   4.5194362536e+01    0.1541429     0.120334 -82.50 0.0007047027    1.784    0.440
        84 -10.9242     52.1229     70.9603   8.9069441701e+01   5.7240504693e+01    0.2805644    0.1980646 -70.24  0.001409106    1.942    0.485
        85 -12.5218    237.5488     64.0016   4.3625790025e+01   1.8715881180e+01    0.4685095    0.2761137 -65.06  0.002344994    1.840    0.456
        86 -13.3839    231.9012     61.0135   4.3603187552e+01   2.0341106338e+01      1.34075    0.2153059 -44.22  0.003900562    4.775    0.791
        87 -13.6997     29.1413     59.8739   9.5047484946e+01   6.2137525272e+01    0.9927099    0.7746186  22.07  0.003624646    1.422    0.297
        88 -12.3758     20.4625     52.0745   9.6480181839e+01   6.4488111992e+01    0.7568698    0.3774768 -56.43  0.003893724    1.880    0.468
        89 -10.4047     54.3676     54.5513   8.2731559579e+01   6.0181840338e+01    0.2522415     0.118288 -57.04 0.0009547976    3.329    0.700
        90 -13.2409      9.6882     49.7591   1.0074186876e+02   6.5751598433e+01    0.3337053    0.2553447 -26.87 0.0009508633    1.138    0.121
        91 -10.2444    160.8597     52.6546   5.1793281349e+01   3.8153914167e+01    0.2137565    0.1311176  73.34 0.0009459861    1.804    0.446
        92 -10.3358    113.0384     49.8008   6.1450932567e+01   4.9970867132e+01    0.2058592    0.1625959 -62.85  0.001053085    1.594    0.373
        93 -10.5838     92.1877     49.8424   6.7470267771e+01   5.4423416928e+01    0.3062044   0.09518391 -41.95  0.001024058    3.456    0.711
        94 -11.1628     30.3457     46.3182   9.0055750569e+01   6.4676222842e+01    0.2698016    0.1621375 -23.71 0.0007398564    1.646    0.392
        95 -11.4234    141.5076     45.0375   5.3215232617e+01   4.3973381330e+01    0.2155455    0.1416486 -31.96  0.001040278    1.612    0.380
        96 -11.7485     75.1154     43.0299   7.0547388298e+01   5.8777531990e+01    0.2840904    0.1786291  41.40  0.001375005    1.559    0.358
        97 -10.7000      4.7028     42.3744   1.0092185032e+02   6.7521385155e+01    0.2257895    0.1820365  86.86  0.001484347    1.893    0.472
        98 -12.4093     42.5304     37.1873   8.1088792735e+01   6.4851696832e+01    0.3492606    0.2600405 -39.43 0.0009224974    1.361    0.265
        99 -11.2811     36.2398     38.4150   8.4401044404e+01   6.5435622260e+01    0.3535428    0.2344098 -56.13  0.001944456    2.021    0.505
       100 -10.8634    109.3096     31.8455   5.6001412758e+01   5.3284697485e+01    0.2616922    0.1890827  62.21 0.0005372711    1.412    0.292
       101 -10.6312    105.1900     30.3493   5.6495045778e+01   5.4392013507e+01    0.2531582    0.1348244  60.72 0.0006645327    1.951    0.487
       102 -10.5711     73.3441     32.3223   6.6869220619e+01   6.0673442912e+01    0.2554126    0.1662216  66.48  0.001187091    2.614    0.617
       103 -10.7132      1.7491     29.5128   9.8204493913e+01   7.0112241138e+01    0.2360446    0.1206598 -44.78  0.001127135    1.495    0.331
       104 -10.5605    239.6890     20.7305   3.4086261789e+01   2.4027143966e+01    0.1831076    0.1456114  81.98  0.001225865    1.252    0.202
       105 -12.0146    219.0921    247.9884   8.4206547602e+01  -7.8275926327e+00    0.3402886    0.2033194 -44.46  0.001979942    2.206    0.547
       106 -10.6288     90.1097     18.3800   5.5865760035e+01   5.9028367597e+01    0.3049035    0.1861814  68.33  0.001158847    2.067    0.516
       107 -11.6094     21.6951    249.1124   1.2248930371e+02   1.9586521217e+01    0.2080681    0.1487424  42.78  0.001492123    1.396    0.284
       108 -10.8498    198.0641    247.6983   8.8053300276e+01  -4.8647375391e+00    0.2496699    0.1761868  62.56  0.001322838    2.761    0.638
       109 -11.2221      4.9858    245.0027   1.2521267715e+02   2.2072369689e+01    0.1906323   0.08678672  63.49   0.00114254    1.727    0.421
       110  -9.6275     32.6867    242.3006   1.2009474875e+02   1.9681265166e+01    0.1224259   0.06415844  62.90 0.0003114994    1.609    0.379
       111 -10.5119     18.0116    238.1378   1.2255440350e+02   2.2087290682e+01     0.155063     0.131957 -23.89  0.001096783    2.038    0.509
       112 -10.0522    177.7901    237.2097   9.0366140766e+01  -2.8352994201e-01    0.1934893    0.1357662  70.09 0.0009468514    2.761    0.638
