#   1 NUMBER                 Running object number                                     
#   2 MAG_AUTO               Kron-like elliptical aperture magnitude                    [mag]
#   3 X_IMAGE                Object position along x                                    [pixel]
#   4 Y_IMAGE                Object position along y                                    [pixel]
#   5 X_WORLD                Barycenter position along world x axis                     [deg]
#   6 Y_WORLD                Barycenter position along world y axis                     [deg]
#   7 A_WORLD                Profile RMS along major axis (world units)                 [deg]
#   8 B_WORLD                Profile RMS along minor axis (world units)                 [deg]
#   9 THETA_WORLD            Position angle (CCW/world-x)                               [deg]
#  10 FWHM_WORLD             FWHM assuming a gaussian core                              [deg]
#  11 ELONGATION             A_IMAGE/B_IMAGE                                           
#  12 ELLIPTICITY            1 - B_IMAGE/A_IMAGE                                       
         1 -12.6763    155.3747     53.6975   7.1786065593e+01   3.9159988728e+01     1.009081     1.001657  78.52  0.003762632    1.127    0.113
         2 -12.5059    166.5061     25.2330   6.2662997196e+01   4.0220682035e+01    0.8532608    0.7252873  77.47  0.003898793    1.014    0.013
         3  -8.1815    144.2850      8.3000   6.1579595561e+01   4.6905632163e+01    0.1187792   0.07982342  43.19 0.0003069856    1.553    0.356
         4  -8.8510    150.8750    239.9310   1.1432871258e+02   1.4945669070e+00    0.2021743    0.1877298  49.97 0.0007341325    1.103    0.093
         5 -10.6482    249.1005    249.7116   9.6541166569e+01  -1.4576104039e+01    0.6822346     0.263931  28.30  0.003284462    2.654    0.623
         6 -11.3828    246.9892    243.4458   9.5844617046e+01  -1.3412278806e+01    0.4627846    0.2904556 -24.04  0.001819334    1.400    0.286
         7 -11.2217    226.6632    248.8076   1.0048012821e+02  -1.1592687836e+01    0.7153333    0.3513375  27.14  0.003678449    1.990    0.497
         8 -11.8474    231.8907    240.9175   9.8152715729e+01  -1.1083524477e+01    0.6336232    0.4763083  -1.28  0.004038565    1.190    0.159
         9 -10.3016    135.2786    249.0343   1.1899093479e+02   2.2999420440e+00    0.3119932    0.2726883 -20.21  0.001272367    1.351    0.260
        10 -19.0425     80.5779    221.3631   1.2713375040e+02   1.6883708647e+01     6.232011     5.689549 -85.57   0.01890395    1.101    0.092
        11  -9.7931    186.8310    166.2306   9.2692662039e+01   1.0392949857e+01    0.4457003     0.269903 -46.99  0.001021247    1.572    0.364
        12 -10.5093    166.0828    177.0886   9.9527165373e+01   1.2061659926e+01    0.4186342    0.2113711  49.22 0.0009201386    2.193    0.544
        13 -11.5269    236.3604    172.5622   8.4503637799e+01   1.4415509181e-01    0.3910306    0.3130852  39.29 0.0005214178    1.431    0.301
        14  -9.9046    193.5282    171.7530   9.2466151471e+01   7.9251186430e+00     0.321917    0.2786997 -35.97 0.0007183215    1.089    0.082
        15  -8.0427    165.3174    232.2812   1.1000995516e+02   5.6588495402e-01    0.1364096    0.1030532   0.59 0.0003900355    1.579    0.367
        16 -10.2818    176.5428    170.0548   9.5719461740e+01   1.1577842427e+01    0.4124279    0.2283906 -50.02  0.001702796    1.784    0.439
        17 -10.3085    246.0256    167.2800   8.1821206084e+01  -4.3766433542e-01    0.1849704    0.1645018 -32.35 0.0004938925    1.060    0.056
        18 -10.1764    204.4502    165.0661   8.8858606175e+01   7.2537304793e+00    0.2385991    0.2275598  57.13 0.0003026041    1.165    0.142
        19  -9.3391     25.6658    229.0494   1.3952585591e+02   2.2368120849e+01    0.2403431     0.201526  81.61  0.001644602    1.109    0.098
        20 -10.5857    188.6019    154.7503   8.9835415915e+01   1.2512304527e+01    0.6505507    0.4480284  36.65  0.003032386    1.608    0.378
        21  -8.4887    177.7522    156.9527   9.2620719164e+01   1.4224965201e+01    0.2138994    0.1797146 -49.47 0.0002684988    1.141    0.124
        22 -10.6318    187.6665    225.6832   1.0416333195e+02  -1.8847100448e+00    0.2876296    0.2256702 -43.11 0.0005732827    1.329    0.247
        23 -10.6415     28.2232    146.1069   1.2970504370e+02   4.2034632930e+01    0.5186369    0.3135627 -54.77  0.002645706    1.425    0.298
        24  -8.6797    224.1683    147.8319   8.1563369455e+01   7.0419323816e+00    0.1812008    0.1528774 -23.93 0.0002533791    1.253    0.202
        25  -9.8504    179.0441    221.8374   1.0528767021e+02   2.7838590658e-01    0.4887459    0.1993911 -46.81  0.001945795    2.522    0.603
        26  -8.8347      6.0067    219.2640   1.4261458295e+02   2.6606370808e+01    0.1599104    0.1280968 -85.66 0.0002577539    1.144    0.126
        27 -10.5567      9.2826    215.1470   1.4166554931e+02   2.7212703324e+01     0.202577    0.1581579  88.02 0.0003046559    1.040    0.038
        28  -8.9068     20.7298    216.1150   1.3943803184e+02   2.5823074365e+01    0.1723727    0.1252492 -80.28  0.000483818    1.170    0.145
        29 -10.1726    160.6272    128.9614   8.9987082487e+01   2.4021499424e+01    0.4511348    0.3190413 -56.74  0.002029399    1.454    0.312
        30 -10.3521    187.8765    209.8568   1.0123468178e+02   1.1186906130e+00    0.4236419    0.2370775 -44.73  0.001089243    1.774    0.436
        31  -9.8866     40.5725    123.6608   1.2224205345e+02   4.6276883811e+01    0.2693512    0.2328586 -55.99 0.0009056326    1.017    0.017
        32  -9.5406    182.7648    205.4502   1.0148511786e+02   2.8880925523e+00    0.3576069    0.1909637 -43.23 0.0006500665    1.849    0.459
        33  -9.6322    249.5493    200.4279   8.7623908676e+01  -6.8803143839e+00     0.220715     0.184267 -24.97 0.0005528884    1.034    0.033
        34  -7.8131    189.2931    201.2885   9.9307897683e+01   2.5820644084e+00    0.1422066    0.1076121  -7.04 0.0002698202    1.546    0.353
        35 -14.2439     57.9960    238.2963   1.3387812785e+02   1.6314635333e+01    0.4266158     0.290517 -57.03  0.001281283    1.649    0.393
        36  -9.4020     39.8911    115.7575   1.2087190232e+02   4.8226171511e+01    0.3304759    0.1981353 -20.65  0.001081992    2.214    0.548
        37  -9.8151    134.6534    113.1026   9.2260607647e+01   3.3102373741e+01    0.5402329    0.1499608 -44.25  0.001552615    3.570    0.720
        38 -10.3142    134.3837    106.5169   9.0617873304e+01   3.4559194407e+01    0.5769283    0.2077833 -42.39    0.0019051    2.802    0.643
        39  -9.3123    167.4653    113.1899   8.4641589210e+01   2.5872456672e+01    0.3451384    0.2612168 -76.56  0.001524104    1.587    0.370
        40  -9.6902     85.4589    114.1936   1.0624420970e+02   4.2365188472e+01    0.2665799    0.2007393  34.01 0.0008950383    1.400    0.286
        41  -8.8424     10.9417    198.6644   1.3997797781e+02   3.0853576304e+01    0.1874172    0.1300149 -74.42 0.0005620519    1.210    0.173
        42  -8.4758     17.2901    191.9756   1.3798131244e+02   3.1830340948e+01    0.1757087    0.1273739 -76.09    0.0003374    1.145    0.127
        43 -10.6061     78.0126    109.2094   1.0727071681e+02   4.4709342079e+01    0.3146133    0.2611723  21.24 0.0009887902    1.286    0.223
        44  -9.3036    198.0840    238.7604   1.0431466500e+02  -5.8736469113e+00    0.2058657    0.1724473 -34.72 0.0005721878    1.248    0.199
        45  -8.8337    166.6773     99.6500   8.1447803554e+01   2.8759612475e+01    0.2387849    0.2229673 -10.20 0.0006054031    1.243    0.195
        46  -9.8556    129.6647     97.8955   8.9513801703e+01   3.7343151435e+01    0.2582065    0.2071517  31.64 0.0006157584    1.342    0.255
        47 -10.1927    124.7471     96.7112   9.0455418977e+01   3.8629419911e+01    0.3882572      0.23659  25.41   0.00154702    2.318    0.569
        48  -9.5130    222.8510     92.9221   7.0067079519e+01   1.7679676596e+01    0.2050882     0.183376  86.48 0.0003710188    1.136    0.120
        49 -12.4405    247.5065    223.6793   9.2265769626e+01  -1.0448533189e+01     1.446335    0.4818586 -35.06  0.005965386    2.836    0.647
        50 -12.1773    246.6447    181.5518   8.4511972932e+01  -3.1362688549e+00     0.740591    0.6329543 -72.68  0.003637911    1.583    0.368
        51 -11.3609    236.4811    167.6674   8.3503430376e+01   1.0466011353e+00    0.3571209    0.2661194 -49.88  0.001352674    1.287    0.223
        52  -8.8950     60.8629     83.6399   1.0600816394e+02   5.2721736942e+01    0.1841535    0.1632918  11.01 0.0006929762    1.136    0.119
        53  -8.6322    110.0948     79.8781   8.9623271735e+01   4.4898758470e+01    0.1951635    0.1888095 -87.71   0.00112924    1.149    0.130
        54 -12.2412    145.8289     66.8775   7.7235057489e+01   3.9351042534e+01    0.9839038    0.7808583  72.96  0.002436968    1.309    0.236
        55 -12.1713    236.1532    177.1107   8.5444389474e+01  -6.7437290384e-01    0.6458705    0.3885626  37.20  0.001043035    1.895    0.472
        56 -11.6915    159.6610     44.4415   6.8594190347e+01   3.9448516531e+01    0.4792179    0.4303859  78.35 0.0007425754    1.014    0.013
        57 -10.4709    123.7874     58.1021   7.9678971087e+01   4.5626705205e+01    0.2312826    0.2177346  45.76 0.0002402644    1.013    0.013
        58  -9.2503    219.6139     44.0728   6.0211092970e+01   2.6065206092e+01    0.2780172     0.179261 -41.74  0.001596503    1.585    0.369
        59 -11.9220    187.0295    175.9146   9.4694308798e+01   8.2776965206e+00     0.666433    0.4101371 -52.14  0.001094344    1.662    0.398
        60  -9.8803    189.8797     15.1539   5.7395047315e+01   3.6083894382e+01    0.1951695    0.1406295 -81.15  0.001233457    1.239    0.193
