#   1 NUMBER                 Running object number                                     
#   2 MAG_AUTO               Kron-like elliptical aperture magnitude                    [mag]
#   3 X_IMAGE                Object position along x                                    [pixel]
#   4 Y_IMAGE                Object position along y                                    [pixel]
#   5 X_WORLD                Barycenter position along world x axis                     [deg]
#   6 Y_WORLD                Barycenter position along world y axis                     [deg]
#   7 A_WORLD                Profile RMS along major axis (world units)                 [deg]
#   8 B_WORLD                Profile RMS along minor axis (world units)                 [deg]
#   9 THETA_WORLD            Position angle (CCW/world-x)                               [deg]
#  10 FWHM_WORLD             FWHM assuming a gaussian core                              [deg]
#  11 ELONGATION             A_IMAGE/B_IMAGE                                           
#  12 ELLIPTICITY            1 - B_IMAGE/A_IMAGE                                       
         1 -15.6892    135.6763     77.9637   7.5023568857e+01   4.0138686475e+01      3.28025     2.220671  11.26   0.01312443    2.272    0.560
         2 -16.3244    137.8660    101.2422   8.1303822940e+01   3.4896967139e+01     5.591758     3.398454 -62.22   0.02159271    2.217    0.549
         3 -14.4059    185.1569    110.5666   7.2871185558e+01   2.2041895406e+01      1.67694     1.062357  21.56  0.006475146    2.377    0.579
         4 -15.8836     37.8128     98.6147   1.1054659841e+02   5.1835413718e+01     2.869784     2.461437 -64.16   0.01847816    1.029    0.029
         5 -15.0921     25.2847     71.2941   1.0916772491e+02   5.9170926726e+01      1.80613     1.389524  -4.59   0.01161039    1.535    0.348
         6 -15.3009     67.0827     47.7406   8.6010256862e+01   5.9302501303e+01      2.71573      2.02835  35.10   0.01544905    1.446    0.308
         7 -12.7206    249.6792     49.3524   4.7045437716e+01   1.7091435122e+01     1.108547     0.456207 -27.93  0.004473741    2.592    0.614
         8 -12.9357     11.4529     10.9634   9.6023978065e+01   7.2005569666e+01    0.9814614    0.5570433 -47.10  0.005144043    1.592    0.372
         9 -13.1269     20.7715      5.4083   8.8276488990e+01   7.2046472290e+01    0.9139867    0.7718504 -36.33  0.005433652    1.490    0.329
        10 -14.7163    186.9649      9.6422   4.3874037426e+01   3.7113936778e+01     2.510794      0.99101  59.57   0.01039199    2.226    0.551
        11 -14.0352    163.7817      5.7006   4.5658604295e+01   4.3424427116e+01     1.565272     0.882528  76.58  0.007378124    1.724    0.420
        12 -11.1096     64.7104      8.8432   7.0105918334e+01   6.5565700463e+01    0.4001541    0.3420271 -28.60  0.002005592    1.373    0.272
        13 -11.6805     56.0789     12.2998   7.5157830715e+01   6.6565939062e+01    0.5176069    0.3221067  21.52  0.002561363    1.583    0.368
        14 -12.1435     56.0227      4.5007   7.1265983322e+01   6.7518101170e+01     0.716326    0.4310244  29.09  0.003855609    1.532    0.347
        15 -10.9786     89.8473      2.7494   5.9100431551e+01   6.1359431256e+01    0.5596803    0.2341831  46.93  0.002563636    2.020    0.505
        16 -10.7077     12.9897    188.0289   1.2695485099e+02   3.3612238269e+01    0.2382562    0.1495252  78.72   0.00133332    1.250    0.200
        17 -10.8813    241.1644    249.3186   9.0274264534e+01  -1.0165917907e+01     0.218601    0.1407157 -23.84  0.001484659    1.655    0.396
        18 -11.8654      8.7299    186.4284   1.2768491902e+02   3.4327401358e+01    0.4690243    0.2301699 -68.47  0.002808262    1.834    0.455
        19 -10.6369    151.4106    212.0758   1.0116003236e+02   9.3203288388e+00    0.2708613     0.196467  17.34  0.001471483    1.702    0.412
        20  -9.4075    135.4843    168.5157   9.7342216605e+01   2.0660698578e+01    0.1440309    0.1358737  56.89 0.0008102611    1.008    0.008
        21 -15.1672     70.5630    197.6182   1.1607894293e+02   2.5037384686e+01     2.888485     1.195677  54.48   0.01310261    2.352    0.575
        22 -12.4579     20.0475    153.6149   1.2280600735e+02   4.0509987761e+01    0.6437521    0.5960102 -82.19  0.004432596    1.262    0.208
        23 -10.0468    198.4708    150.4664   7.9781566113e+01   1.1511310438e+01     0.147463    0.1374035   4.45 0.0008089441    1.016    0.016
        24 -11.3373    107.8048    147.6084   1.0008784411e+02   3.0408468279e+01    0.3732465    0.3374632  23.43  0.001493838    1.271    0.213
        25 -12.0851    104.2019    143.4819   1.0020947569e+02   3.1999818629e+01    0.6850522    0.4783226 -63.96  0.002784396    1.434    0.302
        26 -12.1899    108.5254    141.2150   9.8643047471e+01   3.1764243218e+01    0.7077407    0.4862726  74.53  0.003189607    1.889    0.470
        27 -12.1245    185.9927    248.2141   9.9753826857e+01  -1.8877833940e+00    0.4896259    0.2319094  34.41  0.002607506    1.748    0.428
        28 -14.6724    134.7629    114.6753   8.5693584323e+01   3.2662598109e+01     2.207305     1.142826 -54.89  0.008291331    2.178    0.541
        29 -11.6107    239.1229    244.0791   8.9803417876e+01  -9.3184010217e+00    0.4116703    0.1500977  34.73  0.002056443    2.255    0.557
        30 -12.2116    175.5565     91.9736   6.9863540843e+01   2.7887620173e+01    0.3863272    0.2812588   3.51  0.001636195    1.939    0.484
        31 -13.5246    188.4951    116.6016   7.3733930971e+01   2.0106631516e+01     1.436164    0.7118862  28.23  0.004374878    3.792    0.736
        32 -12.1086      6.5147     84.1754   1.1822492433e+02   5.7491709200e+01    0.4604159    0.1573669 -65.07  0.001810464    2.082    0.520
        33 -10.4124    231.4953    110.4883   6.4281458207e+01   1.1593934251e+01    0.1451042    0.1328319 -26.39  1.75486e-05    1.008    0.008
        34 -11.1730    182.2007    239.0938   9.9166198927e+01  -6.3360915951e-02    0.3001356    0.2012051  43.66  0.001842135    1.307    0.235
        35 -10.0464    240.6707    237.7071   8.8525965540e+01  -8.8284317866e+00    0.1202996   0.07153532  12.07 0.0004529453    1.628    0.386
        36 -10.2067     89.8429     83.6920   9.0009362185e+01   4.8336035092e+01     0.294305    0.2033582 -52.46   0.00101085    1.414    0.293
        37 -10.1893    182.5965    129.7121   7.8234996892e+01   1.8889847522e+01    0.2111786     0.144017 -48.79  0.000609052    1.539    0.350
        38 -11.8986     93.6744     74.2874   8.5935281951e+01   4.9652349675e+01    0.7468633    0.5842993 -43.92  0.003891899    1.217    0.178
        39 -12.9757    104.4032     76.4398   8.3290943929e+01   4.7173283882e+01     0.872144    0.6687046  35.55  0.004238204    1.360    0.265
        40 -12.9985    101.3837     69.5732   8.2004429177e+01   4.9148386719e+01     1.313439    0.6194648  48.02  0.005179423    2.312    0.568
        41 -12.1688    204.3083    229.7168   9.3678186119e+01  -2.3329681396e+00    0.4740187    0.2742328  33.52  0.002682029    1.439    0.305
        42 -13.4472    176.5552     71.2721   6.3717738143e+01   3.1371261846e+01    0.9072131    0.6473938  87.19  0.003970484    1.831    0.454
        43 -13.5378    177.1509     65.1122   6.1785303455e+01   3.2255172739e+01     1.192284    0.6692189  74.66  0.004486845    2.435    0.589
        44 -10.9246    221.5272     71.0053   5.5956344612e+01   2.0334689672e+01    0.2337947     0.136369 -34.14  0.001042205    1.622    0.384
        45 -10.9915    209.3247     70.3553   5.7652374533e+01   2.3364721023e+01    0.2988501    0.2261532  19.63   0.00141606    1.747    0.428
        46 -12.2608     13.0392    229.6554   1.2922925824e+02   2.5434875011e+01    0.5470067    0.2912717  41.44  0.003723567    1.780    0.438
        47 -13.1679     83.1149     49.8629   8.1055733618e+01   5.6272677956e+01    0.8092964    0.6383361 -20.13  0.003852439    1.211    0.174
        48 -10.7506    250.6575     63.1230   5.0172448821e+01   1.4928283537e+01     0.516871     0.135463 -35.26  0.001775298    3.139    0.681
        49 -10.3508    250.0018     58.0012   4.9041703892e+01   1.5807578033e+01    0.2226034    0.1999872 -81.90  0.001089512    1.137    0.120
        50 -11.9403    222.8248    218.3295   8.8429262168e+01  -3.7689519628e+00    0.3458895    0.2140608 -12.03  0.001907941    1.848    0.459
        51 -12.6241     10.0542     47.2822   1.0934798332e+02   6.5326385831e+01    0.9563049    0.5840037 -66.02  0.005158152    1.540    0.350
        52 -11.3988    213.6999     62.1249   5.4785937868e+01   2.3589287919e+01    0.2511581    0.1710859 -50.41   0.00120216    1.441    0.306
        53 -11.5758    166.1960     72.5660   6.6217571993e+01   3.3746000906e+01    0.4262677     0.259969  68.91   0.00171227    2.003    0.501
        54 -12.4455      2.5388     52.7087   1.1381364925e+02   6.4584343497e+01     1.230534    0.4025271 -70.92  0.005133814    3.205    0.688
        55 -11.5803    194.6619     55.6338   5.5946345699e+01   2.9307622848e+01     0.401365    0.2502652 -87.43  0.001646358    2.218    0.549
        56 -11.0494    202.2010     54.7788   5.4522483376e+01   2.7538678105e+01     0.315431    0.1975606  27.24  0.001288803    2.421    0.587
        57  -9.4803    103.0086    128.0091   9.7334380910e+01   3.5841547519e+01    0.1790975    0.1675034 -69.63 0.0005032283    1.016    0.016
        58 -12.3090    169.9522     47.4708   5.7790632906e+01   3.6843797461e+01    0.5061518    0.2751113  45.51  0.002091029    1.918    0.479
        59 -11.8953    126.4993     43.0018   6.5646582894e+01   4.8326954159e+01    0.4819927    0.4138131  10.07  0.002151588    1.208    0.172
        60 -11.2130    123.5024     40.5100   6.5499621818e+01   4.9397948292e+01    0.4336118    0.3126736  17.75  0.001926098    1.611    0.379
        61 -11.5005    169.4473     40.0757   5.5582335707e+01   3.8021457105e+01    0.2778908     0.227955 -64.69 0.0009774937    1.311    0.237
        62  -9.7461    123.3144     29.3159   6.1403615082e+01   5.0977352770e+01    0.1505713    0.1019722  25.32  0.000450886    1.645    0.392
        63 -14.2140     93.2127    191.6967   1.1054815548e+02   2.2992250115e+01     1.857114     1.139951  88.51  0.009215047    1.983    0.496
        64 -14.2464     71.5724    183.2209   1.1424584246e+02   2.7980869369e+01      1.50749    0.8188276  46.85  0.007800633    1.698    0.411
        65 -10.1543     24.0067     21.5107   9.4100092156e+01   6.9191447952e+01    0.1621538    0.1076468  16.90  0.001035324    1.598    0.374
        66 -10.4346     13.8525    210.8360   1.2813575953e+02   2.8916806271e+01     0.162613   0.09360502  67.36  0.000662433    1.342    0.255
        67 -10.9936    148.4881    209.1141   1.0130818098e+02   1.0349807808e+01    0.4692062    0.2514781  25.64  0.002013104    2.556    0.609
        68 -10.4486    218.4962    207.4769   8.7319961809e+01  -1.5754223842e+00    0.1300635    0.1067138  14.78 0.0001852742    1.024    0.024
        69 -10.4124      1.5887    205.2586   1.3002619341e+02   3.1139979273e+01    0.2075915   0.08007374 -87.19  0.001141039    2.150    0.535
        70  -9.4605    235.4989    196.9987   8.2317316194e+01  -2.9072095999e+00    0.1631498    0.1091571 -54.37 0.0008105593    2.559    0.609
