#   1 NUMBER                 Running object number                                     
#   2 MAG_AUTO               Kron-like elliptical aperture magnitude                    [mag]
#   3 X_IMAGE                Object position along x                                    [pixel]
#   4 Y_IMAGE                Object position along y                                    [pixel]
#   5 X_WORLD                Barycenter position along world x axis                     [deg]
#   6 Y_WORLD                Barycenter position along world y axis                     [deg]
#   7 A_WORLD                Profile RMS along major axis (world units)                 [deg]
#   8 B_WORLD                Profile RMS along minor axis (world units)                 [deg]
#   9 THETA_WORLD            Position angle (CCW/world-x)                               [deg]
#  10 FWHM_WORLD             FWHM assuming a gaussian core                              [deg]
#  11 ELONGATION             A_IMAGE/B_IMAGE                                           
#  12 ELLIPTICITY            1 - B_IMAGE/A_IMAGE                                       
         1 -14.4439     98.9645    137.0653   5.7319705492e+01   3.4720821240e+01     2.759636     1.401412 -57.37   0.01070208    2.095    0.523
         2 -10.1750     64.8640     79.0344   5.3694577001e+01   5.3482497274e+01       2.5401     1.201745 -42.63   0.01094191    2.045    0.511
         3 -14.4652    216.4283     60.5681   1.2912363198e+01   2.3804652296e+01     1.492975      1.09557 -65.32  0.007111473    1.276    0.216
         4 -13.4687    217.1812     41.8913   8.8075137586e+00   2.6216083798e+01    0.9230769    0.6320413  82.81  0.004102833    1.367    0.269
         5 -13.4815     38.9047     39.6515   5.1107619920e+01   6.4245823077e+01     1.151583    0.6460719 -30.18  0.006106753    1.704    0.413
         6 -13.8542     32.0012     24.7798   4.8400177200e+01   6.7357576037e+01     1.023235    0.5818532 -33.35  0.004724245    1.684    0.406
         7 -14.3349    104.4183     11.4142   1.8124663503e+01   5.5690755901e+01     1.439095     0.994595 -69.91  0.007789233    2.149    0.535
         8 -12.2832    215.2228     16.6923   3.7369939209e+00   2.9674230944e+01    0.6397446    0.3147934 -67.45  0.003267276    2.106    0.525
         9 -12.9710    185.5448     13.3608   5.9262654914e+00   3.6630365849e+01    0.8867274    0.4478221  82.35  0.004455396    1.885    0.469
        10 -11.5131    241.5623      9.3194   2.5008147919e-01   2.5062133213e+01    0.3247856    0.1609284 -87.05  0.001849351    1.902    0.474
        11 -12.7668     29.4918      7.8842   4.2072123091e+01   6.9853556044e+01    0.7320887    0.3270395  29.62  0.003968601    1.976    0.494
        12 -11.8825     18.9528      5.6575   4.6355283333e+01   7.1427604724e+01    0.4862115    0.2474107  12.03  0.002719028    2.049    0.512
        13 -13.0435    208.8481      6.1492   2.1225445008e+00   3.2164587627e+01    0.5871652    0.2952208  76.21  0.002320472    1.699    0.411
        14 -12.3161    200.8672      2.1296   1.9618418849e+00   3.4302170692e+01      0.50063    0.2042428  78.71  0.002175857    2.166    0.538
        15 -13.1642    113.6921    203.4140   6.5768162136e+01   1.6488203835e+01    0.5303037    0.4172474  64.75  0.001813248    1.397    0.284
        16 -12.1193    247.1284    249.4240   4.5289135592e+01  -1.1923113009e+01    0.4497246    0.2299496  22.60  0.002627526    1.784    0.439
        17 -15.3603     93.1591    237.4603   7.5186843466e+01   1.2502896267e+01     1.747892    0.9977471  57.62  0.006874121    1.859    0.462
        18 -14.3053    128.9444    244.4967   6.8203388603e+01   5.6795506461e+00     1.443923    0.6786867  32.09   0.00602401    1.920    0.479
        19 -15.4615    128.4228    229.2314   6.6199646827e+01   8.6628784696e+00     1.731604     1.561251 -29.23   0.01015805    1.253    0.202
        20 -13.7634    116.6356    228.8501   6.8819492511e+01   1.0629940257e+01    0.7555103    0.6164681  53.79  0.002674876    1.194    0.162
        21 -15.4016    101.9448    221.4518   7.1194989541e+01   1.4477333955e+01     2.121526     1.387023  53.25  0.008299011    1.506    0.336
        22 -13.6934     82.1552    248.7141   7.8786508547e+01   1.1863144298e+01    0.7920757    0.3999707  42.70  0.003463953    1.626    0.385
        23 -13.4648      6.5533     84.5677   7.7654770219e+01   5.8295247850e+01     1.633418    0.7197691 -75.62  0.007181012    2.759    0.638
        24 -13.8987     44.9532    245.2728   8.6192390227e+01   1.7428990384e+01     1.058761    0.5181018  73.42  0.004990147    2.349    0.574
        25 -13.3777     64.1010    242.9695   8.2042773225e+01   1.5467379664e+01     1.597926    0.8079338  71.35  0.007402628    2.538    0.606
        26 -13.2428     44.7846    227.3342   8.4766905169e+01   2.1171880743e+01     1.101257    0.5899693  68.79  0.005580464    1.967    0.492
        27 -14.8234      4.1612    111.8703   8.2960634788e+01   5.2186352523e+01     1.368031    0.9897289 -85.83  0.005208377    1.397    0.284
        28 -14.7385     19.3302    151.7884   8.3450237423e+01   4.1508532742e+01     2.296409    0.9452485  83.18  0.007578296    4.442    0.775
        29 -15.1158     26.9084    144.7742   8.0406194986e+01   4.2566966156e+01     2.953887     1.255623  85.03  0.008957524    5.138    0.805
        30 -15.0939      3.7935    137.7045   8.6262050301e+01   4.6064302589e+01     1.693106    0.6027243 -72.99  0.007314829    2.362    0.577
        31 -15.8529      7.9778    161.6330   8.7540225618e+01   4.0030602371e+01     3.835249     1.476435  70.35   0.01352602    4.227    0.763
        32 -15.7277     28.0462    227.5047   8.8327695228e+01   2.3053858018e+01     3.380973    0.9794136 -77.13   0.01319102    3.669    0.727
        33 -15.6466     12.7039    193.1374   8.9082979103e+01   3.2222074189e+01     1.835976    0.7341111  83.61  0.007506928    3.064    0.674
        34 -15.3721     11.7202    178.8960   8.8150111335e+01   3.5626098096e+01     1.368125    0.5571102  66.38  0.005568603    3.136    0.681
        35 -11.5197     10.5288    249.9924   9.3147582126e+01   2.0307804698e+01     0.242148    0.1668802 -75.36  0.001588805    1.487    0.328
        36 -14.0564     14.7727    245.2334   9.2100039388e+01   2.0811086316e+01     1.216635    0.3383665  60.65  0.004682885    4.066    0.754
        37 -13.6037      3.0984    228.5296   9.3417247653e+01   2.5340817612e+01    0.9178776    0.2915076  86.14  0.003635009    3.866    0.741
        38 -12.4427    146.8713    185.1277   5.4491444910e+01   1.4628243836e+01    0.5538944    0.4157611  46.05  0.002041498    1.334    0.250
        39 -12.5672    146.8984    196.4920   5.6592185924e+01   1.2200187743e+01    0.6573597    0.4222313 -36.30  0.002287736    1.732    0.423
        40 -13.1871    143.6373    191.3639   5.6433851297e+01   1.3878080046e+01     0.821247    0.5869001   9.11  0.003660037    1.761    0.432
        41 -13.6932     81.2979    192.4718   7.2204907970e+01   2.4167398436e+01    0.9114583    0.7573686 -87.67  0.004147702    1.234    0.190
        42 -14.7063     90.0881    185.1039   6.8832916719e+01   2.4564080161e+01     1.827937     1.132583 -82.72  0.006592024    2.149    0.535
        43 -14.2949     71.5425    172.8257   7.1851901709e+01   3.0339571616e+01     1.949681     1.205148  85.71  0.008399932    2.187    0.543
        44 -12.7704    167.4032    192.6072   5.1135149531e+01   9.3084747785e+00    0.5295652    0.4762819 -55.47  0.002716772    1.272    0.214
        45 -12.0899    164.3776    186.2832   5.0609913130e+01   1.1146513404e+01    0.5227077    0.4438916 -46.96   0.00210339    1.252    0.201
        46 -11.5039    121.7279    176.5912   5.9126810003e+01   2.1173670035e+01    0.4180401    0.3411545  81.38  0.001541365    1.488    0.328
        47 -11.1375     56.2110    173.4794   7.6095588354e+01   3.2251904825e+01    0.4205913    0.1894926  52.87  0.001649425    2.603    0.616
        48 -11.5426    227.9287    163.7422   3.3130022086e+01   4.0797028043e+00    0.3133979    0.1835559  38.29  0.001563051    1.860    0.462
        49 -11.8514    117.1612    162.9202   5.7671589375e+01   2.5210539772e+01    0.4233449    0.3326755   2.60  0.001921469    1.595    0.373
        50 -12.8298    173.5482    248.4688   5.9273211141e+01  -1.8787861849e+00    0.6519389    0.2686929  33.35  0.002939227    2.085    0.520
        51 -14.0255    118.6797    139.3443   5.2219336104e+01   3.0477358286e+01     1.534015    0.8869413 -36.10  0.006100179    2.008    0.502
        52 -14.7060    105.2682    121.7930   5.1903136661e+01   3.7150682283e+01     1.627892     1.183816  78.11   0.00700373    2.035    0.509
        53 -11.6605     43.2805    147.6784   7.6004449442e+01   4.0197254525e+01     0.360624    0.2326635  -7.33  0.001342225    2.265    0.559
        54 -11.0019     69.4200    145.4404   6.7829917463e+01   3.7436969688e+01    0.5249064     0.404437  83.01  0.002625897    1.530    0.346
        55 -13.4178    228.2029    131.1634   2.6397481869e+01   9.8047729937e+00    0.8979846     0.509617 -39.70  0.003426461    1.584    0.369
        56 -12.5208     35.8991    130.7174   7.5581003267e+01   4.5173298941e+01    0.9640707    0.5467839 -83.86  0.003753429    2.168    0.539
        57 -12.6804     74.6934    133.3402   6.3849087666e+01   3.9648217987e+01    0.6058639    0.4585477  49.03  0.001172278    1.418    0.295
        58 -13.6057    107.9289    111.7369   4.8585392592e+01   3.8906645444e+01    0.7881431    0.5278228 -43.12   0.00268222    1.509    0.337
        59 -13.1696     81.4913    116.5201   5.7947396153e+01   4.2613370305e+01     1.339716    0.8297126 -72.44  0.005461531    2.315    0.568
        60 -12.7669     75.6964     98.3399   5.5275896626e+01   4.7697644517e+01    0.9419504    0.4184101 -44.22  0.003705636    2.204    0.546
        61 -13.4418     81.7615     84.0988   4.9229190415e+01   4.9690177665e+01     1.034135    0.7171357 -40.61  0.004252398    1.437    0.304
        62 -13.7183     45.8431     69.6419   5.8209912976e+01   5.7984868439e+01      1.46959    0.6653796 -52.54  0.006502961    2.261    0.558
        63 -12.7489     47.3294     91.9564   6.3726620599e+01   5.3101045053e+01    0.7347572    0.6713622   8.62  0.004158838    1.131    0.116
        64 -12.0501      1.7045    245.1919   9.4525061559e+01   2.2107911182e+01    0.3386904    0.1295939 -82.38  0.001608986    2.402    0.584
        65 -13.2907     38.3057     87.1554   6.5940626707e+01   5.5173824078e+01    0.7416375    0.4678122  32.13  0.003235192    1.713    0.416
        66 -13.8134     34.5174     75.5086   6.4444446037e+01   5.8064255163e+01     1.440103    0.7463698 -64.16  0.006549667    2.390    0.582
        67 -13.5119     61.2240    104.2089   6.1746124812e+01   4.8543762294e+01    0.8000563     0.687038   7.58  0.003097714    1.203    0.168
        68 -13.2041     57.0005     97.5310   6.1593284013e+01   5.0635348468e+01    0.6091642    0.5094427 -40.35  0.002106078    1.110    0.099
        69 -12.4658     39.3460    111.9266   7.1045501858e+01   4.9377184261e+01    0.8614962    0.2975789 -60.66  0.003275825    2.601    0.615
        70 -11.9940     37.2709    104.7318   7.0306857091e+01   5.1288033426e+01    0.5891681    0.3701278  25.29  0.003052206    1.716    0.417
        71 -13.0088     92.6633    106.0837   5.1768441615e+01   4.3062708150e+01    0.8238831    0.6449929 -59.27  0.003917478    1.404    0.288
        72 -12.8934     90.4626     93.6738   4.9103760506e+01   4.6151074040e+01     1.262079    0.6379614 -32.53  0.004812945    2.460    0.594
        73 -11.0426     22.2719    114.6878   7.7364355258e+01   5.0285887622e+01    0.2860166    0.2265708  49.99  0.001705024    1.467    0.318
        74 -11.2574    209.1027     78.7615   1.7939454904e+01   2.2616385785e+01    0.3812631    0.2352169  73.48  0.001864432    1.817    0.450
        75  -9.6977     19.3177     76.4379   7.0856864078e+01   5.9221693760e+01    0.4253152    0.2956479  26.48  0.002534278    1.609    0.378
        76 -10.8163     69.3373    233.2450   7.9977797436e+01   1.6761167031e+01    0.3415193    0.2230643 -81.12   0.00189318    1.660    0.398
        77 -14.7343    234.1804     52.4867   9.1865706633e+00   2.1236047071e+01     1.310184    0.8796769  74.25  0.007883816    1.473    0.321
        78 -11.2211    183.9761    233.7708   5.4799334441e+01  -1.0518698686e+00    0.2259714    0.1891904 -26.24  0.001246071    1.253    0.202
        79  99.0000     10.4319     61.0331   7.0836508126e+01   6.3045112963e+01    0.7483295    0.3111363  26.72  0.003708002    2.591    0.614
        80 -11.9764      8.9648     66.8779   7.2916305409e+01   6.1945495122e+01    0.5305191    0.4327452  84.87  0.003425144    1.710    0.415
        81 -13.2360     63.0508    114.3034   6.3481452369e+01   4.5933697506e+01     1.093011     1.042448  32.26  0.004891011    1.114    0.102
        82 -12.7144    250.0946     53.7456   7.8473097652e+00   1.7933419044e+01    0.7815564    0.1433344 -38.36  0.002661227    4.555    0.780
        83 -10.8826     59.6716     56.8699   4.8625505556e+01   5.8459999382e+01     0.257537    0.1873547  34.56  0.001160702    1.372    0.271
        84 -13.1126    151.0549     49.4251   2.0259281446e+01   4.0507031197e+01    0.8137509    0.6253877  79.72  0.004399618    1.339    0.253
        85 -11.5102     41.7923     51.0328   5.3929031928e+01   6.1970691241e+01      1.11796    0.2883261  35.67  0.004043299    3.843    0.740
        86  -9.0205      9.8894    223.2301   9.1766498370e+01   2.5816679150e+01    0.9146789     0.311302  88.04  0.003691894    3.543    0.718
        87 -13.3425      3.2164    206.2183   9.2092428651e+01   3.0107915747e+01    0.9766803     0.362833 -87.58  0.004404627    2.651    0.623
        88 -13.1546    189.6309     47.8126   1.3540278892e+01   3.1591693901e+01    0.6825214    0.5316348 -51.99  0.002505268    1.270    0.212
        89 -12.8421     19.1763     43.8208   6.1742232528e+01   6.5654399486e+01    0.6924661    0.4771715 -11.21  0.002791424    1.300    0.231
        90 -13.3647    125.5237     36.3572   2.1617873195e+01   4.8251746967e+01    0.6659482    0.5042908  79.70  0.002726417    1.480    0.324
        91 -12.3961    189.1828     35.0436   1.0568888518e+01   3.3347355334e+01     0.497917    0.3792589 -46.18  0.002992005    1.352    0.260
        92 -12.0010     22.9363     31.2447   5.5400131865e+01   6.7415159690e+01    0.2578315    0.1945864  14.36  0.001235909    1.253    0.202
        93 -12.7405    159.7770    227.7343   5.8979358445e+01   3.8388891745e+00    0.5960143    0.3776218  57.67  0.002786952    2.244    0.554
        94 -11.3467     17.0127     20.5293   5.4108437424e+01   6.9645206383e+01    0.2726793    0.1870632 -42.42  0.001796239    1.645    0.392
        95 -12.4806     75.3782    206.6802   7.5580886868e+01   2.1732343876e+01    0.8467153    0.7992348  78.57  0.003985631    1.075    0.069
        96 -15.5751     47.6000    182.1115   7.9478950882e+01   3.1206099841e+01     2.806417     1.319857  89.67   0.01055531    3.131    0.681
        97 -14.6061     54.5841    210.9289   8.1009741549e+01   2.3576114605e+01     1.275871    0.5943453  64.12  0.005262068    2.728    0.633
        98 -14.3270     45.8393    200.7666   8.2009639761e+01   2.6986717817e+01     1.107862    0.3853534  53.95  0.004007273    3.430    0.708
        99 -13.7015    127.7203    200.4980   6.1882126476e+01   1.4733392812e+01     1.172631    0.7557096  56.21  0.004809084    1.797    0.444
       100 -12.7912    128.8395    191.1719   5.9997912296e+01   1.6584970860e+01    0.7103465    0.4741346  76.56  0.002934742    2.444    0.591
