#   1 NUMBER                 Running object number                                     
#   2 MAG_AUTO               Kron-like elliptical aperture magnitude                    [mag]
#   3 X_IMAGE                Object position along x                                    [pixel]
#   4 Y_IMAGE                Object position along y                                    [pixel]
#   5 X_WORLD                Barycenter position along world x axis                     [deg]
#   6 Y_WORLD                Barycenter position along world y axis                     [deg]
#   7 A_WORLD                Profile RMS along major axis (world units)                 [deg]
#   8 B_WORLD                Profile RMS along minor axis (world units)                 [deg]
#   9 THETA_WORLD            Position angle (CCW/world-x)                               [deg]
#  10 FWHM_WORLD             FWHM assuming a gaussian core                              [deg]
#  11 ELONGATION             A_IMAGE/B_IMAGE                                           
#  12 ELLIPTICITY            1 - B_IMAGE/A_IMAGE                                       
         1 -10.4339     41.5543     22.6724   7.5927228570e+01   6.7529793968e+01     0.504868    0.2335022 -39.57  0.002538352    2.173    0.540
         2  99.0000     32.9454     29.8201   8.3144538788e+01   6.7564059941e+01    0.6783466    0.4590008  47.66  0.003871978    2.259    0.557
         3 -12.8156     61.8697     44.0383   7.6687525657e+01   6.1207150498e+01    0.4365144    0.2898708 -31.34 0.0007302637    1.413    0.292
         4 -11.4795     19.3011     29.2393   8.9616077834e+01   6.9109631144e+01    0.4670123    0.3602389 -52.95 0.0003182669    1.584    0.369
         5 -11.1744     25.9300     21.8477   8.2996123583e+01   6.9621296586e+01    0.7884197    0.3477585  19.26  0.003772754    2.727    0.633
         6  -7.2795      4.9712     32.2139   9.8200680718e+01   6.9715206059e+01    0.4264601    0.2040325 -35.88  0.002417582    1.687    0.407
         7 -12.0801    104.2231     39.3207   6.0911721725e+01   5.3785980917e+01    0.5161633    0.4391643 -39.28 0.0006977866    1.276    0.217
         8 -12.0132    107.1279     29.5218   5.6452270035e+01   5.4407579658e+01    0.6243169    0.5548258  85.37  0.001442923    1.328    0.247
         9 -11.5902    114.3288     32.3776   5.5747646204e+01   5.2421765589e+01    0.4557857     0.391622 -82.31  0.001010344    1.406    0.289
        10 -10.5132    209.3207     14.9446   3.6066268904e+01   3.1473177881e+01     0.449075    0.3152582  20.20    0.0023806    2.395    0.582
        11 -10.2881    218.5536      2.7225   3.2495022987e+01   3.0665906126e+01    0.2809604    0.2164324  81.58  0.001192759    1.206    0.171
        12 -10.9873    221.8550     26.8751   3.7703159320e+01   2.7244692719e+01    0.4629676    0.3398941 -36.44  0.002749353    1.394    0.283
        13 -10.8087    219.0381     19.0769   3.6162147025e+01   2.8797994535e+01    0.7396584    0.2824653  81.83  0.003023805    2.949    0.661
        14 -10.6605    213.3908      8.0743   3.4107874113e+01   3.1276947767e+01    0.5017875    0.2553039  52.19  0.001211705    2.354    0.575
        15 -10.6531    208.5439      4.3107   3.3629319853e+01   3.2762850127e+01    0.4035295    0.3226024 -44.78  0.001753774    1.276    0.216
        16 -12.1884    166.4468     17.0835   4.1322220127e+01   4.1509089376e+01    0.6390612    0.3865129  22.62  0.002916279    2.616    0.618
        17 -11.8472      2.0627     25.1851   9.7153951568e+01   7.1163777863e+01    0.2520052     0.145917 -47.89 0.0005492021    1.435    0.303
        18 -10.7335    243.0068     21.8269   3.4794948287e+01   2.3268634592e+01    0.6077823    0.3812799  -0.66  0.002737503    3.818    0.738
        19 -12.0676    116.9730     22.0980   5.1377812831e+01   5.2994036217e+01     0.308813    0.2776196  41.64 0.0004548559    1.029    0.029
        20 -10.0200    117.0289     15.2613   4.8864148062e+01   5.3674043097e+01    0.4388232    0.2495341  34.92  0.001150031    1.891    0.471
        21  -9.1125    112.1095     14.9135   4.9767667731e+01   5.4849467799e+01    0.2952158    0.1806179 -14.29  0.001514821    1.880    0.468
        22  -8.8646     67.7044     11.3437   6.0240508581e+01   6.4581331184e+01    0.2786862    0.1705595  66.22  0.001398717    2.440    0.590
        23 -10.0282     62.4316     22.8925   6.7450663396e+01   6.4215933816e+01    0.5253804    0.3007854  33.48  0.002798036    1.650    0.394
        24 -10.8064     61.9420     16.7753   6.4810452463e+01   6.5043140032e+01    0.5262687    0.2938915  22.49  0.001955035    1.964    0.491
        25 -10.4622     67.6938     15.8120   6.2318945941e+01   6.4109678543e+01    0.3011179    0.2910038 -29.55  0.001614109    1.347    0.257
        26 -10.3606    199.0347     18.1520   3.7836999549e+01   3.3517950871e+01    0.4019421    0.2610333 -39.87  0.001984309    1.510    0.338
        27 -10.5590    182.3096     18.2328   3.9678724162e+01   3.7513408398e+01    0.5161404    0.3424928  24.01  0.001450082    2.306    0.566
        28 -10.5617    174.4454     11.6371   3.8799638667e+01   4.0104270389e+01     0.537937    0.3184847  44.32  0.002713178    1.961    0.490
        29  -9.8320     56.0316     11.1237   6.4309615128e+01   6.6705303838e+01     0.278808    0.1891245  -8.19 0.0007595121    1.423    0.297
        30  -9.3318     51.2332      8.6183   6.4926045242e+01   6.7785702941e+01    0.3090732    0.1856031  62.71  0.001512996    3.019    0.669
        31 -10.5713     49.1689     12.8695   6.7891205789e+01   6.7649309638e+01    0.4331941     0.287425  13.20  0.001145751    1.438    0.305
        32  -9.6658     49.3360      2.1869   6.2363668182e+01   6.8750350333e+01    0.3256719    0.1524218  35.71  0.001332856    1.893    0.472
        33 -10.3267     42.8482     10.1943   6.9218754932e+01   6.8946980631e+01    0.4272732    0.1958873  32.52  0.001303413    2.081    0.519
        34  -8.7910     45.2157      5.5832   6.5814190180e+01   6.9086858584e+01    0.2239909    0.1538235  19.37 0.0004879341    1.259    0.206
        35 -10.1163     37.4734     18.5981   7.5847731312e+01   6.8659016916e+01    0.4196446    0.2296886   6.85  0.001984556    2.394    0.582
        36  -9.9459    230.2077     14.5741   3.4227268177e+01   2.6838002734e+01    0.2776897    0.2121774 -20.06  0.001723242    1.710    0.415
        37 -10.9340     16.8999     17.3922   8.5624369846e+01   7.1250184235e+01    0.5140726    0.3172767  -1.72  0.002472638    1.598    0.374
        38 -10.0925      5.1730      9.2076   8.8317107264e+01   7.3544800511e+01    0.3550211    0.1842979 -37.00  0.002215681    1.560    0.359
        39 -11.0965      5.9677     16.1982   9.1179607102e+01   7.2400066438e+01    0.2942992    0.2702463  -9.31   0.00121508    1.410    0.291
        40 -11.2736     13.0135     12.1209   8.5210204580e+01   7.2415480261e+01    0.6989146    0.3200723 -15.67   0.00328908    2.972    0.664
        41 -10.8530     17.0071      2.4728   7.7831897443e+01   7.3310190109e+01    0.4920476    0.2684133  -3.50  0.001988413    2.011    0.503
        42 -11.6482     24.9360      6.9300   7.6025250227e+01   7.1814440248e+01     0.200162    0.1507661 -20.47 0.0002856493    1.221    0.181
        43 -11.7595     20.6560      6.3818   7.7990239732e+01   7.2397235842e+01    0.3301212      0.21389   0.13 0.0008191774    1.386    0.278
        44 -10.2386    243.1416     13.9022   3.3127898467e+01   2.4161752528e+01    0.2159021    0.1996291 -86.49  0.000896842    1.285    0.222
        45  -9.6403    219.0322     12.2279   3.4596578416e+01   2.9563906203e+01    0.3092172    0.2346645 -45.93  0.001959752    1.265    0.210
        46 -10.0815     99.1964     13.1162   5.2013554133e+01   5.7937703632e+01    0.3319414    0.2408332 -67.31  0.001788628    1.989    0.497
        47  -9.6655     32.4460     12.6263   7.5256890338e+01   7.0128134060e+01    0.2360163    0.1998897 -16.84 0.0009704006    1.264    0.209
        48  -9.9819    146.8229     12.6414   4.2739236199e+01   4.6764323546e+01    0.3434432    0.2119461  59.39 0.0008595691    1.426    0.299
        49  -9.7597    143.0025     11.0083   4.2798822314e+01   4.7848545654e+01    0.3357687    0.2660151 -81.47 0.0006982489    1.320    0.242
        50 -10.8645    133.0445     12.6870   4.4958839881e+01   5.0108365171e+01     0.234887     0.214896  89.53 0.0003282006    1.123    0.110
        51  -9.3288    128.3726      9.0857   4.4534015810e+01   5.1554000265e+01     0.311631    0.2959922  41.73  0.002048468    1.100    0.091
        52  -9.0234     88.1678      6.6091   5.2075210757e+01   6.0912219027e+01    0.3523374    0.1655714  58.45  0.001699408    1.948    0.487
        53  -9.3748     89.0069     12.9621   5.4550072539e+01   6.0157402539e+01    0.2600711    0.1963123 -26.28  0.001272738    1.437    0.304
        54  -9.4419     91.7366      8.4664   5.1950587358e+01   5.9988255417e+01    0.4457579    0.1728375  46.25  0.001324274    2.173    0.540
        55  -8.8582     75.4953     12.9147   5.8443221109e+01   6.2923771328e+01    0.2239818    0.2111779  -1.45   0.00123421    1.204    0.169
        56  -8.9094     80.6437      1.6920   5.1908819084e+01   6.2890963083e+01      0.36324    0.1730542  59.91  0.001426217    2.003    0.501
        57  -9.6577     78.9463     11.5460   5.6781796623e+01   6.2372273540e+01    0.2219021    0.1671528  -6.07 2.345318e-05    1.342    0.255
        58  -9.9152     76.5718      7.4713   5.5658195077e+01   6.3231019256e+01    0.4470045    0.1972195  54.19  0.001475409    2.058    0.514
        59 -10.5801     74.2652      2.5569   5.4087713019e+01   6.4116391727e+01    0.3108274    0.3009304   6.71  0.001272672    1.248    0.199
        60  -9.9314     69.0210      2.0741   5.5436911988e+01   6.5187861013e+01    0.2864205    0.1640929  26.32  0.001082836    1.694    0.410
        61 -10.1869    224.5075      9.1288   3.3470233522e+01   2.8682463140e+01    0.2456512    0.2020922 -54.05 0.0002732181    1.164    0.141
        62 -10.6262    192.1615      8.0933   3.5993027604e+01   3.6199005676e+01    0.3899062    0.3090503 -63.32 0.0009128887    1.163    0.140
        63 -10.7166    193.9515      3.8606   3.4767366545e+01   3.6189061183e+01    0.6762117    0.2386076  63.55  0.002961415    2.460    0.594
        64  -9.3407    165.2394      8.3478   3.8967818546e+01   4.2661785443e+01    0.3230295    0.1449758 -37.25  0.001500346    2.240    0.554
        65  -9.7523    119.9976      9.1108   4.6049114281e+01   5.3538936582e+01    0.2857286    0.2135082 -14.94 0.0006027007    1.512    0.338
        66 -10.8498    248.3113      4.7974   3.0936278459e+01   2.4103365365e+01    0.3698216    0.2857752 -12.57 0.0002414333    1.953    0.488
        67 -10.6405    202.4018      8.4593   3.5135344979e+01   3.3759292453e+01     0.298495    0.2044108 -73.23  0.001747864    1.325    0.245
        68  -8.5617     37.5094      9.5500   7.1275813606e+01   6.9812282978e+01    0.1180565   0.09449092   3.55  7.22726e-05    1.038    0.036
        69  -9.8383     23.3553      1.4370   7.3806400202e+01   7.2674670249e+01    0.1654498     0.113731  14.14    0.0011305    1.230    0.187
        70 -10.0127    106.9303      5.8328   4.7410731119e+01   5.6840759228e+01    0.4850453    0.3571715 -54.36  0.002802108    1.704    0.413
        71 -10.4625    111.9991      4.7550   4.5980597282e+01   5.5765751520e+01    0.4161868     0.292215 -63.21 0.0003483116    1.852    0.460
        72 -10.5095    115.7084      1.9639   4.4249376387e+01   5.5123063198e+01    0.2450236    0.1743844  54.46 0.0003180739    1.196    0.164
        73 -10.5504    237.3307      6.8934   3.2070404716e+01   2.6155618647e+01    0.2459178    0.1643933 -72.20  0.001548456    1.251    0.201
        74 -10.7137    238.4984      2.6110   3.1105770886e+01   2.6363839896e+01    0.3446581     0.197562  71.88  0.002051794    1.697    0.411
        75  -8.7441     98.2361      6.7885   4.9693732006e+01   5.8713377898e+01    0.1794378    0.1260644  36.83 0.0007561153    1.294    0.227
        76  -9.8772    119.4546      2.4429   4.3753357099e+01   5.4211090708e+01    0.2304276    0.1812764  49.68 0.0005914503    1.124    0.111
        77  -9.7199     39.2995      4.5414   6.7813107800e+01   7.0115832850e+01    0.2916653    0.2572583 -17.80  0.002130624    1.388    0.279
        78  -9.3231    152.9716      4.3133   3.9317645545e+01   4.6011038812e+01    0.2281098    0.1885983 -30.24  0.001416331    1.365    0.267
        79 -10.2170     30.9560      3.3170   7.1024468964e+01   7.1456010059e+01    0.2596357    0.1890016 -40.97 0.0009445784    1.919    0.479
        80 -11.0845    179.8681      2.1683   3.5666700761e+01   3.9688580492e+01     0.361211    0.2052872  87.13  0.001877298    1.656    0.396
        81 -10.9677    160.3315      2.7876   3.7956554491e+01   4.4351488253e+01     0.484222    0.2569746  65.80  0.001818896    1.608    0.378
        82  -9.0608    168.1692      1.4171   3.6678123631e+01   4.2569601523e+01    0.2885855    0.1221142  65.71 0.0008921239    1.980    0.495
        83  -8.6792    143.2836      3.3395   4.0318744895e+01   4.8444980189e+01     0.131966   0.08699067  39.34 0.0002200844    1.630    0.387
        84  -9.7972     90.2745      1.9006   4.9550846274e+01   6.0843322878e+01    0.4686054    0.1927609  64.39  0.001659289    2.447    0.591
        85  -9.2200      3.2286      2.6767   8.6109018118e+01   7.4651678745e+01    0.3185468    0.1452021  -2.40   0.00155062    3.120    0.679
        86 -10.5443     60.2556      4.3205   5.9410935646e+01   6.6638729741e+01    0.4144172    0.3023379  76.70  0.002347397    2.358    0.576
        87  -8.5550    186.0304      1.1707   3.4815905174e+01   3.8310271365e+01     0.171752   0.08178055  74.58 0.0003795385    1.837    0.456
        88  -9.1137      8.5960     98.8004   1.1268422566e+02   5.5199635636e+01    0.4596907    0.2099037 -82.40  0.002052941    2.433    0.589
        89  -9.5023    201.5239    249.5398   8.9034824370e+01  -5.4446946614e+00    0.2136075     0.164471  20.68 0.0006530889    1.052    0.050
        90 -10.0311    116.0080    248.8719   1.0547686077e+02   7.5512685523e+00    0.2351942    0.2049394 -70.92 0.0009358163    1.337    0.252
        91  -9.2752      4.5298     98.0731   1.1394725098e+02   5.5609932319e+01    0.3996427    0.1761994 -55.80  0.001673089    1.732    0.423
        92 -10.3223     36.6782    107.9919   1.0486109835e+02   5.0736163540e+01    0.4317261    0.1538149 -54.01  0.001219071    2.243    0.554
        93  -9.5054     38.5431    103.5259   1.0333844519e+02   5.1632576589e+01    0.3273344    0.2025116  14.70  0.001643182    2.035    0.509
        94 -10.4784    117.7549    105.9760   7.8841235835e+01   3.8509328664e+01    0.5199813    0.2900537 -38.66  0.001361339    1.858    0.462
        95  -9.3868     96.9989    107.5166   8.5281116972e+01   4.2238346956e+01    0.3627565    0.2535714  70.31  0.001515493    2.037    0.509
        96  -9.7879     93.3976    104.1596   8.5477839458e+01   4.3674597573e+01    0.4500237    0.3373136 -24.58  0.001561215    1.553    0.356
        97  -8.0645     43.2885    106.6132   1.0237759789e+02   5.0382996102e+01    0.1403697    0.1007313  81.73 0.0007010783    1.754    0.430
        98  -9.6234     68.6820    103.3069   9.3142718696e+01   4.7935710093e+01    0.5668526    0.1642569  42.81  0.001770227    4.007    0.750
        99  -8.9137     62.8683    104.8185   9.5435852101e+01   4.8402144354e+01    0.2216858    0.1819379 -31.33 0.0009847464    1.261    0.207
       100  -8.2821    166.0307    103.9847   6.6353792459e+01   2.8133897968e+01    0.1844656    0.1787593 -54.82 0.0003606562    1.004    0.004
       101 -10.7995    101.6814    100.6976   8.2012855148e+01   4.2916003849e+01    0.6682163    0.5324851 -30.89  0.001978192    1.307    0.235
       102  -9.4544    105.8711     91.0025   7.7961520801e+01   4.4218098024e+01    0.4354461     0.246749  44.03  0.001828542    1.822    0.451
       103 -10.0446    110.4656     99.4949   7.9091236997e+01   4.1444789149e+01    0.3970724     0.294753  40.83  0.001171009    1.395    0.283
       104 -10.6301    108.6268     95.4723   7.8467562260e+01   4.2698218880e+01    0.5639648    0.4144569 -33.75  0.001157753    1.401    0.286
       105  -8.5332     88.5224    103.5307   8.6819115891e+01   4.4687949720e+01    0.2713799     0.143861 -54.65 -1.571394e-05    1.871    0.466
       106  -9.2081     84.9800    102.2830   8.7599923503e+01   4.5589446538e+01      0.29184    0.2069589  34.61 0.0009354549    1.512    0.339
       107 -10.2979     49.1956    100.9467   9.9136626308e+01   5.1081090619e+01    0.4849871    0.2829987 -39.43  0.001472219    1.739    0.425
       108  -8.1795     20.3012    103.6708   1.0954273290e+02   5.3227823050e+01    0.1279818   0.09155892  76.59 0.0005550404    1.645    0.392
       109  -8.6735    149.0196    101.4645   6.9520244376e+01   3.2583661577e+01    0.2283059    0.1552116  49.62 0.0003380974    1.503    0.335
       110 -10.1882     78.2334     99.3930   8.8994011106e+01   4.7381686596e+01    0.5368517    0.3244452 -64.66  0.002309109    1.944    0.486
       111  -9.0410     80.5274     94.9297   8.7023190349e+01   4.8030328264e+01    0.3307792    0.1801757 -50.93  0.001415507    1.729    0.422
       112 -10.8504     57.4767     99.7991   9.6033561888e+01   5.0324835679e+01    0.2823054    0.2442001 -34.93 0.0003108182    1.131    0.116
       113  -9.7120     72.5465     99.3141   9.0841219229e+01   4.8296761238e+01    0.2968616    0.1799701 -55.01  0.001356499    1.555    0.357
       114  -9.0819     73.5124     94.9994   8.9363548437e+01   4.9146643562e+01    0.2615559    0.1629787 -45.95  0.000783154    1.476    0.323
       115  -9.4456     42.7892     99.7015   1.0106210007e+02   5.2105266805e+01    0.3216654    0.1678742  41.90  0.001214464    2.241    0.554
       116  -9.0490     42.8533     95.8737   1.0017396667e+02   5.3009592789e+01     0.249013    0.1474808 -66.59 0.0004806188    1.665    0.400
       117 -10.1342     16.3427     98.3227   1.0995558690e+02   5.4801435831e+01    0.2801376    0.1995231 -55.43 0.0005341017    1.153    0.133
       118  -8.9756     12.6624     95.1064   1.1066889091e+02   5.5815962523e+01    0.3937573     0.140135 -68.35  0.001513625    2.352    0.575
       119 -10.3216    124.5499     98.0810   7.4756027205e+01   3.8787913807e+01    0.4475702    0.3129585  25.81   0.00171394    1.770    0.435
       120  -9.0229    117.2137     98.4947   7.6888783001e+01   4.0267778872e+01     0.248705    0.1755902 -48.14  0.000526085    1.394    0.283
       121  -9.7442     33.9811     97.9078   1.0374011432e+02   5.3433563698e+01    0.2119572    0.1742225 -63.89 0.0002750209    1.094    0.086
       122 -10.2219     34.1272     90.9346   1.0216478441e+02   5.5068587591e+01    0.6441086    0.2974514 -32.21  0.002370379    2.829    0.647
       123  -9.5730     27.4134     91.8594   1.0479705861e+02   5.5463881001e+01     0.213223    0.1743883  50.11 0.0003770661    1.478    0.323
       124  -9.4282     23.0700     87.8035   1.0552163241e+02   5.6773187763e+01    0.4162772    0.2320862  32.87  0.002183365    2.091    0.522
       125 -11.3415     30.4234     85.2407   1.0221935334e+02   5.6738039700e+01    0.4571368    0.3604625 -34.65  0.002778453    1.206    0.171
       126 -10.4718     47.8509     88.8189   9.6673665512e+01   5.4092369206e+01    0.6005906     0.164982 -50.41 0.0007851328    2.918    0.657
       127 -10.0226     43.6210     88.2150   9.8058771167e+01   5.4716430261e+01    0.2660694    0.2317369  35.24 0.0004655881    1.322    0.243
       128  -9.4841    130.2866     96.3661   7.2739877329e+01   3.7889142262e+01    0.2904222    0.2271217   6.27 0.0008919798    1.674    0.403
       129  -8.9373     86.7039     96.6107   8.5497586801e+01   4.6594493477e+01    0.2351351    0.1751975 -12.40  0.001096805    1.712    0.416
       130  -8.6120     63.8168     96.8356   9.3127230880e+01   5.0162015568e+01    0.1912818    0.1677971  83.89  0.001027326    1.350    0.259
       131  -9.0221    141.6330     96.1985   6.9818688270e+01   3.5359358658e+01    0.2247856    0.1459398 -31.63 0.0006021265    1.676    0.403
       132  -9.2106     23.3137     95.1234   1.0692691136e+02   5.5034462087e+01    0.2351197    0.1859629  36.90  0.001441613    1.503    0.335
       133  -8.3816    166.5159     94.4857   6.3666819608e+01   2.9881294318e+01    0.1527155    0.1494705 -37.40 -1.645717e-06    1.044    0.042
       134  -9.6064     52.3181     90.0581   9.5385401781e+01   5.3264754511e+01    0.2659542    0.1639196 -40.69 0.0007964624    1.526    0.345
       135 -10.3445     56.5634     82.1800   9.1707071802e+01   5.4500941201e+01    0.5340331     0.254991 -32.15  0.002068855    2.714    0.632
       136  -9.1181    116.9504     91.5449   7.4933199435e+01   4.1805251699e+01    0.2711601    0.2105789 -25.20 0.0003514043    1.411    0.292
       137  -9.9008    117.9989     83.9946   7.2356268099e+01   4.3128537695e+01    0.3614327    0.3007008  45.08  0.001829255    1.220    0.180
       138 -10.3736    123.9936     87.1681   7.1690463651e+01   4.1176000589e+01    0.4550603    0.3344292 -47.34  0.001680776    1.364    0.267
       139 -10.8121    129.2065     85.3721   6.9771749244e+01   4.0368829542e+01    0.4251089    0.3780429  20.91  0.001173693    1.214    0.176
       140  -9.3497     58.5477     88.8564   9.2847624511e+01   5.2732102759e+01    0.3650849    0.1330265 -57.23  0.001311738    2.748    0.636
       141  -9.2606     97.8789     88.6124   7.9659769962e+01   4.6305019165e+01    0.3309034    0.2377556 -78.82   0.00142971    2.128    0.530
       142  -9.3523     93.9786     87.9189   8.0664025304e+01   4.7196111244e+01     0.217555    0.2019655 -20.81            0    1.055    0.052
       143 -10.4231     86.8498     87.1871   8.2719049081e+01   4.8660174536e+01    0.5634143    0.3231181 -42.40 0.0006506021    1.662    0.398
       144  -8.9585      7.0887     89.0405   1.1158414743e+02   5.7582000840e+01    0.2011788    0.1352068  54.33  0.000737061    1.899    0.473
       145  -8.9094     70.4939     86.8773   8.8108017752e+01   5.1451402186e+01    0.2566741    0.2013265 -48.26  0.001050857    1.185    0.156
       146 -10.9482     73.5436     80.8274   8.5254525210e+01   5.2292782646e+01    0.6572049    0.3503118 -49.11  0.001696402    1.774    0.436
       147  -9.0774     63.7914     87.1902   9.0534344546e+01   5.2379500458e+01    0.2034364    0.1897148 -62.80 0.0005209622    1.150    0.130
       148  -9.3174     16.9154     86.3992   1.0750316535e+02   5.7563657096e+01     0.256458    0.1523502 -63.60 0.0006567491    1.398    0.285
       149 -10.1927     80.3887     84.1677   8.3938906138e+01   5.0439878234e+01    0.4023452    0.3301525  -0.20  0.001411595    1.367    0.268
       150  -9.9998    155.1536     84.7290   6.3363823344e+01   3.4434615940e+01    0.2697029    0.2030478 -49.47 0.0006375315    1.335    0.251
       151 -11.5437    147.6554     81.3813   6.4067713390e+01   3.6846338921e+01    0.7368615    0.3689814  43.47  0.001952346    2.139    0.533
       152  -9.8455    143.0284     80.9950   6.5027795529e+01   3.8014277228e+01    0.2237033    0.2209483 -72.58  0.001216653    1.007    0.007
       153  -9.0826     50.2923     83.6833   9.4426661663e+01   5.4969110008e+01    0.2056673    0.1239132  39.80 0.0005726871    1.905    0.475
       154  -9.1444     46.8592     81.7732   9.5180363065e+01   5.5811928047e+01    0.2223101    0.1838232 -80.51 0.0004319133    1.470    0.320
       155  -9.1780     42.6100     81.3320   9.6657145044e+01   5.6397550230e+01    0.2533683    0.2228178  48.47 0.0007902142    1.374    0.272
       156  -8.5669     38.5486     79.8098   9.7795832660e+01   5.7178042138e+01    0.2062581    0.1189445 -58.22  0.001025336    1.571    0.364
       157 -10.1302     20.7522     79.4237   1.0455402342e+02   5.8879925286e+01    0.3532825    0.2271013 -69.32 0.0002804789    1.512    0.339
       158  -9.7539     17.6655     73.7759   1.0445646547e+02   6.0379763209e+01    0.5382785    0.2173397 -60.04  0.002499897    2.004    0.501
       159 -10.1892    180.0428     80.8502   5.7245687473e+01   2.9161535459e+01    0.4080996    0.2691427  58.85  0.001881725    1.557    0.358
       160 -12.5936     53.0147     74.8325   9.0876965073e+01   5.6574250210e+01    0.5015054    0.3037755 -51.03 0.0005299464    1.506    0.336
       161 -10.8777     46.0372     68.4000   9.1615582050e+01   5.8816102257e+01    0.5715653    0.3608065 -19.77  0.001657114    1.855    0.461
       162  -9.2012      2.2954     80.3901   1.1180643516e+02   5.9831029399e+01    0.2464434    0.1723064 -86.21 0.0009833316    1.529    0.346
       163  -9.8014    167.3927     79.8392   5.9392672815e+01   3.2385934271e+01    0.2995745    0.1999742 -19.40  0.001282324    1.928    0.481
       164 -11.8805     79.7339     69.9672   7.9639880600e+01   5.3492595826e+01    0.3264852    0.2678649   9.79 0.0002920915    1.292    0.226
       165 -10.7797     80.8805     76.0786   8.1251832375e+01   5.2060141387e+01    0.4763038    0.3261074  21.17  0.001712018    1.705    0.413
       166 -10.7601     89.2537     73.4669   7.7626053328e+01   5.1073233153e+01    0.4728214    0.3681121 -54.77  0.002410783    1.416    0.294
       167 -11.0874     95.0507     72.0935   7.5320403899e+01   5.0231673034e+01    0.5583519    0.3840623 -37.01  0.001425778    1.419    0.295
       168  -8.4864     67.5366     78.4326   8.6632746655e+01   5.3747999798e+01    0.2282685    0.1307826 -49.69 0.0006244302    1.641    0.391
       169 -10.0482     69.0079     74.4048   8.4849331344e+01   5.4370911274e+01    0.2515523    0.2044632 -44.22 0.0004493998    1.165    0.142
       170  -9.1244     61.6618     76.7185   8.8230207956e+01   5.4985240350e+01    0.2675386    0.1638735 -49.31 0.0007424649    1.508    0.337
       171  -9.4494     64.5100     75.5250   8.6823753212e+01   5.4822534645e+01    0.3053385    0.2409523  61.75 0.0005652226    1.715    0.417
       172  -9.7384    110.4718     76.8784   7.2244267132e+01   4.6150725531e+01    0.2744488    0.2611556  47.51 0.0007119054    1.090    0.083
       173 -10.3323    185.7548     75.6898   5.4823400377e+01   2.8680784823e+01    0.4318649      0.21607  48.21  0.001381225    2.155    0.536
       174  -9.8230    179.1782     75.9553   5.6061619412e+01   3.0216525039e+01    0.3338516    0.2867946  27.06  0.001739442    1.382    0.277
       175  -9.1030     28.3211     75.9442   1.0076236143e+02   5.9034643874e+01     0.251656    0.1468658 -39.19 0.0007600855    1.550    0.355
       176 -10.9921    145.9693     70.8030   6.1262268726e+01   3.9156402904e+01    0.7402102    0.4334896  20.28  0.002502186    3.453    0.710
       177 -10.9757    144.5785     66.1005   6.0123602923e+01   4.0296500519e+01     0.580972    0.3087915  40.23  0.002269961    2.155    0.536
       178 -10.4695    170.5867     73.2098   5.6889789148e+01   3.2766660044e+01    0.3097971    0.2811188 -15.25 0.0007496374    1.231    0.188
       179  -9.6553    173.0636     69.4456   5.5360922503e+01   3.2795776018e+01     0.316249    0.1962647  45.73 0.0009086616    1.740    0.425
       180  -9.8624    152.1868     73.0594   6.0577680431e+01   3.7263420838e+01    0.2897889    0.2465295 -58.46   0.00063543    1.217    0.178
       181 -10.9052    199.5012     71.8416   5.1555412659e+01   2.6055761815e+01    0.2818162    0.2762744 -28.86 0.0005200495    1.147    0.128
       182  -8.9322    215.8176     70.5064   4.8842155877e+01   2.2512651129e+01    0.2387076    0.1666767 -57.16 0.0008392285    1.375    0.272
       183  -8.5803    111.6185     71.1488   7.0057259822e+01   4.6994986396e+01    0.2190104    0.1380927 -26.56 0.0009451387    1.798    0.444
       184  -9.7521    102.2002     69.9573   7.2411369300e+01   4.9203750195e+01    0.2966197    0.2454716  37.33 0.0007965237    1.213    0.175
       185  -9.6827    106.3062     66.0238   6.9873547119e+01   4.9070821985e+01    0.3390461    0.2138478  46.74 0.0004915493    1.588    0.370
       186  -8.9457     64.1580     69.7016   8.5096183147e+01   5.6085647234e+01    0.2555095    0.1828743  39.21  0.001348249    1.534    0.348
       187 -10.2517     10.5939     69.1985   1.0624525404e+02   6.1869692022e+01    0.2465976     0.149527 -45.74 0.0002580631    1.325    0.245
       188  -9.0700     15.6722     64.2882   1.0292764986e+02   6.2597615868e+01    0.3299398    0.2172433  -8.27  0.000865334    1.712    0.416
       189 -10.6364      4.3606     59.7577   1.0663546965e+02   6.4272916261e+01    0.4620229    0.2607536 -13.69  0.002333115    2.024    0.506
       190 -10.7858      1.9559     67.0192   1.0930566094e+02   6.2831571754e+01    0.4958924    0.1894953 -54.94  0.002479747    1.848    0.459
       191 -10.0107      7.9817     62.2804   1.0569145137e+02   6.3529369895e+01    0.4417398    0.2187726 -15.73  0.002214015    2.522    0.603
       192 -10.3209    120.2166     66.4333   6.6146872937e+01   4.5949300258e+01     0.580385    0.3698721 -21.05  0.002519348    1.925    0.481
       193  -9.5805     28.7075     68.2796   9.8571071865e+01   6.0679957199e+01    0.4080188    0.2179863  38.86  0.002050241    2.316    0.568
       194 -11.7024     32.2516     63.6551   9.5769743675e+01   6.1325044035e+01    0.5305116    0.2680489 -52.95  0.002644842    1.712    0.416
       195  -9.3094    157.6675     67.6889   5.7825442273e+01   3.6850420799e+01    0.2659999    0.1877838 -21.23 0.0008058913    1.674    0.403
       196 -10.9764    135.8084     65.2972   6.1878224217e+01   4.2530673239e+01     0.579846     0.380821  59.75  0.001519489    1.577    0.366
       197  -9.1187    128.0088     57.4750   6.1200492713e+01   4.5662472865e+01    0.3657228    0.1801377  51.83  0.001410882    1.952    0.488
       198  -9.7207    132.5698     58.6297   6.0490562769e+01   4.4401377263e+01    0.4637978    0.3102514  23.81  0.002039645    1.988    0.497
       199  -9.6042    136.6233     56.3672   5.8819085234e+01   4.3794228373e+01    0.3324592    0.2610849 -36.14  0.001045796    1.304    0.233
       200  -9.7525     75.2212     65.6474   7.9743265923e+01   5.5116398732e+01    0.3364166    0.2042765 -28.46 0.0003931047    1.773    0.436
       201 -10.0617    203.4417     63.3719   4.8789479730e+01   2.6470694116e+01    0.4227909    0.2754005 -87.38  0.001382126    1.861    0.463
       202 -10.1607     82.6375     63.2097   7.6338440829e+01   5.4271243548e+01    0.4438082    0.2526788 -52.43   0.00194068    2.094    0.522
       203  -9.9422     25.1596     54.4120   9.5965910315e+01   6.3892125639e+01    0.2847942    0.1809265 -50.14 0.0004413945    1.360    0.265
       204 -10.2998     22.9926     63.5553   9.9632571285e+01   6.2189227755e+01    0.4978441    0.2531024 -20.27   0.00165107    2.552    0.608
       205 -10.5309     22.3813     59.3402   9.8687015899e+01   6.3125263867e+01    0.3288366    0.2301216 -42.45   0.00103955    1.158    0.136
       206 -10.4890     97.4366     63.3642   7.1616160181e+01   5.1389870270e+01    0.3832556    0.2631807 -18.95  0.001808489    1.687    0.407
       207  -9.8217     66.2197     62.8337   8.2023139031e+01   5.7134423222e+01    0.3831955     0.294196 -51.98 0.0007899652    1.416    0.294
       208 -10.3426     70.8393     60.4374   7.9490288985e+01   5.6845303285e+01    0.3440877    0.3051568  50.62  0.001003344    1.355    0.262
       209  -9.8910    164.1330     51.5566   5.1799406991e+01   3.7786969508e+01    0.5090683    0.2970723  74.11  0.001545263    1.941    0.485
       210 -10.0490    171.1403     58.4490   5.2571563360e+01   3.5024038921e+01    0.4948711    0.3611694 -51.92  0.002476385    1.380    0.276
       211  -9.5101    167.0517     56.4857   5.2727339677e+01   3.6331350785e+01    0.3137752    0.1996369 -36.42 0.0002929948    1.580    0.367
       212  -9.2667    160.2671     60.6432   5.5213117779e+01   3.7358839608e+01    0.2477246    0.1950792 -62.35 0.0005689792    1.358    0.263
       213 -10.4921    162.9196     57.2474   5.3703567583e+01   3.7234282394e+01    0.7235518    0.4241152 -23.54  0.003103766    2.061    0.515
       214  -9.9990    171.9521     53.3686   5.0973003633e+01   3.5589494336e+01    0.2566801    0.2110221 -59.66 0.0003647615    1.216    0.177
       215 -10.1035    175.0612     50.6650   4.9686581672e+01   3.5217821378e+01    0.3332786    0.2859911  14.65  0.001005507    1.457    0.314
       216  -9.6870    193.9514     60.5024   4.9433880519e+01   2.9159002723e+01    0.3185433    0.2048114 -32.11  0.001525175    1.605    0.377
       217  -9.9853    141.3167     60.5005   5.9092189150e+01   4.2007214935e+01    0.2724145    0.2665841  24.23 0.0007352818    1.050    0.047
       218  -9.0252     53.5993     60.6120   8.6083845469e+01   5.9425177536e+01    0.2804089    0.2350194 -83.77  0.000881594    1.774    0.436
       219 -10.2461     54.1492     53.8839   8.3487102067e+01   6.0636061066e+01    0.4549854    0.2759824   1.94  0.002104756    2.314    0.568
       220  -9.1119     15.8410     59.9486   1.0169765872e+02   6.3507687311e+01    0.1813944    0.1440082 -39.81 0.0009151441    1.025    0.024
       221  -8.9053    180.5191     58.6606   5.1041536416e+01   3.2691153018e+01    0.2501113     0.144381 -29.00 0.0004173355    1.893    0.472
       222  -9.7694    105.3738     57.8193   6.7313968647e+01   5.0700722724e+01    0.3005006    0.2375134 -22.35 0.0007313936    1.304    0.233
       223 -10.6934     39.6210     57.8663   9.0848703089e+01   6.1724136499e+01    0.2630962    0.2153123 -41.64 0.0008347416    1.130    0.115
       224  -8.7654     48.7269     57.5971   8.6994614344e+01   6.0665318193e+01    0.1959359    0.1563131 -22.15  0.000333625    1.133    0.117
       225  -9.7363     45.3319     55.1391   8.7530722460e+01   6.1574891174e+01    0.2668342    0.2286145  17.23 0.0008223903    1.235    0.191
       226  -9.3033     42.5113     44.4752   8.4804790171e+01   6.3908479369e+01    0.2111112    0.1594399  18.51 0.0005004749    1.339    0.253
       227 -10.0386     46.7014     47.7082   8.4249760943e+01   6.2787079838e+01    0.3000463    0.2278143 -23.39 0.0005981034    1.168    0.144
       228 -10.3223     42.2337     49.5915   8.6847050126e+01   6.3010520515e+01    0.5049638    0.1954409 -42.93  0.001789458    2.261    0.558
       229  -9.8055     38.2792     46.4792   8.7411835601e+01   6.4061754849e+01    0.3085189    0.2582022  29.07  0.001874819    1.382    0.277
       230  -9.1637    111.2065     56.3961   6.5174781631e+01   4.9668512717e+01    0.2185844     0.189832 -13.97  0.000426234    1.184    0.155
       231 -11.1402     56.1285     33.3470   7.4529699521e+01   6.3808964986e+01    0.5715883    0.3664632  48.86  0.001010891    1.955    0.488
       232  -9.5644     65.0536     56.6452   8.0264080428e+01   5.8489023821e+01    0.2304062     0.217644  -2.20 0.0003289421    1.125    0.111
       233  -9.9051     61.3533     51.9661   7.9947719495e+01   5.9919778546e+01    0.3254376     0.247881 -62.58  0.001201004    1.851    0.460
       234 -10.1511     71.5625     51.5616   7.5978144053e+01   5.8325665592e+01     0.427027    0.3001055  -8.60  0.001928599    1.618    0.382
       235 -11.0915     50.4893     27.6136   7.4322030135e+01   6.5523201078e+01    0.5432113     0.420047  73.49  0.001245107    2.721    0.633
       236  -8.6650    192.3166    248.3199   9.0565650558e+01  -3.9432331124e+00    0.1238842   0.08222047   6.07 0.0003336466    1.659    0.397
       237  -9.8609     37.4200     26.6152   7.9628338385e+01   6.7509185064e+01    0.2887429    0.2300108  14.79 0.0008044571    1.199    0.166
       238  -8.8095     30.3191    247.6571   1.2164188685e+02   1.9215829542e+01    0.1236665    0.0602854  64.20 0.0007049525    1.720    0.419
       239 -11.3746     67.8202     46.9460   7.5579721819e+01   5.9746701481e+01    0.6713404    0.4240658 -21.60  0.001395514    1.687    0.407
       240  -9.7837    163.1643    246.1907   9.5846102467e+01   7.6567649716e-01    0.1913082    0.1548654  15.13 0.0006210033    1.213    0.175
       241 -11.3786     24.5799     30.8550   8.7637736280e+01   6.8319091452e+01    0.3418187    0.3188265  31.54   0.00130421    1.507    0.336
       242  -8.4960      1.3799    244.2168   1.2649801834e+02   2.2877216698e+01    0.1446351   0.07428234  81.05 0.0003834216    1.560    0.359
       243  -9.7780    202.8524    242.1960   8.7653823955e+01  -4.6205335020e+00    0.1729719    0.1422321  23.34 0.0004354281    1.115    0.103
       244 -10.6612    126.3484     38.8094   5.5252115877e+01   4.8788772983e+01    0.9551554    0.6013001  85.08  0.004121359    2.365    0.577
       245  -9.4177    133.9080     29.9655   5.0636083814e+01   4.8081251356e+01    0.5843899    0.3619753  23.18  0.002653853    2.200    0.546
       246 -11.0951    117.9995     52.5220   6.2021228460e+01   4.8762041272e+01    0.4506068    0.3066296 -26.72  0.000354272    1.561    0.359
       247 -10.1856    123.6560     51.8021   6.0353165256e+01   4.7569021820e+01     1.112699    0.3937074  43.41  0.003746781    3.069    0.674
       248  -9.7156    127.7306     48.0105   5.8088932512e+01   4.7179998501e+01    0.2150616    0.2040202  66.30 0.0003127065    1.069    0.064
       249 -10.8710    125.7400     45.0116   5.7529456850e+01   4.8082290597e+01    0.5367872     0.385877  29.44  0.001910371    1.555    0.357
       250 -10.7904    135.9024     35.9917   5.2259563644e+01   4.6860319930e+01    0.4575603    0.2755937 -51.24 0.0003478521    1.949    0.487
       251 -10.4814    132.0101     36.0028   5.3064339802e+01   4.7799343692e+01    0.4297649    0.2928235 -77.85 0.0003113569    2.043    0.511
       252  -9.6511     14.4598     55.2591   1.0099028005e+02   6.4583194733e+01    0.3662598    0.1717485 -54.49 0.0003830476    1.717    0.418
       253  -9.1763      8.3739     43.7588   1.0036250432e+02   6.7307220434e+01     0.488562    0.1985621 -66.12  0.002075622    3.315    0.698
       254 -10.9737      8.7329     50.8639   1.0232875464e+02   6.5867569555e+01    0.4592403    0.3979603 -22.89  0.001786234    1.165    0.142
       255 -11.5202     14.4255     39.2025   9.5886106972e+01   6.7746510086e+01    0.5589423    0.4740242 -70.86  0.002164003    1.613    0.380
       256 -10.8797      4.2360     36.4004   1.0002871659e+02   6.8982350455e+01    0.3699735    0.3579482  -9.54  0.002437597    1.364    0.267
       257  -8.4795    189.6517    240.2702   8.9844841035e+01  -2.3824596670e+00    0.1161277   0.09099932  52.80 0.0006993604    1.622    0.384
       258  -9.9827    148.8630     54.2198   5.5511421664e+01   4.1154913481e+01    0.5560911    0.2999238  68.43   0.00145506    2.121    0.528
       259  -8.9088     98.5204     54.9299   6.8303941897e+01   5.2628582897e+01    0.2055371    0.1375012 -34.47 0.0004265141    1.495    0.331
       260  -9.4292     93.8584     54.0943   6.9426754773e+01   5.3721901120e+01    0.3853802    0.2675591  -1.49  0.001290042    1.847    0.459
       261 -10.5938     31.7219     52.9398   9.2588749200e+01   6.3553253961e+01    0.5718477    0.2424969  33.96   0.00236925    2.650    0.623
       262  -9.9959     12.1672     44.4666   9.8763194694e+01   6.6909983845e+01    0.3368011    0.1506303 -50.65  0.001091234    1.760    0.432
       263  -8.6622    106.7160     52.9301   6.5201334840e+01   5.1213298858e+01    0.1893635    0.1796764 -13.72  0.000263377    1.059    0.056
       264  -9.4622     82.9445     52.2751   7.2278906286e+01   5.6156609718e+01    0.3622007    0.2820566 -52.37  0.001118958    1.537    0.349
       265  -8.9575     79.3863     47.9564   7.1848497781e+01   5.7536747917e+01    0.2407891    0.1231392 -39.87  0.000551464    1.957    0.489
       266 -10.2502    153.7825     49.0800   5.2951220017e+01   4.0704308722e+01     0.471553    0.3078028  74.04  0.001520173    1.674    0.402
       267 -10.2219    150.9633     60.0631   5.6891495344e+01   3.9733432757e+01    0.4197547    0.2142268  61.95  0.001692031    2.038    0.509
       268 -10.3520    181.2172     48.2856   4.8052183615e+01   3.4044843744e+01    0.4223337    0.2063949 -52.36  0.001728397    2.244    0.554
       269  -8.7255    112.8072     41.2316   5.9351850680e+01   5.1606534275e+01    0.1919049    0.1711565  39.43 0.0002653726    1.052    0.050
       270  -9.9260     86.6402     35.1996   6.4443201555e+01   5.8051592303e+01    0.6317173    0.2271176 -36.94  0.002476279    2.835    0.647
       271  -8.7432     96.7285     49.0003   6.6676275069e+01   5.3959095056e+01    0.2149324    0.1753165  40.36 0.0003038232    1.189    0.159
       272  -9.9279     93.9135     45.8566   6.6351367386e+01   5.5027689307e+01     0.474456    0.1909461 -31.29  0.001827841    2.650    0.623
       273  -9.6835     88.6187     48.3631   6.8950733665e+01   5.5703719855e+01    0.3895926    0.2521321  44.57  0.001953155    1.527    0.345
       274 -10.8357     77.8199     34.0043   6.6814598185e+01   5.9940257720e+01    0.6493835    0.3770327  37.50  0.002209224    1.647    0.393
       275  -9.4433     90.8312     40.8258   6.5366975241e+01   5.6408681854e+01    0.3416606    0.2945114  79.09  0.001451018    1.537    0.349
       276  -9.1999     90.8719     37.1133   6.3902031105e+01   5.6928079158e+01    0.1987107    0.1771765  17.17 0.0003098118    1.023    0.022
       277 -10.0785     71.1157     30.1798   6.7512874428e+01   6.1713106096e+01    0.2667969    0.2162328  11.57 0.0004412578    1.127    0.113
       278  -9.7456     74.8685     27.0712   6.4885113238e+01   6.1425096830e+01    0.3128099     0.260938  55.28  0.001684718    1.418    0.295
       279 -10.2032     17.7844     47.0534   9.6947373481e+01   6.5979144260e+01    0.3915189    0.3057373  -7.50  0.002624496    1.265    0.210
       280  -9.8897     25.1246     47.6941   9.3763376083e+01   6.5218442071e+01    0.2608602    0.1780121 -54.78 0.0002501898    1.488    0.328
       281  -9.0780     27.3211     44.2116   9.1522561048e+01   6.5668368395e+01    0.2033926    0.1382312 -32.21 0.0002414476    1.231    0.188
       282  -8.5957    224.7314     48.6145   4.2474263708e+01   2.3763531086e+01    0.1735937    0.1188727  86.29 0.0007940028    1.507    0.336
       283  -9.3147    203.5566     46.7360   4.4531074167e+01   2.8881001009e+01    0.3867883    0.2287055  34.34  0.001307716    2.754    0.637
       284  -9.9060     31.8954     47.8124   9.0733974959e+01   6.4524197145e+01     0.189558    0.1523528 -29.16 0.0005797066    1.026    0.025
       285  -8.5619    234.3872     46.9995   4.1072328696e+01   2.1873554383e+01    0.1817186    0.1470234 -58.14  0.001113228    1.044    0.042
       286  -8.9906    164.3871     46.2915   5.0197232458e+01   3.8476245267e+01    0.2626035    0.1536494  52.59 0.0006126559    1.672    0.402
       287  -9.0921     82.3624     44.3841   6.9462608314e+01   5.7546055148e+01    0.3396752    0.2022204 -53.87  0.001504686    2.460    0.593
       288  -9.3142    246.9788    238.8041   7.9240583817e+01  -1.0209331719e+01    0.1614613    0.1307767  46.53  0.001024244    1.968    0.492
       289  -9.7009    191.5927     54.1301   4.8091585100e+01   3.0680216902e+01    0.3093271    0.2405333 -22.41  0.001029105    1.491    0.329
       290  -9.7794    243.6936     43.9453   3.9481312559e+01   2.0316831811e+01     0.284089    0.2214473  65.12  0.001316885    1.445    0.308
       291  -9.0278    185.9612     44.0041   4.6179591662e+01   3.3479555218e+01    0.2151048    0.1632143  36.51 0.0004285168    1.635    0.388
       292 -10.3539    114.5415     46.1622   6.0678023867e+01   5.0509794890e+01    0.3830822    0.2572033 -22.81 0.0008227038    1.624    0.384
       293  -8.8100    149.8951     43.9352   5.2089304607e+01   4.2386560003e+01    0.2106075    0.1810466  33.08 0.0003777085    1.264    0.209
       294  -9.3332    133.5161     44.2420   5.5516545820e+01   4.6338150721e+01    0.2734841    0.1954503  59.97  0.001377542    1.350    0.259
       295  -8.5488    212.4872     51.5282   4.4609626740e+01   2.6124671215e+01    0.1368462    0.1216617 -67.79 -1.040796e-05    1.018    0.018
       296  -8.5787    199.8246     42.8610   4.4015485965e+01   3.0295369378e+01    0.1910504    0.1439735 -69.23 0.0004154348    1.282    0.220
       297  -9.5988     32.2844     41.9119   8.8380488745e+01   6.5573909071e+01    0.2459045     0.198682 -62.17  0.001530119    1.675    0.403
       298 -11.6785     41.0811     38.4456   8.3043693847e+01   6.5138376139e+01    0.5063074    0.2849458  -3.28 0.0006634573    2.553    0.608
       299  -9.1475    222.6366     39.8235   4.0637873848e+01   2.5425819292e+01    0.2228911    0.1942257  18.23  0.001000135    1.617    0.382
       300  -8.2602    171.4399     40.4675   4.7347506531e+01   3.7521574188e+01    0.1401571    0.1283284 -84.52 4.465245e-05    1.023    0.023
       301 -10.8798    228.3883     38.3211   3.9703193983e+01   2.4346217525e+01    0.4116246    0.2166494 -49.40 0.0009168992    1.664    0.399
       302  -9.2745     24.7136     39.0272   9.0825801489e+01   6.6877147842e+01    0.2818063    0.1453488 -29.34 0.0009939232    1.857    0.462
       303  -9.4148    238.3056     38.0627   3.8694464358e+01   2.2232958883e+01    0.2367515    0.1900862 -15.04 0.0008830715    1.686    0.407
       304 -10.3816    178.9021     37.4114   4.5372233183e+01   3.6081167241e+01    0.6766427    0.3257262  87.25  0.002473791    3.129    0.680
       305  -8.0025    165.7171     39.3701   4.7932972626e+01   3.9082262456e+01    0.1494634   0.09941942 -63.65 0.0007015908    1.699    0.411
       306  -9.0907    157.8642     38.8639   4.9085908990e+01   4.1094336549e+01    0.2508282    0.1852747 -40.68 0.0006881144    1.389    0.280
       307  -8.3938     36.4529    239.5451   1.2001876741e+02   2.0076082562e+01    0.1144687   0.08957516  69.30  0.000122416    1.053    0.050
       308  -8.6041     82.4313     38.5164   6.7121095042e+01   5.8414487961e+01    0.1320848     0.122957   5.53 0.0002417268    1.080    0.074
       309 -10.1201    186.1153     36.6128   4.4156286242e+01   3.4419735535e+01      0.30887    0.2285012 -84.49 0.0008044739    1.357    0.263
       310 -10.4364    186.3001     31.3383   4.2711664936e+01   3.5036033105e+01    0.6589337    0.3385972  48.27  0.002950524    2.209    0.547
       311  -9.3046    183.0487     28.2288   4.2287399757e+01   3.6202403602e+01    0.3290627    0.1686301  51.23  0.001496645    2.058    0.514
       312 -10.2858    209.1092     33.9894   4.0690182750e+01   2.9272820109e+01    0.3971108    0.3137937  25.04  0.002226137    1.828    0.453
       313  -8.6050     94.9721     35.7158   6.2135853297e+01   5.6266615656e+01    0.1911458    0.1465026 -52.95  0.001016304    1.648    0.393
       314  -8.6374    162.9937     36.0000   4.7373897195e+01   4.0190647517e+01    0.2352377   0.07504985  64.10 0.0005270486    2.949    0.661
       315  -8.9621    143.9291     35.0934   5.0401473006e+01   4.5014781549e+01    0.2773166    0.2149505  15.66 0.0009089042    1.586    0.370
       316  -9.7053    141.7543     32.4076   4.9938296800e+01   4.5878874325e+01    0.3012871    0.2222078  48.87  0.000945604    1.300    0.231
       317  -9.7374    145.8204     29.2588   4.8182697610e+01   4.5256330332e+01    0.4807466    0.2385459  63.00  0.002131205    1.848    0.459
       318  -9.2519    122.6043     33.7465   5.4321443911e+01   5.0324607657e+01    0.2034321    0.1795567  26.99  0.001177359    1.142    0.125
       319 -10.0624    123.8755     30.0915   5.2751307481e+01   5.0469448873e+01    0.4276824    0.2656508  69.67  0.001263793    1.729    0.422
       320  -9.2798    233.6435     31.4872   3.7665131372e+01   2.4077307129e+01    0.2486149     0.178088  70.48  0.001493745    1.437    0.304
       321  -9.8742    155.4917     31.2629   4.7163009384e+01   4.2632669076e+01    0.5615427    0.1929026  59.46  0.001596361    2.524    0.604
       322  -9.9997    190.9721     40.3664   4.4513497617e+01   3.2752149648e+01    0.2615021    0.2013375 -28.93 0.0009273202    1.425    0.298
       323  -9.5418    247.8165     30.7771   3.6300254702e+01   2.1175933110e+01     0.176705    0.1595341 -70.03  0.001229158    1.189    0.159
       324  -9.3502    221.3293    237.5472   8.3516381196e+01  -6.6216930413e+00    0.1971656    0.1243704  -9.42 0.0007800435    1.671    0.402
       325  -9.4552    225.9281     16.7016   3.5037876736e+01   2.7534173103e+01    0.2280919    0.1557604 -48.51  0.000568097    1.299    0.230
       326  -8.8415    168.3212    237.6581   9.3599116627e+01   1.3151834733e+00    0.1227493   0.09545756  64.03 0.0006234726    1.723    0.420
       327  -9.0164    139.7813    236.6360   9.9186282401e+01   6.0119979139e+00    0.1842576      0.10159  44.89 0.0004949445    1.604    0.376
       328  -8.8224     32.2860    232.6675   1.2034462589e+02   2.1913718995e+01    0.1240696   0.06613332  66.61 0.0002833271    1.620    0.383
       329  -9.4343    186.7708    231.3839   8.9001601890e+01  -5.8721518097e-01    0.1874451    0.1049381  27.64 0.0009519462    1.695    0.410
       330  -9.0475    162.4921    225.3902   9.2903152558e+01   4.2986670174e+00    0.3094416    0.2083808  74.86  0.001416055    2.827    0.646
       331  -8.9427    223.7067    225.1240   8.0994650846e+01  -5.2346433790e+00    0.1951961    0.1483797  29.67 0.0006040336    1.284    0.221
       332  -8.6984    195.8451     28.9234   4.0914691498e+01   3.3029314738e+01    0.1849811    0.1336564 -60.38 0.0005132959    1.310    0.236
       333  -8.8721    211.7221     27.8135   3.8913349531e+01   2.9434557038e+01    0.2243759    0.1638885 -14.53  0.001049865    1.846    0.458
       334 -10.2817    164.3199     26.6389   4.4400540221e+01   4.0991304784e+01    0.4888044    0.2501166  60.47  0.001599983    1.764    0.433
       335  -9.0739    131.8951    225.1474   9.9229256549e+01   9.3635623227e+00    0.2027271     0.165454  61.14 0.0005448726    1.258    0.205
       336  -8.8962    208.0029     26.3403   3.8937597554e+01   3.0473161955e+01      0.18541    0.1502566  88.34 0.0004876874    1.123    0.110
       337 -10.2378    206.6275     22.3768   3.8111823054e+01   3.1259852212e+01    0.3707348    0.2217414  73.63  0.001972235    1.567    0.362
       338  -8.6135     47.0527     34.6773   7.8869917662e+01   6.4955836661e+01    0.1750735    0.1370468   7.44 0.0005378861    1.179    0.151
       339  -8.3368      1.9921    224.2673   1.2549271637e+02   2.6722103420e+01      0.12604   0.08263165  46.23 0.0002991522    1.443    0.307
       340  -9.2104    196.5659    222.2366   8.5587066692e+01  -6.8963666342e-01    0.1769404    0.1136333 -24.32 0.0009479859    1.687    0.407
       341 -10.6376    172.1647     23.4013   4.2368762450e+01   3.9424210892e+01    0.6025099    0.2872005  60.58  0.002310784    1.890    0.471
       342  -9.4538    231.9675     23.5933   3.6063930905e+01   2.5409473234e+01    0.3406123    0.1671937 -73.64  0.001602352    2.272    0.560
       343  -9.7236    188.9196     22.1368   3.9950791319e+01   3.5485032332e+01    0.3543708    0.2489005  18.97  0.001808195    2.200    0.546
       344 -10.6924    153.8049     22.9656   4.4884438013e+01   4.3999280169e+01    0.2663849    0.2289016  56.15 0.0003853328    1.125    0.111
       345  -9.0665    124.2058     23.1407   5.0227885870e+01   5.1179245200e+01    0.3234164    0.2078949  85.91  0.001110061    2.025    0.506
       346  -9.2263     88.6240    220.9592   1.0789116800e+02   1.6966762540e+01    0.2133335    0.1693896  35.33 0.0006744136    1.315    0.240
       347  -9.1292    203.1475    217.8369   8.3560943194e+01  -1.0342143294e+00    0.1766502    0.1595452  15.50  0.000270732    1.138    0.121
       348  -8.2203    145.4951    210.4827   9.4115152879e+01   9.8896681871e+00    0.1370393    0.1242022  44.53 -1.40014e-05    1.049    0.047
       349  -9.1023    230.9972    209.1866   7.6847780582e+01  -3.9821077587e+00    0.1916802    0.1418164   2.95 0.0004286267    1.246    0.197
       350  -8.9976     35.2932    201.3952   1.1738168758e+02   2.8217534437e+01    0.1670424   0.09886068  48.72 0.0008640443    1.534    0.348
       351  -8.4762    120.3979    199.1856   9.7892969708e+01   1.6499629687e+01    0.1837304     0.132724 -74.34 0.0005481628    1.610    0.379
       352  -9.1154      6.7615    194.4388   1.2290125578e+02   3.2628183883e+01    0.1633772    0.1381411  76.99  0.001049186    1.159    0.137
       353  -9.7662    109.4279     21.4843   5.2846911204e+01   5.4799862583e+01    0.3044887    0.1906896 -16.91 0.0009426555    1.793    0.442
       354 -11.4549    105.1194     20.8827   5.3639257593e+01   5.5838904336e+01    0.2797705    0.2497416  66.37 0.0002924348    1.190    0.160
       355  -8.5749     85.6947     23.2366   5.9817794769e+01   5.9757629939e+01     0.172007     0.114205 -13.58 0.0006064731    1.607    0.378
       356  -8.5595     80.4420     22.9487   6.1302033757e+01   6.0849858362e+01    0.1880736    0.1222391 -24.87  0.001019266    1.572    0.364
       357  -9.7718    132.0634     21.3862   4.8082420706e+01   4.9484488802e+01    0.3389247     0.246294  87.76  0.001800323    1.561    0.359
       358  -8.7160    242.3035    193.6790   7.1963094494e+01  -3.3365368676e+00    0.1126894     0.100586 -56.39 0.0002580041    1.632    0.387
       359  -7.9628    140.3034     19.3274   4.5925928318e+01   4.7698613773e+01    0.1395753   0.09406635  35.52 0.0002038763    1.646    0.392
       360  -9.3059    149.5078     20.4838   4.4787792483e+01   4.5323265625e+01    0.2492271     0.181365 -17.59  0.001353806    1.605    0.377
       361  -8.0637    152.2943     18.3284   4.3687835086e+01   4.4861991063e+01     0.202907    0.1164271  52.70 0.0002994132    1.631    0.387
       362 -10.0357    144.8000     17.2438   4.4511374994e+01   4.6811198148e+01    0.4637286    0.2367053  61.18   0.00157892    1.705    0.414
       363  -9.8694     93.2187     20.1584   5.6400996310e+01   5.8526956237e+01    0.3609767    0.1707771  49.21  0.001428916    1.853    0.460
       364  -7.9889     92.3230    188.2818   1.0279388015e+02   2.3550485563e+01    0.1313251    0.1115164 -17.15  0.000397189    1.592    0.372
       365  -9.3292      5.7373    182.9344   1.2235215449e+02   3.5306603261e+01    0.1672489    0.1205291  87.55 0.0003139942    1.077    0.071
       366  -9.7681    179.6291     13.1606   3.8621626378e+01   3.8693658200e+01    0.2885837    0.1668807  80.33 0.0004010462    1.625    0.385
       367  -9.0678     55.2175    181.1872   1.1077574930e+02   3.0521867727e+01    0.1900331    0.1677129 -74.20 0.0005144488    1.152    0.132
       368  -9.9359     17.4417    174.8305   1.1909046948e+02   3.6156961784e+01    0.2084755    0.1687543 -12.86 0.0008968351    1.869    0.465
       369  -9.8684      7.1737    174.6732   1.2143551246e+02   3.7088073965e+01     0.187671    0.1269136  59.31 0.0008915664    1.376    0.273
       370 -11.1196     15.6819    165.9747   1.1872429102e+02   3.8412883780e+01    0.3805549    0.2797878 -28.23  0.002265663    1.987    0.497
       371 -10.3882      6.7084    166.9343   1.2094123530e+02   3.8935435562e+01    0.2631969    0.2118908  -6.51  0.001722503    1.849    0.459
       372 -11.6071     37.4776    159.4429   1.1257508317e+02   3.7883729023e+01    0.6239982    0.3808492  61.24  0.002799746    1.710    0.415
       373 -12.0942     30.6134    154.8600   1.1381175614e+02   3.9718968816e+01    0.6070549     0.449594  76.53  0.002919361    1.283    0.220
       374 -10.1576    232.6680     18.0482   3.4791544778e+01   2.5909380481e+01    0.3931707    0.2182801 -82.67  0.001594822    1.792    0.442
       375 -10.3763     24.5726    162.8378   1.1623954970e+02   3.8356860965e+01    0.2215931    0.1930994  64.87 0.0002585481    1.183    0.155
       376  -9.3067     42.7401     15.5570   7.1969614092e+01   6.8312640590e+01    0.3510943    0.1876443  44.71   0.00138332    2.122    0.529
       377  -9.4891      5.6089    141.3347   1.1893678358e+02   4.5133835540e+01    0.2211127    0.1835919 -38.63 0.0008415692    1.466    0.318
       378 -10.9511      2.0139    155.3036   1.2112001971e+02   4.2041084876e+01    0.6752797    0.1714753 -74.32  0.002646813    2.993    0.666
       379 -10.6954      4.4463    146.7871   1.1976280242e+02   4.3902253822e+01    0.3826582     0.222566  87.75  0.001233912    1.519    0.342
       380  -9.7419    249.0257    153.7077   6.2834533727e+01   1.9410501152e+00    0.1834694    0.1614359 -15.08  0.000634748    1.073    0.068
       381 -10.7939     12.0535    151.6193   1.1827094103e+02   4.2165819472e+01    0.3585993    0.2937509  86.69  0.002371258    1.071    0.066
       382  -9.7254     45.9361    151.3529   1.0926628718e+02   3.8949927137e+01    0.2372841    0.1701538 -65.67 0.0003302636    1.233    0.189
       383  -9.9994     19.9901    151.2724   1.1618252018e+02   4.1588243412e+01    0.2354817    0.1493087 -66.54 0.0006258934    1.337    0.252
       384  -8.3441    103.4535     16.4559   5.2315956281e+01   5.6667533124e+01    0.1343464    0.1125696  36.05 0.0008059251    1.080    0.074
       385  -8.8421    230.4741    147.5491   6.4550576682e+01   6.2081182435e+00    0.1397842    0.1218453 -22.02 5.931533e-05    1.036    0.035
       386  -9.6738     54.1896    145.9883   1.0618579066e+02   3.9306299656e+01    0.2065371    0.1945559  67.54  0.000257033    1.134    0.118
       387  -8.9514    139.5124     13.9579   4.4302608945e+01   4.8422498036e+01    0.1991413    0.1620432  68.07 0.0003375878    1.102    0.093
       388 -11.3691     13.3099    144.4691   1.1721168150e+02   4.3802023082e+01    0.4409648    0.2876123 -58.64   0.00204371    1.408    0.290
       389 -10.0211     18.4738    140.5000   1.1537072125e+02   4.4356837833e+01    0.4618371    0.1209065  39.77  0.001771741    3.706    0.730
       390  -8.2909    154.5600     13.5472   4.1894955943e+01   4.4782489816e+01    0.1318308    0.1172202  74.30 0.0001698165    1.013    0.013
       391  -8.7858     41.5467    139.5019   1.0875881836e+02   4.2404172176e+01      0.13771    0.1174378 -77.88 7.139659e-05    1.017    0.017
       392  -9.1675    236.0133    136.9328   6.1315690277e+01   7.0393742154e+00    0.2100475    0.1855831 -32.66 0.0004739223    1.032    0.031
       393 -10.0072     34.3852    136.7797   1.1040863934e+02   4.3830275769e+01    0.2890963     0.221113  37.46 0.0009994793    1.473    0.321
       394  -8.3690     74.9842    135.7536   9.8412139640e+01   3.9035244429e+01    0.2737482    0.1346117 -33.55 0.0009015255    3.541    0.718
       395 -10.5413      2.5803    134.5675   1.1907452677e+02   4.6970586245e+01    0.3720437    0.2286856 -85.42  0.001438553    1.365    0.267
       396 -10.6851      3.7100    128.6743   1.1814233025e+02   4.8320587339e+01    0.4397547    0.1434929 -56.53   0.00193153    2.444    0.591
       397 -11.0055     43.1475    131.0997   1.0696577966e+02   4.4334266920e+01    0.6117412    0.3381403 -45.28  0.001799959    1.881    0.468
       398 -11.6569     28.6978    132.0043   1.1136942380e+02   4.5564612717e+01    0.2408133    0.2085245 -80.56 0.0003152456    1.051    0.048
       399  -8.5287     23.4880    133.4769   1.1308187779e+02   4.5664564003e+01    0.1323932    0.1087544 -71.51 0.0001161326    1.036    0.035
       400  -9.6448     61.8251    131.1591   1.0139940534e+02   4.2050138779e+01    0.2440238    0.2109307 -81.00 0.0005475019    1.113    0.102
       401  -9.2200     20.6266    130.8020   1.1355284448e+02   4.6566821622e+01    0.2301946    0.1273583 -67.86 0.0005863618    1.464    0.317
       402 -10.1062     34.1878    127.7548   1.0910674501e+02   4.6099971132e+01    0.3362661    0.1912169 -71.06 0.0009941703    1.544    0.352
       403  -9.1055     88.6023    127.8836   9.2769906625e+01   3.8828073908e+01    0.2275821    0.2082054  18.00 0.0003249549    1.225    0.184
       404 -10.4914      9.8713    130.7029   1.1662634126e+02   4.7414458496e+01    0.3848012     0.188291 -48.78  0.001513719    2.025    0.506
       405  -9.6845     72.3683    123.4369   9.6648731463e+01   4.2493272968e+01     0.394484    0.2901574 -18.20  0.001301598    1.818    0.450
       406  -9.4372     72.1476    118.6830   9.5672640173e+01   4.3699745582e+01    0.3825904    0.2529953  76.32  0.001640197    2.240    0.554
       407  -8.6280    248.7529    133.9933   5.8701773287e+01   5.2457987689e+00    0.1812734   0.09903434 -36.77 0.0004892901    1.551    0.355
       408  -9.0215     64.7855    122.6120   9.8801015308e+01   4.3783064108e+01     0.194514     0.130583  46.52 0.0003627267    1.637    0.389
       409  -9.0284    236.4836    121.0042   5.7705149782e+01   9.7008255777e+00     0.228241    0.1488555  40.57  0.001019419    1.808    0.447
       410  -9.0991    123.7862    121.0347   8.1183869949e+01   3.3842070692e+01    0.2284485    0.2066907 -84.10 0.0004219347    1.195    0.163
       411  -9.8005     20.9401    113.4967   1.1095819771e+02   5.0794018991e+01    0.2472757    0.1768945  64.13  0.001057845    1.616    0.381
       412  -9.9295     20.0122    109.2173   1.1057088418e+02   5.1908707600e+01     0.255569     0.169255 -45.28  0.001441948    1.438    0.305
       413 -10.9075     21.0144    119.7654   1.1189248309e+02   4.9252681130e+01     0.569236    0.3124756  71.61  0.002636794    2.415    0.586
       414  -9.5805     13.9360    113.4414   1.1316662690e+02   5.1332028285e+01    0.3010409    0.1548447  50.88  0.001231926    2.388    0.581
       415  -9.0875     13.8282    109.8236   1.1266534011e+02   5.2216290296e+01    0.2370307    0.1495612 -71.01 0.0002787963    1.306    0.234
       416  -9.8064     93.5932    119.0769   8.9240796152e+01   4.0113745354e+01    0.2812756    0.2554243  20.23 0.0009019328    1.211    0.174
       417 -10.4318     42.7498    118.9883   1.0497612035e+02   4.7398710053e+01     0.268514    0.2418534  59.18  0.000495091    1.228    0.186
       418  -9.1059     83.5719    117.3262   9.1838099465e+01   4.2244317176e+01     0.267666    0.1410573 -58.83 0.0005859643    1.882    0.469
       419  -9.9181     32.6483    122.5232   1.0873898783e+02   4.7549222717e+01    0.3382123    0.1700434 -67.00  0.001590973    1.687    0.407
       420  -9.9226     54.6701    118.0302   1.0102057193e+02   4.6248988817e+01    0.2241209    0.2076449  35.96 0.0002103722    1.212    0.175
       421 -10.8176     29.0726    116.3770   1.0884329861e+02   4.9399750172e+01    0.5246879    0.2521484 -62.64  0.002427911    1.688    0.408
       422 -10.6272      3.0096    116.1107   1.1689624505e+02   5.1393288804e+01    0.3762158    0.2568831  72.20  0.002252321    1.570    0.363
       423  -8.1909    141.9764    117.2147   7.5488244138e+01   3.0817596032e+01    0.1992864    0.1289126  46.73 0.0008395212    1.585    0.369
       424  -9.7882     48.5961    114.5382   1.0225505586e+02   4.7843738622e+01     0.444867    0.3073085 -50.83  0.001947795    1.299    0.230
       425  -8.9724    122.0329    112.3045   7.9380700679e+01   3.6197473000e+01    0.2160639    0.2005032  51.71 0.0004626552    1.112    0.101
       426  -9.2720     62.9604    110.9573   9.6841029059e+01   4.6904522889e+01     0.211053    0.1873323 -52.22            0    1.027    0.026
       427 -10.7228      5.2994    108.7263   1.1523106882e+02   5.3030682273e+01    0.5589389    0.3470197 -38.01  0.003217114    1.723    0.420
       428  -9.0428      3.4721    103.0128   1.1502422882e+02   5.4499155094e+01    0.2448867    0.1034808 -75.73  0.001134098    2.068    0.516
       429  -9.4803      1.9173     92.9259   1.1404957492e+02   5.6959538269e+01    0.3542736    0.1640358  28.67  0.001840009    2.564    0.610
