#   1 NUMBER                 Running object number                                     
#   2 MAG_AUTO               Kron-like elliptical aperture magnitude                    [mag]
#   3 X_IMAGE                Object position along x                                    [pixel]
#   4 Y_IMAGE                Object position along y                                    [pixel]
#   5 X_WORLD                Barycenter position along world x axis                     [deg]
#   6 Y_WORLD                Barycenter position along world y axis                     [deg]
#   7 A_WORLD                Profile RMS along major axis (world units)                 [deg]
#   8 B_WORLD                Profile RMS along minor axis (world units)                 [deg]
#   9 THETA_WORLD            Position angle (CCW/world-x)                               [deg]
#  10 FWHM_WORLD             FWHM assuming a gaussian core                              [deg]
#  11 ELONGATION             A_IMAGE/B_IMAGE                                           
#  12 ELLIPTICITY            1 - B_IMAGE/A_IMAGE                                       
         1  -8.4514     38.6417     17.5226   8.5682898487e+01   6.8331961441e+01    0.2943179   0.09388311 -36.85  0.001254845    2.743    0.635
         2  -8.2718     17.0543     14.2892   9.4670651466e+01   7.1110451755e+01    0.1560952    0.1223507 -20.59 0.0004134877    1.073    0.068
         3  -8.5893     55.5298     10.0318   7.4769856317e+01   6.6977887058e+01     0.188814    0.1710427  38.26 0.0005643448    1.439    0.305
         4  -7.7405     47.4414     10.2166   7.8196959253e+01   6.8179471429e+01    0.1602256    0.1022258 -36.96 0.0009360497    1.646    0.393
         5  -8.2642     91.1789      9.2339   6.2385833660e+01   6.0471188397e+01    0.1643047    0.1567367 -56.79 0.0005142831    1.346    0.257
         6  -7.5916    101.6123      8.2770   5.9193441872e+01   5.8316537712e+01    0.1277898    0.1034021 -74.08 0.0006817763    1.728    0.421
         7  -8.5731     33.4937      5.0893   8.1828790722e+01   7.0729640633e+01    0.2656539    0.1622788 -48.48  0.001465989    2.510    0.602
         8  -8.4316     79.2395      4.2975   6.3595341659e+01   6.3384163365e+01    0.2214941    0.1439198 -42.97  0.001185798    2.010    0.503
         9  -7.7588     44.7009      3.3223   7.5767616659e+01   6.9433952754e+01    0.1037561   0.09133814 -38.99  0.000347319    1.625    0.385
        10  -8.0089    115.3196      2.6482   5.3700208322e+01   5.5684420341e+01    0.1334906   0.09982129 -60.97 0.0007047569    1.745    0.427
        11  -8.3745     62.4989      1.6102   6.7815780544e+01   6.6762285268e+01    0.1698636    0.1480268  66.06 0.0007280023    1.683    0.406
        12  -9.0822    136.0931      9.2010   5.2180723427e+01   5.0057245220e+01    0.2128326    0.1950503   0.45   0.00037548    1.161    0.138
        13  -7.9488     39.2364      1.4391   7.7164658601e+01   7.0433051411e+01    0.1382363    0.1070804  37.49  0.000375683    1.563    0.360
        14  -8.7535     67.5507    245.2593   1.2179715198e+02   1.6783620395e+01    0.1840885   0.09699247 -80.23  0.000911259    2.003    0.501
        15  -8.5695    248.9685    249.4323   9.0627570642e+01  -1.1265656481e+01    0.2986878    0.1350316 -18.52  0.001620858    2.659    0.624
        16  -9.4339    248.5894    242.4432   8.9592321745e+01  -1.0504664863e+01    0.2571792    0.1832299 -32.76  0.001131523    1.785    0.440
        17  -8.1474    191.7521    249.8615   1.0038569569e+02  -2.8312388065e+00    0.2183695    0.1297579  55.43  0.001130531    2.108    0.526
        18  -8.2786     93.8233    249.5087   1.1763675827e+02   1.2444358983e+01    0.2140278    0.1084617  67.86  0.001079816    2.183    0.542
        19  -7.4588     86.2587    250.6505   1.1903433122e+02   1.3333608227e+01    0.1140522   0.06637295  68.48 0.0003973094    1.603    0.376
        20  -8.1770     25.5045    250.4979   1.2894397457e+02   2.0976726962e+01    0.1038307   0.07033477  68.29 0.0008106189    1.017    0.017
        21  -8.4655    193.3754    244.6089   9.9365177949e+01  -2.4311532968e+00    0.2736358    0.1814003   8.00 0.0009553313    1.890    0.471
        22  -8.7192    193.9747    239.9137   9.8582880055e+01  -1.9269822562e+00     0.267273    0.2124661  81.51  0.001234589    2.161    0.537
        23  -7.7772     58.7701    245.0158   1.2326105324e+02   1.7965743735e+01    0.2170108    0.0671308  60.94 0.0008998754    3.650    0.726
        24  -8.3754     50.4183    244.6837   1.2462999178e+02   1.9069625508e+01    0.2044499   0.07893813  88.23 0.0009525731    3.448    0.710
        25  -9.0683      9.5027    243.9789   1.3111034888e+02   2.3767496614e+01    0.2206528   0.07426967 -89.58  0.001202411    2.767    0.639
        26  -9.0653    202.1477    242.6799   9.7539911812e+01  -3.5791220013e+00    0.3540764    0.1977568 -27.13  0.001579987    2.248    0.555
        27  -9.0203    203.2932    234.9746   9.6183272916e+01  -2.7924744512e+00    0.3145033    0.2092052 -58.82  0.001270991    2.694    0.629
        28  -8.4937    169.0198    243.4621   1.0355763718e+02   1.6413963458e+00    0.1880503    0.1632251  85.85 0.0005205103    1.532    0.347
        29  -9.3517     77.7756    243.2882   1.1988879682e+02   1.5739325826e+01    0.2839439    0.1385544  68.44  0.001543353    2.146    0.534
        30  -8.2022     34.6395    244.3170   1.2718369936e+02   2.1006888125e+01    0.1175892   0.05283143  64.07 0.0007042915    1.761    0.432
        31  -9.7631    160.2883    240.6448   1.0476912215e+02   3.4645633978e+00    0.3673353    0.2457038  88.01   0.00158395    2.822    0.646
        32  -9.0957    183.1730    240.3772   1.0058515086e+02  -2.3946518807e-01    0.3763932    0.2171449  61.99  0.001812773    2.887    0.654
        33  -7.8888    153.4045    242.1643   1.0621692262e+02   4.3661299410e+00    0.1450977    0.1129551 -78.16 0.0006242571    1.746    0.427
        34  -8.2407     88.0561    242.0656   1.1798700744e+02   1.4504149330e+01    0.1783081    0.1066396  70.29 0.0005299347    1.608    0.378
        35  -8.4636    240.5223    240.9536   9.0689460057e+01  -9.2002709888e+00    0.1517394    0.1031532 -22.62 0.0005118521    1.568    0.362
        36  -8.6022    146.4552    240.1250   1.0722951237e+02   5.8004750552e+00     0.309648    0.1875935  71.13  0.001386893    2.516    0.603
        37  -9.5285    109.4885    235.2145   1.1345799193e+02   1.2478454820e+01    0.5225856    0.2720423  68.26  0.002586497    2.453    0.592
        38  -9.2448    230.9553    236.6588   9.1619447599e+01  -7.3141751244e+00    0.3243778     0.250702 -47.48  0.002029537    2.026    0.506
        39  -9.1885    135.6491    239.1025   1.0908570256e+02   7.7083523138e+00     0.215937    0.1335177  53.17 0.0008802139    1.389    0.280
        40  -8.6330    129.4513    238.5530   1.1015868712e+02   8.7899640034e+00     0.185121    0.1129177 -75.24  0.001023685    2.302    0.566
        41  -8.0449     40.7907    239.0538   1.2587249234e+02   2.1211128626e+01    0.1353367   0.07241173 -82.27 0.0008731048    1.743    0.426
        42  -8.9717    217.3149    235.6956   9.3820842655e+01  -5.1084095241e+00    0.2320209    0.2197185 -34.03 0.0009502606    1.489    0.328
        43  -9.5564    213.7982    232.1245   9.3876143177e+01  -4.1148614255e+00    0.3239652    0.2540726 -64.22  0.001464924    2.296    0.564
        44  -8.1080    208.8659    238.3814   9.5715997146e+01  -4.1090634595e+00    0.1498798    0.1316307  27.39 0.0006027001    1.194    0.163
        45  -9.3913    248.0339    234.9796   8.8478373308e+01  -9.6376813635e+00    0.2361134    0.1937634 -19.02  0.001739529    1.419    0.295
        46  -8.4026     57.6313    237.1559   1.2289865140e+02   1.9480604642e+01     0.209966     0.059892  41.82 0.0009760268    2.789    0.641
        47  -8.7185     25.8208    237.2203   1.2822472681e+02   2.3234996477e+01     0.195156   0.06345264  64.41 0.0009539301    2.842    0.648
        48  -9.6878    175.7181    233.4246   1.0095314025e+02   1.9514037278e+00    0.4057947    0.2339069 -58.61  0.002107547    2.714    0.631
        49  -8.3204    170.1878    236.1141   1.0234852482e+02   2.4863230438e+00    0.1606073    0.1306946  59.41 0.0005976816    1.348    0.258
        50  -8.4450     99.6849    234.6302   1.1519611613e+02   1.4070476523e+01     0.240306    0.1312691  68.32  0.001087922    2.024    0.506
        51  -9.2904     78.7215    234.5210   1.1898325015e+02   1.7129504278e+01    0.2342426    0.1315822  73.59  0.001015269    1.808    0.447
        52  -9.4144      8.0076    234.5095   1.3094164944e+02   2.5568006215e+01    0.1623573    0.1009407  84.14 0.0008493217    1.228    0.186
        53  -9.3099     68.3135    232.5108   1.2067224878e+02   1.8912943380e+01     0.404306    0.1655134  67.12  0.001846524    2.965    0.663
        54  -8.2240    194.6250    233.0194   9.7442447996e+01  -1.1263272085e+00    0.1618521    0.1523842 -87.57  0.001018562    1.495    0.331
        55  -8.0526    144.7432    233.0013   1.0664823274e+02   7.1821328723e+00    0.2646992    0.1244274  58.69  0.001156776    2.767    0.639
        56  -8.4847    140.2447    230.1538   1.0712773780e+02   8.3825112810e+00    0.2654002    0.1532267  60.36 0.0008336988    1.911    0.477
        57  -8.4399    132.7537    232.9593   1.0888383646e+02   9.1585556925e+00     0.192632    0.1259273  76.17  0.001061375    2.010    0.502
        58  -9.7301    236.2699    230.9105   8.9783384132e+01  -7.4549890715e+00    0.2467605    0.2065182  51.37  0.001039317    1.719    0.418
        59  -9.2614    186.5102    230.7631   9.8580384876e+01   5.2538567704e-01    0.2947158    0.2264981 -87.38  0.001165001    2.309    0.567
        60  -8.3557    157.8708    232.3444   1.0411024877e+02   5.0973202088e+00    0.1647597    0.1406671  58.24  0.000482302    1.193    0.162
        61  -8.6188     92.2304    231.7893   1.1628134463e+02   1.5674643553e+01    0.2308508     0.142976  69.82  0.000715053    1.561    0.359
        62  -8.9753      1.8118    230.9299   1.3176593457e+02   2.6804944541e+01    0.1931061   0.09237574  73.82 0.0007372056    1.552    0.356
        63  -9.4630    246.6890    228.5547   8.7636143554e+01  -8.7360740586e+00    0.4050681     0.198461 -23.19  0.001936265    2.173    0.540
        64  -9.9596    149.7449    226.3549   1.0482686463e+02   7.4028911563e+00    0.5608113     0.335521 -85.99  0.002366324    3.875    0.742
        65  -7.9520    229.6054    228.7915   9.0576705448e+01  -6.1892655944e+00    0.1419743    0.1093023 -34.62 0.0005989003    1.610    0.379
        66  -8.2998    122.8478    234.1476   1.1087027182e+02   1.0560643891e+01    0.1933524    0.1360475  66.13 0.0007958317    1.397    0.284
        67  -8.8318    161.9699    227.8048   1.0271348548e+02   5.1006927873e+00    0.2570297    0.1908678  59.04  0.001132322    1.418    0.295
        68  -9.0731    127.6537    227.2785   1.0915096049e+02   1.0934438297e+01    0.3079213    0.2071604  57.04  0.001465359    1.328    0.247
        69  -8.2691    120.0517    227.8253   1.1065932929e+02   1.2074372483e+01    0.2055024    0.1458248  86.85 0.0009388909    1.658    0.397
        70  -8.0530    223.4625    227.0585   9.1359479998e+01  -5.0186826599e+00    0.1625134    0.1133444 -27.48 0.0005991832    1.571    0.364
        71  -8.5099    206.0516    226.3511   9.4339280027e+01  -2.1178211749e+00    0.1853872    0.1722485  75.92 0.0006295115    1.552    0.356
        72  -8.2103    200.2453    226.4071   9.5399812753e+01  -1.1650316949e+00    0.1750538    0.1525865 -70.97 0.0006236976    1.744    0.427
        73  -8.3377     49.2770    226.9105   1.2361633669e+02   2.2385314392e+01    0.2408812    0.1180436  68.61  0.001375803    1.849    0.459
        74  -8.6027    180.6077    224.4166   9.8714205223e+01   2.4307363437e+00    0.2134522    0.1746162  72.87 0.0007066816    1.647    0.393
        75  -9.0446    104.6909    223.5899   1.1309480074e+02   1.5250929506e+01     0.314336    0.1885687  80.68   0.00166817    2.087    0.521
        76  -8.8959     94.2938    224.4295   1.1515797240e+02   1.6687115042e+01     0.334778    0.1723856  67.48  0.001669295    2.227    0.551
        77  -8.2036     38.3001    224.7850   1.2539434386e+02   2.4092572686e+01    0.2413715     0.105231  65.97  0.001326034    2.049    0.512
        78  -8.7687    216.3994    223.5647   9.2030595346e+01  -3.4456443646e+00     0.214135    0.2065255  78.86  0.001195187    1.535    0.349
        79  -8.7063    172.9457    223.2523   9.9978663137e+01   3.9190211188e+00    0.2351825    0.1806678 -72.61 0.0007825827    1.910    0.476
        80  -7.8701    113.9807    224.3021   1.1140169846e+02   1.3660358834e+01    0.1785437    0.1330422  53.31 0.0005300998    1.095    0.087
        81  -8.3977     59.5884    223.8103   1.2153617429e+02   2.1661257814e+01    0.1568136   0.08998187  86.60 0.0005656448    1.680    0.405
        82  -9.2940    239.4028    222.0823   8.7768246314e+01  -6.8959927830e+00    0.2656692    0.2362255  70.60  0.001143028    1.978    0.494
        83  -9.3021    160.5078    221.3797   1.0206949315e+02   6.3572432028e+00    0.5328718    0.2405147  57.92  0.001984664    3.377    0.704
        84  -9.3903    225.5679    221.8787   9.0127671268e+01  -4.7072735151e+00    0.2332077    0.1820936  51.01 0.0009512716    1.638    0.389
        85  -9.2618    120.5216    219.4282   1.0955206153e+02   1.3467577197e+01    0.4052626    0.2169877  68.85  0.001827153    2.674    0.626
        86  -8.7136     82.8077    220.6882   1.1695104933e+02   1.9068137039e+01    0.2807748    0.1332118  64.37  0.001253824    2.277    0.561
        87  -8.1855     72.7939    220.1588   1.1878664368e+02   2.0581517244e+01    0.2336196    0.1145229  84.16  0.001119102    2.620    0.618
        88  -8.1211     27.6619    220.8714   1.2699582730e+02   2.6024200798e+01    0.2072113   0.07417643 -68.48  0.001100737    2.615    0.618
        89  -8.1633    202.6583    220.2043   9.3960075932e+01  -7.1963938893e-01     0.162769    0.1570568 -37.86 0.0006158949    1.351    0.260
        90  -8.8967    249.7959    218.8088   8.5447996377e+01  -8.0816038428e+00    0.2207693    0.1786778  68.53  0.001323213    2.537    0.606
        91  -9.3552    192.3970    221.3832   9.6043447196e+01   8.5618287412e-01    0.2646957    0.2275763  86.53  0.001097273    1.728    0.421
        92  -8.1926    210.1138    219.3188   9.2454897545e+01  -1.8495484730e+00    0.1696698    0.1404335  30.45 0.0005514041    1.097    0.089
        93  -9.3710    132.7863    215.9651   1.0670027297e+02   1.2034754871e+01    0.4287087    0.2599594  81.09  0.001975883    2.731    0.634
        94  -9.2451     51.4571    217.2973   1.2250360177e+02   2.3930566920e+01    0.2689906    0.1434742  81.82 0.0009136763    1.813    0.448
        95  -8.8520    169.3914    216.3921   9.9613187993e+01   5.6019523016e+00    0.2602714    0.2135058 -83.06 0.0009662507    1.673    0.402
        96  -8.8554    142.9919    216.4441   1.0476024950e+02   1.0203890461e+01    0.2775666    0.1954071  88.19  0.001460924    1.994    0.498
        97  -8.1305    111.7575    217.1870   1.1098786766e+02   1.5296102382e+01    0.2178974    0.1135546  69.77 0.0009504365    2.763    0.638
        98  -8.6259     61.8609    217.1547   1.2056543337e+02   2.2627728809e+01    0.1934461    0.1213318  69.28  0.001201934    1.355    0.262
        99  -8.2728     18.6059    216.7658   1.2832240886e+02   2.7760886221e+01     0.152255    0.0773634  85.70 0.0009485621    1.624    0.384
       100  -8.7951    232.5999    215.3760   8.7780930170e+01  -5.0093457701e+00    0.2514264    0.2085335  56.83  0.001277232    1.761    0.432
       101  -8.5362    185.4147    214.2922   9.6212074293e+01   3.1100983876e+00    0.2196768    0.1865039  80.24 0.0007360845    1.636    0.389
       102  -8.3039    154.2254    215.1624   1.0237384398e+02   8.4667713088e+00    0.1758356    0.1408424  68.46 0.0005497946    1.389    0.280
       103  -7.8776     41.3347    215.6625   1.2422859408e+02   2.5470619029e+01    0.1255477   0.06281932  67.17 0.0007051812    1.747    0.427
       104  -9.4420    213.9158    212.2948   9.0570136922e+01  -1.5292984137e+00    0.3090001    0.2588876  62.39  0.001462129    1.674    0.403
       105  -8.2044    195.8692    214.7332   9.4313738152e+01   1.2192691309e+00    0.2154895   0.08256979  28.72 0.0004418737    4.231    0.764
       106  -8.8240     93.0051    213.9825   1.1428928996e+02   1.8827854006e+01    0.2641741    0.1511389  67.60  0.001170797    1.827    0.453
       107  -9.5043     73.8084    212.4855   1.1786855921e+02   2.1913564104e+01    0.6289166    0.2055168  58.40  0.002316496    3.894    0.743
       108  -8.7075    161.8730    212.4395   1.0046485585e+02   7.5709696354e+00    0.2207384     0.180756 -85.94 0.0008359772    1.599    0.375
       109  -8.3524    106.4211    212.7215   1.1150019793e+02   1.6980118844e+01    0.2068668    0.1192186 -71.43 0.0007828085    2.002    0.500
       110  -7.7069    242.9887    212.0181   8.5397016051e+01  -6.2286635283e+00    0.1473315      0.11731  10.84 0.0004096528    1.008    0.008
       111  -7.8408    224.6610    212.2479   8.8629944727e+01  -3.3173590825e+00    0.1613504     0.107795 -19.83 0.0009336375    1.570    0.363
       112  -8.9734    204.3179    211.0045   9.2109869944e+01   2.9522450517e-01    0.2414435    0.2204091 -84.44 0.0006917706    1.593    0.372
       113  -9.3852    175.7457    210.3767   9.7432288914e+01   5.4339285010e+00    0.3909094    0.2681984  75.92  0.001465281    2.528    0.604
       114  -8.4069    192.4335    210.7763   9.4298472485e+01   2.4061098803e+00    0.2190242    0.1812727 -72.32 0.0008489454    1.795    0.443
       115  -8.8178    147.9618    210.4018   1.0290448046e+02   1.0381167059e+01    0.2752414    0.1979547 -88.28  0.001143284    1.964    0.491
       116  -8.9608    116.3613    210.4525   1.0923530317e+02   1.5792255435e+01    0.3287943    0.2033396  73.76  0.001175659    2.003    0.501
       117  -8.5437     32.0951    210.0165   1.2551344995e+02   2.7626446320e+01    0.2486557    0.1144183  83.76  0.001146172    2.086    0.521
       118  -8.5085     85.7716    209.4951   1.1522203899e+02   2.0777938370e+01    0.3313854    0.1716607  76.96  0.001392575    2.577    0.612
       119  -8.2589     46.4516    209.5923   1.2282692567e+02   2.6047794174e+01    0.2454376    0.1147248  72.13  0.001023747    2.180    0.541
       120  -9.4694    246.4137    207.4417   8.3990067559e+01  -6.1953174736e+00    0.2561544     0.192881 -24.49 0.0006225466    1.363    0.267
       121  -9.1135    236.3972    208.2827   8.5860718171e+01  -4.7124949221e+00     0.266667    0.2266135 -54.32  0.001015561    1.842    0.457
       122  -8.2854    126.7000    208.8416   1.0694269500e+02   1.4356205600e+01    0.2284823    0.1676131  86.74 0.0008510713    1.612    0.379
       123  -7.9906    156.4341    208.1898   1.0088186932e+02   9.2571954026e+00    0.1644821    0.1268126 -71.04 0.0006100598    1.657    0.396
       124  -8.3602    139.2596    208.1468   1.0431440821e+02   1.2310993835e+01    0.2472732    0.1490122  63.25 0.0009528772    1.964    0.491
       125  -9.0323      5.7355    207.8041   1.3007120355e+02   3.0741213085e+01    0.2248794   0.08364188  77.48  0.001035169    2.493    0.599
       126  -9.3473     99.2626    205.8641   1.1210517434e+02   1.9430724848e+01    0.3608394    0.2210386  89.76  0.001507584    1.978    0.494
       127  -8.4430     56.4448    205.5729   1.2058423735e+02   2.5607383477e+01     0.245004     0.122068  74.00  0.001084476    2.131    0.531
       128  -8.1984     11.6918    206.7045   1.2897162521e+02   3.0390939583e+01     0.092981    0.0750809 -67.53 0.0002404526    1.589    0.371
       129  -9.2674    194.9066    203.6251   9.2600074480e+01   3.0547245294e+00    0.3133555    0.2680231 -89.94 0.0009469661    1.722    0.419
       130  -9.3300    192.3824    197.2572   9.1954582148e+01   4.5129324134e+00    0.3421455    0.2691306 -61.33 0.0008408146    1.739    0.425
       131  -8.8881    183.7727    204.0249   9.4814262570e+01   5.0038476684e+00    0.3029734    0.2062909  62.71   0.00103922    1.960    0.490
       132  -8.8618    131.4667    204.0956   1.0530645108e+02   1.4415153924e+01    0.3487016    0.2174762  78.67  0.001191821    2.408    0.585
       133  -8.1673    109.1917    205.2508   1.1001259211e+02   1.7959599681e+01    0.1818289    0.1319396  73.48 0.0006283076    1.386    0.278
       134  -9.5722    163.6973    203.0843   9.8618763990e+01   8.8205261518e+00     0.379479    0.2397482  60.57  0.001096298    1.902    0.474
       135  -9.4438    250.0421    201.9160   8.2361519924e+01  -6.0702966502e+00    0.3455071    0.1681565 -31.50  0.001321061    2.034    0.508
       136  -9.6408    246.0454    194.0465   8.1555069421e+01  -4.4145486093e+00    0.4177191    0.2962586 -63.32  0.002022755    3.229    0.690
       137  -7.8233     66.9750    203.4909   1.1832463150e+02   2.4640675123e+01    0.1812399   0.07370227  57.69 0.0008091069    2.444    0.591
       138  -9.3284    242.9441    200.7721   8.3353529545e+01  -4.7951034606e+00    0.2806104    0.1844178 -31.15 0.0009474729    1.566    0.362
       139  -8.0433    221.9102    201.8027   8.7249731662e+01  -1.4311251802e+00    0.1560133    0.1518616  10.10 0.0005472083    1.314    0.239
       140  -8.8534    140.5193    201.1711   1.0301734491e+02   1.3359669374e+01    0.3481309    0.2256123  81.42  0.001213912    2.403    0.584
       141  -8.5135     79.8746    201.2871   1.1550625541e+02   2.3277383920e+01    0.3332686    0.1670796  73.27  0.001492367    2.598    0.615
       142  -8.4358     48.3330    201.8804   1.2183640626e+02   2.7366623591e+01    0.2550742    0.1270173  77.89  0.001074116    2.076    0.518
       143  -9.1954    237.0552    198.6521   8.3975618023e+01  -3.5522889421e+00    0.3225392    0.1639376 -42.04   0.00123876    2.380    0.580
       144  -9.4531    149.6496    198.7278   1.0076045437e+02   1.2158209997e+01    0.3992821    0.2702586  82.51  0.001444708    2.295    0.564
       145  -9.0638    124.0318    199.2686   1.0614095610e+02   1.6622369159e+01    0.3169094    0.2182084  83.25  0.001363562    1.812    0.448
       146  -9.4060    112.9690    198.6186   1.0835227148e+02   1.8632286325e+01    0.4332209    0.2448684  69.43  0.001651915    2.314    0.568
       147  -8.4683    176.9276    199.1409   9.5318257779e+01   7.0572767280e+00    0.1975679    0.1727793  64.21 0.0005021207    1.301    0.231
       148  -9.1943     88.6824    197.8360   1.1330333718e+02   2.2672246245e+01    0.4749422    0.2409672 -70.27  0.002144453    2.101    0.524
       149  -8.2704    202.4912    198.1343   9.0175767637e+01   2.5315245668e+00    0.2033225    0.1750229  55.49 0.0006883889    1.377    0.274
       150  -9.3709     61.4063    196.9278   1.1879170515e+02   2.6728389035e+01    0.4063597    0.2029575  74.50  0.001749894    2.289    0.563
       151  -8.4936     12.8182    197.7364   1.2825566553e+02   3.2060981454e+01    0.2284342   0.09709334  74.09  0.001129264    2.138    0.532
       152  -8.7880    215.9574    195.6497   8.7198034782e+01   4.9218645423e-01    0.2518967     0.183907 -51.42 0.0008683485    1.864    0.464
       153  -7.6684     29.3524    197.6866   1.2515853348e+02   3.0396076436e+01    0.1258855   0.06359991  66.78 0.0007045731    1.730    0.422
       154  -8.1272    132.9890    196.0166   1.0378882621e+02   1.5675561956e+01    0.2091062    0.1515623  76.88 0.0004940716    1.638    0.389
       155  -8.8232    224.3091    194.2666   8.5412675122e+01  -7.7564045949e-01    0.2666713    0.2132513 -46.45  0.001081337    1.609    0.378
       156  -7.8470    209.2828    195.6530   8.8439287227e+01   1.6842720736e+00    0.1198847    0.1070944 -89.77 0.0004642168    1.645    0.392
       157  -8.8095    185.3555    194.8626   9.2896717918e+01   6.2040251083e+00    0.2354772    0.2017937  69.55 0.0007190383    1.447    0.309
       158  -9.0646    161.1466    194.5805   9.7716518003e+01   1.0784086249e+01    0.2842182    0.2122515  77.35  0.001056076    1.809    0.447
       159  -8.8621     77.2597    194.0719   1.1523485352e+02   2.5138967860e+01    0.2541333    0.1774949  74.55 0.0006156623    1.318    0.242
       160  -8.9928     44.0029    193.6444   1.2198102913e+02   2.9582668833e+01    0.4205609    0.1802563  67.88  0.001952667    2.584    0.613
       161  -8.5359    230.9271    194.3046   8.4233914043e+01  -1.9242979887e+00    0.1827109    0.1485627  20.56 0.0006199994    1.073    0.068
       162  -8.2891    104.2296    194.5490   1.0963180023e+02   2.0892639718e+01    0.2580988    0.1114529  44.99  0.001141509    2.052    0.513
       163  -7.6939    241.6216    192.2588   8.1970675269e+01  -3.4468769521e+00    0.1124269    0.1015614  64.23   0.00068306    1.665    0.399
       164  -7.9646    199.1108    191.8599   8.9664975868e+01   4.1321593603e+00    0.1864428    0.1777238  57.55 0.0004848242    1.258    0.205
       165  -8.1346    179.0319    191.9500   9.3628655091e+01   7.8811457919e+00    0.2057204    0.1658281  78.54 0.0007058604    1.689    0.408
       166  -8.4266    172.3463    191.9787   9.4981111970e+01   9.1394451143e+00    0.2430607    0.1822923  64.64  0.001041397    1.605    0.377
       167  -9.1890    139.6230    190.9178   1.0158851147e+02   1.5457790391e+01    0.3858567    0.2512605  82.11  0.001089934    2.387    0.581
       168  -8.8009     21.5797    191.7743   1.2622629061e+02   3.2418029080e+01    0.2909347   0.09600069  60.54   0.00130101    3.032    0.670
       169  -7.7109    205.2739    191.6890   8.8454298153e+01   3.0218423843e+00    0.1197515    0.1078236  84.99 0.0001685828    1.554    0.356
       170 -10.3378     92.1565    188.8098   1.1143995847e+02   2.4007545084e+01    0.9163433    0.2548471  50.53  0.003077428    3.816    0.738
       171  -8.6251    148.3635    189.1983   9.9458304273e+01   1.4168810206e+01    0.2570648    0.1965668  84.31 0.0007638944    1.664    0.399
       172  -8.3393      6.2870    190.6537   1.2904756363e+02   3.4097961496e+01    0.1183302   0.05886969  70.37 0.0004274881    1.652    0.395
       173  -8.3250    237.1670    188.3284   8.1984289138e+01  -2.1536962282e+00    0.2147378    0.1542317 -16.62 0.0005685535    1.336    0.251
       174  -8.8498    216.6073    188.0011   8.5623756346e+01   1.5198665720e+00     0.273928     0.224038 -51.55  0.000836111    1.595    0.373
       175  -9.3583    156.0578    187.6569   9.7576365496e+01   1.3010057322e+01    0.3552057    0.2333926 -66.00 0.0009720139    2.027    0.507
       176  -9.0009    129.3021    188.6718   1.0342589498e+02   1.7771650297e+01    0.2827334    0.1992218  74.24 0.0009702365    1.678    0.404
       177  -9.8548    120.9277    186.8675   1.0494768081e+02   1.9624461256e+01    0.5236314    0.2812479 -74.30  0.002161604    2.776    0.640
       178  -8.6537     34.3216    188.3930   1.2347162828e+02   3.1785919082e+01    0.3059546    0.1408007  75.11  0.001077051    2.265    0.558
       179  -8.4505    211.0939    202.1876   8.9299140514e+01   3.9136390397e-01    0.2132728    0.1725122 -70.19 0.0006987944    2.033    0.508
       180  -8.9687    191.5125    187.2146   9.0272665650e+01   6.3165215237e+00    0.3393188    0.2493822 -79.87  0.001370336    2.427    0.588
       181  -9.3259    109.6748    186.4570   1.0732676303e+02   2.1650783448e+01    0.4103431    0.2494701  77.14  0.001330797    2.202    0.546
       182  -9.1921     54.9150    187.0993   1.1914335404e+02   2.9634675323e+01    0.4045411    0.1929285  70.30  0.001887479    2.401    0.583
       183  -8.1097    230.4179    187.2517   8.2966494178e+01  -8.3268616463e-01     0.171435    0.1193553 -40.88 0.0008746656    1.645    0.392
       184  -8.7792    164.7012    186.8254   9.5627178594e+01   1.1516098342e+01    0.2495758    0.1992454  82.92 0.0006959867    1.635    0.388
       185  -8.7499    249.2037    185.3975   7.9343710454e+01  -3.7730977677e+00     0.266105    0.1838794 -38.29  0.001080619    1.623    0.384
       186  -8.8090    210.1362    183.9462   8.6046165903e+01   3.3377249784e+00    0.2921119    0.1835298 -30.38  0.001219825    1.666    0.400
       187  -8.7477    202.7650    184.7191   8.7602967241e+01   4.5962352471e+00    0.2451813    0.1857146 -46.55 0.0006776122    1.542    0.352
       188  -8.8139    183.0172    184.8669   9.1521394359e+01   8.3416790120e+00    0.2283001    0.1998728 -42.97 0.0006215931    1.266    0.210
       189  -9.1741     66.7878    184.5250   1.1635977887e+02   2.8631601966e+01    0.3802408    0.2078004  63.89  0.001170256    1.837    0.456
       190  -8.6911    224.0369    183.8186   8.3442309190e+01   8.0681823663e-01    0.2195261    0.1822118 -19.38 0.0003708955    1.184    0.155
       191  -7.9888    197.4248    183.9001   8.8479586029e+01   5.7425090522e+00    0.1792974     0.120608 -64.50 0.0008046879    2.485    0.598
       192  -8.9766    174.2980    183.4631   9.3030314722e+01   1.0275326262e+01    0.2824441    0.2332913 -71.49 0.0008013807    1.544    0.352
       193  -9.2867    241.4523    182.0937   8.0012074020e+01  -2.0098297355e+00    0.3416157    0.2465582 -64.07  0.001679827    2.750    0.636
       194  -9.0473     44.5174    182.4732   1.2086182083e+02   3.1893762710e+01    0.3461872    0.1744242  68.27  0.001203047    2.007    0.502
       195  -8.5483     20.0387    183.5254   1.2594158747e+02   3.4292586384e+01    0.1658877   0.06179993  56.42 0.0008088346    2.452    0.592
       196  -8.1217      1.7714    183.6071   1.2949091238e+02   3.5933645257e+01    0.1478079   0.07791093  51.81 0.0009458651    1.680    0.405
       197 -10.4795    190.1734    179.9863   8.9150110452e+01   7.7998625877e+00    0.4066397    0.3051265 -10.08  0.001069223    1.582    0.368
       198  -9.2567    147.5606    180.6929   9.8155047014e+01   1.5962108079e+01    0.3439209    0.2539731 -87.09  0.001008613    1.822    0.451
       199  -8.2214    142.0182    181.7238   9.9532837452e+01   1.6810526930e+01      0.19507    0.1701457  49.19 0.0002821439    1.052    0.049
       200  -8.7117    137.6569    179.3810   1.0007533345e+02   1.8099481703e+01    0.3288899    0.2189163  73.26  0.001066772    2.004    0.501
       201  -9.5576     25.9207    179.4126   1.2444246651e+02   3.4582931351e+01    0.6394153    0.2264979  78.23  0.002294808    4.504    0.778
       202  -9.1778     35.7220    176.4978   1.2215412242e+02   3.4184345369e+01    0.5123055     0.193993  82.94  0.001835603    4.275    0.766
       203  -9.5798    248.3658    176.7586   7.7762156155e+01  -2.4396360896e+00    0.4164602    0.2669741 -46.34  0.002015001    2.021    0.505
       204  -8.6328    250.5146    172.9049   7.6618325737e+01  -2.2628748738e+00    0.2162178    0.1622537 -23.08 0.0004627947    1.223    0.182
       205  -8.5803    231.2326    177.1300   8.0807799600e+01   5.1088134074e-01    0.2528428    0.2028238 -42.77 0.0007568037    1.472    0.320
       206  -8.7200    217.6978    176.9661   8.3238708208e+01   3.0252194079e+00    0.3228038    0.1787242 -43.42  0.001105168    2.021    0.505
       207  -8.5750    205.0540    177.5916   8.5757376007e+01   5.3241643087e+00    0.2478959    0.1910618 -51.56  0.000761096    1.591    0.372
       208  -8.0720    169.1388    178.5296   9.3169702075e+01   1.2183750109e+01    0.2087303    0.1306592  44.93 0.0005402297    1.482    0.325
       209  -8.9531    129.1526    177.5341   1.0163091538e+02   2.0059080541e+01    0.2933352    0.2059435  87.69 0.0009531297    1.855    0.461
       210  -9.1931    183.0749    176.0625   8.9812047657e+01   9.8818525955e+00    0.2946472    0.2247553 -56.52 0.0006896198    1.582    0.368
       211  -9.3774    158.9493    175.0732   9.4672901113e+01   1.4846444149e+01    0.4331117    0.3016692  86.53  0.001386076    2.312    0.567
       212  -7.7986     97.5026    177.4965   1.0869944580e+02   2.5573174261e+01    0.1357664    0.1201467  75.12 -0.0002083261    1.020    0.020
       213  -9.2823     88.9886    176.6873   1.1049396182e+02   2.7103083737e+01    0.3118501    0.1997587 -86.42  0.001113855    1.722    0.419
       214  -9.3037     59.0138    176.2307   1.1710404315e+02   3.1473783689e+01    0.3845151    0.1703877  60.51  0.001314027    2.513    0.602
       215  -9.5929     55.8741    171.0334   1.1720527247e+02   3.3029506865e+01    0.4699785    0.2339588  84.48  0.002095954    2.494    0.599
       216  -8.9884     13.0257    176.8567   1.2686487779e+02   3.6365503273e+01    0.2528427     0.110487  68.28  0.001004348    2.175    0.540
       217  -9.6616    104.0948    174.5525   1.0676899751e+02   2.5122191768e+01    0.5037812    0.3124341  79.15  0.001572433    2.118    0.528
       218 -10.7729     75.8973    170.4129   1.1259628745e+02   3.0459945765e+01     1.174141    0.4438664 -76.72   0.00379672    4.391    0.772
       219  -8.6596     79.0469    158.5019   1.1015384106e+02   3.2705703169e+01    0.3409096    0.1410281  31.65  0.001315577    3.089    0.676
       220  -8.4545    224.5452    174.3343   8.1443224079e+01   2.1595445958e+00    0.2358294    0.1258358 -39.54 0.0006644345    1.950    0.487
       221  -9.4822    175.6946    172.1247   9.0554293858e+01   1.2070620285e+01    0.3685344    0.2390382 -45.46   0.00105019    1.657    0.396
       222  -8.5199    143.0947    172.7127   9.7687238416e+01   1.8414698240e+01    0.2398528    0.1954948 -73.86 0.0007433353    1.381    0.276
       223  -8.5004    134.7622    171.8444   9.9384170884e+01   2.0189786096e+01    0.2558501    0.1927403 -83.65  0.001008012    1.608    0.378
       224  -9.6350    121.3991    170.3472   1.0214081977e+02   2.2994348814e+01    0.4566755    0.2801145 -74.46  0.001222312    2.107    0.525
       225  -9.1604     44.8561    170.8775   1.1963327105e+02   3.4396938647e+01    0.3540784    0.1812989  83.63  0.001417689    2.112    0.526
       226  -8.3051    237.1976    169.8755   7.8266795067e+01   5.1991210553e-01    0.1886427    0.1751063 -21.18 0.0005323085    1.212    0.175
       227  -8.8887    230.1510    169.0685   7.9343427141e+01   1.9335030522e+00    0.4223801    0.1503711 -44.38    0.0014993    3.481    0.713
       228  -8.5381    205.6861    169.8551   8.4058449434e+01   6.4899255568e+00    0.2841395    0.1712953 -44.68 0.0007716906    1.827    0.453
       229  -8.2726    198.6438    170.1439   8.5492649148e+01   7.8321805928e+00    0.2112495    0.1767324 -54.98 0.0006954237    1.437    0.304
       230  -8.7107    149.8665    169.6644   9.5619631478e+01   1.7708796030e+01    0.2693321    0.2096976 -66.14 0.0008024935    1.464    0.317
       231  -8.3167    244.4669    169.2174   7.6877823301e+01  -6.8227081756e-01    0.1866567     0.182194  10.19  0.000497811    1.298    0.229
       232  -9.2323    166.9738    168.5522   9.1684114943e+01   1.4503938123e+01    0.3645262    0.2418711  64.60  0.001065066    1.939    0.484
       233  -8.9026    111.8168    167.5806   1.0386893675e+02   2.5313287161e+01    0.3608801    0.2401699 -89.82 0.0009811785    1.924    0.480
       234  -8.6484     88.7707    168.8738   1.0941629180e+02   2.8866726167e+01    0.2602418    0.1710705  89.98 0.0009678708    1.695    0.410
       235  -8.1805    218.6920    168.2289   8.1255484939e+01   4.2297184680e+00    0.2007231    0.1667626 -42.17 0.0005499006    1.346    0.257
       236  -7.9471    211.4745    168.4944   8.2666363411e+01   5.5835620462e+00    0.2012459    0.1768441 -73.20 0.0006606129    1.555    0.357
       237  -9.1289    211.6002    164.2052   8.1738764677e+01   6.2734421962e+00     0.407617    0.2374855  36.51  0.001892134    1.701    0.412
       238  -9.0831    191.8929    166.4865   8.6079990696e+01   9.8286108932e+00    0.3172164    0.2037206 -46.34  0.000782695    1.703    0.413
       239  -8.6394    185.1009    166.6472   8.7494865524e+01   1.1178439197e+01    0.2441259    0.1965659 -53.92 0.0006096242    1.423    0.297
       240 -10.0393     95.1669    162.9887   1.0700887721e+02   2.9167141528e+01    0.8717983    0.4589578  79.93  0.002964224    3.807    0.737
       241  -9.0450     20.6183    166.3495   1.2447958196e+02   3.7940102443e+01    0.3251006    0.1370296  63.56   0.00101239    2.463    0.594
       242  -9.9191    136.6637    164.2701   9.7551812758e+01   2.1412135832e+01    0.6211965     0.360068  60.84  0.002159761    2.096    0.523
       243  -8.1240    233.8543    165.1130   7.7856012682e+01   1.8561135316e+00    0.1942033    0.1758168 -30.97 0.0004875034    1.224    0.183
       244  -8.7258    159.4912    164.3943   9.2469110899e+01   1.6836504853e+01    0.2929965    0.2316478  85.53 0.0009735043    1.630    0.387
       245  -9.6239     33.4935    163.4665   1.2139658245e+02   3.7306043889e+01    0.5129164    0.1960618  59.36  0.002202538    2.996    0.666
       246  -9.5310    245.9200    162.0694   7.5134149059e+01   1.1312419001e-01    0.4868727    0.1711145 -38.20   0.00190695    2.745    0.636
       247  -8.2487    237.3791    159.1832   7.5977015970e+01   2.1149923346e+00    0.2691278    0.1508289 -49.98 0.0009080644    2.429    0.588
       248  -8.5648     57.1682    164.0098   1.1607402662e+02   3.4450403651e+01    0.3022142    0.1799819  12.28  0.001308943    3.535    0.717
       249  -8.8253    204.8394    162.9984   8.2780937020e+01   7.8265323840e+00    0.2060176    0.1906502 -61.90 0.0004238162    1.307    0.235
       250  -9.2413      3.3098    162.3789   1.2784532322e+02   4.0298670737e+01    0.3427671    0.1426301  58.71  0.001610239    2.272    0.560
       251  -9.0246    177.5314    160.7683   8.7839930799e+01   1.3831354516e+01    0.2935681    0.2398144 -64.12  0.001008887    1.467    0.318
       252  -8.9454    151.6662    161.0940   9.3535803102e+01   1.9092976372e+01    0.3263754    0.2424845 -73.17 0.0009625767    1.693    0.409
       253  -8.7813     60.6533    160.3320   1.1479411313e+02   3.4843553182e+01    0.2881663    0.1712728  72.20 0.0009923851    1.827    0.453
       254  -9.7439    250.1759    157.8849   7.3536019137e+01  -2.8575046858e-02    0.3525771    0.1729271 -33.34 0.0007994346    1.878    0.467
       255  -8.0436    239.5688    164.0488   7.6634869619e+01   9.6647846335e-01    0.3003119    0.2044295 -55.34  0.001471563    2.195    0.544
       256  -8.6456    227.3459    158.9906   7.7706908525e+01   4.0504278154e+00    0.2806222    0.1946379 -49.89 0.0009764269    1.767    0.434
       257  -8.4812    128.3396    159.0241   9.8472821800e+01   2.4143332834e+01    0.3083644     0.217838 -78.70 0.0009193413    1.754    0.430
       258  -9.6064    105.8723    158.2101   1.0365157252e+02   2.8440261463e+01    0.4491811    0.2866611  77.10  0.001202426    2.078    0.519
       259  -8.4549    196.7550    158.1367   8.3327296518e+01   1.0329840272e+01    0.2112492    0.1984026 -66.97 0.0006711021    1.250    0.200
       260  -8.3503    188.4235    157.7431   8.4927541747e+01   1.2131440750e+01    0.2689651    0.1398846 -45.73 0.0007932546    2.057    0.514
       261  -9.1434    167.6132    157.3603   8.9240974819e+01   1.6559312069e+01    0.3350158    0.2605418  87.60  0.001126241    1.758    0.431
       262  -8.3481    217.8862    156.5733   7.8911120950e+01   6.3024520274e+00    0.2759712    0.1725905 -49.94 0.0008620832    1.947    0.486
       263  -8.7910    157.5380    155.9365   9.1159156749e+01   1.8944648281e+01    0.3126288    0.2439941 -65.36 0.0008687915    1.479    0.324
       264  -9.3554    119.5518    155.2693   9.9834019653e+01   2.6631807781e+01    0.4439604    0.2853491 -82.06  0.001546369    2.172    0.540
       265  -9.6215     82.0243    155.0986   1.0890534271e+02   3.3044460849e+01     0.513807    0.2807786  71.71  0.001541865    2.599    0.615
       266  -9.3999     49.9331    155.4902   1.1671390616e+02   3.7291195327e+01     0.436168    0.2093056  65.04  0.001866552    2.539    0.606
       267  -8.8820    243.1091    155.1257   7.4121788506e+01   1.6732617798e+00    0.2103936    0.1841394 -14.80 0.0004126429    1.057    0.054
       268  -9.3576    238.9280    152.1656   7.4188090795e+01   2.9149733866e+00    0.3928245    0.2621977 -64.20  0.001720576    2.776    0.640
       269  -8.2166    204.7016    155.1754   8.1112870355e+01   9.2162227208e+00    0.2204754    0.1741925 -47.97 0.0007100613    1.401    0.286
       270  -8.7036    144.4811    154.8380   9.3890230922e+01   2.1855489069e+01    0.2864221    0.2224292  73.92 0.0007491686    1.511    0.338
       271  -9.6681    132.7893    152.9955   9.6239781136e+01   2.4592005322e+01    0.4607025    0.3237774  76.76  0.001249414    1.864    0.464
       272  -9.2375    133.5144    148.5117   9.5147170773e+01   2.5428870451e+01    0.3276014    0.2753294 -43.59  0.001253272    1.256    0.204
       273  -9.6201     68.0861    153.7886   1.1210715983e+02   3.5363012820e+01    0.4680059    0.2612616  77.73  0.001394023    2.340    0.573
       274  -8.3096    232.6013    153.7919   7.5641339798e+01   3.8682185556e+00    0.2561512    0.1269653 -31.57 0.0006551708    1.956    0.489
       275  -7.9746    151.6190    152.8245   9.1835798621e+01   2.0814872393e+01    0.2102094    0.1405775 -59.43 0.0006143192    1.703    0.413
       276 -10.8123     54.9110    143.2484   1.1385004005e+02   3.9546368777e+01     1.112221    0.5648022 -80.00  0.003469872    2.098    0.523
       277  -9.3317     20.2133    152.5585   1.2334163402e+02   4.1051778357e+01    0.2376532    0.1458524  74.62  0.000906506    1.489    0.328
       278  -9.8841     29.3100    150.7387   1.2104825489e+02   4.0613768357e+01    0.4471562    0.2059358  73.44  0.002019884    2.644    0.622
       279  -9.6043    248.7971    149.5311   7.1959017878e+01   1.4753406987e+00    0.3495013    0.2006475 -32.44 0.0008271986    1.591    0.372
       280  -9.6473    242.6584    150.0798   7.3098014304e+01   2.5348049462e+00    0.3169427    0.2964784 -25.62  0.001703166    1.176    0.150
       281  -9.7348    240.1896    145.2106   7.2436697840e+01   3.7674696688e+00    0.2996733    0.1889853 -32.58 0.0009104662    1.470    0.320
       282  -9.0080    242.6506    143.3073   7.1599455971e+01   3.5940395927e+00    0.3943561    0.1832679 -21.00  0.001483436    2.825    0.646
       283  -8.8669    189.4968    150.4609   8.3104409551e+01   1.3259534823e+01    0.2912678     0.225979 -64.61 0.0007417847    1.646    0.392
       284  -7.8122    182.4819    151.5302   8.4797267555e+01   1.4552107855e+01    0.1473477    0.1424444  73.67 0.0003662532    1.126    0.112
       285  -8.5574    162.4756    150.7720   8.8951791324e+01   1.8962135793e+01    0.2857211    0.2354911  89.17  0.001109831    1.502    0.334
       286  -8.7544     98.3244    150.7514   1.0416269801e+02   3.1437265998e+01    0.2995573    0.2095588  82.15 0.0008432706    1.683    0.406
       287  -8.8423      3.0096    150.2674   1.2702422585e+02   4.2972265309e+01    0.2203385    0.1129486  85.20 0.0009144826    1.656    0.396
       288  -8.3983    213.0347    149.9107   7.8344903846e+01   8.4167542154e+00    0.2161613    0.2035363  -1.65  0.000475874    1.033    0.032
       289  -9.8321     39.8421    148.1047   1.1823173259e+02   4.0141627602e+01    0.5360713    0.2462182  73.15  0.001970676    3.064    0.674
       290  -9.1440     39.4917    141.9835   1.1755841898e+02   4.1604331971e+01    0.4572603    0.2659384 -11.96   0.00179062    4.773    0.790
       291  -8.3722    198.8329    149.0947   8.0912489597e+01   1.1528307087e+01    0.2160837     0.198488 -73.02 0.0005490524    1.300    0.231
       292 -10.1812     89.2604    146.2578   1.0562485906e+02   3.3973245352e+01    0.6883203    0.3699763 -87.90  0.002462672    3.336    0.700
       293  -9.1075    233.4828    147.7036   7.4141796378e+01   4.6726726621e+00    0.2620156    0.2072747 -37.31 0.0006608972    1.269    0.212
       294 -10.4426    106.7240    144.0186   1.0080303158e+02   3.1530552120e+01    0.8306221    0.5095161 -84.98  0.002203358    2.445    0.591
       295  -9.2876     78.1919    147.0555   1.0855368393e+02   3.5494552738e+01    0.3494244    0.2029657  85.84 0.0009051734    2.375    0.579
       296  -8.2936    223.4297    147.0663   7.5783409851e+01   6.7781997751e+00    0.2105042    0.2001294 -88.40 0.0003704049    1.311    0.237
       297 -10.2471    148.9632    144.9274   9.0738600734e+01   2.3033861155e+01    0.6064915    0.4197959 -83.01  0.001572531    2.199    0.545
       298  -9.6569    138.9926    144.9998   9.3097209803e+01   2.5088645204e+01    0.4774648    0.3139178 -74.41  0.001539585    2.143    0.533
       299  -9.1457    139.4360    137.6580   9.1367258679e+01   2.6600616056e+01    0.4456315    0.2911326  -7.75  0.001567866    3.270    0.694
       300  -9.4335     13.3082    146.0923   1.2433296253e+02   4.3103176092e+01    0.3704935    0.1735991  68.86  0.001280774    2.275    0.561
       301  -8.1116    206.9209    146.3367   7.8703934021e+01   1.0315064244e+01    0.2020704    0.1823815  37.22 0.0006150751    1.116    0.104
       302  -8.1241    175.6234    146.1694   8.5051065533e+01   1.7065503756e+01    0.2292756    0.1870155 -61.06 0.0006388254    1.399    0.285
       303  -9.9958    125.1211    142.2676   9.5866352656e+01   2.8476748318e+01    0.7110717    0.4161026 -67.32  0.002640768    2.178    0.541
       304 -11.0235     69.2489    140.8840   1.0981813967e+02   3.8233440571e+01    0.9382122    0.5561494 -78.89  0.004186259    1.784    0.439
       305  -9.6508     69.4527    134.3721   1.0866589556e+02   3.9751652454e+01    0.4075977    0.2333353  21.31  0.001795824    2.634    0.620
       306  -8.9107    247.0061    143.8528   7.1002191602e+01   2.6799175823e+00    0.2329737     0.174758 -27.64 0.0004804029    1.207    0.171
       307  -8.0225    194.1998    144.2027   8.0726718959e+01   1.3417910057e+01    0.2018738    0.1767772 -69.12 0.0005680166    1.370    0.270
       308  -8.8129    165.3555    144.0928   8.6824797270e+01   1.9705130219e+01    0.2821279     0.219071  55.33  0.000650493    1.326    0.246
       309  -9.7590      2.6059    141.5558   1.2642040123e+02   4.4937909980e+01    0.4179705    0.1799316  85.13   0.00209254    2.232    0.552
       310  -8.4830    230.0198    140.3932   7.3096651603e+01   6.5541837172e+00    0.3512562    0.1773268 -46.85  0.001442433    2.268    0.559
       311  -8.3398    181.9283    142.0917   8.2773383883e+01   1.6489778108e+01     0.231407    0.2071563 -83.94 0.0005687209    1.316    0.240
       312  -8.1682    250.3357    140.9436   6.9816440821e+01   2.5019666056e+00      0.19949    0.1538698 -25.53 0.0005516488    1.158    0.136
       313  -8.4132    134.4514    140.0444   9.3105611669e+01   2.7104511456e+01    0.2346358    0.1477969 -50.24  0.001030263    1.597    0.374
       314  -9.8863     23.6554    138.2511   1.2105357307e+02   4.4013776538e+01    0.5000319    0.2231148  66.29  0.001978052    2.810    0.644
       315  -8.7227    172.2423    138.4609   8.4006650632e+01   1.9337959251e+01    0.3187366    0.2182093 -68.85 0.0006361995    2.086    0.521
       316  -7.6410    218.5402    138.5800   7.4733850018e+01   9.2265012213e+00    0.1436458    0.1352933  -7.30 0.0001151826    1.025    0.024
       317  -8.3796    207.3704    137.9840   7.6687540643e+01   1.1708956361e+01     0.247953    0.2096705 -84.64 0.0007386638    1.568    0.362
       318  -8.6849    197.6141    137.5787   7.8498341717e+01   1.3904595922e+01    0.2903763    0.2148542 -54.07 0.0008307311    1.544    0.352
       319  -9.1532     39.0944    136.0847   1.1688909765e+02   4.3029049694e+01    0.2925944    0.1771112 -89.99 0.0008400698    1.635    0.388
       320  -9.4030    250.7474    129.8729   6.7260274107e+01   4.1387461620e+00    0.7602371    0.1479384 -37.56  0.002212502    4.325    0.769
       321  -8.9340    248.4703    135.0799   6.8800627824e+01   3.7649934535e+00    0.3459314     0.183976 -36.84 0.0006959544    1.716    0.417
       322  -8.6991    246.9652    130.4875   6.7997128533e+01   4.7779866823e+00    0.2459217    0.1693951 -39.78 0.0006912636    1.389    0.280
       323  -8.1748    162.6930    136.4090   8.5645355164e+01   2.1863174212e+01    0.2628811    0.1875458 -56.40 0.0007631269    1.546    0.353
       324  -7.7654    187.6574    135.7674   8.0089883348e+01   1.6445385907e+01    0.2118391     0.137191 -48.27 0.0002854081    1.637    0.389
       325 -10.4228     83.4448    132.9170   1.0467549544e+02   3.8037399042e+01    0.6138693     0.316182 -71.09  0.001179123    2.265    0.559
       326  -8.6213     84.1946    123.0789   1.0250717375e+02   4.0255937336e+01     0.384774    0.2556173 -25.49  0.001624018    2.322    0.569
       327  -8.5483    179.6167    134.2124   8.1406715705e+01   1.8542127133e+01    0.2571777    0.2278299 -67.00  0.000736511    1.265    0.210
       328  -9.1964    112.9728    133.4151   9.7023161651e+01   3.2829830942e+01    0.4331607    0.3047667  87.36   0.00140474    1.900    0.474
       329  -8.3568    237.4419    133.7033   7.0291068845e+01   6.1531533666e+00    0.2635357    0.1237539 -39.18 0.0009198748    2.002    0.501
       330  -7.6001    231.4733    134.4227   7.1470996969e+01   7.2459584186e+00    0.1411274    0.1311955 -18.01 0.0001191092    1.048    0.046
       331  -9.2960    143.0963    131.7264   8.9114002252e+01   2.7122515777e+01    0.3914719    0.2560347 -63.66 0.0007436424    1.851    0.460
       332 -10.0128    132.1183    131.2827   9.1696747323e+01   2.9529102171e+01    0.5420824    0.3445943 -72.83  0.001490123    2.255    0.557
       333 -10.4584     98.2549    130.4073   1.0022921734e+02   3.6193789342e+01    0.8700953    0.4144041 -51.18  0.001544022    2.004    0.501
       334  -8.6181     98.8406    121.1428   9.8054735210e+01   3.8264814318e+01     0.473698    0.3036281 -11.32  0.001688484    3.536    0.717
       335  -9.1461    168.4287    129.7055   8.2751782789e+01   2.1960718308e+01    0.3597839    0.2587837 -66.59 0.0006637878    1.780    0.438
       336  -9.9109     73.0357    129.3441   1.0680121135e+02   4.0444321008e+01    0.4665203    0.2944682 -76.22  0.001296911    1.661    0.398
       337 -10.0166     12.6840    128.8290   1.2277361522e+02   4.7087239514e+01    0.5403642     0.238639  88.11  0.002408456    2.415    0.586
       338  -8.0117    220.7333    129.9649   7.2312827780e+01   1.0247423604e+01    0.1903398    0.1222967 -33.21 0.0006794579    1.484    0.326
       339  -8.0025    204.4586    130.2383   7.5404852546e+01   1.3744755802e+01    0.2083646    0.1380707 -47.99  0.000827865    1.607    0.378
       340  -8.0582    192.8226    130.1556   7.7682282911e+01   1.6358711073e+01    0.2256292    0.2031571 -62.88 0.0004808112    1.233    0.189
       341  -9.6239    152.9691    128.2669   8.5934419479e+01   2.5717939253e+01    0.6835461    0.2602094 -45.53  0.001852864    2.639    0.621
       342  -8.6597     25.6680    129.9797   1.1957192179e+02   4.5755534064e+01    0.1997123    0.1386498  -8.07  0.001130547    2.350    0.575
       343  -7.8401      1.6637    130.3168   1.2566992406e+02   4.7527057399e+01    0.1209519   0.06935767  71.02 0.0004173227    1.698    0.411
       344  -8.0063    211.5948    128.8716   7.3722721060e+01   1.2418158896e+01    0.2168487    0.1316468 -47.24 0.0008447402    1.756    0.430
       345  -8.5124    151.2760    135.9435   8.8160945485e+01   2.4454096198e+01    0.2854071    0.1945956  33.59  0.001163043    1.625    0.384
       346 -10.4301     60.1075    125.1788   1.0958689167e+02   4.3190560329e+01    0.7787038    0.4222886  80.74  0.002743482    3.034    0.670
       347 -10.7968     44.8184    123.6642   1.1355391642e+02   4.5357708024e+01     1.096129     0.544243  82.03  0.004241252    3.354    0.702
       348 -10.0779    117.7897    125.0643   9.3895045632e+01   3.3821840589e+01    0.5676373    0.3890401 -79.74  0.001414573    1.979    0.495
       349  -8.8782    228.4023    125.2518   6.9845598139e+01   9.4185478161e+00    0.2151701    0.1256323 -43.69 0.0009515715    1.713    0.416
       350  -8.8615    179.2100    124.8755   7.9209225933e+01   2.0475412936e+01    0.2778133    0.2517741 -88.68 0.0006916177    1.249    0.199
       351 -10.2800     28.5562    122.6420   1.1785174597e+02   4.7214694296e+01    0.6322535    0.3021437  79.03  0.002670248    3.015    0.668
       352  -7.8662    243.6326    124.2291   6.7084521882e+01   6.4363337879e+00    0.1952444    0.1234191 -24.93 0.0004483271    1.536    0.349
       353  -7.7119    188.5650    124.4496   7.7145748855e+01   1.8412259106e+01    0.1514917    0.1485186 -25.21 0.0002254072    1.021    0.021
       354  -8.9439    158.5696    121.6324   8.2981107444e+01   2.5860437025e+01    0.3496868    0.2555138 -69.18 0.0009558872    1.740    0.425
       355  -7.7749    202.7749    122.0375   7.3722417458e+01   1.5621072751e+01    0.1989644    0.1217362 -37.47 0.0008537573    1.584    0.369
       356  -7.9407    195.0162    122.0357   7.5239686389e+01   1.7391621777e+01    0.2439392    0.1836588 -67.85 0.0005604859    1.724    0.420
       357  -8.4837    171.9398    121.5615   7.9949138074e+01   2.2809748384e+01    0.2856119    0.2111461 -56.71 0.0005333677    1.500    0.333
       358 -10.1535    131.1341    118.7653   8.8927893578e+01   3.2523103462e+01    0.5632955    0.3840152  86.73  0.001509214    2.343    0.573
       359  -9.7774     71.0416    119.3030   1.0541944189e+02   4.3124033878e+01    0.4835758    0.2730936 -65.36  0.001581346    1.680    0.405
       360 -10.1749    141.6972    118.1351   8.6121829233e+01   3.0383622638e+01     0.660398    0.3607967 -53.26  0.001835256    1.970    0.492
       361  -9.3755      3.0677    117.7011   1.2407976974e+02   5.0297626983e+01    0.4036919    0.1850668  68.19  0.001915597    2.631    0.620
       362  -7.5670    231.5408    117.5516   6.7471065269e+01   1.0043298277e+01    0.1448619    0.1330185 -37.82 0.0001149269    1.082    0.076
       363 -10.3386    109.3173    112.6831   9.3175459753e+01   3.8300334562e+01      1.03183    0.3943439 -54.12  0.002311701    2.727    0.633
       364  -8.4375    193.0221    115.3877   7.3954745121e+01   1.9103873266e+01    0.2893816    0.2034245 -51.86 0.0005918739    1.535    0.349
       365  -8.1748    185.8224    116.1049   7.5598068954e+01   2.0652041750e+01    0.2346312    0.2068791 -61.22 0.0004663748    1.223    0.182
       366  -8.9697     59.6022    115.2105   1.0789091274e+02   4.5634044781e+01    0.3196085     0.212956 -11.16  0.001477179    2.587    0.613
       367  -9.1600    249.1731    114.5571   6.3966058210e+01   6.8588359661e+00    0.4232634    0.2384112 -57.02  0.001754301    2.567    0.610
       368 -10.1074     78.9930    112.5059   1.0170641926e+02   4.3569833103e+01    0.5998935    0.3769559  89.94  0.001880628    2.430    0.589
       369  -8.9755     78.5012    105.0530   1.0014537329e+02   4.5398576800e+01    0.3116735    0.2495084  -8.37  0.001130673    1.644    0.392
       370  -7.8564    167.4700    114.5115   7.9123695362e+01   2.5272528353e+01     0.156234    0.1533474 -67.35 0.0004717427    1.032    0.031
       371 -10.3592     92.9364    111.1469   9.7382731829e+01   4.1629323067e+01    0.9763359    0.4024136 -52.55  0.002776043    2.253    0.556
       372 -10.4659    133.6588    109.7877   8.5970463032e+01   3.3959115045e+01     0.694388    0.3429341 -50.38  0.001977764    2.078    0.519
       373  -9.9886    121.9428    112.5326   8.9735824680e+01   3.5829635145e+01    0.5148717    0.3152889 -53.01  0.001234226    1.636    0.389
       374  -9.8304    118.9093    107.1080   8.9135489628e+01   3.7664402068e+01    0.4629441    0.3598814 -32.88  0.002228775    1.384    0.277
       375 -10.8340    109.5925     99.2901   8.9603173371e+01   4.1274257483e+01     1.325958    0.6586105  64.53  0.002471201    4.778    0.791
       376  -9.3409    108.4249     92.2837   8.7974006023e+01   4.3047373551e+01    0.5006653    0.3277636  23.51  0.002131494    2.051    0.513
       377 -10.0893     14.0243    111.3285   1.2035065109e+02   5.1026404585e+01    0.4059329    0.2197007  74.32  0.001379961    2.185    0.542
       378  -8.5716    174.7981    111.7852   7.6798601388e+01   2.4093200721e+01    0.3137117     0.207146 -51.51 0.0007327478    1.622    0.384
       379 -10.2245     66.3888    110.1384   1.0488200420e+02   4.5949436535e+01    0.5532161    0.3047096 -62.69  0.002159403    1.667    0.400
       380  -9.2555    211.4319    109.9712   6.9078115098e+01   1.5818779573e+01    0.2640638    0.2198557  51.94 0.0001206699    1.261    0.207
       381  -9.5669    248.9547    108.0362   6.2464721816e+01   7.9350565159e+00    0.3962636     0.291459 -17.03  0.001585138    1.403    0.287
       382 -10.6626    249.0244    102.1905   6.1068366740e+01   8.8437859184e+00    0.4948081     0.317814 -30.80   0.00246021    1.413    0.292
       383  -8.1593    189.0428    107.8567   7.2793923659e+01   2.1463679575e+01    0.2881281    0.1893145 -50.53 0.0008701573    1.621    0.383
       384  -9.2862    139.7398    104.7247   8.3065877226e+01   3.3705419033e+01    0.3539367    0.2812581 -82.20 0.0008929792    1.577    0.366
       385 -10.6171     45.6432    102.4525   1.0956841252e+02   5.0295892800e+01    0.7497739    0.4150059  76.04   0.00308778    3.138    0.681
       386  -9.4579     45.4110     92.8581   1.0766381714e+02   5.2562305192e+01    0.4494493     0.253749   6.58  0.002023685    2.958    0.662
       387 -10.6518     22.9235    102.9014   1.1655889294e+02   5.2311536096e+01    0.7105529    0.3816895  72.64  0.002710425    2.588    0.614
       388  -8.6941    166.8766    104.3544   7.6541406086e+01   2.7454440727e+01    0.3009304    0.2136701 -57.23 0.0007277703    1.585    0.369
       389  -9.4790    150.5205    103.0854   7.9970889598e+01   3.1580308162e+01    0.4495381     0.286386 -59.69  0.001078743    1.923    0.480
       390  -8.4136    239.4907    103.4885   6.2797223417e+01   1.0654039880e+01    0.1441738    0.1308616 -30.21 0.0001441593    1.005    0.005
       391  -9.7445      6.9659    101.6063   1.2110111222e+02   5.3731304273e+01    0.6065297     0.180781 -66.93  0.002721932    2.339    0.573
       392  -8.6141    159.1489    111.7324   8.0281948682e+01   2.7782971831e+01    0.2739192    0.2091573 -53.06 0.0006162386    1.362    0.266
       393  -9.3524     82.2380    100.2138   9.7848387413e+01   4.5940336332e+01    0.3709584    0.2403708 -74.02 0.0008871387    1.953    0.488
       394  -8.2860    159.8107    101.1456   7.7253995282e+01   2.9785036600e+01    0.2408192    0.2088471 -60.99 0.0004437933    1.219    0.180
       395 -10.2447     64.1364     96.4397   1.0250582102e+02   4.9471372839e+01    0.6276062    0.3995532 -85.57  0.001916807    2.280    0.561
       396 -10.1957    128.4723    102.1570   8.5251582561e+01   3.6743088696e+01    0.4206981    0.2912579 -57.74 0.0009945616    1.564    0.361
       397  -9.3993     94.9408     96.9719   9.3207797676e+01   4.4538724074e+01    0.3876698     0.237196 -56.85 0.0007044383    1.639    0.390
       398  -8.1558    164.7221     94.1418   7.4174338622e+01   2.9987056505e+01    0.2541211    0.1884515 -54.05 0.0004810678    1.440    0.305
       399 -10.8025    124.2551     90.3893   8.3020104716e+01   4.0169408850e+01    0.8978376    0.5969235 -22.89  0.001756548    1.925    0.481
       400  -7.8008    188.5082     93.5358   6.9041260086e+01   2.4258881706e+01    0.1569925    0.1492911 -62.78 9.708282e-05    1.066    0.062
       401  -8.1852    176.1497     93.0929   7.1415259187e+01   2.7385391996e+01    0.2562333    0.1883795 -70.66  0.001000816    1.744    0.427
       402  -9.3074    138.8911     92.3316   7.9773943823e+01   3.6492708453e+01    0.3574751     0.284297 -76.53 0.0006197306    1.562    0.360
       403  -9.3791      5.2719     92.2152   1.2032135191e+02   5.5969168223e+01    0.3433291    0.1781901  56.42  0.001467917    2.493    0.599
       404  -8.9788    157.3720     88.1547   7.4102183232e+01   3.2940988432e+01    0.3502719    0.1542372 -40.57  0.001094063    2.224    0.550
       405  -9.6921     34.7446     89.8845   1.1050543386e+02   5.4316505311e+01    0.5098867    0.2547097 -80.24  0.001863023    2.672    0.626
       406  -9.0714     23.0987     90.3776   1.1438711398e+02   5.5193328566e+01     0.290289    0.2319205 -19.52  0.001222462    1.529    0.346
       407  -7.6217    182.7319    109.3854   7.4485737148e+01   2.2676809249e+01    0.1629654    0.1204343 -66.78 0.0006988231    1.701    0.412
       408  -7.9677    150.8481     89.3355   7.5969341191e+01   3.4286731908e+01    0.2215058    0.1927905 -53.64 0.0004160007    1.175    0.149
       409 -10.3229     86.7648     85.2271   9.2429414605e+01   4.8579309320e+01    0.8353519    0.4943498 -39.88  0.001548736    1.652    0.395
       410  -9.2192     65.9275     87.2178   9.9641796230e+01   5.1344089654e+01    0.5710702    0.2755766  16.62  0.001975968    4.209    0.762
       411  -7.6767    163.7186     87.3163   7.2429809354e+01   3.1546352441e+01     0.159406     0.123389 -70.99 0.0002516116    1.578    0.366
       412  -9.8158     48.5212     84.3258   1.0468598467e+02   5.4179286981e+01    0.5085745    0.3214553  81.66  0.001898325    2.675    0.626
       413  -9.8121    104.9218     83.4132   8.6379558074e+01   4.5642741264e+01    0.4425552    0.3259459 -76.47  0.001066812    1.901    0.474
       414  -8.8837    105.1752     77.1483   8.4368766093e+01   4.6897441106e+01    0.3238671    0.2287755   9.17  0.001060212    2.007    0.502
       415  -8.3521    157.9065     84.1507   7.2797257869e+01   3.3578394304e+01    0.2384661    0.2111613 -68.25 0.0004516327    1.221    0.181
       416  -9.0854    140.8150     82.8439   7.6459943845e+01   3.7950405526e+01    0.3095579    0.2125094 -51.53 0.0006632464    1.549    0.354
       417  -7.9029    185.3048     82.6281   6.6612822425e+01   2.7022144786e+01    0.1673895    0.1183611 -66.41 0.0007032204    1.759    0.431
       418  -7.9983     35.3029     82.3402   1.0870873717e+02   5.5988955071e+01    0.1353332   0.08064001 -39.24  0.000299957    1.674    0.403
       419  -9.6761     24.6251     80.4720   1.1196370662e+02   5.7329295005e+01    0.4244848    0.2471195 -88.42  0.001387685    2.288    0.563
       420  -9.4958      9.9171     81.1556   1.1708462213e+02   5.8192939725e+01    0.2911994    0.1775644  65.99  0.001425765    2.185    0.542
       421  -8.4612    150.1000     80.5150   7.3504838247e+01   3.6177129177e+01    0.3077797    0.2085367 -52.82 0.0007478264    1.614    0.380
       422  -8.9539    119.5123     80.6454   8.1365827684e+01   4.3208414477e+01    0.3192383    0.2341801 -74.90 0.0008227404    1.923    0.480
       423  -9.0101     74.5202     80.2580   9.4918828051e+01   5.1645810422e+01    0.3432145     0.230816 -69.72  0.001030589    1.886    0.470
       424  -9.1981     42.9305    109.4929   1.1170661788e+02   4.8922853370e+01    0.2612374    0.1386832  17.41  0.001212381    2.761    0.638
       425  -8.2950    166.7516     79.7450   6.9539230485e+01   3.2203502561e+01    0.2681445    0.1903987 -32.46 0.0005603689    1.430    0.301
       426  -8.1289    184.0000     78.0728   6.5560243634e+01   2.8152272630e+01     0.256451   0.08764434 -34.70 0.0006807503    2.884    0.653
       427  -7.7136    174.7176     78.3286   6.7463428324e+01   3.0454025968e+01    0.1608779    0.1202184 -67.12 0.0002406058    1.605    0.377
       428  -9.9853     63.5946     74.0447   9.6790183670e+01   5.4584289939e+01    0.6817814    0.2853086 -62.14  0.002386401    3.404    0.706
       429  -8.8030     64.7150     63.4810   9.3147891694e+01   5.6652977222e+01    0.4755108    0.2713934 -16.45  0.001922101    2.939    0.660
       430  -9.3795    128.0188     75.4811   7.7439866556e+01   4.2349245882e+01    0.3730549    0.2499185 -55.98 0.0006569762    1.736    0.424
       431  -8.1927    163.5238     73.3245   6.8294730393e+01   3.4171159364e+01    0.2863446    0.1461673 -40.89   0.00098885    1.932    0.482
       432  -9.9436     82.3305     71.6017   8.9731032683e+01   5.2241363682e+01     0.793271     0.327503 -45.57  0.001817921    2.217    0.549
       433  -7.7609    151.4521     73.5104   7.1029429723e+01   3.7150280206e+01    0.1556225     0.151323 -65.46  0.000198418    1.050    0.048
       434  -8.5246    115.6843     73.3226   8.0109126798e+01   4.5493018569e+01    0.2377689    0.2040455 -53.73 0.0007439395    1.225    0.184
       435  -9.1754    114.4937     70.0112   7.9362214491e+01   4.6391992696e+01    0.2681608    0.2215306  48.56 0.0003338088    1.261    0.207
       436  -9.2354    105.9401     71.6846   8.2387681812e+01   4.7845813916e+01    0.4273644     0.199094 -45.48   0.00131902    2.110    0.526
       437  -8.4302     42.5081     72.5391   1.0380597725e+02   5.7465735927e+01     0.232466    0.1167572 -67.65  0.001027465    2.309    0.567
       438  -7.8508    175.4865     72.5382   6.5597570765e+01   3.1274677535e+01    0.1536472    0.1521668  22.79 3.937932e-05    1.041    0.039
       439  -9.4183     94.9853     71.0385   8.5502771789e+01   5.0109351748e+01    0.4075925    0.2347602 -54.30  0.001122998    1.961    0.490
       440  -9.6446     51.4467     69.7366   9.9821187021e+01   5.7074200455e+01      0.46154    0.2288853 -65.64  0.001281915    2.602    0.616
       441  -9.1909     29.7817     70.1692   1.0782019144e+02   5.9199869476e+01    0.4691934    0.2204448 -21.17   0.00184469    3.960    0.747
       442  -9.0016     16.6711     70.0764   1.1258519300e+02   6.0226194359e+01    0.2635645    0.1745703 -81.35 0.0008895206    1.640    0.390
       443  -8.7407    147.0866     68.3926   7.0423986952e+01   3.9147446832e+01     0.288254    0.2192855 -45.97 0.0005583768    1.343    0.255
       444  -9.0507    138.6998     66.2079   7.1719987718e+01   4.1576761083e+01    0.3488383    0.2194896 -54.89  0.001027785    1.919    0.479
       445  -8.9607    121.5005     65.9025   7.6051368462e+01   4.5632774948e+01    0.2774481    0.2304741 -67.51 0.0007146413    1.450    0.310
       446  -9.0612    110.1117     63.8074   7.8530370253e+01   4.8499849548e+01    0.3674814    0.2227796 -47.85 0.0009146684    1.741    0.425
       447  -8.9787     37.3180     64.4571   1.0353229911e+02   5.9744263506e+01    0.2536678    0.1994058 -81.03 0.0008590113    1.574    0.365
       448  -8.8021    140.4098     75.3848   7.4247741643e+01   3.9481986309e+01    0.2643239    0.2389198 -70.59 0.0006821959    1.212    0.175
       449  -7.6570    187.5189     63.4902   6.0676659634e+01   2.9698319948e+01    0.1538636    0.1455837 -69.04 0.0008099725    1.041    0.039
       450  -8.3029    158.2354     61.9554   6.5882287524e+01   3.7469115319e+01    0.2127109    0.1969056 -39.65 0.0003102182    1.086    0.079
       451  -9.6439     97.6092     60.1550   8.1005207954e+01   5.1724506858e+01    0.4502397    0.2940159 -25.64  0.001674068    1.643    0.391
       452  -9.6425     73.3710     59.5886   8.8794426650e+01   5.6131036046e+01    0.3935881    0.2285912 -54.48  0.001215235    1.925    0.480
       453  -8.5767     73.5212     52.9878   8.6411639615e+01   5.7374091775e+01      0.43497    0.2642146  -4.91  0.001821962    2.695    0.629
       454  -8.1969     89.0345     59.7207   8.3569204692e+01   5.3429686266e+01    0.1922717    0.1807203  -0.35  0.000456106    1.059    0.056
       455  -8.3048    146.8266     59.3342   6.7543159785e+01   4.0775108238e+01    0.2126946    0.1879712 -48.79 0.0004496881    1.170    0.146
       456  -9.9012     23.3874     56.5230   1.0674067684e+02   6.2653878638e+01    0.4325959    0.2725763 -89.61  0.002171627    2.709    0.631
       457  -8.6514    130.7527     57.8591   7.0897054999e+01   4.4928772580e+01    0.2734585    0.1979004 -52.49 0.0006424629    1.560    0.359
       458  -9.5035      7.4363     57.2906   1.1324541770e+02   6.3553947374e+01    0.2799275     0.189349  87.56  0.001062642    1.924    0.480
       459  -9.3910    119.0329     55.3903   7.3098969426e+01   4.8057211657e+01     0.479233    0.2188431 -44.29  0.001409468    2.331    0.571
       460  -9.5150     54.3114     55.6187   9.4375033588e+01   5.9652748040e+01    0.3490296    0.2158908 -60.02  0.001183832    1.892    0.471
       461  -7.5761    193.6945     56.3419   5.7552725593e+01   2.9226659390e+01    0.1612841    0.1102629 -64.10 0.0003556418    1.684    0.406
       462  -8.2949    139.8783     56.1542   6.8091547645e+01   4.3017231767e+01    0.2364029    0.2043574 -65.66 0.0006227494    1.310    0.237
       463  -8.7703     43.9381     54.9206   9.8135151929e+01   6.1038288246e+01    0.3796177    0.1700952 -58.58  0.001502371    2.442    0.590
       464  -8.5093    105.6900     53.1537   7.6060714233e+01   5.1345766359e+01    0.2319868    0.2053317  61.68 0.0006120956    1.300    0.231
       465  -9.5598     92.4701     50.8397   7.9253746087e+01   5.4406934248e+01    0.4167468    0.2401473 -48.96  0.001242531    1.971    0.493
       466  -8.3977    145.1180     49.1904   6.4535135282e+01   4.2827846872e+01    0.2081708     0.175906 -62.86 0.0005071309    1.331    0.249
       467  -8.2917    129.8272     49.1030   6.8078953972e+01   4.6584807004e+01    0.2235976    0.2039548 -62.86 0.0004684195    1.228    0.186
       468  -8.6968    120.8726     47.5877   6.9812457756e+01   4.8923196663e+01    0.2369484    0.1950256 -14.96 0.0004814749    1.248    0.199
       469  -8.6164    112.3770     47.1818   7.1955047953e+01   5.0903095702e+01    0.2601908    0.2052763 -58.94 0.0006344697    1.573    0.364
       470  -9.0409     82.2179     46.5900   8.1013246284e+01   5.7048890301e+01    0.2588961     0.218114 -68.47 0.0006458712    1.636    0.389
       471  -8.3472     45.0889     44.8493   9.4238307013e+01   6.2882435918e+01    0.1781008    0.1612596 -50.58 0.0004809583    1.283    0.221
       472  -8.8127     16.6411     44.6918   1.0615746463e+02   6.5582434199e+01    0.2159294    0.1529545 -59.67 0.0005597837    1.312    0.238
       473  -8.9368    132.9368     43.5460   6.5354485453e+01   4.6686542894e+01    0.2804326      0.19574 -48.45 0.0007323162    1.602    0.376
       474  -8.6163     92.9462     42.9114   7.6082568413e+01   5.5652026816e+01    0.3061022    0.1797349 -18.09  0.001121718    2.043    0.510
       475  -8.9992     58.0705     42.7103   8.8279777472e+01   6.1598964660e+01     0.331101    0.1719763 -52.33  0.001061417    2.251    0.556
       476  -9.3698     69.7578     41.3644   8.3353770648e+01   6.0068335635e+01    0.4709684    0.2423921 -49.87   0.00174533    2.326    0.570
       477  -9.4329      5.1732     41.9469   1.1034910485e+02   6.6845834128e+01    0.3190683    0.1767393 -74.09  0.001471536    2.126    0.530
       478  -8.9481    105.9745     41.3282   7.1551841956e+01   5.3218381212e+01      0.29329    0.1876167 -41.05 0.0007506639    1.634    0.388
       479  -8.0955    140.3523     41.2784   6.2860840501e+01   4.5192096300e+01    0.2065421    0.1321275 -39.66 0.0007578312    1.616    0.381
       480  -8.5414     36.8057     40.9305   9.6256071176e+01   6.4546829338e+01    0.2105992    0.1591139 -59.26 0.0006201035    1.540    0.351
       481  -9.0009     95.3447     37.8467   7.3338967248e+01   5.5970135463e+01    0.2527325    0.2001078 -52.10 0.0008491582    1.547    0.354
       482  -8.2671     80.8382     37.0081   7.7688801666e+01   5.8886381628e+01    0.2074656    0.1471116 -54.70 0.0006282075    1.911    0.477
       483  -9.5661     26.1629     35.5584   9.8944122257e+01   6.6592464380e+01     0.290462    0.2013436 -62.52 0.0009093804    1.742    0.426
       484  -7.8007    133.4407     36.2301   6.2610367873e+01   4.7606438898e+01    0.2008107    0.1337952 -40.98 0.0007537729    1.590    0.371
       485  -8.2440    126.0054     35.6899   6.4147125632e+01   4.9480011462e+01    0.2017034    0.1803601  46.83 0.0003654599    1.084    0.078
       486  -8.5990    111.9533     34.5412   6.7269826336e+01   5.2899902922e+01     0.263742    0.1879074 -46.24 0.0006670794    1.608    0.378
       487  -7.7830     88.5134     34.5092   7.4130313707e+01   5.7828991934e+01    0.1364906    0.1246234  -2.68 -1.023544e-05    1.052    0.049
       488  -8.8497     48.4660     33.4552   8.8446724456e+01   6.4522878485e+01    0.2248867    0.2004898 -40.63  0.000668758    1.307    0.235
       489  -8.7901    119.0054     32.5532   6.4679700541e+01   5.1558107784e+01    0.3370578    0.1671629 -38.86  0.001145479    2.117    0.528
       490  -8.7415     60.6908     32.6225   8.3186627588e+01   6.2943348413e+01    0.2345594    0.1856153 -39.36 0.0005602932    1.315    0.239
       491  -7.7292    139.4532     31.9263   5.9749154381e+01   4.6688493013e+01    0.2035582    0.1105277 -51.30 0.0008052002    2.356    0.576
       492  -8.5742     72.1924     31.1115   7.8245465119e+01   6.1326216354e+01    0.2093831    0.1780646  82.82 0.0006379845    1.914    0.477
       493  -9.0522     12.8837     30.1550   1.0313764997e+02   6.8659586240e+01    0.3130324    0.1519599 -60.98  0.001454647    2.199    0.545
       494  -8.4282    101.6716     29.5306   6.8109705400e+01   5.5846240176e+01    0.2226942    0.1624253 -49.07 0.0006177312    1.681    0.405
       495  -9.0713     81.6050     27.5625   7.3462494565e+01   6.0157249617e+01    0.3120442    0.2002671 -48.27 0.0008613788    2.016    0.504
       496  -8.9959      3.5157     27.8665   1.0686057678e+02   6.9673961122e+01    0.1855021    0.1655771 -76.18 0.0009785614    1.493    0.330
       497  -8.8570     91.7717     26.4199   6.9733158732e+01   5.8328503838e+01    0.2914088    0.1801582 -37.74 0.0008581037    1.705    0.413
       498  -8.0910     35.1194     23.7061   9.0112506430e+01   6.7773013692e+01    0.1716673    0.1374611  83.57 0.0009545306    2.836    0.647
       499  -8.6657    104.0646     22.7186   6.4650189823e+01   5.6201278617e+01    0.1965914    0.1652683  34.45 0.0004550269    1.097    0.089
       500  -8.8898     63.6307     21.2767   7.7040496023e+01   6.4195451440e+01     0.260785    0.1930782 -42.66  0.000904121    1.599    0.374
       501  -8.9540     48.3499     21.7115   8.3377713272e+01   6.6432949109e+01    0.2316994    0.1908881 -31.50 0.0006826439    1.261    0.207
       502  -8.2998     19.5077     21.5162   9.6591626343e+01   6.9692226907e+01    0.1680338    0.1499857 -66.03   0.00061357    1.645    0.392
       503  -7.8900    120.5425     21.0249   5.9854692812e+01   5.2629793036e+01    0.1939563    0.1057131 -48.87 0.0008070589    2.409    0.585
       504  -8.8688     74.0219     19.5087   7.2458813403e+01   6.2643940303e+01    0.2363006    0.1663575 -39.16 0.0006835467    1.596    0.373
       505  -8.2208     87.9425     17.9583   6.7232731293e+01   6.0173039179e+01    0.1876755    0.1586831 -54.11 0.0005201279    1.578    0.366
       506  -8.8439    218.6699    247.1075   9.5329759042e+01  -6.6514213929e+00    0.3409183    0.1282181 -32.38  0.001675904    3.224    0.690
       507  -7.9876    112.9863     16.9579   6.0019264969e+01   5.4852794866e+01    0.1641374    0.1490014  19.26 0.0003389039    1.040    0.038
       508  -8.0967     29.9904     16.0441   8.9029844434e+01   6.9564303104e+01     0.156693    0.1427288 -54.99 0.0006585499    1.669    0.401
       509  -8.0618     97.1217     15.1331   6.3335739109e+01   5.8588104401e+01    0.1773506    0.1499198 -35.89  0.000441766    1.345    0.257
       510  -8.0900      7.4091     15.2762   1.0016016070e+02   7.1695631788e+01     0.146932   0.09155484 -54.57 0.0009366606    1.643    0.391
       511  -9.5721    176.2495    245.8526   1.0257999545e+02   1.4755000924e-01    0.4895305    0.3149686 -26.10  0.002011867    2.145    0.534
       512  -8.6500    156.3188    248.5145   1.0648249983e+02   2.9835744425e+00    0.2449914    0.1539091  61.94 0.0008722189    1.887    0.470
       513  -8.9113    132.2933    248.0550   1.1071964354e+02   6.8646291989e+00    0.2419212    0.1625603  65.73 0.0007005412    1.568    0.362
       514  -8.4305    113.1571    248.2919   1.1414246883e+02   9.7817545886e+00    0.2260444    0.1374695 -79.65  0.001174775    2.136    0.532
       515  -9.3835    103.8024    246.8286   1.1564948471e+02   1.1418975863e+01    0.3774623    0.1997575 -84.53  0.001830798    2.773    0.639
       516  -9.1036    242.7859    246.8878   9.1245167029e+01  -1.0148155979e+01     0.310111    0.1612367 -23.40  0.001390908    2.094    0.522
       517  -9.1191    232.6225    246.9594   9.2945440947e+01  -8.7005024652e+00    0.2840036     0.172223 -23.89  0.001410032    1.817    0.450
       518  -9.9807    224.0376    244.3897   9.4004116279e+01  -7.1512426906e+00     0.419184    0.2219779 -44.46  0.002329823    2.803    0.643
       519  -9.3876    211.4699    245.5796   9.6341085683e+01  -5.3799187918e+00    0.3924128    0.2292442 -17.17  0.002277002    2.209    0.547
       520  -9.0337    147.1499    246.2498   1.0784998124e+02   4.7766303782e+00    0.2650734    0.1886064  82.44  0.001621383    1.977    0.494
       521  -9.1341    119.9307    245.1360   1.1261358095e+02   9.2424314005e+00    0.3211253    0.1882166  74.11  0.001451729    2.269    0.559
