#   1 NUMBER                 Running object number                                     
#   2 MAG_AUTO               Kron-like elliptical aperture magnitude                    [mag]
#   3 X_IMAGE                Object position along x                                    [pixel]
#   4 Y_IMAGE                Object position along y                                    [pixel]
#   5 X_WORLD                Barycenter position along world x axis                     [deg]
#   6 Y_WORLD                Barycenter position along world y axis                     [deg]
#   7 A_WORLD                Profile RMS along major axis (world units)                 [deg]
#   8 B_WORLD                Profile RMS along minor axis (world units)                 [deg]
#   9 THETA_WORLD            Position angle (CCW/world-x)                               [deg]
#  10 FWHM_WORLD             FWHM assuming a gaussian core                              [deg]
#  11 ELONGATION             A_IMAGE/B_IMAGE                                           
#  12 ELLIPTICITY            1 - B_IMAGE/A_IMAGE                                       
         1  -9.8435    231.5503      2.6847   5.5528632056e+01   2.7926733983e+01    0.2756826    0.1588435 -83.16 0.0007431405    1.521    0.343
         2 -12.1499    229.2133     33.8182   6.2177658113e+01   2.4727615494e+01    0.8446935    0.5760875 -49.39   0.00491601    1.365    0.267
         3 -11.7871    236.4370      7.6729   5.6127289495e+01   2.6320084813e+01    0.7890134    0.5928457  34.27  0.004793264    2.266    0.559
         4 -11.2088    219.6787     15.8575   5.9282460897e+01   2.9101952850e+01    0.5332361     0.412755  65.63  0.003393312    1.339    0.253
         5 -12.1928    225.0418     22.0949   6.0094396880e+01   2.7151766170e+01    0.8767463    0.5277447  67.43  0.004022457    1.548    0.354
         6 -11.7098    248.7157     32.0586   5.9910009931e+01   2.0704852448e+01    0.7976106    0.3952533 -45.81  0.004210731    1.761    0.432
         7 -11.2897    244.3597     22.4523   5.8389184587e+01   2.2865505991e+01    0.4354687    0.3427945 -89.66  0.001737772    1.125    0.111
         8 -11.6953    239.3987     18.1170   5.7954755847e+01   2.4463975800e+01    0.5690665    0.3879276 -89.25  0.003495706    1.249    0.199
         9 -10.5901    249.7970     18.7777   5.7215922750e+01   2.2168850662e+01     0.489131    0.1769295 -40.04  0.002111757    2.477    0.596
        10 -12.1090    247.9450      8.9070   5.5474716184e+01   2.3731062954e+01    0.8484105    0.5523833 -24.94  0.005010732    2.239    0.553
        11 -10.9285     67.7301     11.6126   8.5551583635e+01   6.3148068054e+01    0.3144157    0.1851822  -7.34  0.001808163    1.831    0.454
        12 -10.0730    214.2954     10.3428   5.8610049526e+01   3.0944144576e+01    0.1865094    0.1618149  87.17 0.0007215681    1.148    0.129
        13 -10.5906    213.3376      7.3003   5.8043294934e+01   3.1489866697e+01    0.2588363     0.188283  35.27  0.001511535    2.088    0.521
        14 -10.5516    155.2243      7.6461   6.4899052562e+01   4.5074885204e+01    0.3665648    0.1272026 -36.64  0.001553959    3.025    0.669
        15  -9.3816    206.4977      7.0319   5.8636338329e+01   3.3082934728e+01    0.1704108    0.1181535 -39.30 0.0007581095    1.573    0.364
        16 -10.2253    223.6124      5.9576   5.6842436056e+01   2.9321649441e+01    0.3514741    0.1746976  81.07  0.001077787    1.777    0.437
        17  -8.8366    220.4633      2.5476   5.6406182607e+01   3.0384596618e+01    0.1435325    0.1193272 -24.32 0.0006503083    1.650    0.394
        18  -9.5480    102.5004      6.5350   7.4161852294e+01   5.6989998665e+01    0.1234941    0.1018977  41.63  0.000169301    1.003    0.003
        19 -10.6006     63.6721      2.2643   8.2960328029e+01   6.4688727436e+01     0.219412    0.1828714  21.92 0.0008448772    1.105    0.095
        20  -9.5819    201.8037     11.7931   6.0182746835e+01   3.3666675800e+01    0.1790522    0.1252897 -76.00 0.0006869175    1.315    0.239
        21 -10.6149    229.3741    222.8651   1.0277033404e+02  -7.7593526082e+00    0.5046743    0.3002622 -56.08  0.002352122    2.842    0.648
        22  -8.9717    193.0299    250.4854   1.1436982266e+02  -6.1407931981e+00    0.1972034    0.1072202  37.16 0.0008549195    1.577    0.366
        23  -9.4551    199.6799    228.7464   1.0950025215e+02  -3.8122207746e+00    0.2363715    0.1620547 -66.31  0.001026738    2.464    0.594
        24  -8.8689    174.6359    229.2113   1.1458651206e+02   4.6275650237e-01    0.1786611    0.1251961 -34.34 0.0009201707    1.634    0.388
        25  -9.3938    248.1552    227.6244   1.0022442164e+02  -1.1308541390e+01     0.193922    0.1515201 -32.10  0.000655133    1.344    0.256
        26  -9.1846    190.6230    227.2342   1.1103300891e+02  -2.0015078527e+00    0.1770651    0.1224357 -29.40 0.0004664098    1.617    0.382
        27  -9.7360     98.9947    225.8842   1.2977591978e+02   1.4300786076e+01    0.2586578    0.1558412  81.14  0.001225121    2.078    0.519
        28  -8.9623    218.6481    225.1659   1.0520123990e+02  -6.3958848876e+00    0.1828174    0.1115575 -26.53 0.0009433812    1.751    0.429
        29 -10.2657    207.0023    225.1981   1.0744742055e+02  -4.4697137348e+00    0.2534315    0.1718763  31.11  0.001388173    1.361    0.266
        30  -9.3291    155.5853    224.7112   1.1777534040e+02   4.6975110099e+00    0.2491104    0.1312049 -44.17  0.001130301    2.159    0.537
        31 -10.6152    238.9194    220.6095   1.0060599174e+02  -8.9021437053e+00      0.30525    0.2787029 -25.98  0.001210948    1.273    0.214
        32 -10.1527    194.0402    219.7470   1.0904077504e+02  -1.3107521755e+00    0.3623352    0.2839672  49.57  0.002046688    1.355    0.262
        33  -9.7411    205.1425    219.7174   1.0683181528e+02  -3.2430335167e+00    0.3270163    0.2193414  -5.67  0.001623436    1.943    0.485
        34  -9.9217    247.2392    216.7329   9.8398569271e+01  -9.5804822777e+00    0.3640731    0.1294707 -37.37  0.001553161    2.682    0.627
        35  -9.4859      8.4481    217.2831   1.4668294707e+02   2.8085945639e+01    0.2225101    0.0840982 -72.18   0.00115203    2.154    0.536
        36 -11.5025    216.4528    215.2635   1.0381927373e+02  -4.4293291555e+00    0.6252606    0.3157873  41.87  0.002941509    1.944    0.486
        37  -9.0911    109.4610    216.4921   1.2631706999e+02   1.4542080347e+01    0.1398442      0.11998  68.75 9.154913e-05    1.036    0.035
        38 -10.2382    231.3488    212.4514   1.0048170804e+02  -6.4379617585e+00    0.4518599     0.347224 -66.63  0.002442475    2.151    0.535
        39 -10.9659    186.4100    213.6636   1.0949717864e+02   1.1437594595e+00    0.3962714     0.271675 -49.68   0.00149762    1.629    0.386
        40 -10.1891     63.3634    214.2856   1.3577308685e+02   2.2205545850e+01     0.303357    0.1591791 -48.06   0.00140717    2.619    0.618
        41  -9.4533    132.4954    214.0472   1.2098507717e+02   1.1005281643e+01    0.1986046    0.1388601 -57.19 0.0004942913    1.534    0.348
        42  -9.4112    125.4458    212.0265   1.2219978932e+02   1.2698695611e+01    0.2034294    0.1373559 -59.19  0.001020376    1.572    0.364
        43  -9.2814    179.9817    216.4543   1.1131597137e+02   1.8041366411e+00    0.2186943    0.1264683  39.98  0.001030849    1.597    0.374
        44 -10.3690    206.7588    209.0447   1.0454901257e+02  -1.6917288830e+00    0.3730613    0.2524326  62.70  0.001768329    2.228    0.551
        45  -9.0175    167.7572    209.9781   1.1272574809e+02   5.2930224786e+00     0.178566    0.1208523 -46.73 0.0008789171    1.586    0.370
        46  -9.5160    248.3015    208.5489   9.6678437946e+01  -8.4953058185e+00    0.3122737    0.1696916  17.07  0.001433253    2.484    0.597
        47  -9.4837    201.7433    209.5693   1.0564283591e+02  -8.9117225681e-01    0.1873243    0.1255009  48.32 0.0006921502    1.584    0.369
        48  -9.3429    171.5852    207.7886   1.1152327134e+02   5.0005952209e+00    0.1889836    0.1371446 -60.94 0.0007070845    1.646    0.392
        49 -10.2892    124.0058    206.0027   1.2157012439e+02   1.4248954520e+01    0.2050022    0.1824373  64.61  0.001167147    1.026    0.025
        50  -9.8929    236.2243    204.3244   9.8041852272e+01  -5.9171643197e+00    0.2359029     0.230415   7.24  0.001553408    1.257    0.204
        51 -10.3634    198.2006    202.6523   1.0504886664e+02   1.0015889260e+00    0.3615974    0.2310071 -55.17  0.001412316    1.936    0.483
        52 -11.0845    193.4808    203.0119   1.0607704604e+02   1.8079614448e+00     0.373672    0.2769866  82.42  0.001542483    2.248    0.555
        53 -12.2342    196.6031    193.4752   1.0359279441e+02   3.0181379883e+00    0.6043486    0.5575882 -48.80  0.003495512    1.172    0.147
        54  -9.5073    179.1700    203.4679   1.0913065624e+02   4.4073888020e+00    0.2375048    0.1961531  -6.94  0.001100195    1.395    0.283
        55 -10.7797    218.3168    201.9110   1.0093509290e+02  -2.4835299611e+00    0.3311591    0.2537209  46.61  0.001448559    1.430    0.300
        56  -9.0302    172.6979    203.7007   1.1054203259e+02   5.5902454300e+00    0.1412111    0.1110299   2.44  0.000422634    1.584    0.369
        57 -10.6560    164.5910    201.1827   1.1181686618e+02   7.6429771576e+00    0.3519597    0.3004255 -63.10  0.001358024    1.293    0.226
        58  -9.1962    160.3058    202.0031   1.1289495081e+02   8.2977522165e+00      0.19896    0.1837713 -43.44 0.0005365357    1.152    0.132
        59  -9.4604    249.6981    201.4433   9.5077797521e+01  -7.6002162797e+00    0.2173517    0.1430044 -43.46 0.0009167844    1.606    0.378
        60  -9.1716    206.4827    202.5535   1.0337087962e+02  -4.9162043508e-01    0.1375113    0.1265866   8.81 0.0001146702    1.007    0.007
        61  -9.7101    240.7135    199.9301   9.6380051215e+01  -5.9305707305e+00    0.2995904     0.212441  -8.17  0.001650619    1.504    0.335
        62 -10.6579    231.2681    195.9872   9.7334360610e+01  -3.7026155798e+00    0.5196025     0.237331 -44.79  0.001653919    2.276    0.561
        63 -10.5932    210.1521    196.9630   1.0156073580e+02  -1.4948026151e-01    0.3623505    0.2844195  83.09  0.001821454    2.036    0.509
        64  -9.9300    204.1787    197.7540   1.0290074504e+02   8.0034541014e-01    0.3368973    0.2576014  18.99  0.001399428    1.382    0.277
        65 -11.3285    184.9088    196.2193   1.0654978814e+02   4.7226295504e+00    0.3726412    0.2938971 -29.53  0.001487053    1.350    0.259
        66 -10.0778    176.3949    197.0109   1.0850128111e+02   6.2067552844e+00    0.3370869    0.2274236 -54.12  0.001583057    1.648    0.393
        67  -9.4606    149.7065    198.0338   1.1450401918e+02   1.1158730283e+01    0.2049878    0.1924884 -57.97 0.0007816079    1.119    0.107
        68 -10.7697    248.4965    194.3624   9.3914978917e+01  -6.2763056349e+00    0.3931875    0.3246874  50.42  0.001678178    1.537    0.349
        69  -8.4999    156.3580    196.2911   1.1271442925e+02   1.0241918843e+01    0.1475291    0.1158082   5.25 0.0007028165    1.689    0.408
        70 -11.1345    237.7659    190.4524   9.5051613472e+01  -3.8637354168e+00     0.630116    0.3032633 -45.12  0.002646484    2.145    0.534
        71  -9.1814    162.3229    193.6481   1.1090725592e+02   9.6325993439e+00    0.1520281    0.1155333  81.66 0.0007047903    1.753    0.430
        72  -9.9335    224.1570    191.9068   9.7857416277e+01  -1.7609810411e+00    0.5401703    0.2450454 -47.67  0.002221786    2.459    0.593
        73 -10.5215    211.4181    177.2004   9.7315840378e+01   3.2881935193e+00    0.2748441    0.2126672 -72.69 0.0009647575    1.810    0.448
        74 -10.5130    231.1651    185.7076   9.5306221368e+01  -1.9059633574e+00    0.5586735    0.4308377 -72.68  0.002871709    2.026    0.506
        75 -10.5765    219.4699    178.8495   9.6099832827e+01   1.4526088863e+00    0.4750732    0.2590974  60.49  0.001834547    3.041    0.671
        76 -10.6979    225.0542    184.8358   9.6267181075e+01  -6.6348790827e-01    0.3963358    0.2933466 -44.22  0.001302375    1.370    0.270
        77 -10.4148    226.5211    179.6652   9.4937157098e+01   2.8572346756e-03    0.5477757    0.3615862  40.18  0.002780067    1.577    0.366
        78  -9.0524    214.7818    191.8121   9.9636265982e+01  -5.9640656198e-02    0.1775974    0.1679618  83.85 0.0004667644    1.315    0.240
        79  -9.3362    129.4792    192.5117   1.1808222954e+02   1.6214310521e+01    0.1470788    0.1368048  69.68 1.415928e-05    1.001    0.001
        80  -9.1150    210.5490    189.7455   1.0005129344e+02   1.0975687473e+00    0.1909347    0.1322616 -51.54 0.0008892836    1.624    0.384
        81  -9.7262    157.1312    187.3070   1.1084672315e+02   1.1998603593e+01     0.255369    0.2070703 -35.03 0.0009011198    1.356    0.263
        82  -9.7373    249.7783    185.3280   9.1909830727e+01  -4.9973057624e+00    0.3513361    0.2159606 -51.97  0.001741832    2.008    0.502
        83  -9.6079    166.0000    185.9582   1.0861281399e+02   1.0519552379e+01    0.2409782   0.08506249 -47.50 0.0006602475    2.919    0.657
        84 -10.0852    209.8809    183.9912   9.9018474378e+01   2.2958835739e+00    0.3492398    0.1978716 -40.28  0.001583305    1.731    0.422
        85  -9.9827    188.1007    203.9050   1.0735129576e+02   2.6431517267e+00    0.2133102    0.1945666  69.33 0.0007181596    1.274    0.215
        86  -9.2702    218.0199    183.9981   9.7434326132e+01   7.7232101980e-01     0.214274    0.1749939 -76.33 0.0008141052    1.733    0.423
        87 -10.0988    198.1313    182.4467   1.0106223075e+02   4.8523383443e+00    0.2875023    0.2418702 -33.36 0.0008825155    1.180    0.152
        88 -10.7182    203.5988    184.6914   1.0041262029e+02   3.3599385139e+00    0.4350664    0.1934504 -40.35  0.001724015    2.248    0.555
        89  -9.0953     15.5457    183.4979   1.4265615160e+02   3.4807971129e+01    0.1239996   0.09321258  88.62 6.194378e-05    1.040    0.039
        90 -10.3974    242.1954    180.8934   9.2343115777e+01  -2.9804577325e+00    0.3716624    0.2157697 -45.75  0.001736565    1.748    0.428
        91  -9.6816    245.5149    178.4959   9.1276314521e+01  -3.1333419039e+00    0.2793333    0.2071667  57.33  0.001212078    1.782    0.439
        92 -10.0784    236.0858    181.2720   9.3510420319e+01  -1.9903135871e+00    0.3354552    0.2136998 -45.89  0.001518182    1.600    0.375
        93 -10.6111    233.4553    174.6909   9.2637692562e+01  -3.5625686923e-01    0.4067868    0.2426534 -41.01  0.001412618    1.570    0.363
        94  -9.0381    184.4822    182.4795   1.0391213990e+02   7.5432944101e+00    0.1461294    0.1414221  10.91 0.0008100292    1.014    0.014
        95 -10.4669    193.2659    165.9625   9.8593425369e+01   9.1292363445e+00     0.400738    0.2993764 -37.93  0.001412988    1.330    0.248
        96 -10.6324    193.7317    173.0346   1.0000870369e+02   7.5971924826e+00    0.6097586    0.2091848 -39.43  0.001986992    3.109    0.678
        97  -9.5747    250.5016    178.9799   9.0515014622e+01  -4.0520133469e+00    0.2075613    0.1176953 -38.73  0.001029767    1.589    0.371
        98 -10.2956    158.4011    178.0919   1.0874243261e+02   1.3740838239e+01    0.4841058    0.2988126 -16.29  0.001678225    3.333    0.700
        99  -9.0022     64.6853    179.6667   1.3120627464e+02   3.0004273307e+01    0.1331677    0.1019098 -39.66 0.0007046313    1.686    0.407
       100 -10.2654    197.5614    176.7533   1.0000066848e+02   6.0854738495e+00    0.3221627    0.2009283 -49.06  0.001150719    1.669    0.401
       101  -9.9709    225.2479    172.8671   9.3766411284e+01   1.4802800786e+00    0.4331318    0.2608278 -34.93  0.001545657    1.596    0.373
       102 -10.6743    222.7633    168.0422   9.3215883153e+01   2.8466255879e+00    0.3247834    0.1525623 -46.73  0.001212102    2.149    0.535
       103 -10.2589    199.9502    171.7481   9.8459368461e+01   6.6025663625e+00    0.3080103    0.2254039   9.17  0.001427793    1.800    0.445
       104 -10.1911    237.5803    170.0432   9.0935595609e+01  -2.6542389638e-01    0.3057555    0.2107464 -33.76 0.0009377862    1.336    0.251
       105 -11.3486    212.5052    169.4462   9.5472102279e+01   4.5630069520e+00    0.4591189    0.2823197 -40.67  0.001504872    1.561    0.360
       106 -11.4811    213.0931    163.8070   9.4151105142e+01   5.5379630842e+00      0.46011     0.360233   7.19  0.002314864    1.550    0.355
       107 -10.1861    169.8174    168.9708   1.0428732090e+02   1.3373392358e+01      0.35435     0.217952 -46.41 0.0009674276    1.635    0.388
       108 -10.1227    147.3977    168.2807   1.0927110686e+02   1.8174330727e+01    0.3104066    0.2552298  53.12 0.0005559881    1.209    0.173
       109  -9.7933    249.4957    167.8240   8.8417008403e+01  -1.9707049716e+00    0.2429081    0.1844762  70.87  0.001285715    1.982    0.495
       110  -9.6158    183.6558    171.1398   1.0172909152e+02   1.0042618226e+01    0.2185232    0.1362723 -34.64 0.0007301313    1.740    0.425
       111 -10.0326    184.4025    165.2620   1.0030847113e+02   1.1114800629e+01    0.2790819    0.1946794 -53.63  0.001280245    1.514    0.339
       112  -9.8695    233.8316    164.2057   9.0380717614e+01   1.4751882842e+00    0.3482162    0.2024866 -56.79  0.001502885    2.258    0.557
       113  -9.3754    240.5881    163.2205   8.8984808644e+01   4.1555812058e-01    0.2020005    0.1204836 -29.33 0.0009136921    1.694    0.410
       114 -10.0500    138.4988    162.9982   1.1028523375e+02   2.1202735355e+01    0.2405435    0.1509323 -50.02 0.0007514152    1.592    0.372
       115 -10.9586    246.1955    158.6391   8.7068205269e+01   2.2438824564e-01    0.5998478    0.2561999  43.30  0.002509504    2.613    0.617
       116  -9.7241    183.8776    157.6385   9.8747059100e+01   1.2829407554e+01    0.3932075    0.1618008 -50.16   0.00134447    2.611    0.617
       117  -9.5349     46.8034    161.9613   1.3304002082e+02   3.6569106058e+01    0.2012108    0.1599146 -58.73 0.0005060282    1.232    0.189
       118 -10.6796    230.3532    141.1921   8.6031412755e+01   6.4289284371e+00    0.4449934    0.2504712 -40.93  0.001127844    1.621    0.383
       119 -11.0408    221.6862    153.3565   9.0256034903e+01   5.8449980283e+00      0.54084    0.3916699  57.56  0.001889629    1.601    0.375
       120 -10.3206    229.8343    147.6805   8.7544289911e+01   5.3097590643e+00    0.3971493     0.276554 -52.70  0.001169423    1.476    0.323
       121  -9.5966    234.6863    147.9658   8.6758588203e+01   4.3103076658e+00    0.3383976    0.2638514 -50.44  0.001817253    1.259    0.206
       122  -9.8202    233.1548    152.5661   8.8018825159e+01   3.7503398334e+00    0.3968534    0.2813974 -22.44  0.001481007    1.549    0.355
       123 -10.3135    226.4258    157.1297   9.0206418588e+01   4.1952083114e+00    0.4131788    0.2958896   8.23  0.001574322    1.928    0.481
       124  -9.9015    229.1464    152.8373   8.8787664320e+01   4.4743884560e+00    0.3213872    0.2733162 -52.10   0.00101602    1.191    0.160
       125  -9.8682    157.0009    154.8826   1.0413888724e+02   1.9193459913e+01     0.675867    0.1587235 -41.91  0.001606897    5.237    0.809
       126 -10.3805    250.2671    151.7063   8.4942598456e+01   7.2599634581e-01    0.9608004    0.3877921 -54.46  0.003071191    4.248    0.765
       127 -10.6461    243.2343    153.0005   8.6378827721e+01   1.7739910207e+00    0.3348716    0.2838802 -29.97  0.001302451    1.079    0.073
       128 -11.5779    244.0221    148.9930   8.5396306538e+01   2.3528555747e+00    0.6279544    0.4010732 -39.66  0.002328452    1.394    0.283
       129 -10.1924    206.5283    152.8954   9.3040579178e+01   9.0236221168e+00    0.2780608    0.2299608   0.91   0.00080329    1.443    0.307
       130 -11.8424    206.7221    146.6531   9.1603887574e+01   1.0231753875e+01    0.6350354    0.4348102 -15.81  0.002741089    2.018    0.504
       131  -9.4778     35.5058    150.8658   1.3431526905e+02   4.0494763771e+01    0.2008003    0.1096485 -68.65 0.0008386524    1.532    0.347
       132  -8.8087    182.2604    150.3692   9.7458526904e+01   1.4718519559e+01    0.1558797    0.1215931 -11.57 0.0004809303    1.648    0.393
       133 -10.2104    186.8873    143.2240   9.4833005012e+01   1.5218422305e+01    0.5821837    0.1749566 -38.86  0.001644037    3.740    0.733
       134 -10.5098    191.7689    147.7013   9.4844734896e+01   1.3217473535e+01    0.4214765     0.259511 -58.31  0.001743985    1.914    0.478
       135 -10.5476    223.9417    146.7715   8.8397872543e+01   6.6548753370e+00    0.3656724    0.3536838 -14.83  0.001221154    1.066    0.062
       136 -10.4413    217.0342    147.7747   8.9889275023e+01   7.8641667399e+00    0.4243207    0.2680751  33.26  0.001899232    1.902    0.474
       137  -9.4716    111.6940    146.9587   1.1359291055e+02   3.0278029469e+01    0.2226032    0.1945977 -62.75  0.001147856    1.099    0.090
       138  -9.6894     16.9065    147.1154   1.3850035665e+02   4.3130164524e+01    0.1918915     0.144049  84.61 0.0008188842    1.254    0.203
       139  -9.6618    176.6718    145.4927   9.7550651951e+01   1.6984487702e+01     0.278732    0.1424633 -44.52 0.0009118603    1.923    0.480
       140  -9.8639    155.6906    142.0107   1.0150289484e+02   2.2371605178e+01    0.2317777    0.2098921 -48.90  0.001169501    1.095    0.087
       141 -10.0369      9.3384    142.0952   1.3978162849e+02   4.4902921066e+01    0.1796625    0.1607227 -46.08 0.0005815043    1.321    0.243
       142  -9.9306    250.2560    140.3482   8.2548794894e+01   2.7521201439e+00      0.30163    0.2079305 -42.48 0.0009534508    1.274    0.215
       143 -11.4110    242.0862    133.0704   8.2290897221e+01   5.6200798205e+00    0.8535006    0.6247721   1.07  0.004030483    2.025    0.506
       144 -10.5616    249.2557    134.6323   8.1489897723e+01   3.9627825268e+00     0.460153    0.2406295 -40.42  0.001693165    1.676    0.403
       145  -9.8425    248.3191    130.6474   8.0783109984e+01   4.8561380432e+00    0.2735769    0.1918758 -70.74   0.00101224    1.860    0.462
       146 -10.7939    224.9982    138.5218   8.6379143500e+01   8.0179786056e+00    0.4387975    0.2978516 -24.31  0.001702297    1.709    0.415
       147 -10.6320    219.1033    138.8465   8.7510171707e+01   9.1724918837e+00    0.3586509    0.2813865  75.97  0.001266516    1.582    0.368
       148 -11.1622    196.5408    147.9038   9.3912341015e+01   1.2146912881e+01    0.8109752    0.2616375 -48.59  0.002458643    3.361    0.703
       149 -10.3033    233.6079    133.2614   8.3726695241e+01   7.2638994196e+00    0.6297607    0.2461259 -35.15  0.002266001    2.686    0.628
       150  -9.2878     53.0519    135.9353   1.2728446402e+02   4.2121181578e+01      0.20829    0.1496789 -36.56  0.000563101    1.586    0.369
       151  -9.4636    169.7987    134.8034   9.6550134538e+01   2.0826110407e+01    0.2289281    0.2140888   1.78 0.0006857472    1.195    0.163
       152 -10.3018    221.4492    129.4692   8.4968748019e+01   1.0489640615e+01    0.3755791    0.2772922 -80.54  0.001604742    1.796    0.443
       153  -9.8749     62.0472    129.7414   1.2359504783e+02   4.2472400215e+01    0.1851185    0.1744671 -62.33 0.0002963968    1.072    0.067
       154  -9.2785     86.2296    128.9943   1.1657213951e+02   3.9084494595e+01     0.194391    0.1148292 -55.16 0.0003599409    1.572    0.364
       155 -10.2397    206.6257    126.8630   8.7067173544e+01   1.4201907366e+01    0.3204094    0.2927688 -41.03  0.001065877    1.067    0.063
       156 -10.4169    212.0202    124.8655   8.5601156215e+01   1.3408710228e+01    0.4562173     0.344974 -10.13  0.002131205    1.808    0.447
       157  -9.4624    193.1159    127.8783   8.9934576991e+01   1.7014622513e+01    0.2415564    0.2082642 -84.05 0.0007337544    1.280    0.219
       158 -10.5848    229.2352    125.4136   8.2713152025e+01   9.6273027730e+00     0.590248    0.3590085 -31.02   0.00266783    1.764    0.433
       159  -9.4232    113.9743    126.9750   1.0843625290e+02   3.4580458876e+01    0.2345253    0.2234086 -69.54 0.0005314173    1.024    0.023
       160 -10.8095    241.5471    124.8235   8.0580516773e+01   7.2310490736e+00    0.4087855    0.3207543  81.72  0.001879348    1.564    0.361
       161 -10.5912    200.1316    125.7261   8.8038369771e+01   1.5872845614e+01    0.3251219    0.2965045  42.22  0.001728242    1.175    0.149
       162  -8.8531    177.2421    124.0263   9.2295861517e+01   2.1431277044e+01    0.2088139    0.1303463 -42.89  0.000873714    1.572    0.364
       163  -9.3506    161.0934    124.3355   9.5962506184e+01   2.5066298830e+01    0.2202811    0.2016627  59.88 0.0005165112    1.102    0.093
       164  -9.3999    136.4694    124.5053   1.0195061974e+02   3.0511251787e+01    0.1559037    0.1525944 -61.48 0.0002507305    1.020    0.020
       165  -9.3405    188.8701    122.5116   8.9498092813e+01   1.9075754326e+01    0.3228842    0.2085408 -24.90  0.001320059    2.011    0.503
       166  -9.9284    221.8081    120.9947   8.2972580773e+01   1.2030947672e+01     0.321151    0.2988771  41.85  0.001070814    1.195    0.163
       167 -10.5648    203.6592    120.8281   8.6200998744e+01   1.6055916403e+01    0.3134378    0.2096038  39.24  0.001364639    1.725    0.420
       168 -11.5694    211.7132    116.7638   8.3761082571e+01   1.5047481082e+01    0.7076284    0.4809581   9.10  0.002786783    2.813    0.645
       169 -10.2912    218.3707    115.4481   8.2285166369e+01   1.3828858420e+01    0.4461729    0.1749029  51.96  0.001631892    2.704    0.630
       170  -9.1656    114.9656    120.9445   1.0669009241e+02   3.5778749050e+01    0.2431129    0.1884033  88.00 0.0006238162    1.660    0.397
       171 -10.2752    227.2951     73.8388   7.1283336159e+01   1.9231189318e+01    0.5536399    0.3790861  37.64  0.002678644    2.085    0.520
       172 -11.5991    229.0715     94.1000   7.5641111026e+01   1.5387081779e+01     0.877452    0.4625777  52.43  0.002543299    2.054    0.513
       173  -9.7762    249.6543     71.1013   6.7832508524e+01   1.4815671348e+01    0.2343377    0.1908146  61.85 0.0008517336    1.393    0.282
       174 -10.4214    250.1241     65.2597   6.6551943783e+01   1.5632608537e+01    0.5059227    0.2364021 -48.98  0.002022038    1.853    0.460
       175 -10.7789    241.5302    104.7967   7.6188204972e+01   1.0838786255e+01    0.5513994    0.3786901 -50.68  0.002433743    1.305    0.234
       176 -11.2189    236.2656     99.8984   7.5877236579e+01   1.2809649287e+01     0.691914    0.4734255 -32.75  0.003484177    1.537    0.349
       177 -10.9577    242.0515     68.6457   6.8222063107e+01   1.6817613981e+01    0.5947521    0.4258106 -17.90  0.003037294    2.107    0.525
       178 -10.6514    236.7813     89.7418   7.3539695809e+01   1.4470338217e+01    0.4670671    0.2970096 -60.62  0.001600444    1.590    0.371
       179 -10.3048    231.6410     82.9090   7.2732451727e+01   1.6753920848e+01    0.4974042    0.2671203 -56.73  0.002207062    1.915    0.478
       180 -10.3573    237.9538     84.2052   7.2149689383e+01   1.5159616209e+01    0.5361219    0.2747422 -63.11  0.002198726    2.452    0.592
       181 -10.6799    243.0569     92.3727   7.3246903519e+01   1.2686664933e+01    0.4259449    0.3143077 -45.15  0.001495098    1.217    0.178
       182 -12.2278    247.5765    109.2393   7.6278521233e+01   8.8220149535e+00     1.426091    0.5690023 -32.98  0.005226519    2.924    0.658
       183 -11.0105    246.6052     98.3533   7.4058535902e+01   1.0921285847e+01    0.5316136     0.380542  73.88  0.002516057    1.580    0.367
       184 -12.1773    245.5096     81.5040   7.0561395497e+01   1.4001289775e+01     1.219322    0.5257722 -52.23  0.005098243    2.242    0.554
       185 -11.2178    236.0350     74.2208   7.0198398776e+01   1.7229628809e+01    0.9258183    0.4092236 -52.00  0.003884692    2.190    0.543
       186 -11.1299    230.3121    116.1014   8.0439136396e+01   1.1137261239e+01    0.4983391    0.3819866  66.42  0.001791192    1.452    0.311
       187 -10.0095    235.1532    114.8846   7.9392709122e+01   1.0346792083e+01    0.4186931    0.2285735 -55.25  0.001599335    1.957    0.489
       188  -9.2344    203.5128    115.4976   8.4955953456e+01   1.7135795605e+01    0.2584591    0.1448295 -30.93 0.0008378579    2.087    0.521
       189  -9.4955    169.9905    116.5029   9.1992647787e+01   2.4681760325e+01    0.2333123    0.1548717  49.84 0.0005041366    1.526    0.345
       190  -8.6532    163.2967    115.6455   9.3265833448e+01   2.6414606964e+01    0.1642456    0.1229652 -78.38 0.0007034279    1.694    0.410
       191  -9.0151     51.9889    113.2904   1.2318983191e+02   4.7614203497e+01    0.1828495    0.1629047 -49.31 0.0004955576    1.045    0.043
       192  -9.0880    104.4320    111.8036   1.0728740816e+02   3.9887719363e+01    0.2030471    0.1379694 -38.64 0.0004443121    1.501    0.334
       193  -9.0504     15.0247    111.9989   1.3404976067e+02   5.1413188454e+01    0.1491716    0.1195661 -61.81 0.0004752887    1.011    0.011
       194 -10.9862    231.7796    109.2227   7.8653273815e+01   1.2089239166e+01     0.458269    0.2885767 -54.18  0.002137079    1.551    0.355
       195  -9.7104    236.2542    107.9748   7.7680749781e+01   1.1370328834e+01    0.3081926    0.1918522 -56.76  0.001091294    1.629    0.386
       196  -9.8376    183.3451    107.9394   8.7008844990e+01   2.3297734490e+01    0.2269886    0.1946819 -43.91 0.0007463327    1.152    0.132
       197 -10.6587    214.9663    108.0007   8.1129199482e+01   1.5988063595e+01    0.4334867    0.2564037  63.14  0.001897327    1.906    0.475
       198 -10.9965    221.7217    101.3011   7.8440461443e+01   1.5719909877e+01    0.4261515    0.2470147 -57.28  0.001858235    1.849    0.459
       199  -9.7378    160.8656     99.1895   8.9511683536e+01   3.0353225265e+01    0.2114238    0.1893829   8.87 0.0006134281    1.318    0.241
       200  -9.8530    130.1798     97.9040   9.6543646178e+01   3.7630235307e+01    0.2302236    0.2077008 -77.41 0.0005355699    1.209    0.173
       201  -8.9777    177.3076     92.6297   8.4293750679e+01   2.7699801421e+01    0.1637512    0.1158123 -73.55 0.0007034348    1.762    0.432
       202 -10.1431    216.9129     89.6228   7.6474559324e+01   1.8899778016e+01    0.3788257    0.3407925 -61.04  0.002147233    1.032    0.031
       203 -10.0324    226.2411     86.3766   7.4296953419e+01   1.7359791353e+01    0.3561459    0.2301417 -40.21  0.001184623    1.480    0.324
       204 -10.0308    175.9558     87.1875   8.3133910402e+01   2.9037130743e+01     0.242583    0.2007277 -81.11 0.0008479405    1.301    0.231
       205  -9.1518    198.3554     85.8128   7.8620416140e+01   2.3905869454e+01    0.2083554    0.1393282 -29.45 0.0008554743    1.730    0.422
       206  -9.2845    175.6024     77.2358   8.0561266826e+01   3.0900499440e+01    0.2037987    0.1457208 -26.93 0.0009466382    1.638    0.390
       207  -9.5647    212.4796     75.5010   7.3810439918e+01   2.2353111366e+01    0.1426282    0.1311354 -75.02 3.329398e-05    1.046    0.044
       208  -9.3247    216.5062     74.5047   7.2972316088e+01   2.1583332394e+01    0.1425313    0.1285254 -73.44 0.0008105212    1.025    0.024
       209  -8.9030    134.3608     73.8138   8.8551044609e+01   4.1298570380e+01    0.2045384     0.139504 -25.00 0.0009269979    1.701    0.412
       210  -9.1468    222.0000     70.9451   7.1354227875e+01   2.0903532277e+01    0.2307937   0.07515699 -37.90  0.000662086    2.957    0.662
       211 -10.2014    227.0155     67.5424   6.9892813129e+01   2.0310565864e+01    0.3681048    0.2110802 -40.95  0.001343733    1.657    0.396
       212 -10.6502    223.6682     65.3185   6.9833621744e+01   2.1422689694e+01    0.3169142    0.2246698 -35.90   0.00167034    1.499    0.333
       213  -9.0182    221.0581     61.0819   6.9211238572e+01   2.2681984235e+01    0.2666669     0.166988 -60.23 0.0009199175    1.572    0.364
       214  -9.5491    238.7821     64.7665   6.7781270265e+01   1.8135049003e+01    0.2511673    0.2055537 -28.53  0.001454236    1.498    0.332
       215  -9.7679    238.5840     60.1964   6.6815588109e+01   1.8883346650e+01    0.2516583     0.224114 -35.13 0.0008158786    1.351    0.260
       216  -9.5513    235.0112     59.9942   6.7198985495e+01   1.9699950408e+01    0.2158871    0.1767161 -70.64 0.0008504068    1.051    0.048
       217  -8.4762    153.2850     66.3344   8.2049113165e+01   3.8139331542e+01    0.1460028    0.1146425  18.21 0.0007012832    1.622    0.384
       218 -10.2913    135.6846     61.3815   8.4503615826e+01   4.3075873714e+01    0.4677398    0.2278835 -58.48  0.001532774    3.866    0.741
       219 -10.2593    206.6344     60.8114   7.1153410973e+01   2.6096779049e+01    0.3690057     0.227834 -44.25  0.001673378    1.564    0.360
       220  -8.6905    173.6654     58.7041   7.5941331627e+01   3.4403637959e+01    0.1446703    0.1094731  31.96 0.0006325064    1.646    0.392
       221 -10.2453    250.2769     55.0240   6.4410610726e+01   1.7152148444e+01    0.2824153    0.1620926 -42.94 0.0009444145    1.580    0.367
       222 -11.0234    237.0000     53.5853   6.5574251412e+01   2.0224636991e+01    0.6104336    0.3333576  73.17  0.003019882    1.862    0.463
       223 -10.8623    228.6651     51.8194   6.6163568816e+01   2.2342830984e+01    0.4318909    0.3909281  87.49   0.00223796    1.155    0.134
       224  -9.3320    207.5426     53.8832   6.9359258842e+01   2.6931568415e+01     0.198561    0.1298153 -42.03 0.0005061265    1.516    0.340
       225 -10.5088    236.6412     30.3599   6.0699822162e+01   2.3531378870e+01    0.3627721    0.2926698 -54.02  0.001551654    1.214    0.177
       226  -9.0216    234.2793    248.3825   1.0632139937e+02  -1.2181175531e+01    0.1641577     0.100471  41.08 0.0009472361    1.691    0.409
       227  -9.5310    176.8796    248.1983   1.1714377665e+02  -3.1239558315e+00    0.2742186    0.1533109  48.15  0.001395419    1.726    0.421
       228  -9.2060    187.0333    247.4609   1.1505381898e+02  -4.6957941967e+00    0.1904243    0.1091416  38.87 0.0004296953    1.503    0.335
       229 -10.5791    238.6145     38.2206   6.2139384503e+01   2.2052883745e+01    0.3118432    0.2468616  88.74  0.001654381    1.133    0.118
       230 -10.7450    241.6259     34.1205   6.0992022427e+01   2.1949466337e+01    0.3858685    0.2320478 -50.53  0.001917759    1.464    0.317
       231 -10.9242    244.2715     51.2863   6.4278152707e+01   1.8980029277e+01    0.4874533    0.2866632 -75.14  0.002099336    1.810    0.448
       232  -9.6909    113.1596    245.9481   1.2940309954e+02   8.0055486442e+00    0.2666438    0.1706115 -52.38  0.001477567    1.857    0.461
       233 -10.1558    249.6959     46.3198   6.2687788806e+01   1.8539551969e+01    0.6816401    0.1945405 -40.90  0.002699025    2.939    0.660
       234 -11.2472    244.2252     42.1735   6.2390387129e+01   2.0290342372e+01    0.4380948     0.298426 -45.69   0.00163595    1.377    0.274
       235  -9.1096    152.1361    245.8800   1.2167893271e+02   1.4585105949e+00    0.1757307    0.1494285  15.97  0.001080171    1.335    0.251
       236  -9.3941    191.7629    245.4193   1.1381527189e+02  -5.1575022935e+00     0.189866    0.1061709  30.01 0.0009569548    1.701    0.412
       237  -9.8615    224.8462    243.2911   1.0719050122e+02  -1.0085095922e+01    0.3168718    0.2600031  70.34  0.001907632    2.116    0.527
       238  -9.7444    203.3689    242.3269   1.1107684200e+02  -6.5766581796e+00    0.2972347    0.1551714  35.38  0.001504639    1.698    0.411
       239 -10.3034    201.1957     53.2127   7.0094976052e+01   2.8543285072e+01    0.2024532    0.1503525 -73.72 0.0007607751    1.346    0.257
       240  -8.9251     96.8686     51.8385   9.1585086018e+01   5.2838248068e+01    0.1724591    0.1648389  88.71   0.00105835    1.307    0.235
       241  -9.5566    199.5069     47.0296   6.8822820640e+01   2.9841331928e+01    0.2044158    0.1333394 -38.01 0.0007780674    1.599    0.375
       242  -9.9553    237.6140     45.8936   6.3860774387e+01   2.1204807962e+01    0.2875393    0.2004547  57.58  0.001630632    1.611    0.379
       243 -10.5726    233.1974     44.0034   6.3938561517e+01   2.2448950047e+01    0.3544848    0.2545591  42.95  0.001941667    1.955    0.489
       244 -10.2219    215.9809     41.2904   6.5320310075e+01   2.6746619193e+01    0.3340641    0.2250217  36.30   0.00149506    2.273    0.560
       245  -9.5363    189.6885     42.3111   6.9053119954e+01   3.2861701107e+01    0.2562721    0.1765349   0.94  0.001042313    2.535    0.606
       246 -10.1777    200.5134     39.7730   6.6921488910e+01   3.0599995250e+01    0.3140351    0.2351442 -19.72   0.00169918    1.776    0.437
       247  -9.8119    209.1820     39.1576   6.5661288334e+01   2.8626855114e+01    0.2233562    0.1974157 -82.20 0.0006287591    1.058    0.055
       248  -8.9310    173.4044     39.7348   7.0873494776e+01   3.7162154458e+01    0.1720253    0.1371356 -15.72 0.0009357362    1.583    0.368
       249  -9.9096    185.6135     38.5403   6.8689647314e+01   3.4351584040e+01    0.3127898    0.1561163 -43.79  0.001421806    2.025    0.506
       250  -8.8457     61.3745     39.1488   9.8528478780e+01   6.0818966729e+01    0.1666415    0.1083853 -41.89 0.0006446133    1.697    0.411
       251  -8.8956     67.4915     34.9524   9.4825328561e+01   6.0461378611e+01    0.1546779    0.1053272 -54.65 0.0008068932    2.387    0.581
       252 -10.1543    215.6651     31.9850   6.3247634093e+01   2.8056829494e+01    0.2947455    0.2257939 -32.18  0.001724048    1.546    0.353
       253  -9.2939    240.1412    240.6990   1.0395858629e+02  -1.1981981913e+01    0.1772052    0.1436822  41.79  0.001094792    1.516    0.340
       254  -8.9736    208.5852     31.5013   6.3955084154e+01   2.9769092772e+01    0.1317377    0.1124203 -84.22 9.623796e-05    1.021    0.020
       255 -10.0321    201.0219     28.6030   6.4184004155e+01   3.1915837391e+01     0.489739    0.2780584  -4.56   0.00181325    4.596    0.782
       256  -9.2077    150.9306     28.4813   7.1517075935e+01   4.3965936762e+01    0.2137795    0.1201077  63.46  0.001031768    1.592    0.372
       257  -9.9940    142.0215     24.4732   7.1938972457e+01   4.6516010623e+01    0.2876884    0.1419596 -47.65  0.001280658    2.484    0.597
       258  -9.5542    215.6676    241.0513   1.0852592130e+02  -8.3462162599e+00    0.2141432    0.1729816  50.63  0.001330973    1.532    0.347
       259 -10.1733    199.7374     15.4381   6.1244643449e+01   3.3753721628e+01     0.247562     0.164887 -70.99 0.0007795427    1.455    0.313
       260  -9.0675    186.9554     16.5414   6.2993232291e+01   3.6654809248e+01    0.1933902    0.1109637  70.79 0.0004670072    1.504    0.335
       261  -8.9049    173.1792     14.1961   6.4159655914e+01   4.0185922422e+01    0.1738704    0.1343118 -80.05 0.0005220562    1.271    0.213
       262  -8.8904    182.5677    239.7982   1.1471677897e+02  -2.7193079056e+00    0.1632999    0.1272192 -60.78 0.0009411852    1.676    0.403
       263  -9.0544    193.2835     11.2979   6.0991030133e+01   3.5714077369e+01    0.1194282   0.08952932  47.82 0.0002076936    1.546    0.353
       264  -9.5875    230.8949    237.0084   1.0499988186e+02  -1.0101304472e+01    0.2300088    0.1601035 -31.03 0.0009506055    1.456    0.313
       265 -11.0955    206.5358    236.1683   1.0943889742e+02  -6.1430008634e+00    0.4621868    0.3509652  42.31    0.0019725    1.325    0.245
       266  -8.9463    148.3245    238.6445   1.2139947159e+02   3.3991033414e+00    0.1371046   0.09662215  70.55 0.0007045998    1.768    0.434
       267  -8.8584    243.7772    237.0031   1.0266581700e+02  -1.1995196297e+01    0.1494507   0.09070664 -31.81 0.0008602934    1.616    0.381
       268 -10.1874    219.7442    235.6752   1.0684156567e+02  -8.1873432976e+00    0.3268284    0.1960379  29.14  0.001308175    1.538    0.350
       269  -9.6542    239.4514    231.9234   1.0254886398e+02  -1.0649768031e+01    0.3524618    0.1632999  38.81  0.001512621    2.094    0.522
       270 -10.1457    114.6170    231.2493   1.2725024754e+02   1.0616517840e+01    0.2714674    0.2591858  -2.35  0.001729917    1.370    0.270
       271 -10.7395    229.5365    228.4997   1.0375394202e+02  -8.6426535689e+00    0.5575771      0.30145 -50.59  0.002654699    2.651    0.623
