#   1 NUMBER                 Running object number                                     
#   2 MAG_AUTO               Kron-like elliptical aperture magnitude                    [mag]
#   3 X_IMAGE                Object position along x                                    [pixel]
#   4 Y_IMAGE                Object position along y                                    [pixel]
#   5 X_WORLD                Barycenter position along world x axis                     [deg]
#   6 Y_WORLD                Barycenter position along world y axis                     [deg]
#   7 A_WORLD                Profile RMS along major axis (world units)                 [deg]
#   8 B_WORLD                Profile RMS along minor axis (world units)                 [deg]
#   9 THETA_WORLD            Position angle (CCW/world-x)                               [deg]
#  10 FWHM_WORLD             FWHM assuming a gaussian core                              [deg]
#  11 ELONGATION             A_IMAGE/B_IMAGE                                           
#  12 ELLIPTICITY            1 - B_IMAGE/A_IMAGE                                       
         1 -15.0435      7.4318    143.9587   1.4030956182e+02   4.3026195796e+01     6.726032     1.281474 -83.40   0.02235109    5.728    0.825
         2 -13.4091    199.2635     28.0757   6.3655137515e+01   3.1562855859e+01     1.779629     1.412676  13.88  0.008328849    1.374    0.272
         3 -13.4027    214.9843     10.4806   5.6562072474e+01   2.9355496055e+01     1.075977     0.958686  26.27  0.003284978    1.201    0.167
         4 -11.7928      2.7937      5.6190   1.2181715550e+02   7.3428412869e+01    0.6880482    0.2056668 -62.24  0.003064278    2.798    0.643
         5 -10.1804    230.5815    231.7860   1.0495178868e+02  -1.5509714422e+00    0.1645217    0.1022961 -38.55  0.001051697    2.456    0.593
         6 -12.6612    240.6291    247.0829   1.0550686540e+02  -4.2982939356e+00    0.7844587    0.3415887  34.54  0.004842781    1.642    0.391
         7 -12.2425     36.7344    242.8477   1.3964624450e+02   2.2838415178e+01    0.4246439    0.3873636  68.76  0.003580489    1.426    0.299
         8 -12.1260      4.7107    248.0233   1.4472928675e+02   2.5002480494e+01    0.6269609    0.2625836  47.44  0.003883452    1.571    0.364
         9 -10.9997      5.8306    240.9232   1.4438201496e+02   2.5945446022e+01     0.196774    0.1206514  37.08 0.0005891965    1.596    0.373
        10 -10.6091     22.8618    245.5558   1.4192458965e+02   2.3762998964e+01    0.1726775    0.1017265  73.52 0.0009210482    1.393    0.282
        11 -10.4729    100.1286    245.0956   1.2923039825e+02   1.5335715773e+01    0.1486827    0.1197113  39.53 0.0005571113    1.213    0.176
        12 -12.0265     15.3788    240.3275   1.4290656242e+02   2.5210727450e+01    0.4012816    0.1179401  42.66  0.002565442    2.173    0.540
        13 -12.3667    183.5340    237.8017   1.1384068960e+02   4.6436184986e+00    0.3880406    0.3563849  -9.41  0.002312111    1.421    0.296
        14  -9.9191     65.6780    249.4995   1.3530384292e+02   1.8827817795e+01    0.1845993    0.1175037  55.71 0.0005402439    1.155    0.134
        15 -10.9467     51.1296    236.1546   1.3697461246e+02   2.2369231820e+01    0.2713062    0.1606621  71.85   0.00203542    1.525    0.344
        16 -12.5760    164.7592    249.3290   1.1846508682e+02   6.0365948838e+00    0.7323845    0.2411802  39.99  0.003757796    2.153    0.536
        17 -13.2892     49.2970    205.7216   1.3552193664e+02   2.7497140884e+01     2.609533    0.5009188  54.46  0.008344723    6.763    0.852
        18  -9.9955     81.1485    249.1313   1.3273172118e+02   1.7101198769e+01    0.1495763    0.1175469  41.13  0.001249764    1.252    0.201
        19 -10.1057     76.5716    217.0201   1.3123840720e+02   2.2492888627e+01    0.3487044   0.07083569  47.18  0.001405548    3.710    0.730
        20  -8.5736    152.4968    212.9935   1.1633528789e+02   1.2483250172e+01    0.1314862   0.09711948  72.21 -4.291093e-05    1.991    0.498
        21 -12.4344      9.8250    206.9683   1.4269377518e+02   3.0994627141e+01    0.5671517    0.3461515  31.36  0.002722026    1.787    0.440
        22 -12.7430     30.0766    231.2540   1.4023363339e+02   2.5242090571e+01    0.2322413    0.2142415  74.63 0.0007651414    1.431    0.301
        23 -11.5788     57.9189    198.0110   1.3333637741e+02   2.7911493355e+01    0.2845544    0.2070629 -83.41  0.000577366    1.380    0.276
        24  -9.9272    192.6973    194.6407   1.0590227029e+02   8.5113714954e+00    0.6083971     0.345445 -61.74  0.002047511    6.964    0.856
        25 -10.6385      9.1843    193.6058   1.4230702561e+02   3.3361826101e+01    0.2168867     0.128547  54.68 0.0005786746    1.308    0.235
        26 -11.8357     64.4203    189.4877   1.3135487120e+02   2.8712087319e+01    0.2295374    0.2159706  72.09 0.0003796723    1.224    0.183
        27 -12.8216     45.2303    213.8868   1.3676641347e+02   2.6535932663e+01    0.8726367    0.6384563  70.62  0.005559853    1.134    0.118
        28 -13.7942     35.1260    224.6882   1.3909834636e+02   2.5788233832e+01    0.6685458    0.4197567  50.90   0.00242435    1.190    0.160
        29 -11.5031      8.0373    226.4212   1.4363060128e+02   2.7972204261e+01    0.3285131    0.1487926  37.17  0.002359403    1.890    0.471
        30 -10.6037     75.0913    176.6592   1.2789085364e+02   2.9834541151e+01    0.2085291    0.1789913  56.89 0.0003638195    1.049    0.047
        31 -13.0876     61.6530    174.6238   1.3060811612e+02   3.1845369026e+01    0.4349263    0.2517327 -46.78  0.002076789    2.324    0.570
        32  -9.7217     94.9305    171.8080   1.2294516563e+02   2.8119094772e+01    0.2872724    0.1572392  43.03  0.001015972    1.602    0.376
        33 -11.7139     82.8525    167.5348   1.2514369952e+02   3.0610434140e+01    0.5666763    0.5070139 -52.68  0.003873924    1.306    0.234
        34 -11.6762    114.6956    231.4177   1.2547705937e+02   1.5349434991e+01     0.664309   0.08574095  37.94  0.002038896    5.951    0.832
        35  -9.9543     96.1067    152.1946   1.1997244967e+02   3.1842966543e+01    0.2684633    0.2600678  27.90 0.0008435886    1.142    0.124
        36  -8.8711     99.0678    147.9542   1.1859891115e+02   3.2271905265e+01    0.1840399    0.1732682 -16.05 0.0003290236    1.235    0.190
        37 -11.9041     84.5438    150.9041   1.2259690272e+02   3.3755299084e+01    0.2579157    0.2329932 -42.93 0.0007818024    1.283    0.221
        38 -12.1060     67.3552    143.4969   1.2585164575e+02   3.7545514127e+01     0.642387    0.3582474  57.72  0.002881059    1.920    0.479
        39 -11.7477     89.3230    226.5422   1.2965656348e+02   1.9408441445e+01    0.8551726   0.06939243  45.49   0.00259433    6.551    0.847
        40  -9.5804    108.6116    136.9218   1.1433726990e+02   3.3059927221e+01    0.3893338    0.2526697 -18.64  0.001689349    2.646    0.622
        41 -10.3265     95.4616    134.2872   1.1725670936e+02   3.5692670364e+01     0.228427    0.2188547 -10.22 0.0004466372    1.170    0.145
        42 -11.1653     25.9461    128.5359   1.3471300680e+02   4.4952872330e+01    0.3291698    0.1841231  52.85 0.0008697513    1.760    0.432
        43  -9.3174     74.5877    128.0865   1.2176666864e+02   3.9993864466e+01    0.2413095    0.1609249  55.09 0.0007793717    1.565    0.361
        44  -9.0663    105.9935    123.6944   1.1249678530e+02   3.6291294238e+01    0.1843927    0.1671088  40.68 0.0002607368    1.083    0.077
        45  -9.6068     79.4914    122.9888   1.1958847469e+02   4.0468927745e+01    0.2498326     0.166623  54.93 0.0009234991    1.604    0.376
        46  -9.8536     66.1884    121.5482   1.2303804900e+02   4.2509669291e+01    0.2578192      0.17879  68.38 0.0008188281    1.615    0.381
        47 -10.0484    167.6659    112.7216   9.4435886326e+01   2.6416796012e+01    0.2722758     0.254901  84.99 0.0006437127    1.325    0.245
        48  -8.5890     47.0380     99.5300   1.2513169452e+02   4.9642235616e+01    0.1799427   0.08821884  52.52 0.0008093432    2.503    0.600
        49  -9.7707    244.0000     94.9823   7.5431516703e+01   1.2485420121e+01    0.2346232    0.0723033 -27.92 0.0008071217    2.975    0.664
        50  -9.0176     64.8933     81.0568   1.1562947036e+02   5.1903119207e+01    0.1951767    0.1730854  82.28 0.0004788306    1.277    0.217
        51  -9.3180    158.9286     77.4814   8.6752163920e+01   3.4721001525e+01    0.2359791    0.1511878  48.85 0.0005539731    1.540    0.351
        52  -9.9203     56.7482     75.3279   1.1711034426e+02   5.4185296535e+01    0.3670208    0.2022147  51.49  0.001064033    2.417    0.586
        53 -12.3266      4.6449     50.5668   1.3202214408e+02   6.3760282478e+01    0.5058471    0.3659151  58.09  0.002036015    1.710    0.415
        54 -11.0545     46.0050    248.2572   1.3840966892e+02   2.1114608294e+01    0.2666104    0.1635148  61.71  0.001695566    1.236    0.191
        55 -10.1401     49.9620    244.5005   1.3759463571e+02   2.1249140591e+01     0.144359    0.1057495  37.05  0.001123748    1.427    0.299
        56 -12.0788     10.1392    230.5243   1.4342128450e+02   2.7155098034e+01     0.331555    0.1566927  65.07  0.002467876    1.582    0.368
        57 -11.3466     28.8728    248.9178   1.4111856787e+02   2.2712696847e+01    0.2886312    0.2295103  62.46  0.002189324    1.219    0.180
