#   1 NUMBER                 Running object number                                     
#   2 MAG_AUTO               Kron-like elliptical aperture magnitude                    [mag]
#   3 X_IMAGE                Object position along x                                    [pixel]
#   4 Y_IMAGE                Object position along y                                    [pixel]
#   5 X_WORLD                Barycenter position along world x axis                     [deg]
#   6 Y_WORLD                Barycenter position along world y axis                     [deg]
#   7 A_WORLD                Profile RMS along major axis (world units)                 [deg]
#   8 B_WORLD                Profile RMS along minor axis (world units)                 [deg]
#   9 THETA_WORLD            Position angle (CCW/world-x)                               [deg]
#  10 FWHM_WORLD             FWHM assuming a gaussian core                              [deg]
#  11 ELONGATION             A_IMAGE/B_IMAGE                                           
#  12 ELLIPTICITY            1 - B_IMAGE/A_IMAGE                                       
         1 -13.1569    186.8220     34.6387   2.6165009984e+01   3.3912795343e+01      1.32191    0.4853401  68.13  0.001590668    2.791    0.642
         2 -13.6527    119.0561     65.6314   4.7888666758e+01   4.5882909572e+01     1.991038     1.482813  88.58  0.009027199    1.766    0.434
         3  99.0000    127.9273     44.7388   3.8374191332e+01   4.7142214411e+01     1.830131     1.300491 -68.78  0.008517705    1.674    0.403
         4 -14.4578    204.9754     59.2541   3.0766622791e+01   2.6878873044e+01     2.997396     1.302785  74.51   0.01216338    3.278    0.695
         5 -13.3172    228.8798     46.9759   2.5368407007e+01   2.3586066643e+01     1.102466    0.6882283 -29.23  0.002787367    1.376    0.273
         6 -12.7485    154.4018     62.7829   3.9169508992e+01   3.7811282695e+01     1.843087    0.7780782 -44.60  0.006937681    2.376    0.579
         7 -12.9148    160.3281     37.7538   3.0338995071e+01   3.9893895690e+01     1.029245    0.7590818  67.88  0.002085446    1.364    0.267
         8 -12.2957     27.2468     34.4995   7.4271597679e+01   7.0474364342e+01    0.9470854    0.3418839 -39.40  0.003169726    3.243    0.692
         9 -12.7693     24.8175     43.1204   7.9376274084e+01   6.8775577975e+01     1.650521    0.9553766 -37.57  0.006104719    1.754    0.430
        10  99.0000     50.0807     21.5558   5.3359839243e+01   6.9276997889e+01     3.436498      1.60748  54.71   0.01364207    2.581    0.613
        11 -14.3566     54.5571     71.3450   7.2848835275e+01   5.8024090255e+01     2.157652     1.263051 -31.20  0.008745737    2.234    0.552
        12 -14.0883      7.4294     67.7440   9.5985517515e+01   6.3908597969e+01     1.916121    0.9917079 -19.81  0.008556155    2.332    0.571
        13 -13.2655     57.2969     61.0220   6.8131704920e+01   6.0019393868e+01     2.492479     1.186744 -67.88  0.007714318    3.988    0.749
        14 -13.8292     80.0509     60.9032   5.8508916369e+01   5.5695127097e+01     1.939166     1.248808 -56.67  0.008184472    1.771    0.435
        15 -13.0876     63.6523      8.4905   3.9193976366e+01   6.8120322750e+01     1.524232     1.229496  75.62  0.008417582    1.387    0.279
        16 -13.0192     71.6255     22.2355   4.4180545971e+01   6.4474367710e+01     0.983613    0.5821686  49.32  0.004552679    1.586    0.370
        17 -12.2545     77.0522     15.5665   3.8676695284e+01   6.4050644138e+01    0.8721848    0.3283539 -44.87  0.002353983    3.328    0.700
        18 -12.9484     75.4123     42.8470   5.2879467355e+01   6.0240654002e+01    0.8105121    0.7375108  86.87    0.0020804    1.255    0.203
        19 -13.2013     81.6752     40.3600   4.9418111561e+01   5.9271267472e+01      0.96806    0.6015239 -47.92  0.004310759    1.753    0.430
        20 -13.5736     11.4939     39.5877   8.7261072547e+01   7.0811842612e+01    0.6489877    0.4137988 -77.48 0.0005442213    1.682    0.405
        21 -13.6615     17.7551     34.0532   8.0790562153e+01   7.1610229064e+01     1.135029    0.6285001 -57.36  0.002857482    1.658    0.397
        22 -14.0319      4.0290     53.0021   9.5481691662e+01   6.7884994717e+01     3.732465      1.00743 -74.28   0.01293592    3.299    0.697
        23 -13.1259     80.7342     23.2975   4.1553744644e+01   6.2146805790e+01     1.251168    0.7352762  59.99  0.005653401    1.669    0.401
        24 -14.4673     54.8724     41.3872   6.1289626367e+01   6.4704414119e+01      3.94924      2.32476   0.41   0.01270463    4.238    0.764
        25 -10.3779    112.1194     17.5385   3.0853086464e+01   5.4794405326e+01    0.7902266     0.445498 -57.65  0.003361115    2.121    0.528
        26 -10.3133    122.0284     19.0534   2.9659935083e+01   5.2006179663e+01    0.3528715     0.210286 -32.02  0.001387354    1.689    0.408
        27 -11.2071     35.8288     24.9626   6.3706142235e+01   7.1241760753e+01    0.5130404    0.3802356  -4.16  0.002697543    1.550    0.355
        28  -9.7783    154.6589     13.7466   2.3205434787e+01   4.4021206871e+01    0.3717682    0.2267849  16.84 0.0008952525    2.449    0.592
        29 -12.1227    163.3605     21.4200   2.4750457224e+01   4.1039042469e+01    0.3463275    0.2996536  23.22 0.0003397839    1.391    0.281
        30 -10.4218    211.8243     16.8578   1.9302486497e+01   3.0268916405e+01    0.3598039    0.1577548 -16.64   0.00158274    2.728    0.633
        31 -11.2220     31.6642     20.0679   6.3636818773e+01   7.2830865918e+01    0.4485326    0.3711589 -53.31   0.00236704    1.376    0.273
        32 -10.8805    221.6337     11.6051   1.7418112835e+01   2.8735999581e+01    0.3818997    0.1694921 -34.00  0.001989681    1.772    0.436
        33 -10.1668    102.4466     14.7377   3.1581534006e+01   5.7648427221e+01    0.2604051    0.1678438 -13.14  0.001037057    1.800    0.444
        34 -11.0405    148.9458     11.4287   2.3044831309e+01   4.5711159666e+01    0.4323006    0.2215781 -68.62 0.0007445404    2.230    0.551
        35 -10.2708    125.4688     11.7920   2.6198217076e+01   5.1840809919e+01    0.3307444    0.2350663  22.84 0.0009913194    1.744    0.427
        36  -9.8529    179.5291     11.8308   2.0279023064e+01   3.8049713182e+01    0.1803683    0.1029029 -42.30 0.0002951022    1.541    0.351
        37 -11.5379    108.1148      4.0621   2.5642970136e+01   5.7164378220e+01    0.4741601    0.2774819  87.13 0.0006836379    1.792    0.442
        38 -11.4390    116.1376      9.8217   2.6843159577e+01   5.4511576235e+01    0.4642569    0.3214321  23.96  0.001388981    1.767    0.434
        39 -10.4820    113.3025      7.3606   2.6251178008e+01   5.5493800552e+01    0.3223407    0.1849098  49.81  0.000704181    1.718    0.418
        40  -9.9544     88.4895     11.4780   3.3245880176e+01   6.1629606510e+01    0.2462832    0.2264612  19.10  0.001270092    1.140    0.123
        41 -11.9637     84.8113      7.8290   3.2273541598e+01   6.2947711816e+01    0.3883071    0.2388114 -34.38  0.001244238    1.705    0.413
        42 -10.5122    227.5830      9.4303   1.6588744896e+01   2.7742562975e+01    0.2879158    0.1862731  -3.56  0.001539993    2.070    0.517
        43  -9.8755    129.7262     10.6192   2.5127622243e+01   5.0823147123e+01    0.2665218    0.1686683 -29.38 0.0009203849    1.607    0.378
        44 -14.2283     38.4095     56.6989   7.6106541682e+01   6.3904268765e+01     3.709139     1.199799 -58.76   0.01261142    3.016    0.668
        45 -10.5749    168.2006      9.7119   2.0589294758e+01   4.1002131370e+01     0.216767    0.1853667 -57.00 0.0005696373    1.055    0.052
        46 -10.8070     26.1397      9.8121   6.0883746285e+01   7.5536497471e+01    0.2361339    0.1792936  -0.95  0.001339709    1.373    0.272
        47  -9.5143    162.0139      9.2536   2.0998726822e+01   4.2585065533e+01    0.1784238    0.1091567  78.24 0.0008890015    1.574    0.365
        48 -10.4839     47.6218      7.8391   4.5759255509e+01   7.1811194606e+01      0.32115    0.2331806 -49.35  0.001468376    1.694    0.410
        49 -10.8986     46.2190      1.9068   4.2148065992e+01   7.2836368078e+01    0.2924552    0.1995348  52.15  0.001032806    1.383    0.277
        50 -11.9230    241.3293      7.7503   1.5563785684e+01   2.5248313229e+01     0.283463    0.1535518 -59.18 0.0003777783    1.619    0.382
        51 -11.4291    101.6501      6.4571   2.7886863132e+01   5.8674056442e+01    0.4182224    0.2828288  41.24  0.001935655    1.533    0.348
        52  -9.5923    100.4260      2.4410   2.6208939184e+01   5.9344365602e+01    0.2236692    0.1508895 -52.57 3.939008e-05    1.604    0.376
        53 -10.2891      2.6709      6.7253   8.1167245277e+01   7.8900766233e+01    0.2584344    0.1340579   0.63  0.001258902    2.179    0.541
        54  -9.5511    173.4850      6.5974   1.9202852786e+01   3.9990773019e+01    0.1361897    0.1096427 -63.05 0.0008002266    1.105    0.095
        55  -9.9325    193.7131      7.8414   1.8121653291e+01   3.5112310586e+01    0.2111435    0.1513734  62.83 0.0008969493    1.535    0.349
        56  -9.4358    146.5421      4.9745   2.1057196235e+01   4.6916181272e+01    0.1756338    0.1084919  24.94 0.0006906074    2.213    0.548
        57  -9.9489    126.4542      2.2346   2.2267088801e+01   5.2425100478e+01    0.2894459    0.2017829  22.06  0.001417708    1.773    0.436
        58 -11.5872    208.9314      2.2817   1.5786486878e+01   3.2243793911e+01    0.1958608     0.157156 -39.38 0.0002870822    1.128    0.114
        59 -10.7527    155.3567      2.4626   1.9378656958e+01   4.4864166785e+01    0.2648349    0.2014137  60.46 0.0006384759    1.356    0.263
        60 -10.7571     84.9473      1.6137   2.8905713146e+01   6.3479421833e+01    0.2070013    0.1633123  51.88 0.0005180695    1.168    0.144
        61  -9.3664     89.9534      1.0000   2.7499116630e+01   6.2224654389e+01    0.2253953   0.07368646  69.94 0.0004461733    2.799    0.643
        62 -10.0945     96.5108    100.4795   6.5315951413e+01   4.3565322293e+01    0.1521857    0.1492055   5.58 0.0003949894    1.042    0.040
        63 -11.0886    228.9460    249.2896   6.4061172297e+01  -1.1861139860e+00    0.1732643    0.1090494  -9.03 0.0003406235    1.273    0.214
        64 -10.9969    211.7428    249.8440   6.6856247484e+01   4.6496922491e-01    0.2185529    0.1014925  23.98  0.001420551    1.669    0.401
        65 -11.0171    214.4225    246.7208   6.6011559842e+01   5.1187375010e-01    0.1724967    0.1021825 -15.26 0.0009428223    1.519    0.342
        66 -13.0719     37.7878    249.2139   1.0040341775e+02   1.9555068844e+01    0.7812656    0.3718125  22.63  0.004557193    1.909    0.476
        67 -11.2225     86.8673     98.2608   6.7911875114e+01   4.5926276171e+01    0.3859866     0.337572  10.23  0.001969925    1.279    0.218
        68 -11.6945     53.3639     99.7086   8.0721560874e+01   5.1039590140e+01    0.2930099    0.2599608  33.54 0.0002105048    1.149    0.129
        69 -11.7587     50.3718     95.6971   8.1058819058e+01   5.2481727139e+01    0.2646341     0.221746  66.82  0.001381966    1.265    0.209
        70 -11.1922    169.1456     97.4578   4.6212310812e+01   2.8788247806e+01    0.4501606     0.372031 -88.92  0.002387033    1.561    0.360
        71 -12.9791    105.1384     87.6243   5.8955030406e+01   4.4662503904e+01     1.032233    0.6358232 -80.20  0.003112428    3.631    0.725
        72 -12.0612    106.5626     96.4970   6.1097381589e+01   4.2435622885e+01    0.4941157    0.2916269 -27.48  0.001883637    2.380    0.580
        73 -11.6676    105.5246     93.0505   6.0432365555e+01   4.3405466092e+01      0.35782     0.255266  29.03 0.0008693738    1.576    0.365
        74 -10.8525     81.3428     99.0649   7.0037325283e+01   4.6746795218e+01    0.2686236    0.2188687  22.64  0.001322171    1.331    0.249
        75  -9.2926    226.2915     98.3201   3.7509018656e+01   1.7617350285e+01    0.1233179   0.08875523   0.10 0.0003821491    1.605    0.377
        76 -11.7325    200.3864     96.7419   4.0729817171e+01   2.2575885900e+01    0.3283112    0.2158195 -41.66  0.001100606    1.424    0.298
        77 -11.5699     12.1022     97.1962   9.7586081831e+01   5.5850352939e+01    0.4068216    0.1933725 -59.26  0.001047196    1.907    0.476
        78 -11.6829     62.9054     95.4000   7.5958040072e+01   5.0746547527e+01    0.3685405    0.2231605 -67.37 0.0009794742    1.791    0.442
        79 -11.5277     61.9952     90.9668   7.5207978164e+01   5.2003249216e+01    0.3342965     0.230121 -58.06   0.00112186    1.429    0.300
        80 -10.3075    246.8649     94.7098   3.4308702511e+01   1.4672256564e+01    0.1979598    0.1324473 -22.05 0.0005472366    1.282    0.220
        81 -10.7788     68.7629     94.8372   7.3554138202e+01   4.9950011678e+01    0.2777283    0.2067065  42.91 0.0004189723    1.346    0.257
        82 -12.2363    214.0530     92.0202   3.7663987537e+01   2.0667139921e+01    0.4620817    0.2355544 -41.91  0.001174283    1.797    0.443
        83 -12.3743    188.8214     93.1608   4.1656750618e+01   2.5404566829e+01    0.3998602    0.2558283 -47.10  0.001379033    1.589    0.371
        84 -13.2509    138.4631     71.5421   4.5137790552e+01   4.0185081569e+01     1.455315    0.9463382  46.32  0.006631544    1.582    0.368
        85 -11.2126    140.4930     97.0789   5.2186803662e+01   3.5032710478e+01    0.3419857    0.2668091 -37.18 0.0008173795    1.267    0.210
        86 -12.2888     95.6411     89.3600   6.2475855019e+01   4.6263794064e+01    0.5122087     0.402365  71.75 0.0004384991    1.547    0.354
        87 -11.8710     57.4597     90.5239   7.6933998864e+01   5.2807355799e+01      0.42722    0.2382047 -52.25  0.001364353    1.735    0.424
        88 -11.7228     48.5129     85.0461   7.9364033544e+01   5.5476595773e+01    0.4007408    0.2413348 -67.07  0.001144386    1.698    0.411
        89 -12.2758     52.8148     89.8369   7.8691954875e+01   5.3655440187e+01     0.507321    0.3324536  74.49  0.001545618    2.086    0.521
        90 -12.1453     52.5013     86.4924   7.7999285024e+01   5.4553506271e+01    0.5871769    0.2418526  22.69   0.00196588    3.118    0.679
        91  -9.1770    177.0000     81.9375   4.0693636042e+01   2.9632253128e+01    0.2970436    0.1571898 -33.83  0.001315133    1.759    0.432
        92 -11.1801    174.2664     89.9847   4.3310810531e+01   2.8938902740e+01    0.3468148    0.3237264  77.67  0.001269542    1.195    0.163
        93 -11.4542    175.7317     85.9159   4.1974651659e+01   2.9278702235e+01    0.4450431    0.2265718  41.80  0.001507098    2.261    0.558
        94 -10.3997      1.8021     91.1781   1.0147403543e+02   5.8000571929e+01    0.2026174     0.164458  68.61 0.0005847026    1.194    0.162
        95 -11.4411    180.1106    242.8568   7.1351567896e+01   4.6325923670e+00    0.1623877    0.1244339  22.71 0.0006464234    1.254    0.203
        96 -11.8747    219.5049    240.1857   6.4313334325e+01   6.6442657334e-01    0.3212923    0.1980011   9.88  0.002386056    1.210    0.174
        97 -13.1333     66.6217     82.6604   7.1080851591e+01   5.3301279207e+01     1.090413    0.7144206  71.87  0.004075086    2.314    0.568
        98 -10.3379    110.5483    240.7426   8.4624102283e+01   1.3083105793e+01    0.1322901    0.1119662  83.48 0.0009554354    1.666    0.400
        99 -11.0760     15.9095    238.3497   1.0452766931e+02   2.3358779030e+01    0.1786023    0.1483437  88.02 0.0005760487    1.399    0.285
       100 -10.8234    159.8939    219.7202   7.2081965871e+01   1.0067351206e+01    0.1773358    0.1563365  -7.64 0.0003135322    1.240    0.193
       101  -9.3759    152.5326    123.9869   5.6258580702e+01   2.7426667140e+01    0.1871793    0.1254259 -65.27 0.0003399104    2.272    0.560
       102  -9.6186    147.5793    123.2448   5.7205894309e+01   2.8536406102e+01    0.1854279    0.1353466 -28.56 0.0002372565    1.424    0.298
       103 -10.3302    227.2705    119.0853   4.1899807533e+01   1.4656860043e+01    0.2222334    0.1614263  40.34 0.0007044149    1.564    0.361
       104  -9.7516    164.1113    118.5694   5.2486810819e+01   2.6145316831e+01    0.2062427    0.1377595  45.58   0.00100736    1.550    0.355
       105 -10.2832    204.5036    116.3629   4.4660286306e+01   1.8896831732e+01    0.2283506    0.1948365 -81.35  0.000804606    1.677    0.404
       106  -9.8445    182.7931    115.9575   4.8245096088e+01   2.2965096799e+01    0.2289453    0.1538204 -58.47  0.001091194    2.039    0.510
       107 -11.6782    132.7946    111.7147   5.7939530003e+01   3.3780969741e+01    0.3668487    0.3281526 -72.94 0.0008912568    1.284    0.221
       108  -9.5805    203.3526    111.7699   4.3799880779e+01   1.9786922759e+01    0.1772682    0.1109438 -24.43 0.0001100768    1.516    0.340
       109 -10.6222    138.2968    112.4440   5.6763518598e+01   3.2504844714e+01    0.2862956    0.1415805  39.84  0.001112371    2.082    0.520
       110 -11.7456    169.2866     79.3865   4.1328924303e+01   3.1734331249e+01    0.5806885    0.4724429 -46.05  0.003051019    1.192    0.161
       111 -10.0910    166.0349     89.5459   4.4707464028e+01   3.0787588101e+01    0.2578339    0.1440253  58.58 0.0006555633    2.021    0.505
       112 -12.0791    162.5968     83.9715   4.3833597118e+01   3.2479049900e+01    0.5427405    0.4761245  81.53  0.002118764    1.289    0.224
       113 -11.8557    148.4656     85.1919   4.7043326910e+01   3.5451655990e+01    0.6128411    0.4400506 -79.25  0.002736186    2.015    0.504
       114 -11.1772    148.5246     81.4684   4.5952335474e+01   3.6095823882e+01     0.510443    0.3070885 -57.56  0.001838438    2.096    0.523
       115 -12.4688    137.4655     87.9018   5.0310383612e+01   3.7445549633e+01    0.5339532    0.3162354  51.18   0.00206791    1.721    0.419
       116 -11.9417    139.4888     80.6869   4.7711137094e+01   3.8317249112e+01    0.4939694    0.3279525 -42.25  0.001127817    1.480    0.324
       117 -11.1917    224.3506     87.0090   3.5190947436e+01   1.9464794588e+01    0.2265967    0.1929083 -28.87 0.0003863041    1.016    0.015
       118 -11.1040    237.5756     86.2998   3.3506439502e+01   1.7244831631e+01    0.2257914    0.2116412 -88.01 0.0005690926    1.332    0.249
       119 -10.3831    233.0167     85.9711   3.3941729403e+01   1.8068618441e+01    0.2333149    0.1535835 -23.78 0.0004867691    1.344    0.256
       120 -11.1043    237.8288     52.2177   2.5827417437e+01   2.1313515044e+01    0.4248022    0.3448555  -9.66   0.00285758    1.364    0.267
       121 -10.7055     23.9821     86.4350   9.0777185278e+01   5.7829633114e+01    0.2843286    0.1869362  86.94  0.001180799    1.634    0.388
       122 -11.8904      5.3579     85.0961   9.9272751647e+01   5.9441359827e+01    0.4227555    0.1856423 -76.62  0.001553699    2.015    0.504
       123 -11.5786    212.5089     83.7121   3.5899825397e+01   2.2104584857e+01    0.2746962    0.1906585   3.19  0.001219164    1.889    0.471
       124 -11.8464    114.3895     80.6410   5.4085937874e+01   4.4085128779e+01    0.4591509    0.3465274  33.24   0.00216091    1.442    0.306
       125 -11.0131     90.5520     53.4533   5.1858669180e+01   5.4864139486e+01    0.4984345    0.3281162 -29.75  0.002211681    1.684    0.406
       126 -11.9415     80.2782     72.5807   6.2580608814e+01   5.3126823150e+01    0.6564282    0.4137595  36.53  0.002533513    1.639    0.390
       127 -11.1309     93.3424     59.7160   5.3343454544e+01   5.3028070897e+01    0.5049952    0.3284664 -49.43  0.001677775    1.618    0.382
       128 -13.0622     95.1073     71.0027   5.6812342294e+01   5.0357264105e+01     1.597968    0.6879646 -52.95  0.005385499    2.824    0.646
       129 -10.6244     81.8466     79.2089   6.4159198006e+01   5.1322546276e+01    0.2623082    0.2077852 -37.92 0.0004701395    1.310    0.237
       130 -12.2195     87.7966     73.7500   6.0240351167e+01   5.1335259374e+01    0.7659963    0.4683974 -26.64 0.0007649839    2.244    0.554
       131 -12.0159    104.2634     75.1224   5.5286307097e+01   4.7480501533e+01    0.4858094    0.3723679  17.11 0.0003743909    1.655    0.396
       132 -11.0954    100.0162     74.6405   5.6450294747e+01   4.8522577578e+01    0.3443644    0.2252959 -42.96  0.000956783    1.539    0.350
       133 -11.6117    232.4084     78.6890   3.2370364264e+01   1.9100325966e+01    0.5545774     0.199697 -29.25  0.002421907    2.371    0.578
       134 -12.0335     12.2351     79.5441   9.5280476104e+01   6.0528098242e+01    0.3072547    0.2381804  -8.40 0.0009504764    1.457    0.314
       135 -11.5192    219.3121     75.0430   3.2995520096e+01   2.1970277935e+01    0.2308796     0.181636  62.76 0.0005480595    1.497    0.332
       136 -12.2277    216.7652     78.2323   3.4057308598e+01   2.2033457832e+01    0.3708417    0.2086146  54.79  0.001946876    2.028    0.507
       137 -11.5251    214.6766     75.2936   3.3604902920e+01   2.2824782283e+01    0.2336745    0.2008879 -32.03 0.0007218715    1.016    0.016
       138 -12.2012     20.4363     75.7247   9.0560582243e+01   6.0952976185e+01    0.3558674    0.2708186   4.67  0.001206891    1.467    0.318
       139 -11.8581    222.7157     77.7547   3.3240319256e+01   2.0978144143e+01    0.2869913    0.2083795 -70.72  0.001665484    1.765    0.433
       140 -10.4276    155.2642     76.6009   4.3151927240e+01   3.5376387904e+01    0.3594182    0.2258302  38.24  0.001266527    1.840    0.456
       141 -11.3827     66.1232     74.5433   6.8824880833e+01   5.5335275348e+01    0.6902767    0.2013337  33.47  0.001964479    4.001    0.750
       142 -11.5391     72.8760     75.5193   6.6399113922e+01   5.3885714198e+01    0.4328801    0.2934286 -52.61  0.001073143    1.479    0.324
       143 -10.8519     70.6915     71.3338   6.5903009502e+01   5.5258430180e+01    0.2997367    0.2455898  76.14  0.001467805    1.485    0.326
       144  -9.6404    247.3101     75.3326   3.0110950751e+01   1.6952027982e+01    0.1150184   0.08368242   1.57 0.0007042732    1.673    0.402
       145 -10.7880    226.1960     75.3622   3.2288671778e+01   2.0643889380e+01    0.1889433    0.1556278 -19.94 0.0002497819    1.154    0.133
       146 -11.4110    227.6769     71.9881   3.1344277334e+01   2.0799557511e+01    0.2004662    0.1809921 -78.52 0.0006013906    1.284    0.221
       147 -12.2476    176.9699     69.9230   3.7413587251e+01   3.1474534502e+01     1.227502    0.6545217 -76.56  0.003847469    4.779    0.791
       148 -11.0612    163.8155     72.5636   4.0373238597e+01   3.4060329073e+01     0.507005    0.3195914 -68.79  0.002147333    2.293    0.564
       149 -11.4708    161.4677     67.0102   3.9168602744e+01   3.5477264637e+01    0.3409617    0.2882848 -21.30 0.0006782336    1.229    0.186
       150 -11.4367    165.3524     64.8087   3.7847378302e+01   3.4904939339e+01    0.4900437    0.3230375 -61.16  0.001027997    1.783    0.439
       151 -11.0448    113.2939     73.5418   5.2111188217e+01   4.5744499727e+01    0.3018182    0.2570469 -19.63 0.0009746329    1.299    0.230
       152 -10.5810    237.1864     72.9453   3.0576045433e+01   1.8971103956e+01    0.1774632    0.1696134  -1.26 0.0002498887    1.209    0.173
       153 -12.0891    235.6424     62.6601   2.8399710330e+01   2.0490138055e+01    0.4671191    0.2996413   0.80   0.00249903    2.232    0.552
       154 -10.6009    240.3929     67.6324   2.9074239744e+01   1.9051417064e+01    0.5008307    0.2063005 -32.50  0.002484548    1.889    0.471
       155  -9.7235    244.0406     65.2431   2.8207339138e+01   1.8700060155e+01    0.1764084    0.1450213 -36.11 0.0008863507    1.035    0.034
       156 -10.5865    242.5334     61.9667   2.7615661294e+01   1.9345673087e+01    0.1998351    0.1593006  33.92 0.0007517026    1.594    0.373
       157 -10.5225    249.9810     67.9889   2.8276858939e+01   1.7370854503e+01    0.2754683     0.148999 -21.82  0.001279396    1.734    0.423
       158 -11.0938    102.3458     67.5062   5.3288481195e+01   4.9446912342e+01    0.4181766    0.2883712   3.59  0.001659257    2.401    0.584
       159 -10.0995    172.2285     70.1249   3.8233184179e+01   3.2514363641e+01    0.4059395    0.2045471 -54.21   0.00117767    2.472    0.596
       160 -10.1156    242.5349     55.4811   2.6169516922e+01   2.0094545340e+01    0.1633866    0.1186352  72.72  7.07375e-05    1.685    0.406
       161 -10.0987    249.2115     56.3994   2.5825629948e+01   1.8826949402e+01    0.2742124    0.1708939  26.60  0.001520026    2.544    0.607
       162 -11.0948     96.7790    110.5537   6.7815486064e+01   4.1187428233e+01    0.3852492    0.2290241 -41.39 0.0009210831    1.810    0.447
       163 -11.3507    101.1727     53.2919   4.8415365322e+01   5.2403436086e+01    0.7395326    0.3340681  52.03   0.00183725    2.163    0.538
       164 -10.2835     94.0742     48.9635   4.8898654478e+01   5.4864177672e+01    0.3986678    0.2234052 -41.56  0.001669408    1.812    0.448
       165 -12.3589    155.6877     41.6694   3.2279550919e+01   4.0542200660e+01    0.3956321    0.3251064  22.15 0.0003759433    1.476    0.323
       166 -10.8428    216.9088    109.3497   4.1231414186e+01   1.7730223451e+01    0.2349855    0.1618122 -32.41 0.0004516027    1.249    0.199
       167  -9.6202    142.7999     46.2826   3.5977810809e+01   4.3142457249e+01    0.3963207      0.21153  31.26  0.001249655    3.058    0.673
       168 -10.8778    100.6219     46.5701   4.5922353921e+01   5.3704503918e+01    0.4887702    0.3232279  59.82  0.001707483    1.536    0.349
       169  -8.4937    104.9760     43.4922   4.3442855066e+01   5.3137133018e+01     0.266144    0.1824449  27.63  0.001167623    1.843    0.457
       170  -9.5575    242.4977     44.0643   2.3617117472e+01   2.1378967328e+01    0.1726846   0.09503107 -31.10  0.000438087    1.458    0.314
       171 -10.1465     26.8156    108.8617   9.2951068944e+01   5.1625033494e+01    0.1957874    0.1498801  65.85  0.000250791    1.307    0.235
       172 -10.2093    248.4884     42.9291   2.2933271702e+01   2.0435854585e+01    0.1951596    0.1337324 -64.09 0.0003200369    1.517    0.341
       173 -11.3589    214.0068     42.6350   2.5623647109e+01   2.7041804227e+01    0.3292214    0.2997817  28.68   0.00189782    1.339    0.253
       174  -9.9933    210.8927     38.5063   2.4864010518e+01   2.8163377308e+01     0.181893    0.1680424 -11.01 0.0005753453    1.229    0.186
       175 -10.3950    131.6282     40.1874   3.5961656451e+01   4.6851099277e+01    0.2652105    0.2168524  48.36 0.0009638212    1.257    0.204
       176 -10.1543    135.0405     37.2793   3.4260374650e+01   4.6371635100e+01    0.2663905    0.1971282 -82.38 0.0007927413    1.511    0.338
       177 -10.6345    132.2014     33.4977   3.3403924150e+01   4.7605096686e+01    0.2950752    0.2525307  71.41 0.0008084559    1.135    0.119
       178 -10.4789    112.7263     39.4175   3.9803352061e+01   5.1811354131e+01    0.3554104    0.2508927  22.90  0.001572527    1.844    0.458
       179  -8.8631    101.3247     40.3108   4.3149060840e+01   5.4550422056e+01    0.1552093     0.114362  24.58 0.0007039283    1.656    0.396
       180 -10.6779     39.6720     39.5261   6.8673934484e+01   6.7662078589e+01      0.29715    0.2456143  22.37   0.00164155    1.223    0.183
       181 -10.0883    233.5530     36.3218   2.2508204895e+01   2.3877363065e+01    0.3571533    0.2110597 -40.20  0.001955627    1.339    0.253
       182 -11.9836     92.2814     32.6513   4.2436457101e+01   5.7968318905e+01     0.662914    0.3878975 -16.38  0.002724535    2.246    0.555
       183  -9.1823    245.5808    108.5388   3.7352954218e+01   1.3152878265e+01    0.1190108   0.09307484 -26.98 6.068766e-05    1.047    0.045
       184  -9.9369    102.4385     24.4615   3.5995324886e+01   5.6516666215e+01    0.2669128     0.147998 -18.67 0.0008303647    2.134    0.531
       185 -10.7557    119.3864     22.4047   3.1493951759e+01   5.2326770304e+01    0.4786534    0.2205009  57.60  0.001953103    1.988    0.497
       186 -10.8090    195.4860    106.0271   4.3716034572e+01   2.2116262099e+01    0.3594773    0.1903794 -41.69  0.001080518    1.794    0.443
       187 -11.0936    112.0250     33.4253   3.7549484550e+01   5.2850295605e+01    0.5311673    0.3184992 -10.09  0.002173097    2.320    0.569
       188  99.0000    105.9589     28.1653   3.6773026462e+01   5.5127882588e+01     0.543799    0.3437982  59.80  0.002521263    1.494    0.331
       189 -12.1713    114.3721     28.3052   3.4919960677e+01   5.2923290567e+01    0.3017519     0.279568 -72.45 0.0004051735    1.088    0.081
       190 -10.9016    110.6892     28.7124   3.5902906452e+01   5.3829866262e+01    0.3083614    0.2253945 -13.29 0.0005535386    1.588    0.370
       191 -10.9083    226.2390     22.7201   1.9809211582e+01   2.6722162313e+01    0.2667941    0.1922183  77.08  0.001714366    1.547    0.353
       192 -12.6024    218.8232     30.1140   2.2113772842e+01   2.7448153899e+01     0.386721    0.3430516  57.29   0.00110752    1.355    0.262
       193 -10.6458    220.2321     23.8532   2.0478032946e+01   2.7816158328e+01    0.2576465     0.200665  77.73 0.0008737001    1.419    0.295
       194  -9.8549    206.3509     31.9989   2.3592106571e+01   2.9857720989e+01    0.1806883     0.140824 -37.57  0.000472727    1.126    0.112
       195 -12.5129    198.1979     39.6454   2.6367160804e+01   3.0760215385e+01    0.7890731    0.4241138  66.42  0.003097246    1.984    0.496
       196 -10.7820     92.0053    107.0283   6.8464939697e+01   4.2901748424e+01     0.224174    0.2185782  74.07  0.001216801    1.035    0.034
       197 -10.7080     38.9269     31.0023   6.5012877294e+01   6.9556569136e+01    0.3394606    0.3098087   6.95  0.001097159    1.055    0.052
       198 -10.5767     42.6894     28.2312   6.1286894173e+01   6.9470851089e+01    0.4740952    0.2585599  51.97  0.001485404    2.316    0.568
       199 -11.3035    198.1316     27.0684   2.2997348321e+01   3.2194939838e+01    0.2739354    0.1847223 -27.31  0.001044611    1.412    0.292
       200 -10.8142    185.5674     28.0598   2.4427701920e+01   3.4950444583e+01    0.3628597    0.1611079 -50.41  0.001571678    2.169    0.539
       201  -9.9331    168.0229     28.9867   2.6590429909e+01   3.9047501008e+01    0.2339873    0.1424192 -56.95  0.001121574    1.657    0.396
       202 -10.2568    146.6193     28.7949   2.9350656579e+01   4.4458845886e+01    0.4159683    0.2323925 -40.51  0.001223731    1.707    0.414
       203 -11.3603    148.3134     24.3281   2.7571123792e+01   4.4538940344e+01    0.3743963    0.2882888  26.43  0.001510027    1.600    0.375
       204 -10.3886    140.5044     29.1193   3.0399579987e+01   4.5998475612e+01    0.2573355    0.1854369 -84.52 0.0006394227    1.488    0.328
       205 -10.4169    213.8888     24.9908   2.1206804964e+01   2.9009473610e+01    0.2771589    0.1925166 -11.21 0.0008974845    1.679    0.405
       206  -9.4095    200.0269    106.0645   4.3000429003e+01   2.1253576545e+01     0.157319    0.1375768 -22.37 0.0003679214    1.010    0.010
       207 -10.1326    155.0736     25.1613   2.6957435068e+01   4.2717279612e+01    0.3964806    0.2127184  32.75  0.001576212    2.820    0.645
       208 -10.3820    154.9459     20.9409   2.5571637594e+01   4.3212127369e+01    0.3512619     0.206599 -36.22  0.001691476    1.601    0.376
       209  -9.5342    123.3552     26.2765   3.2295031666e+01   5.0822878650e+01    0.1921099    0.1291228 -38.78 0.0003468199    1.489    0.329
       210 -11.0000    191.8461     23.7824   2.2646009533e+01   3.3964498141e+01    0.2988094    0.2054327 -78.04  0.000859433    1.482    0.325
       211  -9.7060    184.0303    105.7229   4.5573969837e+01   2.4384905894e+01    0.1844766    0.1789805   7.68 0.0006456468    1.096    0.087
       212 -10.8200    133.1583     24.3333   2.9833771310e+01   4.8478848324e+01     0.412663    0.2301726 -83.03  0.001671194    2.325    0.570
       213 -13.5128    170.8198     55.0638   3.4107955827e+01   3.5040846958e+01     1.451502    0.5740721  56.60  0.005107733    2.529    0.605
       214  -9.5794    237.2969     23.5788   1.9330656303e+01   2.4492569116e+01    0.1356734    0.1089562  69.85 0.0003704788    1.485    0.327
       215 -10.1128    138.0369     22.5952   2.8429224687e+01   4.7399057801e+01    0.3589237    0.1658188  71.04  0.001457187    2.120    0.528
       216 -10.1517     97.9094     21.9098   3.5950293193e+01   5.8005683397e+01    0.3048128    0.2699677 -14.63  0.001180705    1.216    0.177
       217 -10.3040    102.2173     19.9655   3.4022841623e+01   5.7122271308e+01    0.2783479    0.1915022  29.81  0.000768049    1.704    0.413
       218 -10.3468    242.2240     22.6041   1.8826995042e+01   2.3669261270e+01      0.23739    0.1056643  73.08  0.001273713    2.569    0.611
       219  -9.9288    209.5729     21.6830   2.0682419380e+01   3.0263662233e+01    0.1974269    0.1054043 -29.83  0.001026746    1.642    0.391
       220 -11.2816    110.0184    103.7052   6.2040002247e+01   4.0145003565e+01    0.2830595    0.2255806 -36.16 0.0004219107    1.309    0.236
       221 -10.3840    126.0336     20.4866   2.9542582279e+01   5.0789375638e+01    0.3276354    0.1660689 -33.18  0.001407658    1.934    0.483
       222  -9.6027    240.9649    102.6821   3.6666148132e+01   1.4612966683e+01    0.1633935    0.1384558 -22.31 0.0007708597    1.062    0.058
       223 -10.1503    200.4687     20.9874   2.1180211177e+01   3.2315554440e+01    0.2933379    0.1810171  48.56  0.001555892    1.992    0.498
       224 -10.1898    180.1789     21.4038   2.3024863917e+01   3.6936918054e+01    0.2287651    0.1611703 -86.35 0.0007628275    1.432    0.302
       225  -9.7146     14.4669     19.4397   7.6730662404e+01   7.5184248673e+01    0.2284867     0.128365 -70.76 0.0008929343    2.447    0.591
       226 -10.0272    129.8793     19.1416   2.8393032803e+01   4.9921249414e+01    0.2072495    0.1799161 -75.53            0    1.125    0.111
       227  -9.8399    237.8649     18.6721   1.8182981811e+01   2.4870134457e+01    0.1484591   0.09202663 -74.45 0.0004090967    1.675    0.403
       228  -9.6829    226.0524     18.4631   1.8807608936e+01   2.7184095550e+01    0.2235036    0.1264584 -74.38  0.001247677    1.875    0.467
       229 -10.5188    165.5621    102.7198   4.8266787526e+01   2.8638730037e+01    0.2804243    0.1360121 -32.83  0.001136586    2.080    0.519
       230  -9.5134    171.9121     18.1983   2.2857258186e+01   3.9262505941e+01     0.211074    0.1350709  46.29 0.0007795471    1.837    0.456
       231 -10.8253    139.3069     17.5174   2.6396853171e+01   4.7614490791e+01    0.2524757    0.2294704 -49.13 0.0004619547    1.095    0.086
       232 -10.2419    205.1176     16.9734   1.9783971440e+01   3.1698921363e+01    0.1754147    0.1532138 -53.75 0.0003946344    1.044    0.043
       233  -9.3430    198.1178     16.9941   2.0291097885e+01   3.3242602645e+01    0.1446813     0.123735 -71.48 0.0003359203    1.101    0.092
       234  -9.3433    189.3746     15.2343   2.0472553256e+01   3.5405734349e+01    0.1237957   0.09167957  47.96 0.0001731592    1.613    0.380
       235  -9.8704    159.3261    103.3214   4.9686911117e+01   2.9838308538e+01    0.1494538    0.1121601   6.72 0.0004344269    1.684    0.406
       236  -9.8278     27.7276     18.9900   6.5804562011e+01   7.3629806710e+01    0.2235382    0.1773404  -0.70 0.0006472779    1.284    0.221
       237 -10.3317    144.0938    102.9867   5.2940189025e+01   3.3128933497e+01    0.2819797     0.223285  27.21  0.001397687    1.374    0.272
       238  -9.8123    134.7712     13.1864   2.5416100097e+01   4.9243231583e+01    0.1881913    0.1557347  43.93 0.0003318075    1.308    0.236
       239 -10.6353    208.7540    100.5101   4.0385638628e+01   2.0447369311e+01    0.2901358     0.181655 -17.78 0.0006934088    1.691    0.409
       240 -11.2124     75.8497    101.9205   7.2710942965e+01   4.7013000959e+01    0.2329725    0.2100927 -21.54 0.0005499447    1.218    0.179
       241 -10.4334    185.7246    101.0298   4.4130164642e+01   2.4797978261e+01    0.1952491    0.1613679 -28.75 0.0004142328    1.109    0.098
       242 -11.6389    150.1164     99.5343   5.0660617355e+01   3.2485012168e+01    0.3388655    0.3189052  79.64 8.377814e-06    1.177    0.150
       243 -10.6278    151.9824     95.5151   4.9170648459e+01   3.2814846273e+01    0.3786724    0.3118228  80.88  0.001343655    1.503    0.335
       244 -13.0897    117.8017     95.9840   5.7697546696e+01   4.0176583976e+01    0.9496097    0.5064831 -62.17  0.003287136    2.958    0.662
       245 -10.2099    100.6903    101.6957   6.4321090176e+01   4.2466106911e+01     0.153936    0.1222999  -6.10 0.0001900311    1.610    0.379
       246 -11.1129    193.2379     99.2204   4.2443046431e+01   2.3593049004e+01    0.3364422    0.2209965  51.61  0.001051842    1.682    0.405
       247 -13.8651    127.2903     90.6778   5.3633046310e+01   3.9187922110e+01     1.591565    0.7658913 -52.21  0.005818986    2.456    0.593
       248 -14.3197    194.8111     79.8841   3.7373666124e+01   2.6163115529e+01     1.444892     1.055838  63.22  0.006647313    1.561    0.359
       249 -11.3435    159.6007    248.9933   7.5852479500e+01   6.2146734681e+00    0.1987211    0.1592361  18.13  0.001546819    1.167    0.143
       250 -13.6927    123.6787     84.3643   5.2702495027e+01   4.1244920498e+01     1.440475    0.8186607  21.99   0.00473729    3.478    0.712
       251 -11.4562    112.5601    247.0028   8.4817679652e+01   1.1921805734e+01    0.3295105    0.1577831 -36.46  0.001758108    3.027    0.670
       252 -13.5412    204.6319     69.6292   3.3443479648e+01   2.5579665158e+01    0.8610157    0.5946732  85.59  0.003792787    1.888    0.470
       253 -12.9488    187.7751     47.4021   2.9633737219e+01   3.2140623090e+01     1.468936    0.6471435  69.82  0.006221048    2.543    0.607
       254 -12.4538    207.6246     46.2123   2.7139923009e+01   2.7948457494e+01    0.7544205    0.3611868 -42.42  0.002535975    1.782    0.439
       255 -12.0271      3.1651    247.6145   1.0734026838e+02   2.2820557353e+01    0.4553978    0.2298068  74.48  0.003033207    1.921    0.480
       256 -12.8074    190.8156     68.3648   3.4940296530e+01   2.8653562220e+01    0.7121676    0.5911354  29.86  0.004112077    1.404    0.288
       257 -11.5773     12.8689    248.0075   1.0541663513e+02   2.1967916547e+01    0.1984874    0.1502613  59.06   0.00120607    1.187    0.157
       258 -10.2758    235.3103    244.3098   6.2418240155e+01  -1.3210372715e+00    0.1040248    0.0552175   1.36  0.000338041    1.622    0.384
       259 -11.7568    147.8277     38.6730   3.2534354237e+01   4.2914346772e+01    0.9596873    0.3147732 -40.50  0.003085535    2.805    0.643
       260 -11.6574    243.3798    242.9962   6.1032629880e+01  -1.9638045185e+00    0.2016196   0.08109145  16.09  0.001169495    2.440    0.590
       261 -13.0710    142.7430     60.9057   4.0833955902e+01   4.0933321665e+01     1.583154     1.042015  84.08  0.006853584    2.027    0.507
       262 -11.6099    227.4328    242.4832   6.3377793978e+01  -3.7144991913e-01    0.1935722    0.1404778  28.57  0.001337563    1.695    0.410
       263 -12.3924    173.0368     44.3071   3.0609355235e+01   3.5963758473e+01    0.5668091    0.4164582  70.19 0.0006408922    1.412    0.292
       264 -12.0395    174.2322     39.7649   2.9103563920e+01   3.6254187692e+01    0.4268528      0.28387  83.46 0.0009714341    1.642    0.391
