#   1 NUMBER                 Running object number                                     
#   2 MAG_AUTO               Kron-like elliptical aperture magnitude                    [mag]
#   3 X_IMAGE                Object position along x                                    [pixel]
#   4 Y_IMAGE                Object position along y                                    [pixel]
#   5 X_WORLD                Barycenter position along world x axis                     [deg]
#   6 Y_WORLD                Barycenter position along world y axis                     [deg]
#   7 A_WORLD                Profile RMS along major axis (world units)                 [deg]
#   8 B_WORLD                Profile RMS along minor axis (world units)                 [deg]
#   9 THETA_WORLD            Position angle (CCW/world-x)                               [deg]
#  10 FWHM_WORLD             FWHM assuming a gaussian core                              [deg]
#  11 ELONGATION             A_IMAGE/B_IMAGE                                           
#  12 ELLIPTICITY            1 - B_IMAGE/A_IMAGE                                       
         1 -14.9640    164.3423     42.1731   7.8155278350e+01   3.8709551213e+01     1.536259       1.0839 -14.43  0.004018351    1.507    0.337
         2 -14.7629    181.4202      8.4950   6.4812980295e+01   3.8148225708e+01     1.917737    0.9459348  62.74  0.006808117    1.932    0.482
         3 -11.1545    133.8138    246.5480   1.2814088420e+02   1.0055013927e+01    0.1347902    0.1039441  30.51 0.0002701381    1.040    0.039
         4 -19.9030     73.4683    169.5693   1.3257840768e+02   3.0935130320e+01     16.26702     7.528034 -69.08   0.07622094    2.382    0.580
         5 -10.1471    139.5890    200.5852   1.2152493265e+02   1.5960460854e+01    0.2602224    0.1636126  30.98 0.0007996678    1.344    0.256
         6 -11.4549    125.0546    243.6352   1.2947598650e+02   1.1534778260e+01    0.1302712    0.1294404 -11.63 0.0005786772    1.338    0.253
         7 -10.2318    139.1819    249.8519   1.2749353505e+02   8.9622736034e+00    0.1410111    0.1031026  13.10 0.0006932507    1.361    0.265
         8 -11.2446     21.7987    241.6155   1.4843389791e+02   2.3051491923e+01    0.1446052   0.09914509 -89.82  0.001169183    1.530    0.346
         9 -10.9768    118.9684    239.9808   1.3026368943e+02   1.2798218066e+01    0.1274811    0.1193265  51.85 0.0005969414    1.274    0.215
        10 -12.6260    153.5814    185.4154   1.1630039280e+02   1.6305110701e+01    0.4861428    0.2622865 -59.57  0.002165873    3.175    0.685
        11 -12.2306    116.4634    179.9510   1.2366208664e+02   2.2942018918e+01    0.7656657    0.3551823  59.19  0.002554734    4.776    0.791
        12 -11.1316      8.0000    239.2240   1.5077754400e+02   2.4597114384e+01    0.1146748   0.04794435 -85.86 0.0007275838    2.448    0.591
        13 -12.3671    199.4548    179.2514   1.0606237566e+02   1.0041417489e+01    0.4751526    0.2678629 -50.22   0.00223877    2.994    0.666
        14 -13.3308    195.6791    169.5213   1.0496884965e+02   1.2023557196e+01    0.4875205    0.4000466 -25.06 0.0008301779    1.286    0.223
        15 -12.3784    193.5982    164.7471   1.0445122937e+02   1.3066870803e+01    0.3631055    0.3090543  18.18  0.001577455    1.115    0.103
        16 -11.5601      3.8552    179.7019   1.4974999356e+02   3.5606486982e+01    0.2339689    0.1728448  48.62  0.001006287    1.186    0.157
        17 -13.4736    178.1236    170.7646   1.0865824586e+02   1.4705614488e+01    0.5825531    0.4394329 -26.11  0.003254712    1.347    0.258
        18 -11.0342     13.8139    238.6678   1.4974628428e+02   2.4204669376e+01   0.07702212    0.0652561 -78.03 0.0006649114    1.494    0.331
        19 -10.6405     25.5966    230.5457   1.4734245606e+02   2.4501425811e+01    0.1174819   0.07878838  70.46 0.0006936558    1.308    0.236
        20 -13.2057    138.5058    171.2026   1.1725235337e+02   2.1133122286e+01    0.6829258    0.5375375  64.07  0.003844138    1.654    0.396
        21 -14.0114    144.8944    169.4569   1.1551503827e+02   2.0407864235e+01    0.7995548    0.5231348  64.70  0.003668412    2.597    0.615
        22 -10.7831     11.1232    174.2626   1.4790658342e+02   3.6175899056e+01    0.1484469    0.1299541  79.98 0.0004623064    1.137    0.121
        23 -11.4195    165.7981    172.3081   1.1148462467e+02   1.6486830116e+01    0.2126667    0.1806163 -42.03  0.001007431    1.395    0.283
        24 -11.5311    125.7783    171.8168   1.2027145090e+02   2.3041890027e+01    0.2747787    0.2359373 -59.84  0.001087853    1.356    0.262
        25 -11.1622     16.4654    250.1736   1.4962566138e+02   2.2191001818e+01    0.1174652   0.07972774  81.02 0.0009800303    1.444    0.307
        26 -11.9087    230.1059    166.7157   9.8265166220e+01   7.0010338212e+00    0.2692406    0.1607876 -39.37  0.001477343    2.019    0.505
        27 -10.5437    123.0152    165.9354   1.1996418937e+02   2.4592359795e+01    0.2418593    0.1661912  52.08 0.0006699338    1.575    0.365
        28 -10.5559     25.6896    164.9099   1.4395096014e+02   3.6970592988e+01    0.2342267    0.1635884  -5.55  0.001392717    2.112    0.526
        29 -11.2628     25.2939    225.0609   1.4717920839e+02   2.5446704014e+01    0.1702685    0.1226596 -76.27 0.0009509019    1.568    0.362
        30 -11.7677    129.4017    161.3332   1.1766601895e+02   2.4447519025e+01    0.3283607    0.1959776  26.91 0.0009258394    1.713    0.416
        31 -10.6883    192.1089    157.7935   1.0336634580e+02   1.4364819696e+01    0.3243547    0.1825729  11.97  0.001417739    2.409    0.585
        32 -10.8607     23.7734    214.4057   1.4702593295e+02   2.7429226344e+01     0.228413    0.1199693 -61.74  0.001446844    2.279    0.561
        33 -13.1371    161.9929    153.7249   1.0877615941e+02   2.0272032028e+01    0.4357092     0.389369  82.86  0.001928395    1.592    0.372
        34 -11.0943    111.7800    213.7797   1.2896962458e+02   1.7692108278e+01    0.1685456    0.1315694  67.71  0.000343676    1.526    0.344
        35 -11.6389    174.3162    148.6948   1.0510409237e+02   1.8938397983e+01    0.2947113    0.2606423 -67.84  0.001176096    1.612    0.380
        36 -11.6467    109.5523    210.4421   1.2906178959e+02   1.8535663681e+01    0.2372309    0.1591055  35.43 8.745294e-05    1.223    0.182
        37 -12.2483      5.2588    138.1378   1.4751488102e+02   4.4426384445e+01    0.4416483    0.2656094  70.72  0.001707989    1.479    0.324
        38 -10.8305    171.8915    138.1708   1.0336256882e+02   2.1175457410e+01    0.2022889    0.1962805  40.21 0.0005918345    1.248    0.198
        39 -12.6480    160.4107    127.7166   1.0352037514e+02   2.5229584039e+01    0.4210723    0.3564819 -53.67  0.001728172    1.412    0.292
        40 -10.6749    107.7014    207.3012   1.2909862975e+02   1.9308106413e+01    0.1856149    0.1779501  48.16 0.0003583588    1.159    0.137
        41 -11.3349    116.5111    212.2595   1.2781953833e+02   1.7308468867e+01    0.2221045    0.1598805 -69.27  0.001413425    1.840    0.456
        42 -10.1772    130.2631    212.5747   1.2502765392e+02   1.5385453805e+01    0.1147124   0.08483883  63.99 0.0004529014    1.788    0.441
        43 -10.7130    167.6479    112.6317   9.8255694080e+01   2.6505460115e+01    0.2859185    0.2225145 -79.51  0.001326454    2.088    0.521
        44 -13.1980     11.7432    205.9883   1.4906629031e+02   2.9963390898e+01    0.4186185    0.2415039  20.49  0.002232596    2.011    0.503
        45 -10.8115    205.2926    110.1772   9.0247180664e+01   1.9260906291e+01    0.2798625    0.2015025  40.43 0.0009963788    1.435    0.303
        46 -11.1916      9.3750    102.0806   1.4363831527e+02   5.2719263602e+01    0.2616396    0.2266509  73.03  0.001179195    1.135    0.119
        47 -12.2248    163.6324    202.9059   1.1695438682e+02   1.2086458313e+01    0.3037233    0.2631619  60.14  0.001164046    1.618    0.382
        48 -12.8029    160.7401    197.7548   1.1675665533e+02   1.3279095879e+01    0.3911947    0.2861538 -65.42  0.002238172    2.282    0.562
        49 -11.8663    156.7703    199.8671   1.1788014382e+02   1.3549236153e+01    0.5110489    0.3539786  70.08  0.002554473    2.982    0.665
        50 -10.9498    153.8033    194.9855   1.1775312894e+02   1.4743846590e+01    0.2565566    0.1984425  46.66  0.001078052    1.413    0.292
        51 -14.4866    152.8363     56.6178   8.5182062728e+01   3.9478472431e+01     1.290412     1.144084  -6.54 0.0009669255    1.130    0.115
        52 -10.0185    159.8831    247.1951   1.2345523913e+02   6.7007385362e+00    0.1435632    0.1034329   9.11 0.0005830306    1.343    0.256
        53 -12.9597    168.5235     33.8767   7.4711916407e+01   3.8716999101e+01    0.4332657    0.3674086  -5.39 0.0008726707    1.229    0.186
        54 -10.9736     13.5319     59.9618   1.3633595268e+02   6.2872683705e+01    0.2066682    0.1713608  50.77 0.0004184019    1.412    0.292
        55 -10.4526    142.0442     33.1325   7.9186074059e+01   4.5562681554e+01    0.2608736    0.2051493 -87.79 0.0008001097    1.547    0.354
