#   1 NUMBER                 Running object number                                     
#   2 MAG_AUTO               Kron-like elliptical aperture magnitude                    [mag]
#   3 X_IMAGE                Object position along x                                    [pixel]
#   4 Y_IMAGE                Object position along y                                    [pixel]
#   5 X_WORLD                Barycenter position along world x axis                     [deg]
#   6 Y_WORLD                Barycenter position along world y axis                     [deg]
#   7 A_WORLD                Profile RMS along major axis (world units)                 [deg]
#   8 B_WORLD                Profile RMS along minor axis (world units)                 [deg]
#   9 THETA_WORLD            Position angle (CCW/world-x)                               [deg]
#  10 FWHM_WORLD             FWHM assuming a gaussian core                              [deg]
#  11 ELONGATION             A_IMAGE/B_IMAGE                                           
#  12 ELLIPTICITY            1 - B_IMAGE/A_IMAGE                                       
         1 -15.5149      6.4447     71.7814   1.2615613709e+02   6.0875814836e+01      1.29514    0.7026536 -48.92  0.004479154    1.401    0.286
         2 -14.4018    119.0707     27.8158   7.4244254395e+01   5.1112244018e+01    0.8585848    0.5137141  34.60  0.004419364    1.780    0.438
         3 -15.3587    119.9345     54.7007   8.2482499854e+01   4.7479390594e+01     1.413014    0.8488628  27.85  0.001940957    2.133    0.531
         4 -15.4571    122.2244     36.9990   7.6426738700e+01   4.9356187051e+01     1.579594    0.5643999  43.41  0.005730593    2.839    0.648
         5 -13.7842    186.6088     14.4963   5.9696072725e+01   3.6965890069e+01    0.6237495    0.5318922 -41.18  0.003494065    1.382    0.276
         6 -14.2599    188.4792     25.4196   6.2008653183e+01   3.5321798814e+01     1.744606    0.6596267 -58.51  0.006352093    3.848    0.740
         7 -12.7830    194.9336     23.2803   6.0737477390e+01   3.4079814129e+01    0.6709092     0.278042 -38.28  0.002821197    2.454    0.593
         8 -14.2911    218.8648     41.5062   6.1987220481e+01   2.6351807857e+01     1.254571    0.6668774 -80.58  0.004394474    2.241    0.554
         9 -14.7950     26.3007     31.9982   1.0594283074e+02   6.6298005475e+01    0.9133531    0.7505539 -32.47  0.006688437    1.362    0.266
        10 -13.7594      8.8599      3.3441   1.0217790970e+02   7.1751647554e+01    0.7007319     0.403222  35.98  0.004694763    2.250    0.556
        11 -15.3500      8.4094     29.3689   1.1300901991e+02   6.8291467441e+01    0.8805773    0.6867151  22.31   0.00665958    1.556    0.357
        12 -15.1323     14.2390     19.8422   1.0665486596e+02   6.9182610516e+01    0.8265132    0.4840006  -8.27  0.002766511    1.572    0.364
        13 -15.0460     21.6967     13.5061   1.0056378299e+02   6.9259274312e+01    0.9381481     0.426418  34.60  0.004760449    2.269    0.559
        14 -15.1762    166.4747     30.3110   6.6251094859e+01   3.9910179252e+01      1.06192    0.8099843  69.19  0.003230889    1.137    0.121
        15 -13.9690     46.7360     27.5041   9.5776927937e+01   6.4447530745e+01     1.409016    0.3462682 -33.89  0.005332234    4.220    0.763
        16 -15.3268     42.1054      6.9731   8.9071629428e+01   6.7417234381e+01      1.50156    0.8366346   5.51  0.008831914    1.954    0.488
        17 -15.5434    146.6850     30.4451   6.9555364271e+01   4.4544363802e+01     1.381701    0.7378813  64.40  0.004855745    1.677    0.404
        18 -12.9632    222.7125      6.2474   5.4410042011e+01   2.9801479868e+01    0.7709683    0.2212348 -39.72  0.003493757    3.103    0.678
        19 -13.2471    214.9677      9.6623   5.5756288391e+01   3.1108188004e+01    0.5504305    0.2839841  79.96  0.002079045    1.670    0.401
        20 -14.0852    215.4007     20.7934   5.7997302210e+01   2.9753632807e+01     1.059895    0.3507347 -34.66  0.004539289    3.241    0.691
        21 -13.4251    218.9546     15.3557   5.6544803111e+01   2.9604436756e+01    0.5540385    0.3845252  86.67  0.002518289    1.188    0.158
        22 -14.3006      9.2912     42.9333   1.1718275669e+02   6.6042349505e+01    0.9523858    0.7992042 -47.94  0.007152008    1.398    0.285
        23 -15.8740     99.5710     12.5983   7.3672008383e+01   5.6761527179e+01     1.437106    0.6542976  54.16  0.003202774    1.808    0.447
        24 -11.9610     60.9168     17.5230   8.6609708681e+01   6.3474749486e+01    0.2450026    0.1557121 -30.86            0    1.727    0.421
        25 -12.0123    139.5394     10.8087   6.5224409593e+01   4.8193460849e+01    0.2454812    0.1245679  54.02  0.001266894    1.641    0.391
        26 -12.6182    153.5323      8.2164   6.2381503085e+01   4.5219874731e+01     0.237912    0.1880747  69.41 0.0004847279    1.041    0.039
        27 -13.0132    125.6868      8.5658   6.6951032111e+01   5.1505703844e+01    0.3620721    0.2548193 -85.61   0.00131091    1.744    0.426
        28 -12.6352    120.1640      3.6366   6.6451350116e+01   5.3122418590e+01    0.3445617    0.1762538  70.70  0.001356616    1.901    0.474
        29 -11.9936    117.8043      1.3527   6.6175977232e+01   5.3810660909e+01    0.2194833    0.1065431  68.09 0.0002694178    1.885    0.470
        30 -11.2165    229.0855      4.2169   5.3509990300e+01   2.8667667613e+01    0.3239291     0.110436 -62.83  0.001335263    3.432    0.709
        31 -11.7943     67.7956      3.7809   7.8891772321e+01   6.3588698379e+01     0.214372    0.1633213  28.99  0.001504465    1.034    0.033
        32 -12.1271     26.5054      3.7704   9.4093291503e+01   6.9800441141e+01    0.2142576    0.1509733  10.10  0.000800341    1.078    0.072
        33 -11.0459    192.9496      2.7353   5.6377886447e+01   3.6708323258e+01    0.1715716    0.1297267  84.36 0.0004570889    1.051    0.048
        34 -11.4968    232.6367      1.6659   5.2763795432e+01   2.8198130627e+01    0.2105581    0.1254756  80.11  0.000772742    1.394    0.283
        35 -12.4773     80.5847      1.7782   7.4512051475e+01   6.1402003613e+01    0.5442908    0.1060166  52.54   0.00209304    3.470    0.712
        36 -10.8738     62.4781      1.5152   7.9610634481e+01   6.4695104668e+01    0.1143958   0.08908768  27.44 0.0008100332    1.016    0.016
        37 -11.4540     59.4846      1.4958   8.0554876472e+01   6.5203556884e+01    0.2252035    0.1142111  44.19 0.0007875754    1.617    0.382
        38 -12.9592     74.0162    153.4531   1.2132699124e+02   3.5059277737e+01    0.5201806    0.4338093 -22.70  0.002565685    1.476    0.323
        39 -13.3300     54.8788    247.2229   1.3792981505e+02   1.5740466230e+01    0.7869082    0.4741754  24.23  0.004044238    2.568    0.611
        40 -13.9798     28.1380    246.0350   1.4282036538e+02   1.9355362200e+01    0.5569734    0.3353876  79.18  0.003448582    1.395    0.283
        41 -11.9988      2.6586    249.7021   1.4748627349e+02   2.1414625861e+01    0.2960638    0.1791137  61.49  0.001885036    1.288    0.224
        42 -14.2790      8.9886    245.5483   1.4617635308e+02   2.1588520814e+01    0.7660566    0.4153571  62.20  0.003203116    1.471    0.320
        43 -11.8479    176.8949    168.2399   9.8413480271e+01   1.2027537040e+01    0.3069004    0.2020043 -20.83  0.001248133    2.139    0.532
        44 -11.9369    188.3898    156.1976   9.3303882031e+01   1.2252236804e+01       0.2227    0.1395325 -53.82 0.0009500097    1.673    0.402
        45 -12.1995    110.3308    154.4299   1.1168323278e+02   2.8697434160e+01    0.5043967    0.3092043 -86.30  0.001798962    2.832    0.647
        46 -11.0541     55.9990    155.9850   1.2667238557e+02   3.6919194108e+01    0.1730567    0.1519851 -74.10 0.0007198372    1.003    0.003
        47 -11.9046     85.7938    152.9268   1.1800014234e+02   3.3359667805e+01    0.3976711    0.2351324 -50.19  0.001753041    1.627    0.385
        48 -13.0967    246.4692    150.0159   8.1196066778e+01   2.2181705902e+00    0.5593431    0.3819188 -62.12  0.002858696    1.752    0.429
        49 -12.0185    103.4334    150.0539   1.1260940586e+02   3.1042583537e+01    0.4154345    0.3041157 -32.11  0.001902598    1.632    0.387
        50 -12.6293    214.3736    156.2579   8.8124037924e+01   6.9883459715e+00    0.2793131    0.1834364 -50.54  0.001316529    1.501    0.334
        51 -11.7222    148.8719    140.6577   9.8707742776e+01   2.4165216841e+01    0.3240676    0.2366671 -55.38  0.001275022    1.388    0.280
        52 -12.2923     42.0273    138.9811   1.2772547729e+02   4.2787212344e+01    0.4261811    0.2762783  65.81  0.002114948    1.936    0.484
        53 -12.4315     45.4703    134.1858   1.2589883308e+02   4.3576413453e+01    0.4979555    0.3342136 -49.25  0.002635828    1.367    0.268
        54 -13.5944    245.8472    136.5016   7.8511751317e+01   4.8134025275e+00    0.5942021    0.3660609 -66.12  0.002725694    2.208    0.547
        55 -12.7352    229.9430    137.8541   8.1373552141e+01   7.5538859646e+00    0.3744847    0.2256369 -48.91   0.00177268    1.532    0.347
        56 -11.4435     61.6053    134.1521   1.2116728010e+02   4.1598934012e+01    0.3413257    0.1642472  47.39  0.001394554    2.464    0.594
        57 -10.6393     11.1998    134.4244   1.3570079308e+02   4.6686942027e+01    0.1450721    0.1134288  49.31 0.0003329162    1.489    0.329
        58 -10.8468    138.4616    132.5169   9.9345236267e+01   2.8273192490e+01    0.1566737    0.1538472 -52.18 0.0001487132    1.032    0.031
        59 -12.3596    132.8494    128.6019   9.9824070773e+01   3.0367293368e+01    0.8440145    0.3002928 -42.84  0.002642685    2.940    0.660
        60 -14.3344     28.3319    123.6416   1.2911484303e+02   4.7851328657e+01     2.232365    0.3262588 -51.68  0.006824135    4.360    0.771
        61 -15.2084     18.0696    110.7347   1.3001184708e+02   5.1709913562e+01     1.307749      1.21022 -10.76  0.006717251    1.250    0.200
        62 -14.5334      2.4462     97.0297   1.3261757792e+02   5.5799053135e+01     1.267046     0.668734 -76.60  0.004850914    1.978    0.494
        63 -15.3052     20.5490     96.9757   1.2659242837e+02   5.4614491580e+01     1.224265    0.8690171 -70.17  0.006126562    1.414    0.293
        64 -15.1272     29.1282     92.7696   1.2276215094e+02   5.4820762819e+01     1.094693    0.9331329 -85.54  0.006996082    1.436    0.304
        65 -13.3169    109.8810     96.1271   9.7532117885e+01   4.2245514848e+01    0.4427654    0.3444315  88.31 0.0005363569    1.810    0.448
        66 -13.1940     85.4557    115.5739   1.0989204574e+02   4.2472381047e+01    0.9682005    0.5364681  19.53  0.003720576    2.707    0.631
        67 -14.6430     92.5190    108.9686   1.0609525535e+02   4.2763550896e+01     1.577756     1.064335  28.17  0.007374434    1.651    0.394
        68 -14.6279    105.4862    122.7592   1.0580004187e+02   3.7235891995e+01     1.576328     1.058097  41.74  0.007193013    1.535    0.349
        69 -15.0740    106.4413    108.8128   1.0196728525e+02   4.0217636606e+01     1.481993     1.069756 -47.80  0.007099319    1.358    0.264
        70 -13.3295    111.9801    100.7580   9.8221696742e+01   4.0859389337e+01    0.4639741    0.4052342  59.34  0.001561629    1.233    0.189
        71 -11.4435     60.4895    125.0013   1.1963708960e+02   4.3966717693e+01    0.2946612    0.1855598   0.91  0.001275667    2.497    0.600
        72 -11.0631    185.1990    124.4014   8.6654521949e+01   1.9667955847e+01    0.2111412    0.1461637  64.30 0.0004505023    1.636    0.389
        73 -14.9086    248.1748    108.9389   7.2467936589e+01   9.3635399253e+00     1.229805    0.5004314 -38.72  0.005077297    2.313    0.568
        74 -11.4395    180.9959    121.2555   8.6766654609e+01   2.1264820503e+01    0.2207501     0.205014  60.10  0.000672314    1.103    0.093
        75 -12.2533      4.0228    119.9726   1.3573126698e+02   5.0546773648e+01    0.4531762    0.1843669  16.97  0.002172988    3.157    0.683
        76 -12.5263     45.6093    110.0172   1.2108636248e+02   4.9307749253e+01    0.5192864    0.3480749 -42.66  0.002787465    1.362    0.266
        77 -12.5783    121.0266    111.8002   9.8685769856e+01   3.6630167979e+01    0.3941478    0.2455818  63.03  0.001575485    2.143    0.533
        78 -12.2920    176.1595    110.5256   8.5147970238e+01   2.4565748258e+01    0.3851598    0.3140794  54.97  0.001923568    1.242    0.195
        79 -12.2668     61.6005    108.3198   1.1555983104e+02   4.7731362283e+01    0.8298349    0.2843001 -54.99  0.003031267    2.677    0.626
        80 -12.9680     61.7439     98.5995   1.1311762023e+02   4.9886221445e+01    0.4726807    0.3578636  84.96  0.002261278    1.993    0.498
        81 -13.6995    236.3002    108.1769   7.4005457966e+01   1.1834410498e+01     0.538949    0.2117552 -49.54  0.002106332    2.385    0.581
        82 -10.9860    189.8079    104.3967   8.0934196294e+01   2.2636105513e+01    0.2135678    0.1385737  43.90 0.0009498524    1.712    0.416
        83 -13.5193    121.6827    102.2160   9.5945487776e+01   3.8551082492e+01    0.9492972    0.3668157  42.90  0.003273909    2.627    0.619
        84 -12.7396    135.8780    103.2235   9.2509822115e+01   3.5268131431e+01    0.7303238    0.3250089  50.18   0.00265896    2.295    0.564
        85 -13.1352    137.4817     96.1491   9.0191260604e+01   3.6347421293e+01    0.4815511    0.3813696 -44.23  0.001457217    1.276    0.216
        86 -13.0469     43.1612     91.2225   1.1753861534e+02   5.3763220748e+01    0.6951502    0.2521849 -60.63  0.002582085    3.168    0.684
        87 -13.4475     49.7679     99.1539   1.1723436401e+02   5.1284674720e+01    0.8294235    0.5140516   0.69  0.003742447    2.227    0.551
        88 -12.6664     49.6828     95.0389   1.1625416241e+02   5.2196624093e+01    0.3911116    0.3067343 -77.56  0.001627404    1.609    0.378
        89 -12.0713    127.9218     95.8241   9.2533532829e+01   3.8526767676e+01    0.2944008    0.2168358  67.99  0.001354482    1.636    0.389
        90 -13.1684     98.1950     93.4710   1.0018892913e+02   4.5060765063e+01    0.7244181     0.492472  65.58  0.002560846    2.133    0.531
        91 -10.8151     76.0053     95.5292   1.0765698249e+02   4.8461070855e+01    0.1953074    0.1387896  32.40 0.0003420005    1.474    0.321
        92 -11.8098     89.4576     87.3778   1.0110537911e+02   4.7892666815e+01    0.3671522     0.239136  52.14  0.001724156    1.812    0.448
        93 -11.9600    125.8032     86.6351   9.0502294835e+01   4.0787117931e+01    0.3255464    0.2505626  63.93  0.001595973    1.445    0.308
        94 -12.9862    132.3811     86.2173   8.8703243924e+01   3.9414566350e+01     0.354881    0.2810917  57.92  0.001216507    1.284    0.221
        95 -12.7845    250.0716     82.9636   6.6920642334e+01   1.3436350515e+01      0.55035    0.1470492 -40.83  0.001962953    3.291    0.696
        96 -13.2195    188.3573     84.5310   7.6349081869e+01   2.6656839502e+01    0.6869872    0.3143917  44.67  0.001877285    2.614    0.617
        97 -13.7677    237.7929     80.4480   6.7931092838e+01   1.6340152071e+01    0.7947616    0.4216277 -72.58  0.003341472    2.652    0.623
        98 -13.5372    237.1738     73.2381   6.6503540737e+01   1.7645577622e+01    0.5146613    0.3790705 -40.68  0.002952119    1.393    0.282
        99 -13.5381    163.8159     71.4909   7.7599935198e+01   3.4715076363e+01     1.040509    0.4819301  44.26  0.004018994    2.417    0.586
       100 -14.3654    161.0933     80.5642   8.0571093858e+01   3.3806297364e+01     0.867916    0.6037564  27.52  0.002437805    1.982    0.495
       101 -14.7860    170.4949     77.0129   7.7752836152e+01   3.2193170580e+01     1.251616     0.722064  54.80    0.0056006    1.670    0.401
       102 -10.8440     98.4172     84.1853   9.7442576018e+01   4.6872312678e+01     0.192281    0.1354772 -54.37 0.0004324198    1.605    0.377
       103 -15.0134     39.3509     67.7774   1.1256736360e+02   5.8914746045e+01     2.800318    0.5656981  28.62  0.008991936    5.404    0.815
       104 -13.5469     72.1790     75.0238   1.0301411118e+02   5.3185284926e+01    0.7236695    0.5444065 -23.11  0.003266389    1.317    0.241
       105 -13.0985     77.1197     73.5777   1.0092659770e+02   5.2661912017e+01    0.6611827    0.3534597 -26.58  0.002827687    2.333    0.571
       106 -14.5130     87.4638     65.7274   9.5126876084e+01   5.2270509524e+01     1.417822     0.753665 -20.76  0.004234845    2.793    0.642
       107 -13.5804     56.5062     78.8253   1.0953956264e+02   5.4714682117e+01    0.6180163    0.3805782 -30.87  0.001920134    1.619    0.382
       108 -14.1894     60.7990     75.6604   1.0710822204e+02   5.4750001383e+01    0.6891742    0.5081827 -42.25  0.001008067    1.278    0.217
       109 -14.4826     94.7599    236.5800   1.2878102745e+02   1.2113968875e+01    0.9765482    0.5458269  72.92  0.002230912    2.363    0.577
       110 -13.2085    134.8560     79.5719   8.6203819891e+01   4.0081337268e+01    0.8767398    0.3953574  53.47  0.003364123    2.222    0.550
       111 -12.1262    113.9278     80.1422   9.1793956908e+01   4.4539627547e+01    0.4054451    0.3296894 -42.95  0.001785376    1.266    0.210
       112 -11.8844     90.8933     80.2063   9.8546090291e+01   4.9034509666e+01    0.3561183    0.2709998   6.10  0.001829312    1.526    0.345
       113 -12.2872     41.8525     77.5131   1.1441433529e+02   5.6748044608e+01    0.3222065    0.2263186 -31.53  0.001015248    1.280    0.219
       114 -14.3000      5.4351     64.0113   1.2468989715e+02   6.2462705107e+01    0.5450942    0.4514704 -18.40  0.003149231    1.185    0.156
       115 -12.9293    210.5402     77.9577   7.1163532453e+01   2.2674946405e+01    0.5659859    0.3329473 -87.60  0.002404909    2.365    0.577
       116 -14.1682    131.3268     66.7990   8.3352974195e+01   4.3068161872e+01     1.315972    0.8491465  54.02  0.005860692    1.484    0.326
       117 -14.6892    101.3845     50.0640   8.5889101894e+01   5.2059578285e+01    0.9894487    0.6720048  65.13  0.002084088    1.892    0.472
       118 -11.2335    147.3726    239.1658   1.1797239875e+02   2.8167593441e+00    0.1781015    0.1296755 -68.43 0.0009439808    1.713    0.416
       119 -12.3669     24.9958    217.4539   1.4122732609e+02   2.5835384826e+01     0.610451    0.3227511  74.56  0.003231931    1.813    0.448
       120 -14.1833    111.9799     40.3510   7.9920834662e+01   5.1170051205e+01     0.816609    0.4544188  27.56   0.00305346    2.345    0.574
       121 -13.5628     20.4258    224.6459   1.4269153130e+02   2.4751931952e+01    0.4423831    0.3738663  52.60  0.001927259    1.339    0.253
       122 -12.1144    100.2041     64.5410   9.0901654245e+01   5.0058016878e+01    0.3425815    0.3041834   1.42  0.001390817    1.117    0.105
       123 -11.5846    158.2221     63.8917   7.6657473326e+01   3.7273714786e+01    0.3381449    0.1783889 -55.21  0.001379317    2.343    0.573
       124 -14.0103    199.9161     70.0546   7.0940077529e+01   2.6413052073e+01    0.8187808     0.432495  65.90   0.00212204    1.910    0.477
       125 -14.0497     79.3771     60.2806   9.5943961264e+01   5.4611245401e+01    0.6654979    0.4741749  -7.24  0.003561013    1.587    0.370
       126 -13.9757    177.8406     57.3322   7.1363224362e+01   3.3600707916e+01    0.8322977    0.5616003 -61.66  0.002900818    1.594    0.373
       127 -12.1325     39.1264     60.6331   1.1048882905e+02   6.0257647460e+01    0.2540975    0.2122949  56.61  0.001596869    1.816    0.449
       128 -12.6188     24.4766     59.9879   1.1604236102e+02   6.1828695874e+01    0.3159598    0.1971462 -36.85  0.001083591    1.318    0.241
       129 -13.1422     63.0785     57.4042   1.0053745865e+02   5.7704644183e+01    0.6287137    0.3584681  47.78  0.003093744    2.232    0.552
       130 -13.9049     66.9076     49.4930   9.6492774230e+01   5.8381417991e+01    0.5771655    0.4669436 -23.56  0.002750332    1.187    0.158
       131 -13.3524    247.6758     51.6923   6.0978654197e+01   1.8770141619e+01    0.5321212    0.3340419 -36.03  0.002983821    1.792    0.442
       132 -13.5646     23.8590    230.7212   1.4249464940e+02   2.3059075101e+01    0.3246597    0.2062676 -77.93  0.001451852    1.377    0.274
       133 -13.6867     26.6264    226.1415   1.4161045087e+02   2.3736780333e+01    0.4887929    0.2636519 -75.12  0.002022927    1.619    0.382
       134 -11.8373    228.6534    227.3224   9.9472327592e+01  -8.4701471274e+00    0.1153595    0.1046437  79.42 0.0007049687    1.738    0.425
       135 -12.6852    198.7212     37.2226   6.3453518699e+01   3.1491883882e+01    0.5257786    0.2451058  84.11   0.00214805    2.725    0.633
       136 -13.8171     67.4299    222.9658   1.3298047250e+02   1.9206375254e+01    0.6690668    0.6255141 -47.80  0.004307524    1.407    0.289
       137 -13.3786    205.1927     40.2072   6.3321135674e+01   2.9610255551e+01    0.9104145    0.4200301 -78.97  0.003230183    3.857    0.741
       138 -11.8554     85.8577     50.0885   9.0466154766e+01   5.5051992156e+01    0.3155495    0.1905917 -24.35  0.001459013    1.807    0.447
       139 -14.3517     62.7817    214.6819   1.3304595678e+02   2.1741057062e+01    0.7825023    0.5959522  73.76  0.004589159    1.170    0.145
       140 -13.4279     98.6667    216.6758   1.2533489866e+02   1.5812532858e+01    0.4868774    0.3191838 -67.77  0.002456123    1.575    0.365
       141 -12.1712    248.9028    216.1450   9.3733647855e+01  -9.6382088521e+00    0.1841998    0.1714363 -20.43  0.001258009    1.279    0.218
       142 -11.3696     85.1546    215.7188   1.2823273898e+02   1.8194079916e+01    0.2340409    0.1555637  58.04  0.001200552    1.426    0.299
       143 -12.7848    237.7897    214.3554   9.5400503556e+01  -7.7344854383e+00    0.2835991     0.199221 -63.41  0.001430041    2.489    0.598
       144 -10.9756     23.3015     50.0250   1.1347235689e+02   6.3709058277e+01    0.1647558    0.1254329 -29.80 0.0004874176    1.076    0.071
       145 -13.7058    157.2996     44.4179   7.1523938244e+01   4.0318217000e+01    0.9389145    0.4855059  41.95  0.004089222    2.257    0.557
       146 -13.4575      9.3538    211.0332   1.4382212340e+02   2.8892444593e+01    0.6795114    0.2510042  42.17  0.003406038    2.484    0.598
       147 -13.3975     55.8271     27.4393   9.2325409657e+01   6.3140776134e+01    0.4578382    0.2588427  39.88  0.001372495    1.695    0.410
       148 -10.8579    136.6953    211.3264   1.1588608652e+02   1.0373813664e+01    0.1482502    0.1099832  74.11 0.0004954527    1.647    0.393
       149 -11.9969    246.7460     37.4239   5.8318072843e+01   2.0957332078e+01     0.256625    0.1545253 -69.98  0.001484389    1.476    0.322
       150 -12.1370    241.0415     36.0048   5.8575080948e+01   2.2323118466e+01     0.472815    0.1536659  70.43  0.001994052    3.030    0.670
       151 -13.1660    105.5041     34.9359   7.9776632730e+01   5.3206534547e+01    0.4578853    0.2929486 -11.87  0.002386099    1.933    0.483
       152 -13.2521     75.8945     37.4053   8.9173991665e+01   5.8601902984e+01    0.3247615    0.2300822  34.72 0.0008143954    1.270    0.212
       153 -12.6733     70.5053     36.5090   9.0619307525e+01   5.9643008036e+01     0.320825    0.2416757  15.74 0.0009400109    1.216    0.178
       154 -13.1199     94.5091    218.4847   1.2651385113e+02   1.6083586618e+01    0.3453702    0.2425132  43.92   0.00161261    1.343    0.256
       155 -12.3342    211.3685     33.3575   6.1084998021e+01   2.9106681999e+01    0.2708067    0.1870941 -66.29 0.0003249772    1.326    0.246
       156 -12.8096     57.3494    203.5020   1.3295011204e+02   2.5090044945e+01     0.538366    0.2549419 -80.48  0.002281507    2.366    0.577
       157 -11.9300    135.6718     50.0400   7.7405773315e+01   4.4614120668e+01    0.2856458    0.1836943  47.57  0.001429917    1.445    0.308
       158 -11.9288    185.5862    203.7596   1.0371411867e+02   2.9197089030e+00    0.2766112    0.1348261 -41.53  0.001144283    2.100    0.524
       159 -11.7197    223.2701     21.1570   5.7312960919e+01   2.7987847610e+01    0.4042279    0.1810644  69.21  0.001534507    1.977    0.494
       160 -12.8174    248.9332    197.6527   9.0252311932e+01  -6.6306340552e+00    0.6026816    0.2641686 -46.61  0.002655107    2.393    0.582
       161 -12.6744     40.3077    194.9658   1.3581800344e+02   2.9274702709e+01    0.4040743    0.1483379 -78.05  0.001513788    3.042    0.671
       162 -12.6879     16.7897    195.8784   1.4107080715e+02   3.1608612041e+01    0.5559251    0.2207551 -61.31  0.002647452    2.226    0.551
       163 -11.1760     89.1390     30.1394   8.2542337389e+01   5.7058424370e+01    0.1908427    0.1475219  23.83 0.0002922204    1.193    0.162
       164 -12.1375    238.8602     25.6217   5.6772395213e+01   2.4122677688e+01    0.2557229    0.2085135 -39.53  0.001729221    1.518    0.341
       165 -12.3229     97.6489     26.9284   7.9094178032e+01   5.5737811875e+01    0.2822389    0.1962904  51.56  0.001349363    1.308    0.236
       166 -11.7328    164.5647    196.2359   1.0686047165e+02   8.4085168913e+00    0.4082446    0.2544356 -85.28  0.001375317    3.782    0.736
       167 -11.6762     78.2061     20.7794   8.2328674064e+01   6.0141736643e+01    0.2055155    0.1528058  38.63 0.0006699793    1.158    0.137
       168 -13.5352     22.3221    181.0824   1.3842544982e+02   3.4545590959e+01    0.6937433    0.4069429 -60.09  0.003177899    1.565    0.361
       169 -14.8195      8.0480    183.6411   1.4187163325e+02   3.5268267220e+01     1.145719    0.9147812  83.98  0.007790112    1.078    0.072
       170 -11.4865    245.0333     16.7436   5.4596321067e+01   2.3940219159e+01    0.1845179     0.153422 -35.49   0.00129192    1.635    0.389
       171 -13.5592    139.3225     21.6269   6.8355869625e+01   4.7204582474e+01    0.4710575    0.2687701  64.51 0.0006265322    1.530    0.346
       172 -11.6165     70.8156     16.8757   8.3109716724e+01   6.1865918960e+01    0.1995248    0.1586354  24.48 0.0004358738    1.022    0.022
       173 -10.9901    245.9202     30.3332   5.7048728697e+01   2.2064207379e+01    0.1633263      0.12621 -83.99 0.0003049453    1.086    0.079
       174 -15.0329     15.5959    175.3948   1.3939007011e+02   3.6539692009e+01      2.14181    0.7870935  58.27  0.008358215    3.598    0.722
       175 -12.4670    249.7281    182.0738   8.7094492976e+01  -4.0855822176e+00    0.3367154    0.1599976 -41.94  0.001564313    1.863    0.463
       176 -11.9806     48.9997    181.5221   1.3217969975e+02   3.1468794663e+01    0.4096031    0.2296743 -51.57  0.001974199    1.858    0.462
       177 -11.4684    121.6122    181.0293   1.1407967434e+02   2.0106372788e+01    0.4632005    0.2579518  82.03  0.001256151    5.168    0.806
       178 -12.0704    201.4870    191.6574   9.8039292700e+01   2.3918303454e+00    0.3072601     0.242936   5.55  0.001604064    1.420    0.296
       179 -10.5990    100.9954    176.0179   1.1831762750e+02   2.5056289433e+01    0.1728354    0.1615839  87.67 0.0009367825    1.004    0.004
       180 -13.6091     30.0233    169.3571   1.3527724010e+02   3.6599075223e+01     0.591107    0.3756616 -42.93  0.001323118    1.879    0.468
       181 -12.7177    243.7285    171.1469   8.5945276937e+01  -1.1714075174e+00    0.3222058    0.2003885 -56.75  0.001550126    1.976    0.494
       182 -13.7268    124.0814    166.8654   1.1069358452e+02   2.3045791979e+01     0.732478    0.4751121 -68.12  0.003105124    1.786    0.440
       183 -11.3866    192.7398    164.1542   9.4132173204e+01   9.6771631524e+00     0.291526    0.2058142 -26.01  0.001333624    1.625    0.384
       184 -12.4676    206.5397    162.2838   9.0931655993e+01   7.3112674929e+00    0.2929443    0.1364261 -47.27  0.001142531    2.089    0.521
       185 -12.3938     77.5634    157.1976   1.2104716586e+02   3.3587277771e+01    0.4032529    0.3070688  32.09  0.001265117    1.461    0.315
