#   1 NUMBER                 Running object number                                     
#   2 MAG_AUTO               Kron-like elliptical aperture magnitude                    [mag]
#   3 X_IMAGE                Object position along x                                    [pixel]
#   4 Y_IMAGE                Object position along y                                    [pixel]
#   5 X_WORLD                Barycenter position along world x axis                     [deg]
#   6 Y_WORLD                Barycenter position along world y axis                     [deg]
#   7 A_WORLD                Profile RMS along major axis (world units)                 [deg]
#   8 B_WORLD                Profile RMS along minor axis (world units)                 [deg]
#   9 THETA_WORLD            Position angle (CCW/world-x)                               [deg]
#  10 FWHM_WORLD             FWHM assuming a gaussian core                              [deg]
#  11 ELONGATION             A_IMAGE/B_IMAGE                                           
#  12 ELLIPTICITY            1 - B_IMAGE/A_IMAGE                                       
         1 -12.7958    249.4810     59.4590   6.1146696472e+01   1.6038837576e+01     1.640944    0.4557129 -25.40  0.005487108    3.587    0.721
         2 -13.1295    241.1150     52.2569   6.0324113409e+01   1.8715220540e+01     1.405765    0.4658534 -36.38  0.005460679    2.549    0.608
         3 -13.9366    247.3899     40.6215   5.6755287766e+01   1.8720065435e+01     3.977675    0.7187527 -25.38   0.01087249    5.585    0.821
         4 -14.4656    235.2515     27.4219   5.4660091260e+01   2.2889625037e+01     2.862376      1.01309 -16.84  0.009775509    3.845    0.740
         5 -13.2742    245.9561     21.0393   5.2107693602e+01   2.1163056729e+01     1.258894    0.7824619  -3.68  0.006389456    2.079    0.519
         6 -14.2389    226.9566     51.6348   6.1874982955e+01   2.1980219859e+01     2.516043    0.7324668 -27.59  0.008548032    3.178    0.685
         7 -14.4728    240.0557     78.6645   6.7078666905e+01   1.5570735640e+01      2.63527    0.9746532 -40.22   0.01014316    2.615    0.618
         8 -12.4431    222.3939     18.8149   5.3678144277e+01   2.6802650614e+01    0.5110483    0.3849559 -30.64  0.002889056    1.282    0.220
         9 -10.1894    155.7339     15.9874   6.1349544412e+01   4.4213811364e+01    0.2962707    0.1733979 -20.15  0.001325091    1.817    0.450
        10  -9.9685    140.5020     16.9540   6.4463909176e+01   4.8123123202e+01     0.217415    0.1456924 -17.91 0.0008186687    1.581    0.368
        11 -10.2560      1.8331      7.3119   1.1712654623e+02   7.4059758038e+01    0.2312694    0.1222565 -49.57 0.0007876403    1.404    0.288
        12 -11.1457    217.7592      4.8939   5.0410829341e+01   2.9262631451e+01    0.4168276    0.1742326 -21.66  0.001775421    2.456    0.593
        13  -9.6872     50.8584      3.8256   8.6109822828e+01   6.9459222306e+01    0.1942479    0.1424919   0.84 0.0003759331    1.203    0.168
        14  -9.4046    158.7613      1.9885   5.5967388545e+01   4.4691542835e+01    0.1775615     0.120732 -16.34 0.0008775211    1.599    0.375
        15  -9.8497    240.7338    232.1737   9.8656789093e+01  -3.8381983232e+00    0.1489504    0.1292282  -2.89 0.0008257465    1.525    0.344
        16 -10.9171    193.4514    249.2151   1.0918505303e+02   9.6262538513e-01    0.2228863    0.2106208 -24.62  0.001829743    1.594    0.373
        17 -10.5844    206.8815    237.3420   1.0521626893e+02   3.5274975797e-01     0.273082    0.1646412  49.41   0.00158834    2.233    0.552
        18  -9.3446    245.5080    231.5056   9.7765321477e+01  -4.4147801751e+00    0.1134977   0.08008768  15.60 0.0008101967    1.045    0.043
        19 -10.5118    235.3981    229.9267   9.9199903158e+01  -2.8865482701e+00    0.2164767    0.1735684   2.79  0.001099766    1.269    0.212
        20 -10.1958    229.6565    228.6622   9.9976592866e+01  -1.9574475930e+00    0.1871292    0.1693023  -8.66  0.001050729    1.585    0.369
        21  -9.9575    211.8763    227.8839   1.0294822144e+02   6.7815786565e-01    0.1810305    0.1502958 -12.55  0.001116736    1.387    0.279
        22 -10.8590    198.9931    226.8636   1.0510433941e+02   2.7022003452e+00    0.2156242    0.1685633 -57.24  0.001380015    2.319    0.569
        23 -10.6861    230.5830    237.1272   1.0110630776e+02  -2.9463694041e+00    0.2315939     0.211446  65.20  0.001678451    2.316    0.568
        24 -10.5447    247.0214    226.6028   9.6743932643e+01  -4.1427081448e+00    0.3023054    0.1929625  44.98  0.001881422    2.180    0.541
        25 -11.0777    240.2091    221.7827   9.7101764273e+01  -2.7248488551e+00    0.2957361    0.2058813  39.32  0.001792871    1.665    0.399
        26  -9.9282    223.3002    227.0674   1.0082274071e+02  -8.8667069039e-01     0.159318    0.1234202  10.30 0.0007328037    1.130    0.115
        27 -10.4387    206.0177    225.9287   1.0369761430e+02   1.7648058368e+00    0.2239144    0.1701325 -37.04  0.001198359    1.787    0.440
        28 -10.0098    190.5049    226.5208   1.0660449283e+02   4.0196153922e+00    0.1699647    0.1155013 -49.76  0.001034792    2.281    0.562
        29 -11.2171    217.3061    223.1941   1.0126964302e+02   4.0859991769e-01    0.2982176    0.2771039 -34.46  0.001454124    1.731    0.422
        30 -10.6185    228.5968    222.2494   9.9151842166e+01  -1.1286930007e+00    0.3476489    0.1580557  42.29  0.001830072    2.190    0.543
        31 -10.1690    186.0000    222.0522   1.0678889487e+02   5.2666551705e+00    0.1640094   0.06854967 -39.28 0.0008003485    2.928    0.658
        32  -9.5956    201.5397    221.5215   1.0383987349e+02   2.9582102049e+00    0.1215586   0.09196711  23.09 0.0003347043    1.026    0.025
        33 -11.4174    248.1779    217.8767   9.5137262418e+01  -3.4321081966e+00    0.3458835    0.2734661 -17.51  0.001750957    1.501    0.334
        34 -10.6787    193.5204    219.2514   1.0497034240e+02   4.4641542726e+00    0.2340907    0.2068141 -79.00  0.001559611    2.038    0.509
        35  -9.8819    210.8807    219.1259   1.0177729058e+02   1.8314010662e+00    0.1738778    0.1434923  27.82  0.001217605    1.273    0.214
        36 -10.4826    212.6311    211.8227   1.0029162159e+02   2.4338455198e+00    0.2515486    0.1729696 -25.12  0.001239176    1.592    0.372
        37 -10.8979    219.4279    217.2316   9.9950963614e+01   7.7007715981e-01    0.2103935     0.189448 -34.53  0.001509666    1.712    0.416
        38 -11.8013    217.1483    212.3602   9.9566130290e+01   1.6791106697e+00    0.4419805    0.3784999 -60.71  0.002858509    2.254    0.556
        39  -9.4176    205.4754    217.9775   1.0257523637e+02   2.7872954328e+00     0.132238     0.109237 -65.91 0.0008085105    2.420    0.587
        40  -9.6623    179.6784    217.3477   1.0728980645e+02   6.8630446468e+00    0.1147823   0.09004965  57.69 0.0007049261    1.739    0.425
        41 -10.8980    233.0274    213.5420   9.6972253128e+01  -8.2361986298e-01    0.2656692     0.222676 -26.01  0.001378502    1.617    0.382
        42 -10.5588    230.9405    194.1596   9.3980215265e+01   1.7219458602e+00    0.2827002    0.1620748 -29.24   0.00152684    1.820    0.451
        43 -11.1833    240.7308    208.7194   9.4844239994e+01  -1.4176527183e+00    0.3957331    0.2756936 -48.09   0.00226377    2.860    0.650
        44 -10.9220    235.1308    203.4423   9.4892975292e+01  -5.0733808130e-03    0.2846314    0.2368758 -38.34  0.001087731    1.847    0.459
        45 -10.9625    231.5042    199.4855   9.4830569200e+01   1.0018488823e+00    0.2730036    0.1866609 -39.73  0.001239016    2.036    0.509
        46 -10.1123    192.9025    210.1337   1.0367198368e+02   5.7339694217e+00    0.1831229    0.1538104  36.82  0.000762398    1.297    0.229
        47 -10.6949    247.0744    207.1316   9.3506449511e+01  -2.1601434950e+00    0.3029618    0.1714113 -38.15  0.001522948    2.449    0.592
        48 -10.6178    243.4341    201.2894   9.3098819916e+01  -9.9657262559e-01     0.297416     0.223002 -23.97   0.00163603    1.509    0.337
        49 -10.9174    229.4612    207.4602   9.6568474484e+01   3.8681754999e-01    0.2654678    0.1740897 -37.21  0.001455258    2.005    0.501
        50  -9.7235    224.8279    208.0245   9.7478200868e+01   1.0209003738e+00    0.1600612     0.139764 -49.10   0.00106189    1.985    0.496
        51 -10.0145    206.4926    208.5105   1.0087089095e+02   3.7946246169e+00    0.1252867    0.0970315  20.69 0.0008103891    1.028    0.028
        52  -9.7620    210.3770    201.1550   9.8920152773e+01   4.1089173399e+00    0.1747536    0.1180181 -26.72 0.0008347034    1.600    0.375
        53  -9.6801    197.4709    204.0262   1.0181766954e+02   5.8091315258e+00    0.1724262    0.1196531 -28.84  0.001038787    1.613    0.380
        54 -10.2856    187.0176    203.3223   1.0370442227e+02   7.6016969683e+00     0.218471    0.1668487 -73.20  0.001173048    2.693    0.629
        55  -9.6818    172.8422    203.8514   1.0656859095e+02   9.8451345147e+00    0.1613187    0.1420796  47.42 0.0006390949    1.325    0.245
        56 -10.4899    250.1659    201.1659   9.1952250467e+01  -1.9636363226e+00    0.2838087     0.151238 -27.33  0.001203939    1.887    0.470
        57 -11.5290    246.8842    193.7779   9.1175506897e+01  -6.6749941890e-01    0.3571074    0.3131284 -47.11  0.001735562    2.051    0.512
        58 -10.0945    243.6655    188.3505   9.0722158241e+01   4.4110057763e-01    0.2184097    0.1914575  13.69 0.0009201481    1.352    0.260
        59  -9.7173    223.4846    201.5101   9.6601672103e+01   1.9986345658e+00    0.1252205   0.09628149  15.70 9.186151e-05    1.026    0.025
        60  -9.8475    237.0527    199.0149   9.3784686700e+01   2.1214528659e-01     0.159971    0.1510293  33.14 0.0009116462    1.682    0.405
        61  -9.7315    215.4889    198.0214   9.7438407922e+01   3.6892262157e+00    0.1735431    0.1161442 -26.95 0.0009772085    1.598    0.374
        62 -10.2713    202.1550    197.7318   9.9869018750e+01   5.8856961043e+00    0.2080915    0.1498835 -48.54  0.001038711    2.063    0.515
        63 -11.2419    224.2565    192.9874   9.4955604309e+01   2.9197368935e+00    0.3221306     0.218216 -40.66  0.001331609    1.994    0.498
        64  -9.6017    219.6019    194.7709   9.6115141447e+01   3.4406410217e+00     0.153714    0.1138094 -33.08 0.0009411987    1.623    0.384
        65  -9.7823    215.0193    192.0058   9.6458182441e+01   4.5347965829e+00    0.1719934    0.1607872  61.27 0.0008829967    1.701    0.412
        66  -9.6614    176.4706    197.9771   1.0490811629e+02   1.0107900241e+01    0.1706106    0.1272595 -36.98 0.0008173125    1.576    0.365
        67 -11.1477    237.1822    187.6551   9.1702278931e+01   1.5276221705e+00    0.3049282    0.2011237 -31.25  0.001233033    1.681    0.405
        68  -9.7958    210.3926    189.1775   9.6806847906e+01   5.6692251362e+00    0.1625289    0.1178902 -38.80 0.0009465578    1.726    0.421
        69 -10.5691    230.1985    187.4911   9.2892699782e+01   2.6526625960e+00    0.2283856     0.193461 -28.47 0.0009860954    1.512    0.339
        70  -9.8653    220.4651    188.0291   9.4737969997e+01   4.1585956996e+00    0.1783765     0.116489 -26.02 0.0008239435    1.576    0.365
        71 -10.3941    249.4807    185.2161   8.9163287214e+01  -8.2154783339e-02    0.4373423    0.1629446 -32.01  0.002037308    2.671    0.626
        72 -11.4447    247.8144    178.7822   8.8220779796e+01   9.2606974045e-01    0.4285231    0.2172536 -36.55  0.002205931    2.272    0.560
        73  -9.7024    215.3762    187.2195   9.5522580731e+01   5.1016967901e+00    0.1608183    0.1157639 -36.42 0.0006499929    1.681    0.405
        74 -10.3919    223.9380    184.1259   9.3384151424e+01   4.0915712050e+00    0.2676353    0.1702612 -38.91  0.001097481    1.947    0.486
        75 -10.2690    203.4619    183.4759   9.7076641172e+01   7.6204872670e+00    0.2106578    0.1211645 -45.09  0.001034997    2.334    0.571
        76 -10.7904    183.4359    182.8279   1.0090723867e+02   1.1192008423e+01    0.2692906    0.2050182 -44.70  0.001549935    1.637    0.389
        77 -11.2076    241.6137    181.1346   8.9715854844e+01   1.6163072935e+00    0.3972819    0.2431257 -39.31   0.00211865    2.119    0.528
        78 -10.3657    218.8712    178.8811   9.3315067511e+01   5.6241385058e+00    0.2850612    0.1658955 -27.03  0.001443464    1.748    0.428
        79  -9.8166    210.4881    183.4893   9.5744188494e+01   6.4209550490e+00    0.1327573    0.1066002  15.49 8.346943e-05    1.004    0.004
        80 -11.0877    235.5375    181.1342   9.0762384872e+01   2.5837980582e+00    0.2572427    0.2126124 -24.52  0.001110141    1.425    0.298
        81  -9.7606    229.6028    181.8436   9.1940099139e+01   3.4557227155e+00    0.1640464    0.1123025 -34.53 0.0009451054    1.701    0.412
        82  -9.8305    225.6284    179.2556   9.2157441689e+01   4.4418488771e+00    0.1741796    0.1082014 -15.84 0.0009428567    1.605    0.377
        83 -10.2605    204.6078    177.2862   9.5694533194e+01   8.2986973479e+00     0.277879    0.1626903 -38.34  0.001200291    1.938    0.484
        84 -10.9218    182.3618    176.4594   9.9960173943e+01   1.2366749106e+01    0.2488133     0.169914 -39.10  0.001166807    1.659    0.397
        85  -9.6684    210.5183    176.0253   9.4325161477e+01   7.4470018900e+00    0.1879462     0.123826 -29.37 0.0009110375    1.582    0.368
        86  -9.8674    232.6771    174.9686   9.0075459038e+01   3.8260580233e+00    0.1819541    0.1432922  -6.88  0.001050115    1.143    0.125
        87 -10.2205    223.4044    173.4695   9.1439340018e+01   5.5784682123e+00    0.2348747    0.1482174 -31.81  0.001055805    1.665    0.399
        88  -9.7378    231.3731    159.7392   8.7248652052e+01   6.0470511313e+00     0.196777    0.1199514 -27.52 0.0006065998    1.586    0.369
        89 -10.7585    241.4080    173.2044   8.8219199978e+01   2.6198187357e+00    0.1887532    0.1698896 -14.82 0.0007862558    1.401    0.286
        90 -11.1873    237.5752    169.6060   8.8166290309e+01   3.7001132736e+00    0.3607138    0.1998322 -36.62    0.0013266    2.020    0.505
        91 -10.0416    233.9989    164.4835   8.7758963417e+01   4.9639019928e+00    0.2865105     0.157971 -42.42  0.001247718    2.384    0.581
        92  -9.8652    227.6817    171.5491   9.0290606474e+01   5.1068148689e+00    0.2004733    0.1503816 -41.97  0.001149444    1.791    0.442
        93 -10.8975    246.0693    169.3348   8.6669277669e+01   2.3449248637e+00    0.2890652    0.2061855 -30.76  0.001513565    1.538    0.350
        94 -10.5505    218.5970    168.4296   9.1322901086e+01   7.0948707022e+00    0.3132603     0.233554 -37.47  0.001344422    1.601    0.375
        95 -10.0779    205.1658    169.4638   9.4067837982e+01   9.3300285591e+00     0.242231    0.1761852 -49.08  0.001246763    1.935    0.483
        96  -9.5051    212.2493    169.6300   9.2747688591e+01   8.0443465240e+00    0.1165084    0.1065175 -54.47 0.0003758549    1.629    0.386
        97  -9.8372    229.0394    166.2882   8.8998415058e+01   5.5735060793e+00    0.1860884     0.152448  12.03 0.0008466628    1.051    0.048
        98 -10.1661    240.0654    164.3295   8.6680446298e+01   3.9599143564e+00    0.2056547    0.1750608 -35.57 0.0008722033    1.555    0.357
        99 -10.1963    199.4705    164.6144   9.4212224328e+01   1.1086092025e+01    0.2614119    0.1309768 -34.99 0.0009514926    2.100    0.524
       100 -10.5223    212.8516    162.9144   9.1281744175e+01   8.8968764725e+00    0.3754057    0.1876314 -36.07  0.001727172    2.104    0.525
       101 -10.3471    238.4523    101.7893   7.2989298824e+01   1.2753140706e+01     0.321532    0.1210699 -32.03 0.0008634403    2.368    0.578
       102 -10.9042    242.0680     93.1395   7.0355559018e+01   1.3206583157e+01    0.6095834    0.2072068 -24.37  0.002112209    3.169    0.684
       103 -10.8257    250.7190    153.1447   8.2609915620e+01   3.6026694589e+00    0.6731108    0.1301539 -36.50  0.002042809    5.320    0.812
       104 -10.6198    247.6381    112.8191   7.4203942652e+01   9.4471371730e+00    0.3055862    0.2311308 -45.89   0.00115832    1.582    0.368
       105 -10.6670    248.7728    107.4691   7.2790308043e+01   9.9489598907e+00    0.4492018    0.2219197 -48.76  0.001819153    2.966    0.663
       106 -10.8412    246.0842    100.3762   7.1512097377e+01   1.1423965660e+01    0.6910546    0.2095167 -44.33   0.00202135    5.064    0.803
       107 -10.1778    247.3424    144.0468   8.1232761376e+01   5.3453562482e+00     0.322358    0.1977079 -41.38  0.001658739    1.979    0.495
       108 -11.0849    248.7440    135.6445   7.9184287598e+01   6.2004689137e+00    0.7416697    0.2246927 -40.99  0.002457354    4.353    0.770
       109 -11.1991    248.0045    129.8618   7.8022779218e+01   7.0974770592e+00      0.38138    0.2980241 -38.34  0.001340658    1.469    0.319
       110 -11.2161    246.2781    159.6490   8.4681572364e+01   3.5200714115e+00    0.6343907    0.2117704 -37.32  0.002521503    3.242    0.692
       111 -10.7958    242.0684    133.9951   7.9894720926e+01   7.6207353985e+00    0.4088688    0.2191099 -32.91  0.001413287    1.770    0.435
       112 -12.0845    240.7673    125.4629   7.8185173543e+01   9.0254253558e+00     1.028498    0.3473415 -30.27  0.003935726    2.722    0.633
       113 -12.6397    241.7393    108.2801   7.4037713619e+01   1.1202546560e+01      1.26545    0.3371505 -29.56  0.004194028    3.475    0.712
       114 -10.5765    241.8531    153.6130   8.4169579819e+01   5.0443522264e+00    0.2758064    0.2330757 -32.57  0.001163355    1.448    0.309
       115 -11.0664    244.1010    149.2480   8.2874033122e+01   5.2275999375e+00    0.3936052    0.2433918 -34.39  0.001757683    1.674    0.403
       116 -10.7932    249.2781    123.8087   7.6467063462e+01   7.6708990515e+00    0.3482741    0.2087117 -24.81  0.001111081    1.486    0.327
       117 -11.2265    247.8693    118.6653   7.5514960978e+01   8.6182428152e+00    0.4482198     0.237658 -35.46  0.001935084    1.796    0.443
       118 -11.0265    205.5394    161.2898   9.2347892563e+01   1.0469618584e+01    0.3937886    0.2700779 -37.11  0.001740095    1.614    0.380
       119 -11.3166    205.6687    154.5887   9.0925965821e+01   1.1454268361e+01     0.301938    0.2448739  -8.46 0.0009926299    1.161    0.138
       120 -10.6790    237.6359    159.0158   8.6010169262e+01   5.0604553797e+00    0.2782651    0.2207408 -25.17  0.001022902    1.327    0.246
       121 -10.2426    158.6003    159.8002   1.0187402198e+02   1.9537748486e+01     0.186845    0.1369115 -54.09 0.0009519985    1.678    0.404
       122 -10.1655    226.4862    157.0128   8.7550548422e+01   7.2805135593e+00    0.2691546    0.1189855 -36.11  0.001028175    2.333    0.571
       123  -9.6024    222.2014    156.8964   8.8300829084e+01   8.0653969852e+00    0.1720483   0.09942882 -30.65 0.0006076237    1.716    0.417
       124  -9.9965    196.9733    157.1570   9.3179837499e+01   1.2700450423e+01    0.1908718    0.1550503 -47.88  0.001046964    1.588    0.370
       125  -9.8124    187.5775    155.7090   9.4789641804e+01   1.4721441043e+01    0.2623061    0.1336135 -31.28  0.001136377    2.127    0.530
       126 -11.0499    243.6581    140.4250   8.1049952708e+01   6.4705213591e+00    0.4612047    0.2266851 -34.09  0.001524438    1.965    0.491
       127 -10.2787    233.2856    154.2402   8.5767203248e+01   6.4534395440e+00    0.2777771    0.2099542 -37.99  0.001179454    1.585    0.369
       128 -10.1373    157.3192    152.9824   1.0080508461e+02   2.1019576650e+01     0.218216    0.1183772 -64.62 0.0007049447    4.308    0.768
       129  -9.6700    228.1923    152.1318   8.6217049321e+01   7.6508069983e+00    0.1712802    0.1540607 -24.18 0.0007589475    1.322    0.244
       130  -9.6769    221.3977    152.2509   8.7466015798e+01   8.8704042430e+00     0.179923     0.121271 -35.99 0.0009420828    1.605    0.377
       131  -9.8902    221.1920    161.8706   8.9516647331e+01   7.5488913329e+00    0.1908568    0.1743427  -5.79 0.0007146682    1.249    0.199
       132 -11.5636    235.4062    147.4346   8.3952577401e+01   6.9999184580e+00    0.4331022    0.3279786 -42.41  0.001562111    1.678    0.404
       133  -9.3178    216.2865    156.6417   8.9338129755e+01   9.1771475998e+00    0.1222697    0.1105007 -61.74  0.000702269    1.679    0.404
       134 -10.2942    223.5287    146.7167   8.5887545968e+01   9.2681034584e+00    0.2536139    0.2266191 -31.60  0.001457661    1.349    0.259
       135 -10.1572    207.7283    145.3183   8.8526867680e+01   1.2475340667e+01    0.2502945    0.1628841 -38.97  0.001120101    1.679    0.404
       136  -9.3969    200.4642    145.4834   8.9982094904e+01   1.3864076775e+01    0.1424214    0.1260074  11.07  0.000176416    1.040    0.039
       137 -10.9709    163.3698    144.1660   9.7580350906e+01   2.1457527453e+01    0.2189669    0.1454061 -39.03 0.0008999379    1.595    0.373
       138 -10.5762    230.0057    141.0464   8.3495589749e+01   8.8692844226e+00    0.3175186    0.1784462 -35.99  0.001286463    1.818    0.450
       139  -9.3495    214.2714    142.6476   8.6694581655e+01   1.1616472386e+01    0.1279805    0.1112451 -57.07  0.000348658    1.634    0.388
       140  -9.4781    182.0074    142.5043   9.3115839209e+01   1.8021827742e+01    0.1901424    0.1285141  65.91 0.0007931143    2.374    0.579
       141 -10.1085    233.5955    129.3121   8.0246427945e+01   9.8470005222e+00    0.2752001    0.1486659 -32.04  0.001301585    1.746    0.427
       142 -10.4637    238.2298    140.5108   8.1969512332e+01   7.4339008898e+00    0.2460633    0.2128914 -26.66 0.0008450033    1.294    0.227
       143 -11.3785    234.8167    135.7150   8.1484468211e+01   8.7208594534e+00     0.507428    0.2549925 -38.71  0.001615918    2.113    0.527
       144 -10.4866    224.0637    140.3381   8.4388797966e+01   1.0084988562e+01    0.2990707    0.1880203 -27.15 0.0009429114    1.519    0.342
       145 -10.6331    219.0933    138.0312   8.4771359368e+01   1.1373289687e+01    0.3292013    0.1952362 -28.36  0.001597636    1.629    0.386
       146 -10.1810    208.4274    137.7875   8.6710046960e+01   1.3498374260e+01    0.2582394    0.1300603 -36.68 0.0009788634    2.017    0.504
       147 -10.1580    198.6114    136.7853   8.8399412494e+01   1.5621296274e+01    0.1975559    0.1312868 -41.55 0.0009463246    1.669    0.401
       148  -9.5583    192.6453    136.8439   8.9617709880e+01   1.6821337055e+01    0.2006567    0.1310192 -42.03 0.0009448472    1.694    0.410
       149  -9.8068    187.5647    136.0177   9.0478174465e+01   1.7996502252e+01     0.217175    0.1397949 -34.83  0.001021956    1.590    0.371
       150 -10.7170    162.9746    136.0133   9.5866390275e+01   2.3039664477e+01    0.2342605    0.2161667   7.89 0.0008105857    1.035    0.034
       151 -10.1741    225.2883    133.7862   8.2698755386e+01   1.0799247353e+01     0.263703    0.1794045 -26.47  0.001004111    1.390    0.281
       152 -11.0248    221.1104    130.2483   8.2632448395e+01   1.2131575939e+01    0.5324885    0.1852958 -43.80  0.001733855    3.955    0.747
       153 -10.2583    143.0000    131.9776   9.9708261622e+01   2.7847477688e+01    0.2388085    0.0850623 -44.76 0.0008024251    2.942    0.660
       154  -9.6660    186.2783    128.9973   8.9109187643e+01   1.9455340206e+01    0.2118812    0.1851877 -19.78 0.0008900486    1.136    0.120
       155 -10.2937    227.8664    125.5632   8.0360209767e+01   1.1488910373e+01    0.2724318    0.1873188 -33.71  0.001209804    1.445    0.308
       156  -9.1603    217.3081    125.3148   8.2167827842e+01   1.3627570529e+01    0.1486537    0.1013656  10.00 0.0003696916    1.628    0.386
       157 -11.0012    180.0794    124.0159   8.9231795555e+01   2.1630094985e+01    0.4205473    0.2281258 -30.19  0.001751075    1.954    0.488
       158 -10.5009    235.0270    123.4732   7.8666894146e+01   1.0394611282e+01    0.2569262    0.1743374 -39.32  0.001126311    1.589    0.371
       159  -9.5340    169.6849    124.3347   9.1600398977e+01   2.3791678754e+01    0.1461122      0.12322 -85.01 0.0007046931    1.690    0.408
       160 -10.0851    220.8339    122.2645   8.0815317480e+01   1.3372652830e+01    0.3851528    0.1657365 -47.34  0.001325621    3.579    0.721
       161 -10.5025    212.7489    122.0060   8.2215717229e+01   1.5062525388e+01    0.3278537     0.133669 -31.81  0.001257945    2.389    0.581
       162 -10.3773    199.8486    126.3408   8.5714403482e+01   1.7055993978e+01     0.265561     0.190232 -53.07  0.001010388    1.869    0.465
       163  -9.8358    202.8406    121.5785   8.3984821371e+01   1.7195988731e+01    0.1919501    0.1405674  56.63 0.0007349943    1.626    0.385
       164 -10.4025    230.8642    116.9040   7.7820910774e+01   1.2143362466e+01    0.4341005    0.1239429 -35.08  0.001483544    3.195    0.687
       165 -10.3488    140.0000    118.0290   9.7184546401e+01   3.1258804820e+01    0.2485681    0.0864018 -43.77 0.0008051693    2.961    0.662
       166 -10.8940    234.7796    112.0334   7.6022920333e+01   1.2056320970e+01    0.2582301    0.1869318  86.71  0.001186421    2.643    0.622
       167  -9.5628    189.7713    109.0055   8.3437046375e+01   2.2094788192e+01    0.2005258    0.1215605 -32.43 0.0008739488    1.635    0.388
       168  -9.4908    183.0000    108.9861   8.4833420228e+01   2.3609226490e+01    0.2488036   0.08484188 -35.43 0.0008018604    2.938    0.660
       169  -9.6339    160.5144    108.0245   8.9592451835e+01   2.8810600200e+01    0.2352861    0.1507994 -37.11  0.000875862    1.584    0.369
       170 -11.7537    229.5762    103.2190   7.4731776121e+01   1.4369239273e+01    0.4255938    0.2276203 -27.23  0.001922787    1.748    0.428
       171  -9.7798    205.5808    105.3053   7.9413236295e+01   1.9194435660e+01    0.2844285    0.1314857 -36.79  0.001124134    2.111    0.526
       172  -9.9275    222.4087    104.8029   7.6306222640e+01   1.5639825844e+01    0.2777568    0.1248528 -34.28  0.001130504    2.083    0.520
       173 -10.1842    167.0927    100.6707   8.6100952630e+01   2.8682561599e+01    0.2798156    0.2074876 -42.73  0.001315112    1.423    0.298
       174  -9.9579    218.7590    248.8414   1.0478600903e+02  -2.4957683977e+00    0.1906231    0.1226094  46.63  0.001225639    2.051    0.512
       175 -11.3699    176.4142    247.3814   1.1195953186e+02   3.5838815825e+00     0.264702    0.2492235 -73.28  0.001964943    1.681    0.405
       176  -9.6261    224.4648    248.5288   1.0378338088e+02  -3.2340585150e+00    0.1114485   0.07758326  21.59 0.0001468938    1.041    0.040
       177 -10.1666    210.2684    248.0418   1.0611996754e+02  -1.2552030993e+00    0.2003302     0.114611  40.81  0.001275119    1.629    0.386
       178  -9.4516    232.8391    247.5811   1.0225675294e+02  -4.2573381239e+00    0.1458769   0.08098657  38.36 0.0009333452    1.670    0.401
       179  -8.9952    209.0000     99.9559   7.7416285278e+01   1.9273725073e+01    0.2371877   0.08003855 -31.80 0.0007894028    2.853    0.649
       180  -9.8379    225.4400    244.2570   1.0301458131e+02  -2.9503701211e+00     0.179871     0.114731  42.14  0.001183964    1.776    0.437
       181  -9.5476    225.2618     99.6409   7.4547343408e+01   1.5790994230e+01     0.140676    0.1053843 -51.53 0.0003732873    1.629    0.386
       182 -11.2292    212.4762     95.0827   7.5542215403e+01   1.9246444229e+01     0.889624    0.3791708 -49.55  0.002870389    3.747    0.733
       183  -9.5190    202.6475     97.8184   7.8019532086e+01   2.1026983037e+01    0.2163241    0.1288324 -39.12 0.0009464949    1.697    0.411
       184 -10.1275    236.5022     90.0568   7.0413448273e+01   1.4775901251e+01     0.358894    0.2010999 -17.42  0.001316595    1.875    0.467
       185 -11.3256    235.0378     95.0496   7.1865996804e+01   1.4389753394e+01    0.3677005    0.2429008 -45.83  0.001351108    1.692    0.409
       186 -11.7553    231.2055     90.8623   7.1410183134e+01   1.5781051189e+01    0.3837765    0.2741929 -38.29  0.001035619    1.383    0.277
       187 -10.4699    188.8347     92.9795   7.9372424464e+01   2.4975006449e+01    0.3507202    0.2368923 -41.06  0.001104906    1.538    0.350
       188 -10.8464    175.7826     87.9993   8.0661670386e+01   2.8880390567e+01    0.3346688    0.2413384 -40.48 0.0008111006    1.433    0.302
       189 -12.1781    226.1581     87.2096   7.1264613202e+01   1.7383166937e+01    0.7341759    0.4366578   9.59  0.003018166    2.489    0.598
       190 -10.1551    222.6746     84.2995   7.1060225248e+01   1.8562847500e+01     0.207995    0.1892191  29.76 0.0008871761    1.120    0.107
       191 -10.8765    225.2702     81.7813   7.0007684034e+01   1.8344211764e+01    0.3304781    0.2158447 -36.73 0.0009153186    1.464    0.317
       192  -9.8581    188.4657     87.4639   7.7925021612e+01   2.5961326091e+01    0.2654177    0.1319162 -42.22  0.000783815    2.125    0.529
       193  -9.8116    205.8685     84.6126   7.3923020616e+01   2.2329930299e+01    0.2590622    0.1605716 -33.21   0.00117507    1.547    0.354
       194  -9.0392    200.6287     83.2939   7.4491007676e+01   2.3751838881e+01    0.1502336    0.1177507 -70.89 0.0007026484    1.728    0.421
       195 -10.6919    159.0010     81.7036   8.2546397975e+01   3.3976085462e+01    0.3663214    0.2278891 -33.73   0.00144103    1.614    0.380
       196  -9.6285    214.6568     80.1898   7.1259246071e+01   2.0960146932e+01    0.2096471    0.1309181 -18.46 0.0009419273    1.669    0.401
       197 -10.0317    150.5927     79.7709   8.3959295077e+01   3.6321468800e+01    0.2239894    0.1441226 -45.25 0.0009494236    1.676    0.403
       198 -10.1554    203.2379     66.6311   6.9409768133e+01   2.5598491971e+01    0.3704582    0.1797596 -35.15  0.001502395    1.956    0.489
       199  -9.5157    206.5020     78.4970   7.2154392660e+01   2.3096737327e+01    0.2571462    0.1400651 -29.44  0.000804556    1.764    0.433
       200 -10.4101    206.1463     74.1753   7.1029223441e+01   2.3815205322e+01    0.3144137    0.2403144 -48.37  0.001166084    1.423    0.297
       201  -9.8580    203.3781     71.1820   7.0661899825e+01   2.4909603662e+01    0.2348049    0.1425574 -28.85 0.0009385172    1.591    0.372
       202  -9.9169    200.9674     77.9927   7.2969927440e+01   2.4476830644e+01    0.2387345    0.1749683 -56.80 0.0008114077    1.676    0.403
       203  -9.7462    174.5007     77.9575   7.8023959704e+01   3.0869269873e+01    0.2395142    0.1503034 -31.56 0.0009172412    1.586    0.369
       204  -9.8491    166.5272     77.9876   7.9736954380e+01   3.2804212970e+01    0.2432072    0.1515926 -32.32  0.001036594    1.605    0.377
       205 -10.6724    130.4555     78.0133   8.8616697512e+01   4.1300440520e+01    0.2416367    0.1510708 -36.89 0.0006909337    1.602    0.376
       206 -10.5193    157.2959     75.6988   8.1122022032e+01   3.5435175818e+01    0.3483406    0.2124002 -37.44  0.001225983    1.652    0.394
       207  -9.1718    211.2655     76.3653   7.0783599148e+01   2.2296129017e+01    0.1512974    0.1085437  10.20 0.0004545058    1.650    0.394
       208  -9.5754    139.6895     74.3408   8.5004248605e+01   3.9873251087e+01    0.1562354     0.125897 -74.15  0.000567759    1.694    0.410
       209 -10.0666    128.3257     73.3157   8.7714445600e+01   4.2671670823e+01    0.1619816    0.1191093   9.33 0.0005059597    1.670    0.401
       210 -10.3731    163.2056     71.3479   7.8447205674e+01   3.4729118738e+01    0.3510832    0.2066561 -33.21  0.001467769    1.698    0.411
       211 -11.9307    223.5642     66.4830   6.6259340257e+01   2.0833669842e+01    0.6700804    0.2803794 -18.16  0.002332255    3.102    0.678
       212 -10.6381    187.4243     68.7290   7.2766250035e+01   2.9153883063e+01     0.287379    0.1382319 -34.60 0.0008433806    2.012    0.503
       213 -10.1603    242.2519    242.5723   9.9981210227e+01  -5.0271405476e+00    0.1964995    0.1722154  35.27   0.00152907    1.866    0.464
       214 -10.0149    146.0000     66.9661   8.1049478783e+01   3.9677335101e+01    0.2607616   0.08830983 -34.18 0.0008077543    2.979    0.664
       215 -10.0504    163.5185     65.0279   7.6406737551e+01   3.5681196415e+01    0.2386947    0.1522931 -29.00  0.001029657    1.585    0.369
       216  -9.6404    197.3651     64.2297   6.9703426810e+01   2.7370545449e+01    0.2182306    0.1273145 -39.06 0.0008655642    1.702    0.412
       217 -10.6932    193.5963     67.7608   7.1370978205e+01   2.7780823627e+01    0.2813898    0.1454925 -24.97 0.0009091108    2.004    0.501
       218  -9.6826    182.3718     68.2010   7.3558747815e+01   3.0483688085e+01    0.2232539    0.1336622 -40.16 0.0008340627    1.704    0.413
       219 -10.3148    187.3858     62.3141   7.0878999899e+01   3.0117044432e+01    0.2883424    0.1467684 -23.90  0.001121643    2.089    0.521
       220 -10.3791    157.8409     61.6160   7.6556158894e+01   3.7645026201e+01    0.3125958    0.2220929 -36.01  0.001364149    1.427    0.299
       221  -9.4163    170.5186     70.4958   7.6617759096e+01   3.3062610068e+01    0.1536711    0.1483991   9.88 0.0008102537    1.025    0.025
       222 -10.6279    153.1181     59.6323   7.6968278203e+01   3.9141718707e+01    0.2811852    0.2041853 -39.19 0.0009930934    1.425    0.298
       223  -9.1918    206.3293     59.3296   6.6862722339e+01   2.5868807818e+01    0.1548364    0.1081296  22.56 0.0007051479    1.712    0.416
       224 -10.0575    111.6659     64.3446   8.9580978838e+01   4.8020868860e+01    0.1522121    0.1240013 -80.45 8.077776e-05    1.764    0.433
       225  -9.6263    182.5104     58.0206   7.0468026723e+01   3.1965045041e+01    0.2282689     0.147196 -28.60 0.0006949117    1.542    0.352
       226 -11.0035    192.2659     55.2320   6.7932515831e+01   2.9903143795e+01    0.3052872    0.1913229 -36.67 0.0009257521    1.571    0.364
       227  -9.8672    157.6068     55.2059   7.4513423841e+01   3.8704581319e+01    0.2181142    0.1479629 -15.09 0.0009503327    1.647    0.393
       228 -10.5786    152.7058     52.4741   7.4674571414e+01   4.0360962262e+01    0.2772101    0.1385786 -29.42  0.001067032    2.038    0.509
       229  -9.0632    178.6773     50.3400   6.8792624147e+01   3.4027977804e+01     0.158188    0.1147037 -63.06 0.0007050759    1.722    0.419
       230  -9.5707     95.3168     46.3282   8.8270346921e+01   5.4722010481e+01    0.1544645    0.1096255   4.36 0.0004000051    1.678    0.404
       231 -10.1702    169.0061     44.0637   6.8556652998e+01   3.7381299854e+01    0.3154415    0.2091582 -26.19  0.001289706    1.535    0.349
       232 -10.0773    191.8371     40.7922   6.3685034391e+01   3.1915759303e+01    0.2738864    0.1901294 -32.79  0.001092391    1.421    0.296
       233 -10.8950    169.0000     32.9776   6.4911927206e+01   3.8808050084e+01    0.3505471   0.08498447 -25.30 0.0009735374    4.254    0.765
       234  -9.4652    164.0000     32.9606   6.5787080084e+01   4.0122402568e+01    0.2382345   0.08540827 -25.31 0.0007491743    2.883    0.653
       235  -9.1436    125.6541     30.3152   7.2959089584e+01   5.0320493701e+01    0.1495466    0.1178298 -69.05  0.000704775    1.718    0.418
       236  -9.7044    133.4847     34.4952   7.2666833580e+01   4.7809463495e+01     0.152729    0.1398083  26.36  0.000107747    1.017    0.016
       237  -9.5989    166.3135     27.6567   6.3595674966e+01   4.0146741128e+01    0.1553365     0.109805 -61.07 0.0005061603    1.707    0.414
       238  -9.5604    136.6412     25.2421   6.8424786140e+01   4.8189368928e+01    0.2006563    0.1390571  -6.53 0.0002830591    1.600    0.375
       239 -11.1389    208.1669     21.5396   5.5913211933e+01   2.9995370396e+01    0.2879271    0.1870903   7.63  0.001347196    2.029    0.507
       240  -9.9358    202.2907    242.8840   1.0679571592e+02   4.0304102664e-01    0.1503252    0.1376511  31.34  0.001178096    1.519    0.342
       241  -9.3018    171.6855     20.6648   6.0407816934e+01   3.9503159126e+01    0.1564685     0.102594  32.71 0.0007046652    1.689    0.408
       242  -9.5619     83.5425     19.4381   8.0789119387e+01   6.1362769847e+01    0.1410607    0.1225573   9.51 0.0001083403    1.009    0.009
       243  -9.0540    248.6799    240.7156   9.8660017978e+01  -5.6909072282e+00    0.1134919   0.06055035  14.04 0.0004860233    1.591    0.371
       244 -11.0560    191.7942    236.9038   1.0783512813e+02   2.5852809667e+00    0.4680688    0.3159225  64.52  0.002441477    3.422    0.708
       245  -9.3613     29.5391     13.4054   1.0265763768e+02   7.0805969454e+01    0.1261753   0.09748719 -20.31  2.84115e-05    1.045    0.043
       246  -9.0665    237.5986    236.2972   9.9808061570e+01  -3.8166636707e+00   0.09959695   0.07926381  41.00 0.0002613269    1.819    0.450
       247 -10.7581    216.0814    234.3010   1.0316790179e+02  -6.3149602867e-01    0.2600965    0.1974748  42.89  0.001769826    1.649    0.394
       248  -9.9278    170.5105    235.0153   1.1146250824e+02   5.9525407178e+00    0.1445497    0.1164182 -34.45  0.001031532    1.590    0.371
