#   1 NUMBER                 Running object number                                     
#   2 MAG_AUTO               Kron-like elliptical aperture magnitude                    [mag]
#   3 X_IMAGE                Object position along x                                    [pixel]
#   4 Y_IMAGE                Object position along y                                    [pixel]
#   5 X_WORLD                Barycenter position along world x axis                     [deg]
#   6 Y_WORLD                Barycenter position along world y axis                     [deg]
#   7 A_WORLD                Profile RMS along major axis (world units)                 [deg]
#   8 B_WORLD                Profile RMS along minor axis (world units)                 [deg]
#   9 THETA_WORLD            Position angle (CCW/world-x)                               [deg]
#  10 FWHM_WORLD             FWHM assuming a gaussian core                              [deg]
#  11 ELONGATION             A_IMAGE/B_IMAGE                                           
#  12 ELLIPTICITY            1 - B_IMAGE/A_IMAGE                                       
         1 -13.7598    240.9808      2.6251   3.7052287555e+01   2.4755373396e+01     1.881176    0.3267207  73.97  0.003246323    5.517    0.819
         2 -16.3595    221.1295     80.2547   5.8399473880e+01   1.8948272314e+01     8.506711     3.430719 -56.11   0.02383273    4.745    0.789
         3 -16.3998    238.8591     47.8642   4.7883826035e+01   1.9718615678e+01     1.963492    0.7682741 -48.95  0.007716297    2.516    0.603
         4 -17.7061    246.0548     54.0187   4.8546880415e+01   1.7239320177e+01     7.860496     6.303185  29.77   0.03469897    1.642    0.391
         5 -16.6984    246.0899     30.9401   4.3107982187e+01   2.0322091714e+01     1.801539     1.151415 -59.29  0.007657479    1.457    0.313
         6 -11.3739    167.4987     30.4122   5.2887482799e+01   3.9789156630e+01    0.6722307    0.4382115  -9.35  0.003076561    1.954    0.488
         7 -16.1206    222.0566     22.6693   4.3480052885e+01   2.6932402875e+01     3.467392     2.246488  -5.50   0.01586563    2.308    0.567
         8 -11.7713    178.0875     24.2460   4.9328303823e+01   3.7799736230e+01    0.5376986    0.4793716  55.90   0.00282967    1.115    0.103
         9 -11.6009    135.1164     13.7619   5.3093122360e+01   4.9894623358e+01    0.6001203    0.2512132 -24.58  0.002066792    2.539    0.606
        10  -9.6074    165.4003     15.4426   4.8496060711e+01   4.2049172398e+01    0.4184175    0.2403807   7.07  0.001729277    2.727    0.633
        11 -10.1356    154.7776     13.8104   4.9625924206e+01   4.4941120300e+01    0.4260207    0.2748921   8.52  0.001575533    2.061    0.515
        12 -11.2960    204.5356      8.7360   4.1693452636e+01   3.2782536179e+01    0.4937349    0.2531207  42.93  0.002159958    2.513    0.602
        13  -9.4006    116.0078     12.5070   5.6644300867e+01   5.4621092398e+01    0.2821847    0.1643192  44.82  0.001379685    1.543    0.352
        14 -11.3842    120.3067      8.9011   5.4279233670e+01   5.3961143770e+01    0.4297084    0.3657362  34.29   0.00131629    1.080    0.074
        15  -9.1073    138.3028      8.3129   5.0542929288e+01   4.9633086346e+01    0.1446724   0.09274513  35.55 0.0002515725    1.613    0.380
        16  -9.2012    185.9906      6.7235   4.3157172987e+01   3.7652323094e+01    0.1880738    0.1558276  83.76 0.0002939776    1.091    0.083
        17  -9.8559    181.5053      4.2926   4.2981372896e+01   3.9026814535e+01    0.2630452    0.1928518  54.95 0.0006282235    1.329    0.248
        18  -8.6926    171.6284      2.3036   4.3584116431e+01   4.1727918568e+01    0.1457441   0.09295019 -68.27 0.0007032033    1.754    0.430
        19  -9.0082    243.1857     11.0438   3.8786586213e+01   2.3344869393e+01    0.1656319     0.137755 -63.28 0.0003198943    1.029    0.028
        20  -9.9400    117.3869    244.8992   1.1192621907e+02   9.3374071757e+00    0.2001115    0.1418378  40.91 0.0004150298    1.233    0.189
        21 -12.2915    232.4460    210.9411   8.5415070216e+01  -4.3138889804e+00    0.5744059    0.2861984  29.54   0.00290477    1.883    0.469
        22 -11.8020    246.8098    210.0002   8.2740100306e+01  -6.4129937659e+00    0.6764537    0.3288251  36.30  0.003571889    1.876    0.467
        23 -12.6604      6.0788    171.7744   1.2728670869e+02   3.7661369491e+01    0.7209312     0.384647 -86.35  0.004398526    1.478    0.323
        24 -11.6047      3.0110    152.3952   1.2658792992e+02   4.2144251008e+01    0.4839244    0.1805405 -80.44  0.002396118    2.144    0.534
        25 -10.7697    249.1854    174.4748   7.5527755025e+01  -1.9684480550e+00    0.2656359    0.2229285  42.16  0.001215991    1.423    0.297
        26 -10.9771    201.4795    173.5141   8.4097872937e+01   6.8050834475e+00    0.3523111    0.2595327  18.09  0.001825855    1.434    0.303
        27  -9.4795    205.7704    168.0049   8.2117468611e+01   6.9246441568e+00    0.1922062    0.1749854  -4.88 0.0002455109    1.046    0.044
        28 -13.5467     19.7410    160.8499   1.2352210989e+02   3.8901916117e+01    0.8168306    0.6331028  87.27  0.003706756    1.011    0.011
        29 -10.6450    197.1598    159.6476   8.2060146255e+01   1.0104635263e+01    0.3414262    0.2530721 -77.63  0.001363526    2.266    0.559
        30 -15.4803    234.7461     80.0599   5.6329436161e+01   1.5865122438e+01     2.143031      1.30013 -74.84  0.006095092    2.588    0.614
        31 -11.4462    147.3339    143.7247   8.9515582910e+01   2.3634067376e+01    0.4509355    0.3213117 -84.79  0.001550936    2.090    0.521
        32 -11.6391    153.1227    151.0616   8.9757572479e+01   2.0872822267e+01    0.5415074    0.3495395  83.15  0.001886865    3.052    0.672
        33 -11.1662    191.8121    152.4384   8.1577460748e+01   1.2527094108e+01    0.5458723    0.2970718 -52.45  0.002196429    2.294    0.564
        34  -9.8021    163.3944    154.7919   8.8216124574e+01   1.7980292045e+01    0.2122637    0.1410295 -33.13 0.0009490616    1.683    0.406
        35  -9.9758    203.9158    152.2680   7.9096429717e+01   1.0064032496e+01    0.2754389    0.2441797  65.96 0.0009785031    1.361    0.265
        36 -12.0105     47.2972    149.0496   1.1572957314e+02   3.8850286395e+01    0.3454396    0.2994725 -35.13 0.0008966247    1.490    0.329
        37 -14.0798     59.7501    144.1219   1.1188172496e+02   3.8532222615e+01     1.611858       1.1529  13.75  0.006009252    2.005    0.501
        38  -9.1178    184.9871    150.4748   8.2564884820e+01   1.4324822547e+01    0.2042243    0.1326601  69.21 0.0006074946    2.439    0.590
        39 -10.2669    173.2441    149.7309   8.4926505985e+01   1.6943450838e+01    0.2676243      0.18541  46.07 0.0007184393    1.421    0.296
        40 -10.9524    133.5903    144.9115   9.3095077791e+01   2.6167886086e+01     1.140758    0.2763524 -54.24   0.00271718    5.808    0.828
        41  -9.1823    218.8648    148.9670   7.5491396013e+01   7.6231031387e+00    0.2444897    0.1884181  77.17 0.0006400025    2.004    0.501
        42  -9.4232    157.6743    149.3748   8.8342769015e+01   2.0283948768e+01    0.2346851    0.1836522  84.26 0.0007060089    1.695    0.410
        43 -10.1634    198.4868    144.1202   7.8342711308e+01   1.2678831624e+01    0.3007294    0.2370098  78.92  0.001093857    1.793    0.442
        44  -9.8481    192.2296    144.1238   7.9617687117e+01   1.4004258206e+01    0.2582471    0.2119048  51.65 0.0003916438    1.285    0.222
        45  -9.5874    176.0109    157.4763   8.6014045546e+01   1.4838498244e+01    0.2087649    0.1292411  66.28 0.0006602442    2.514    0.602
        46 -10.0119    173.9804    143.3132   8.3317772093e+01   1.8070549729e+01    0.2203774    0.2015236  41.38  0.000781808    1.081    0.075
        47 -11.3897    158.7199    142.0021   8.6458343461e+01   2.1606994505e+01    0.5913514    0.4016239 -86.62  0.002291868    2.615    0.618
        48 -11.7421    211.9060    137.5954   7.4210576599e+01   1.1039130989e+01    0.4730169    0.3947334 -82.70  0.001650809    1.650    0.394
        49  -9.9602    166.5089    134.1071   8.2835688989e+01   2.1566888595e+01     0.229144    0.1519304 -42.77 0.0007002699    1.517    0.341
        50 -10.6153    194.6498    134.2238   7.6809248152e+01   1.5357491802e+01    0.2757725     0.237952 -86.67 0.0007851061    1.469    0.319
        51 -11.9890    160.0110    128.9693   8.3090917292e+01   2.4066305914e+01    0.5508637    0.4434176 -12.83  0.002615177    1.491    0.329
        52  -8.8309    154.2694    131.3456   8.5012567844e+01   2.4820228446e+01    0.1554511    0.1229727  -7.36 0.0006990471    1.615    0.381
        53 -10.2595    139.3069    130.6469   8.8477332977e+01   2.8168135323e+01     0.358748    0.2339908 -63.82  0.001300111    1.867    0.464
        54 -11.2012    136.2485    127.7481   8.8554337184e+01   2.9450476224e+01    0.7104525    0.2414661 -52.34  0.002145651    3.348    0.701
        55 -11.4175    135.0000    110.9058   8.4652756721e+01   3.3439606599e+01     0.828818    0.2092969 -44.61  0.002250893    3.908    0.744
        56 -11.5405    134.0725    101.3583   8.2318360049e+01   3.5710481585e+01    0.8947424    0.3651097 -54.43  0.001623704    3.311    0.698
        57  -9.3982    196.4753    128.9650   7.5177645590e+01   1.5950409434e+01     0.243618    0.1463832 -37.38  0.001044969    1.630    0.387
        58  -9.1494    212.5329    127.5565   7.1723408984e+01   1.2701690586e+01    0.1479736    0.1386163 -11.18 0.0001380739    1.014    0.014
        59 -11.3518    171.8782    123.2145   7.8966526742e+01   2.2599320214e+01     0.979255     0.284594 -39.16   0.00280873    3.588    0.721
        60 -11.9404    167.3623    115.6046   7.8042445011e+01   2.5178266551e+01    0.7009051    0.4654666  35.30  0.002348343    1.657    0.397
        61  -9.6445    211.0717    122.3252   7.0733533181e+01   1.3958585935e+01    0.3632302    0.1873726 -29.13  0.001432306    2.080    0.519
        62  -9.8893    142.9366    122.9317   8.5710934467e+01   2.9093372484e+01    0.2559313    0.1971832 -89.14   0.00113965    1.731    0.422
        63 -10.1239    215.4552    116.6167   6.8533740224e+01   1.4015239416e+01    0.3226908    0.2675936 -19.28 0.0008640019    1.211    0.174
        64  -9.3901    151.3064    116.9572   8.2150756707e+01   2.8543988441e+01    0.2132101    0.2005701 -37.48 0.0002489289    1.061    0.057
        65  -8.4899     96.2982    127.2922   9.9011770606e+01   3.7175234704e+01    0.1420744    0.1145909 -22.60 0.0002738551    1.563    0.360
        66  -9.5986    217.9555    112.0073   6.6953199339e+01   1.4275776820e+01    0.3796601    0.2387226  88.84  0.001352407    3.427    0.708
        67 -12.1378    119.4850     93.0403   8.3907269886e+01   4.0622400588e+01    0.7860737    0.4602869 -42.77  0.003318262    1.663    0.399
        68 -12.4691    122.2865    102.8096   8.5865088551e+01   3.7912711403e+01     1.274283    0.8275632 -79.58  0.004720196    2.755    0.637
        69 -10.3958    145.8681    104.6563   8.0223439029e+01   3.2376527582e+01    0.2895039    0.2834744 -60.32 0.0006576233    1.029    0.028
        70 -11.7545    196.3273     97.1984   6.7124629542e+01   2.1905202260e+01    0.5978292      0.46431 -49.96  0.002014266    1.309    0.236
        71 -11.2520    155.6097    100.9168   7.6831466506e+01   3.0906877177e+01    0.5579278    0.3438705  42.88  0.002328531    1.668    0.400
        72 -12.1684    169.4439     94.9760   7.2018142679e+01   2.8795885008e+01    0.7214703    0.6548595 -21.86   0.00260623    1.134    0.118
        73 -11.0508    139.6633     95.5753   7.9248875446e+01   3.5684203940e+01    0.3810374    0.3457243 -60.19 0.0006480812    1.148    0.129
        74 -10.9103    176.4857     91.3933   6.9505931480e+01   2.7770462420e+01    0.2968823    0.2846456  10.03  0.000286032    1.084    0.078
        75 -11.3978    153.0699     92.1490   7.4959284107e+01   3.3270869025e+01    0.3069644    0.2766818 -30.22   0.00027139    1.117    0.105
        76 -10.9819    139.9084     88.3886   7.7099301661e+01   3.7100602602e+01    0.4516523    0.3296292  -4.65  0.001926351    1.904    0.475
        77 -10.9699    238.8411    212.3580   8.4541110058e+01  -5.4976084790e+00    0.4171504    0.2020634  31.19  0.001956976    1.883    0.469
        78 -10.9402    127.1982     76.5716   7.6819497107e+01   4.2338511958e+01    0.6403803    0.2876801 -52.13  0.002154262    2.866    0.651
        79 -10.2257    111.9337     72.5798   7.9823137705e+01   4.6423720559e+01    0.2662978    0.2047717 -34.58  0.001311671    1.270    0.213
        80 -10.9123    144.5963     68.5299   6.9835945054e+01   3.9786405500e+01    0.3322793    0.2585206 -64.27 0.0009957366    1.542    0.352
        81 -12.2100    134.8525     61.2598   6.9861548841e+01   4.3400598655e+01    0.8581595    0.3340132 -35.57  0.002990946    2.581    0.613
        82  -9.2247    125.5420     63.0437   7.2867122477e+01   4.5249728598e+01    0.2286186    0.1467578 -36.54 0.0004706316    1.548    0.354
        83 -12.1494    143.9132     58.2119   6.6660881584e+01   4.1735041150e+01    0.6121258    0.3920301 -41.08  0.001838671    1.590    0.371
        84 -11.4470    153.0646     56.3332   6.3985772745e+01   3.9776382225e+01    0.5200128    0.2860238 -57.03  0.001929441    2.559    0.609
        85 -10.7465    144.3071     49.8425   6.3791265880e+01   4.2980989680e+01    0.2647278    0.2033936  67.40 0.0006078184    1.392    0.281
        86  -9.2891    180.7272    210.7634   9.5095207761e+01   4.4095757057e+00     0.212278   0.09284544  48.95 0.0008873674    2.385    0.581
        87 -10.4767    165.0804     39.8978   5.6310152503e+01   3.9170332469e+01    0.3909013    0.2732664 -81.19  0.001780003    1.812    0.448
        88 -12.3628    160.9110     35.3807   5.5626640871e+01   4.0849158269e+01    0.7220123    0.4917854  39.67  0.002898393    1.561    0.360
        89 -11.0329    228.1234    203.4523   8.4836549852e+01  -2.5993948914e+00    0.2169445    0.2087829 -71.36  0.001445968    1.573    0.364
        90  -8.6471     70.2760    180.7113   1.1423437729e+02   2.8710708774e+01    0.1308354    0.0855463  71.67 0.0001984507    1.516    0.340
        91  -9.9434    176.7398     35.5898   5.2967631866e+01   3.6740326716e+01    0.3056334    0.2300028  41.98 0.0007083291    1.416    0.294
        92 -11.6128    192.6559    194.5284   8.9912046445e+01   4.9152892307e+00    0.9366254    0.4835171 -62.04  0.002926271    5.759    0.826
        93 -10.7821    182.8232     23.3076   4.8371616090e+01   3.6689131689e+01    0.4302949    0.2808376 -75.17  0.001715237    1.776    0.437
        94 -10.5464    141.4975     24.5159   5.5674299931e+01   4.7131975678e+01    0.2422483    0.1764487  47.74 0.0006829343    1.281    0.219
        95 -10.4162    144.9663     23.4945   5.4640550363e+01   4.6380463732e+01    0.2947601    0.1965884  59.91 0.0008628209    1.388    0.280
        96  -8.9519    126.7533     24.7353   5.8888009898e+01   5.0724790200e+01    0.2208503   0.09959783 -39.04 0.0008827405    2.399    0.583
        97 -10.7238    133.2655     23.5376   5.7017727568e+01   4.9285443543e+01     0.254317    0.2458158   2.97 0.0005349254    1.081    0.075
        98  -9.8382    215.9266    197.9344   8.6060470740e+01   2.4867877606e-01    0.1839655     0.167293  89.00 0.0008578029    1.679    0.404
        99 -10.4207    247.1462    195.3996   7.9981292161e+01  -4.5590110073e+00    0.2151195      0.17933  -3.14 0.0003052435    1.079    0.074
       100 -12.2582    211.1597    190.1003   8.5486127321e+01   2.2841595928e+00    0.6433188    0.3526184  14.08  0.002583953    2.931    0.659
       101  -9.0549    208.4971     13.4561   4.2524312341e+01   3.1298137554e+01    0.1332215    0.1213416  84.75  0.000136938    1.081    0.075
       102  -8.7971    145.7694     12.9809   5.0860272734e+01   4.7311586374e+01    0.1669932    0.1174818 -20.79 0.0003946273    1.559    0.359
       103 -11.6593    218.5397    189.3219   8.3944594803e+01   1.0952531355e+00    0.3711736    0.2838798  58.83  0.001325867    1.801    0.445
       104 -10.6119    204.6670    189.8426   8.6684151335e+01   3.4940297682e+00    0.3101155    0.2043651  59.26  0.001489438    2.153    0.535
       105  -9.4175    227.6375    187.6814   8.1948376847e+01  -2.4319076003e-01    0.1419818   0.09187506   8.52 0.0007041636    1.771    0.435
       106 -10.1691    185.1707    184.2151   8.9491926900e+01   8.0592575655e+00    0.2210229    0.2135585   6.41 0.0002659991    1.100    0.091
       107 -11.3639    216.3410    193.0975   8.5076744080e+01   9.0526814999e-01    0.3477755    0.2853689 -23.99  0.001272261    1.241    0.194
       108  -9.3279    203.9714    184.3030   8.5754454659e+01   4.5213949838e+00     0.213036    0.1068763  59.65 0.0007035666    4.170    0.760
       109 -12.5019    247.3761    241.0412   8.7931032228e+01  -1.0134482208e+01    0.6778823    0.4703813  -1.52  0.003178556    1.275    0.216
