#   1 NUMBER                 Running object number                                     
#   2 MAG_AUTO               Kron-like elliptical aperture magnitude                    [mag]
#   3 X_IMAGE                Object position along x                                    [pixel]
#   4 Y_IMAGE                Object position along y                                    [pixel]
#   5 X_WORLD                Barycenter position along world x axis                     [deg]
#   6 Y_WORLD                Barycenter position along world y axis                     [deg]
#   7 A_WORLD                Profile RMS along major axis (world units)                 [deg]
#   8 B_WORLD                Profile RMS along minor axis (world units)                 [deg]
#   9 THETA_WORLD            Position angle (CCW/world-x)                               [deg]
#  10 FWHM_WORLD             FWHM assuming a gaussian core                              [deg]
#  11 ELONGATION             A_IMAGE/B_IMAGE                                           
#  12 ELLIPTICITY            1 - B_IMAGE/A_IMAGE                                       
         1 -13.6787     43.7651    111.2101   1.0333299429e+02   4.8724594995e+01     2.128409     1.486618  63.37   0.01090322    1.816    0.449
         2 -13.2900    197.1485     41.8027   4.3816295762e+01   3.1091187159e+01     1.176131    0.9772414 -39.85  0.003215116    1.231    0.188
         3 -14.0101    206.0952     32.8344   4.0480454358e+01   3.0165078546e+01      1.73815     1.307395  14.99  0.001295469    2.067    0.516
         4 -10.8338     28.4867     14.1557   7.9037140151e+01   7.0040028891e+01    0.2266933    0.1024109 -38.63  0.001184594    2.128    0.530
         5 -12.5294    232.9967      5.1689   3.1783129794e+01   2.7386901598e+01    0.7684067    0.5802194 -47.90  0.005211025    1.253    0.202
         6 -12.0938    227.4249      7.2216   3.2622314527e+01   2.8355200258e+01    0.7039379    0.2726886 -44.44  0.002908716    2.174    0.540
         7  -9.6972     62.4208      8.2525   6.1368590598e+01   6.5599951111e+01     0.161608    0.1085155 -31.25  0.000953279    1.670    0.401
         8 -10.6084     42.6200      6.3731   6.8368746425e+01   6.9094663134e+01    0.2812453    0.1030566 -24.67  0.001255007    2.904    0.656
         9  -9.9472     56.4915      2.4941   6.0748752139e+01   6.7217609929e+01    0.1217232   0.09750109  19.55 -8.328062e-05    1.019    0.019
        10 -11.3127     62.0860    199.4877   1.1128192516e+02   2.4902708110e+01    0.4047228    0.2318842 -59.18 0.0005840326    1.766    0.434
        11 -11.3368    139.8787    247.7853   1.0035251883e+02   3.8052249267e+00     0.518565     0.305959 -58.22  0.002836125    2.155    0.536
        12 -11.5811    115.1292    246.7617   1.0522621176e+02   7.6961492375e+00    0.5549386      0.32542 -62.57  0.003074517    2.054    0.513
        13 -14.6186     57.8410    185.3696   1.1066602829e+02   2.8719545746e+01       3.8367     2.756838 -53.54   0.02139462    1.497    0.332
        14 -10.6759    121.2229    196.3309   9.7021053911e+01   1.6690938411e+01    0.4560112    0.2486516 -72.16 0.0009809723    2.759    0.638
        15  -8.7417     82.4816    194.5124   1.0592150761e+02   2.3228558413e+01    0.1368139    0.1232885  72.02 0.0008102771    1.001    0.001
        16 -17.5310     11.0974    245.7140   1.2500628359e+02   2.1016848316e+01     5.663259     2.264389  24.82   0.02138653    3.959    0.747
        17  -9.7823    148.3065    186.4077   8.8977851309e+01   1.4059995521e+01    0.2574532    0.2444403  15.80  0.001470062    1.025    0.025
        18 -16.9482      5.0905    214.9583   1.2455617178e+02   2.7713414509e+01     17.50955    0.7783399 -75.92   0.04004569   10.625    0.906
        19 -10.0300     65.9861    194.5033   1.0981074292e+02   2.5530735725e+01    0.2892886    0.2381275  55.84 0.0007034515    1.132    0.116
        20  -8.5301     90.9584    182.0543   1.0209081082e+02   2.4850294908e+01    0.2063754    0.1674585 -28.10 0.0004076423    1.561    0.359
        21  -8.6356     93.6168    179.8218   1.0108310805e+02   2.4962457672e+01     0.216834    0.1387642 -61.06 0.0004434295    1.557    0.358
        22  -9.8491     99.3850    180.8825   9.9812440735e+01   2.3794923521e+01    0.2635968    0.2250114  43.48 0.0005488117    1.150    0.130
        23 -10.0635    187.7970    176.0570   7.8183306627e+01   8.8765796834e+00    0.3620134    0.3249189 -67.78  0.001562997    1.398    0.285
        24  -8.6384    148.5123    175.4927   8.6846402036e+01   1.6350123387e+01    0.2132277    0.1463157 -61.34 0.0005562782    1.720    0.418
        25  -9.5543    146.4984    171.9850   8.6628949578e+01   1.7491384600e+01    0.2791679    0.2269778 -83.46 0.0007420931    1.574    0.365
        26 -10.9523    111.6875    204.5219   1.0049098868e+02   1.6499661605e+01    0.3981096    0.2602462 -80.37 0.0004940626    1.995    0.499
        27 -12.7555     55.0937    146.6595   1.0610307108e+02   3.8561612884e+01     3.172881     1.128785 -49.38   0.01163331    2.829    0.647
        28 -11.7459     71.7206    171.8788   1.0543638293e+02   3.0122416659e+01    0.4891029    0.3502783 -29.42  0.002416056    1.925    0.481
        29 -11.3787     75.7558    167.1185   1.0367508707e+02   3.0716155951e+01     0.366426    0.3053309 -37.96  0.002007589    1.387    0.279
        30  -9.9807     47.4543    171.9367   1.1162013566e+02   3.3198905988e+01    0.3513129    0.2596478 -18.01  0.001668765    2.030    0.507
        31  -8.5289    193.4331    171.2069   7.6005101407e+01   8.7678039523e+00    0.1975836    0.1346392 -50.42 0.0009396917    1.632    0.387
        32 -10.3545    240.1312    169.1311   6.6761192480e+01   1.0105535365e+00    0.2091071    0.1615158  -8.76 0.0005832079    1.235    0.190
        33  -9.0298    185.1813    168.9374   7.7258573279e+01   1.0753260202e+01    0.2185623    0.2036104 -69.01 0.0006226038    1.289    0.224
        34  -9.1926    110.8323    168.0845   9.4713799466e+01   2.4896195976e+01     0.232441    0.1983111  77.65 0.0005636635    1.268    0.211
        35  -8.8331     37.2628    167.9618   1.1372057307e+02   3.5289752074e+01    0.2745904    0.1167448  54.55  0.001142968    2.651    0.623
        36  -8.7618     42.1334    167.4884   1.1243453879e+02   3.4882058295e+01    0.1761725    0.1280495  37.37 0.0004793152    1.474    0.322
        37  -9.8304    134.2447    163.9493   8.7991653022e+01   2.1604757816e+01    0.5275313    0.3468769  79.64  0.002015844    2.699    0.629
        38  -8.6156     36.5470    205.9561   1.1756510644e+02   2.6513858021e+01      0.22258        0.135 -30.81   0.00103302    3.322    0.699
        39 -11.5226     90.6800    151.9938   9.7068103461e+01   3.2181865460e+01    0.7326982    0.4780212 -30.72  0.003180363    2.047    0.511
        40 -14.3717     68.6088    144.1200   1.0183061415e+02   3.7449610503e+01     4.713902     2.044268  61.30  0.003477899    5.545    0.820
        41 -10.7268    133.7886    145.2409   8.4107234605e+01   2.6002637522e+01     1.168033    0.3240365 -54.35  0.002921851    4.862    0.794
        42  -8.8580    111.9128    150.0537   9.0903875975e+01   2.9020569925e+01    0.3458107      0.19135  61.97   0.00122395    2.806    0.644
        43 -10.7465     40.6027    146.6777   1.1017488387e+02   4.0198285144e+01    0.3694881    0.2678873 -42.79  0.002013301    1.515    0.340
        44  -9.1187    174.6887    149.0851   7.5195977277e+01   1.6849239808e+01    0.2581433    0.2134448  55.05 0.0006544072    1.344    0.256
        45 -10.1983    103.8402    138.1834   9.0591785058e+01   3.3351698104e+01    0.5685953    0.3537634 -25.68  0.002215737    2.389    0.581
        46 -11.6225     91.3395    137.8645   9.4077998699e+01   3.5575156540e+01    0.2950739    0.2658595 -36.41 0.0004593764    1.154    0.133
        47  -9.7102     44.1035    138.6953   1.0801272273e+02   4.1826972077e+01    0.2651442    0.1733519 -68.21  0.000623184    1.346    0.257
        48 -11.2495     45.8434    134.5231   1.0684436753e+02   4.2686139458e+01     0.471712    0.2555705  46.09  0.002190776    2.048    0.512
        49 -12.3383     42.2680    127.4320   1.0675421874e+02   4.4849166213e+01    0.8741895    0.5079646  66.66  0.003895051    2.352    0.575
        50 -10.0627    112.6692    129.2354   8.6072041400e+01   3.3887839998e+01    0.3672504    0.2825947   7.94  0.001118035    1.671    0.401
        51  -9.0783    160.5960    127.7877   7.3352845841e+01   2.4328399302e+01    0.2326997    0.1450697 -52.99 0.0009583332    1.721    0.419
        52 -11.0590    119.0627    123.4029   8.2872755420e+01   3.4025114226e+01    0.6172982    0.4309386  -8.20  0.002498382    2.199    0.545
        53 -10.3054     99.7884    125.0642   8.8775786808e+01   3.7263812189e+01    0.3183104    0.2706054  -5.78  0.001282776    1.376    0.273
        54 -10.1714    105.8939    130.8638   8.8366619440e+01   3.4759034812e+01    0.3662977     0.330102 -70.68   0.00113901    1.142    0.124
        55  -9.2502    108.4707    118.2604   8.4587045910e+01   3.7289551490e+01    0.2492594    0.2089638  37.03 0.0005322626    1.235    0.190
        56  -9.9751    231.4012    113.6666   5.6223117958e+01   1.2115114811e+01    0.2695004    0.2435033 -37.58 0.0007298898    1.029    0.028
        57  -8.4089    167.6468    112.3389   6.7824880025e+01   2.6008691137e+01    0.1633089    0.1237721 -80.60 0.0007042919    1.802    0.445
        58 -10.9888    117.0581    109.4110   7.9822561025e+01   3.7648211911e+01    0.6275057    0.4148019  52.87   0.00272238    1.689    0.408
        59  -9.2405    205.5085    110.2589   5.9741236119e+01   1.8039039085e+01    0.2531053    0.2047639  50.84 0.0006331356    1.335    0.251
        60  -8.1981    141.0120    107.7979   7.2947096718e+01   3.2917590164e+01    0.1997194    0.1253399  46.04 0.0003786793    1.624    0.384
        61  -9.5850    134.5914    104.0479   7.3576041109e+01   3.5130591075e+01    0.5539726    0.1502882 -43.51  0.001548114    3.624    0.724
        62 -10.2680    135.6995    129.8654   8.0005728793e+01   2.9156259967e+01    0.4847202    0.1413453 -50.47  0.001338554    3.721    0.731
        63  -8.7597    129.0330     96.4662   7.2917286329e+01   3.7952325805e+01    0.2333713    0.1536407  45.65 0.0005976212    1.541    0.351
        64 -11.1071     53.0134     93.7347   9.6283635085e+01   5.1886069808e+01     0.508888    0.3934239  75.00  0.002657983    1.769    0.435
        65 -12.0961     83.7165    159.3063   1.0028230655e+02   3.1463555676e+01     1.040123    0.6948073  85.05 0.0005998452    1.918    0.479
        66  -8.5266    157.4630     89.5297   6.3937479561e+01   3.2872600817e+01    0.1551162    0.1461275 -72.62 0.0008068667    1.099    0.090
        67 -13.1854     72.3079    153.9827   1.0248738843e+02   3.4461121640e+01    0.6794059    0.5560523 -66.73  0.001042714    1.139    0.122
        68  -8.6856    157.5304     82.5197   6.1934218576e+01   3.4171164988e+01     0.149833     0.148701 -59.04 5.386369e-05    1.008    0.008
        69  -9.1167     57.9583     67.4911   8.7016267670e+01   5.7044857133e+01    0.3378025    0.1813867  49.62  0.001425233    2.762    0.638
        70 -13.0030    185.9453     50.6144   4.7713178890e+01   3.2538844798e+01    0.9276716    0.8881447  12.83  0.000948207    1.224    0.183
        71 -11.5530    120.5973    245.8662   1.0401494985e+02   7.0405903813e+00    0.4242519    0.2868357  75.52  0.001736744    2.014    0.504
        72  -8.3079    224.2515    206.3811   7.6881764971e+01  -2.5294408486e+00    0.1342605   0.08644708  -9.01 0.0006957107    1.656    0.396
        73 -12.0886    111.8897    197.2901   9.9361960726e+01   1.8033916948e+01    0.7523398    0.5135056  10.68  0.003475341    2.141    0.533
        74 -10.1243     92.1709    248.7783   1.1003632274e+02   1.0646944397e+01    0.3834714    0.1981028  61.35  0.001224267    2.181    0.541
        75 -10.4808    107.6061    203.8060   1.0132693211e+02   1.7308133107e+01    0.2797233    0.2221558  68.49  0.000631246    1.315    0.240
        76  -8.4387     74.0240     54.7608   7.6597414945e+01   5.7008480687e+01     0.170818    0.1123739  36.57 0.0003664788    1.528    0.346
        77  -8.9882    189.7878     14.9140   3.7844158271e+01   3.6055849696e+01    0.1893972    0.1691704  57.63 0.0007856648    1.240    0.194
        78 -10.9605    193.3277    195.2796   8.0830373287e+01   4.3141706345e+00     1.113531    0.6251651 -66.44  0.003270037    6.314    0.842
        79 -11.0757    156.1472    217.7954   9.2642682659e+01   6.4974842725e+00    0.4946793    0.2597576 -65.93  0.001892091    3.693    0.729
        80  -7.7451     38.4707    216.4220   1.1800923389e+02   2.4024213715e+01    0.1251164   0.09454747  68.95  0.000197421    1.090    0.082
        81  -9.6875     89.8676    212.3562   1.0649992005e+02   1.8191896639e+01    0.2381117    0.2019718  89.38 0.0005456464    1.175    0.149
        82  -9.8849     32.5887    204.1637   1.1826399450e+02   2.7341192068e+01    0.2555548    0.1870773 -83.27 0.0008318246    1.209    0.173
