#   1 NUMBER                 Running object number                                     
#   2 MAG_AUTO               Kron-like elliptical aperture magnitude                    [mag]
#   3 X_IMAGE                Object position along x                                    [pixel]
#   4 Y_IMAGE                Object position along y                                    [pixel]
#   5 X_WORLD                Barycenter position along world x axis                     [deg]
#   6 Y_WORLD                Barycenter position along world y axis                     [deg]
#   7 A_WORLD                Profile RMS along major axis (world units)                 [deg]
#   8 B_WORLD                Profile RMS along minor axis (world units)                 [deg]
#   9 THETA_WORLD            Position angle (CCW/world-x)                               [deg]
#  10 FWHM_WORLD             FWHM assuming a gaussian core                              [deg]
#  11 ELONGATION             A_IMAGE/B_IMAGE                                           
#  12 ELLIPTICITY            1 - B_IMAGE/A_IMAGE                                       
         1 -13.0888    216.2956      2.5205   5.7622280466e+01   3.0691783996e+01      1.27378    0.5926065  63.17  0.002669592    1.904    0.475
         2 -14.1250    191.6859     27.3827   6.6119270626e+01   3.3817036665e+01     1.648598     1.318398 -25.03  0.006901661    1.536    0.349
         3 -13.7535    198.4889     21.1762   6.3731242245e+01   3.2885655820e+01     1.155411     0.765937 -63.39   0.00393106    1.535    0.348
         4 -13.2068    205.3211     13.5388   6.1153883296e+01   3.2099706778e+01    0.6794667    0.6366336 -88.86  0.001413625    1.206    0.171
         5 -13.0005      2.1155     24.3594   1.2004547283e+02   6.9050866775e+01     3.172346    0.4607973 -35.94  0.008926777    8.384    0.881
         6 -13.0689      2.3250      7.3744   1.1346266981e+02   7.1526755211e+01      0.99773    0.5036362 -29.11  0.006713033    1.511    0.338
         7 -11.2926     13.8281     24.3871   1.1468583471e+02   6.8235462593e+01    0.2511434    0.1200095  23.01   0.00151242    2.170    0.539
         8 -11.8077    246.7563    249.2169   1.0555297038e+02  -1.4321282723e+01    0.5313426    0.2339557  30.94  0.002736361    2.013    0.503
         9 -12.1069    175.9250    249.7061   1.1906759228e+02  -3.1584359235e+00    0.7729984    0.1460623  38.93  0.002247056    4.849    0.794
        10 -14.9650     33.9163    247.8224   1.4572660945e+02   1.9346496209e+01     7.528389     2.239915  31.68  0.005204109    7.474    0.866
        11 -15.5330     22.0437    175.1859   1.4202776025e+02   3.6015085358e+01     6.540639     2.278684 -89.35   0.02074235    5.199    0.808
        12 -15.6627     54.1274    214.1918   1.3920752574e+02   2.3617678117e+01     7.632233      3.16044  52.75   0.02169758    2.221    0.550
        13 -13.4192     45.0651    223.4706   1.4184392509e+02   2.2823480584e+01    0.5275411    0.4918111 -65.65  0.002140166    1.490    0.329
        14 -15.3249      3.4954    231.3250   1.4980046408e+02   2.5884533043e+01     8.855557          nan -70.26   0.02160987    8.802    0.886
        15  -9.5140    169.0270    215.0176   1.1488625234e+02   4.0308931781e+00    0.2171881    0.1692403  74.16 0.0008870767    1.666    0.400
        16 -10.7885     71.4576    236.6727   1.3803716296e+02   1.6542145243e+01     0.251776    0.1761256  79.97   0.00114085    1.284    0.221
        17 -12.4469     72.2745    246.4243   1.3881325428e+02   1.4518884334e+01    0.6971773     0.414759  74.31  0.004004988    1.626    0.385
        18 -10.4432    225.4455    200.2134   1.0058947496e+02  -3.7946072421e+00     0.275958    0.2299865 -55.89 0.0006069042    1.561    0.360
        19 -10.7236    192.9728    194.9676   1.0609731963e+02   3.1904871670e+00    0.9171621    0.4470497 -63.45  0.002335708    7.014    0.857
        20 -11.7572     69.5738    191.0533   1.3327659544e+02   2.6646451762e+01     0.427158    0.2650422 -43.25  0.002078996    2.174    0.540
        21 -11.8220     74.1924    184.5031   1.3133686968e+02   2.7490681972e+01     0.307073     0.237353 -50.91 0.0005553814    1.455    0.313
        22 -12.9348     58.4635    132.3684   1.2696161639e+02   4.2114111758e+01     2.133471    0.7269975 -72.09  0.004843669    7.967    0.874
        23 -13.6117     68.2727    145.7742   1.2670437259e+02   3.7595610209e+01     1.584971     0.857973  86.36   0.00405971    3.496    0.714
        24 -13.1161    127.3983    247.1297   1.2830718279e+02   5.6346817260e+00    0.8404451    0.4804383  48.46  0.004459776    1.452    0.311
        25 -10.2371    230.3822    167.1671   9.2885878281e+01   1.0687840976e+00    0.2089886    0.1256569 -47.70 0.0009538672    1.763    0.433
        26 -14.3901     13.9889    240.5607   1.4859736669e+02   2.3010355104e+01     1.365331    0.9388188 -80.24   0.01001529    1.352    0.260
        27 -11.9077     43.1511    148.8245   1.3380232877e+02   3.9994303151e+01    0.3405685    0.2664171  68.57  0.001432477    1.329    0.248
        28 -10.2343    101.8114    148.8642   1.1834951909e+02   3.1511687993e+01    0.3796914    0.2892677 -36.89  0.001288302    1.491    0.329
        29  -9.6132    104.4923    144.9527   1.1682902795e+02   3.1965717913e+01    0.2921703    0.2079457 -33.88  0.001213101    1.682    0.406
        30 -12.2201     90.3641    148.0767   1.2122822627e+02   3.3670177310e+01    0.2916268    0.2646645 -36.99 0.0005354976    1.217    0.178
        31  -9.9404    133.7886    145.0458   1.0921481527e+02   2.6192212735e+01     0.784624    0.1321869 -52.31  0.001405195    9.102    0.890
        32 -11.2865     82.8935    173.0608   1.2755436181e+02   2.8865866355e+01    0.2694325    0.2329609 -67.45 0.0003684494    1.128    0.113
        33 -10.6005     35.8640    141.8420   1.3466939750e+02   4.2417668855e+01    0.1760148    0.1370735  79.50 0.0003346891    1.315    0.240
        34  -9.8682    111.8281    135.1127   1.1270331987e+02   3.2931921835e+01    0.3258756    0.2227714 -20.58 0.0009983233    2.193    0.544
        35 -13.2137     70.5493    170.0797   1.3010610274e+02   3.1426986371e+01    0.5763822    0.2959045 -46.00  0.001739534    2.300    0.565
        36 -11.8720     32.5478    132.3732   1.3413427962e+02   4.4967547019e+01    0.4581911    0.1342468 -62.09  0.001810143    2.624    0.619
        37 -14.4681     10.2227    206.9479   1.4708445716e+02   3.0185108608e+01     1.214196      1.04568  53.09  0.008750731    1.407    0.289
        38 -12.2769     44.1742    128.5535   1.3029358576e+02   4.4688224341e+01    0.4808113    0.2280806 -66.37   0.00219478    1.919    0.479
        39  -9.5838    108.1629    122.6598   1.1077826123e+02   3.6537897666e+01    0.2003504    0.1846769  31.07 0.0003585058    1.135    0.119
        40 -10.5023     99.3710    131.9262   1.1538868862e+02   3.5990056153e+01      0.29382    0.2321888 -25.50 0.0006553441    1.513    0.339
        41 -10.8368    168.0300    113.0882   9.3042177739e+01   2.5529661407e+01    0.3536998     0.287156 -83.89 0.0006693893    1.473    0.321
        42 -12.7564     88.7012    165.0895   1.2479041067e+02   2.9844782351e+01     2.127965    0.7327619  51.86  0.001303234    3.895    0.743
        43  -9.5825    205.0571    110.8564   8.4813945441e+01   1.7178380568e+01    0.4056058    0.1835426  41.03  0.001423193    2.721    0.632
        44 -10.4711     41.5261    109.0015   1.2742588490e+02   4.9497800893e+01    0.2117116    0.1103161 -58.21   0.00103859    1.617    0.381
        45  -9.4686    242.3493     93.6978   7.4638263085e+01   1.1885032672e+01    0.1468857    0.1004727 -71.89 0.0005210137    1.694    0.410
        46  -8.7928    136.2831     58.3032   8.5004787702e+01   4.3228241462e+01    0.1453539    0.1095102  20.96 0.0006972923    1.555    0.357
        47 -12.4566     99.5165    236.9742   1.3259596249e+02   1.2174951767e+01    0.5956637     0.265693  48.59 0.0008490539    1.895    0.472
        48 -10.8115    161.4872    249.5251   1.2188729810e+02  -6.4543999239e-01    0.2838475    0.1081979  40.81  0.001209923    2.168    0.539
        49 -11.3862     62.5531    249.5589   1.4086198897e+02   1.5298696981e+01    0.5071712      0.16253  52.64  0.001994585    2.629    0.620
        50 -12.8969     83.5660    246.9395   1.3675791749e+02   1.2749886387e+01    0.7391419    0.5012506  65.54  0.004546716    1.252    0.201
        51 -13.4798     94.6643    247.8099   1.3474654812e+02   1.0876270972e+01       1.0318     0.559345  38.93  0.004901528    1.771    0.435
        52 -12.7034    107.3655    244.9620   1.3197881088e+02   9.3743445916e+00    0.5093287     0.434409  56.07  0.001557488    1.100    0.091
