#   1 NUMBER                 Running object number                                     
#   2 MAG_AUTO               Kron-like elliptical aperture magnitude                    [mag]
#   3 X_IMAGE                Object position along x                                    [pixel]
#   4 Y_IMAGE                Object position along y                                    [pixel]
#   5 X_WORLD                Barycenter position along world x axis                     [deg]
#   6 Y_WORLD                Barycenter position along world y axis                     [deg]
#   7 A_WORLD                Profile RMS along major axis (world units)                 [deg]
#   8 B_WORLD                Profile RMS along minor axis (world units)                 [deg]
#   9 THETA_WORLD            Position angle (CCW/world-x)                               [deg]
#  10 FWHM_WORLD             FWHM assuming a gaussian core                              [deg]
#  11 ELONGATION             A_IMAGE/B_IMAGE                                           
#  12 ELLIPTICITY            1 - B_IMAGE/A_IMAGE                                       
         1 -11.6316      2.3264     36.7796   1.3291432359e+02   6.8058005934e+01    0.8834196    0.1804334 -65.92  0.002959056    5.229    0.809
         2 -13.2752      2.6615     11.3479   1.2444888917e+02   7.2769804362e+01     1.831961    0.5082607 -57.84   0.00782592    3.629    0.724
         3 -13.2782    190.5698     27.9992   7.2197710437e+01   3.4276299124e+01     1.375075      1.12734  69.16   0.00598604    1.155    0.134
         4 -13.6889    203.9636      9.3225   6.5167847570e+01   3.2858413658e+01     1.808503      1.08139  47.53  0.008644476    1.844    0.458
         5  -9.9021     81.2783    248.2239   1.4081296602e+02   1.5821784717e+01    0.2204198    0.1287393  65.88  0.001003004    1.435    0.303
         6  -9.8423    250.1409    249.5749   1.1233320185e+02  -1.0157491473e+01    0.1669859    0.1143839  -5.90  0.001209987    1.447    0.309
         7 -11.5311    140.1408    249.3098   1.3084210039e+02   6.8972628237e+00    0.3999431     0.265837  58.05  0.002638935    1.345    0.256
         8  -9.8247    127.4682    250.0025   1.3310603012e+02   8.7753033578e+00    0.1404762    0.1117548 -69.90 0.0009877332    1.566    0.361
         9  -9.0929     67.1376    250.3550   1.4330174551e+02   1.7369703850e+01    0.1558948   0.09781701  57.19  0.001114443    1.139    0.122
        10 -12.2323     23.1829    201.5450   1.4769850344e+02   3.1263908504e+01    0.5621157    0.1645474  50.85  0.002839654    2.612    0.617
        11 -11.8312     30.9034    247.7214   1.4891451841e+02   2.2172051370e+01    0.6704378    0.5730696   1.05  0.004595224    2.706    0.630
        12 -12.5129      4.8732    244.9357   1.5274302105e+02   2.5341534268e+01     1.064088    0.6295135 -84.23  0.008084679    1.540    0.351
        13 -13.8240      7.4875    208.6939   1.5084246938e+02   3.1443952133e+01     1.778393    0.6346898 -74.04  0.008087493    2.404    0.584
        14 -15.0327     13.0159    157.3700   1.4669813619e+02   4.1244380822e+01     10.12348     3.916182  69.08   0.04763784    2.838    0.648
        15 -10.5534    173.6790    221.9198   1.2134982176e+02   5.2882972197e+00    0.3994423    0.2880351  83.26  0.002211873    2.249    0.555
        16 -13.0965      3.5533    175.4935   1.4983106575e+02   3.8259591800e+01     2.235208    0.4504415 -79.51   0.00876235    4.173    0.760
        17  -8.6465    152.6460    213.0123   1.2403119538e+02   1.0346027521e+01    0.1643853    0.1466138  56.51 0.0004570395    1.097    0.089
        18  -9.6359     31.6474    206.6732   1.4648843679e+02   2.9383046472e+01    0.3254862    0.1005172  52.16  0.001500826    2.528    0.604
        19 -11.3640     66.2717    199.2908   1.3935894925e+02   2.6625488148e+01    0.2928084    0.2191567 -54.55 0.0009699886    1.745    0.427
        20 -10.0411    192.4739    194.1350   1.1335742563e+02   6.0882254531e+00     0.613202    0.3210812 -64.01  0.001890535    6.341    0.842
        21  -8.9228     51.7442    197.6663   1.4205114525e+02   2.8811516676e+01    0.1627399    0.1015571  70.27 0.0006467975    1.344    0.256
        22 -11.5817     71.8631    191.2865   1.3743681465e+02   2.7466382571e+01    0.2483947    0.2112436 -75.04 0.0004802485    1.292    0.226
        23 -14.3000     47.8038    226.7784   1.4495822026e+02   2.3802512662e+01     1.531924     1.436638 -50.22  0.007739391    1.799    0.444
        24  -8.9759    104.2319    180.1172   1.2922946440e+02   2.4839039027e+01    0.1752113    0.1463706  80.05 0.0002948829    1.098    0.090
        25 -13.1117     68.4299    176.3846   1.3651778638e+02   3.1032754187e+01    0.4733278    0.2718702 -47.58  0.001880459    2.375    0.579
        26 -10.7538     81.1282    178.4840   1.3402088081e+02   2.8790966076e+01    0.2239536    0.1980107  84.17 0.0003747515    1.120    0.107
        27  -8.4730    171.5634    173.4928   1.1373401963e+02   1.3597990290e+01    0.1401314    0.1281052  45.11  0.000153805    1.018    0.018
        28 -11.6783     88.6142    169.1008   1.3112791387e+02   2.9660478247e+01    0.7206439    0.5099624  49.31  0.004095243    1.327    0.246
        29  -8.5546    250.5237    171.5066   9.8628149137e+01  -1.2949252269e+00    0.1291521    0.1105028   5.17 -3.970711e-05    1.018    0.018
        30 -10.4928    191.6644    155.1865   1.0595832897e+02   1.2732236769e+01    0.5507368    0.3623265 -82.23  0.002059091    3.394    0.705
        31 -10.7308    196.9284    242.3259   1.2009968192e+02  -1.3246525098e+00    0.4311168    0.1931028 -51.93  0.002014944    4.024    0.752
        32  -9.7156    100.0087    152.5999   1.2592711941e+02   3.1431923338e+01    0.3134843    0.2812038 -29.82 0.0007022051    1.443    0.307
        33  -8.8580    102.9403    148.1360   1.2444407244e+02   3.1924677616e+01    0.2087895    0.1728894 -22.44  0.001109463    1.699    0.411
        34 -12.7132     66.2925    143.1412   1.3266854690e+02   3.8673606260e+01     1.249887    0.6472337  79.64  0.003074556    2.910    0.656
        35  -8.7663    184.8768    147.9843   1.0577950860e+02   1.5477894048e+01    0.2192333     0.178524 -87.57 0.0005491766    1.620    0.383
        36  -8.3361    192.0119    143.9927   1.0344357335e+02   1.4656885241e+01    0.1721909    0.1644444 -17.11 0.0004203459    1.069    0.065
        37  -9.1425    181.3158    144.0381   1.0564428616e+02   1.6982352996e+01    0.2611931    0.2037583  76.61 0.0005996741    1.632    0.387
        38  -9.5861    110.8441    137.6007   1.2050864782e+02   3.2875003958e+01    0.3260435    0.2184251 -33.43  0.001105084    2.033    0.508
        39  -9.6718    183.4588    238.4985   1.2191845816e+02   1.3483970583e+00    0.1205286   0.09335769  36.45 5.353061e-05    1.029    0.029
        40 -10.4049     98.3017    134.8700   1.2314119013e+02   3.5705060900e+01    0.2580267    0.2236318 -40.39 0.0004245363    1.334    0.251
        41  -9.5599    165.2803    129.3550   1.0571858528e+02   2.3382364219e+01    0.4122497     0.265888  88.20  0.001478434    3.018    0.669
        42  -9.8614     82.6805    243.5161   1.4020811216e+02   1.6388437854e+01    0.3334974    0.1395175  62.14  0.001720642    2.370    0.578
        43  -8.3959    116.3390    130.3079   1.1761794154e+02   3.3477551079e+01    0.1440323     0.119207  -6.97 0.0003231519    1.683    0.406
        44  -9.4860    107.7619    124.1926   1.1850010701e+02   3.6454195994e+01    0.2019553    0.1826945  87.85 0.0003256878    1.077    0.072
        45  -9.2252     69.8335    124.1024   1.2863278891e+02   4.2582323676e+01    0.1960601    0.1628638  87.59 0.0003345813    1.152    0.132
        46 -10.3780     40.5710    127.7463   1.3704142861e+02   4.5263579273e+01    0.2510549    0.0959301 -63.63  0.001138268    2.133    0.531
        47 -12.5417     41.3677    234.0684   1.4650354231e+02   2.3284215484e+01    0.2837645    0.2260397 -77.78 0.0007735193    1.508    0.337
        48 -10.3192    168.0640    113.1473   1.0109403013e+02   2.5959336506e+01    0.3548621    0.2878459 -85.23 0.0008811658    1.514    0.339
        49  -9.3760    203.1946    111.7791   9.3551239962e+01   1.7904967170e+01    0.2114467    0.1768033  14.33 0.0005468687    1.349    0.259
        50 -11.8630     88.8265    152.1559   1.2853993107e+02   3.3349769176e+01    0.2709191    0.2458744 -53.01 0.0005453632    1.281    0.220
        51  -9.3489     46.3507    248.6678   1.4654191309e+02   2.0236236810e+01    0.2905055    0.1112389  68.25  0.001458713    2.541    0.607
        52 -10.0424     33.9124     92.7644   1.3340607699e+02   5.3930488186e+01    0.3837661     0.195707  49.64  0.001923952    2.418    0.587
        53  -9.8005     10.5094     93.3094   1.4073330361e+02   5.5595649082e+01    0.1680681    0.1096461  19.92  0.001070744    1.995    0.499
        54 -10.3238    238.8371    247.8500   1.1388563278e+02  -8.3777428902e+00    0.1427478    0.1176523  33.71  0.001028395    1.338    0.253
        55  -8.2133    184.5261     77.4753   8.7872791213e+01   2.8531182008e+01    0.1529749      0.15182  46.77 4.576198e-05    1.031    0.030
        56  -9.8101     16.3537     66.1368   1.3413971332e+02   6.1197766872e+01     0.207893    0.1633379  31.77 0.0008428726    1.583    0.368
        57  -9.1569     24.3135     58.9213   1.2951068438e+02   6.2166826074e+01    0.1709958    0.1588892  54.45 0.0005843822    1.346    0.257
        58 -10.9075     11.4971     54.6950   1.3347899360e+02   6.3927002191e+01    0.3650602    0.1523377  36.09  0.001890456    3.016    0.668
        59 -11.2563      2.0752     48.7302   1.3589960045e+02   6.5661893448e+01    0.6557766    0.1015826 -63.94  0.002417591    3.961    0.748
        60  -9.5806    162.4110    249.2091   1.2696926160e+02   3.3663456844e+00    0.1344218    0.1100839 -78.52 0.0006538667    1.678    0.404
        61  -9.8918     98.4875    249.4784   1.3801668280e+02   1.3197375751e+01    0.2175936    0.1284146  49.05  0.001044759    1.275    0.216
        62 -10.6493    102.4404    247.7111   1.3718905957e+02   1.2896219000e+01    0.2291403    0.1624748  64.24 0.0005565725    1.159    0.137
