#   1 NUMBER                 Running object number                                     
#   2 MAG_AUTO               Kron-like elliptical aperture magnitude                    [mag]
#   3 X_IMAGE                Object position along x                                    [pixel]
#   4 Y_IMAGE                Object position along y                                    [pixel]
#   5 X_WORLD                Barycenter position along world x axis                     [deg]
#   6 Y_WORLD                Barycenter position along world y axis                     [deg]
#   7 A_WORLD                Profile RMS along major axis (world units)                 [deg]
#   8 B_WORLD                Profile RMS along minor axis (world units)                 [deg]
#   9 THETA_WORLD            Position angle (CCW/world-x)                               [deg]
#  10 FWHM_WORLD             FWHM assuming a gaussian core                              [deg]
#  11 ELONGATION             A_IMAGE/B_IMAGE                                           
#  12 ELLIPTICITY            1 - B_IMAGE/A_IMAGE                                       
         1 -17.5155    213.2597     74.6693   6.6709585354e+01   2.2468933140e+01     3.932309     1.562577 -49.31   0.01614993    2.591    0.614
         2 -15.6858     10.5625     31.1522   1.1793365812e+02   7.2802377615e+01    0.7797978    0.5831142 -45.46  0.004696116    1.201    0.167
         3 -15.8135     34.7364     28.9383   9.9870436028e+01   7.0479849806e+01    0.9305027    0.4892495  34.23   0.00441319    1.832    0.454
         4 -12.4809     87.5206    233.3185   1.2348798900e+02   1.5720424403e+01    0.2112539    0.1587988  28.18 0.0006627803    1.139    0.122
         5 -14.7891    193.1091    244.9943   1.0293146603e+02   3.4722485573e-01    0.6311996    0.3830873 -34.69  0.003234793    1.835    0.455
         6 -13.4329    184.8738    240.6676   1.0385551571e+02   1.8809642198e+00    0.5054549    0.2755884 -27.54  0.002640029    1.965    0.491
         7 -15.4732    169.1633    196.2486   1.0019878984e+02   1.0554476339e+01     1.040963    0.8502714  39.31  0.005337357    1.341    0.254
         8 -15.5142    105.9018    201.7240   1.1553010398e+02   1.9210470251e+01     2.516984    0.8889452  26.93  0.008962378    3.031    0.670
         9 -17.3382    216.4916    197.4064   9.1445268374e+01   3.6624666352e+00     2.453076     1.355598 -35.70   0.01424536    1.766    0.434
        10 -16.8099    146.4064    217.9531   1.0840762981e+02   1.0320025276e+01     3.647748     2.319584  36.31   0.02068585    1.386    0.279
        11 -15.3396     13.9514    199.9702   1.3884039955e+02   3.0763679966e+01    0.9654996     0.758468 -77.57  0.005638845    1.381    0.276
        12 -16.0989     23.9663    196.8069   1.3613828657e+02   3.0543693355e+01     1.924599    0.6525698 -78.70   0.00805096    3.048    0.672
        13 -16.7515     20.0083    184.7524   1.3648378512e+02   3.3654678692e+01     1.979868      1.21751  16.25  0.009338084    1.814    0.449
        14 -12.1042     88.9592    211.5034   1.2089896547e+02   1.9671033417e+01    0.2002818     0.112235  31.79 0.0004786141    1.494    0.331
        15 -19.3564     63.1043    145.0452   1.1944450250e+02   3.8543463733e+01     20.86086     2.770964 -65.71   0.03892228   10.161    0.902
        16 -12.3113     51.9078    200.4920   1.2916998034e+02   2.6738882573e+01    0.1990211    0.1137526  31.14 0.0009641633    1.524    0.344
        17 -12.1148     44.2967    197.8777   1.3093466893e+02   2.8190483420e+01    0.1725751    0.1522934  60.73 0.0005808175    1.077    0.071
        18 -12.7032    109.6879    190.6724   1.1303954358e+02   2.0876396101e+01     0.286345    0.2499952  -5.74  0.001609178    1.264    0.209
        19 -13.1628    250.0000    185.0281   8.4036761673e+01   1.0752588114e+00    0.2061169    0.1219115 -27.63  0.001337203    1.393    0.282
        20 -12.5159     97.7853    180.3933   1.1461577699e+02   2.4909430262e+01    0.3107798    0.2055624  55.91   0.00134098    1.650    0.394
        21 -17.4983    106.0123    231.8729   1.1914043022e+02   1.3557565076e+01     2.875879     2.138402 -21.45   0.01741704    1.725    0.420
        22 -15.3764     40.7227    167.2710   1.2924145898e+02   3.5757666413e+01     1.124764    0.8463804 -74.99  0.005982938    1.352    0.260
        23 -13.8944     31.2444    164.3957   1.3181494662e+02   3.7465824561e+01    0.3672541    0.2733216  44.39  0.001358946    1.210    0.173
        24 -15.6655     38.2711    157.5082   1.2900605081e+02   3.8453606124e+01    0.7268306    0.5812871  21.92  0.003296116    1.320    0.243
        25 -13.1072     98.1724    173.5355   1.1346657313e+02   2.6368761236e+01    0.4445397    0.2764698  57.05  0.002005338    1.859    0.462
        26 -15.6841    132.1233    163.8873   1.0287128867e+02   2.2700534189e+01     1.670501    0.8754998  33.83  0.007114053    1.818    0.450
        27 -13.8918    145.6430    164.4129   9.9687501711e+01   2.0189308429e+01    0.5906201    0.2509904  37.92  0.002328215    2.209    0.547
        28 -12.5681      9.9259    168.6250   1.3838018938e+02   3.8327547832e+01    0.2565259    0.1726442  80.50  0.001064374    1.357    0.263
        29 -12.9474     21.3003    166.8974   1.3497077389e+02   3.7793714596e+01    0.3133445    0.2204845 -55.71  0.001405153    1.587    0.370
        30 -14.5237      3.2058    153.4122   1.3956646986e+02   4.2537982895e+01    0.4756987    0.3734659  89.12   0.00290529    1.160    0.138
        31 -13.8647    154.2488    145.9469   9.3926820348e+01   2.2235850024e+01    0.5654232     0.331894  47.08  0.002277905    1.760    0.432
        32 -16.1608     25.2974    139.8952   1.3143015113e+02   4.4253945236e+01    0.8894444    0.5810944 -13.86  0.004262161    2.077    0.519
        33 -15.8921     11.9135    140.5083   1.3598554249e+02   4.5188631918e+01     1.065151    0.4260598  24.49  0.004557161    2.412    0.585
        34 -15.2511     17.5438    133.1882   1.3345557513e+02   4.6654315721e+01    0.4839406    0.4514752 -71.19   0.00204999    1.110    0.099
        35 -15.4075     22.7918    127.9957   1.3106680233e+02   4.7582170762e+01    0.6208503    0.4124006 -61.32  0.002871319    1.458    0.314
        36 -15.5583      5.5753    107.4561   1.3554899473e+02   5.4190171661e+01     1.157034    0.6830705  89.19   0.00575464    1.623    0.384
        37 -16.1200      5.0112    129.3724   1.3753259931e+02   4.8517376670e+01     1.429492    0.5970327 -75.69  0.006221252    2.132    0.531
        38 -14.7789      3.0449    117.3838   1.3736894198e+02   5.1737344649e+01    0.8575076    0.3492966 -70.00  0.003709277    2.128    0.530
        39 -11.9217     95.0095    144.0480   1.0924237528e+02   3.3750871890e+01    0.2363528    0.1834754 -15.10  0.000780132    1.659    0.397
        40 -11.9885    105.8109    131.8301   1.0348358021e+02   3.4680957863e+01    0.2098214    0.1800966  72.85 0.0003894567    1.300    0.231
        41 -12.1731     89.7086    222.9286   1.2194879633e+02   1.7355061360e+01    0.1626301    0.1499179  61.90  0.001012499    1.202    0.168
        42 -18.3267    179.4723    160.8521   9.1595426139e+01   1.4902109632e+01     4.793614      3.20424 -48.24   0.02482934    1.694    0.410
        43 -14.1096      3.4051     41.4881   1.2645899320e+02   7.0914386401e+01    0.4449693    0.2606238 -48.62  0.002396916    1.454    0.312
        44 -14.9134    236.0686    236.1118   9.4331769559e+01  -3.3879954837e+00    0.4750807    0.2124611  35.65  0.002819681    2.418    0.586
