#   1 NUMBER                 Running object number                                     
#   2 MAG_AUTO               Kron-like elliptical aperture magnitude                    [mag]
#   3 X_IMAGE                Object position along x                                    [pixel]
#   4 Y_IMAGE                Object position along y                                    [pixel]
#   5 X_WORLD                Barycenter position along world x axis                     [deg]
#   6 Y_WORLD                Barycenter position along world y axis                     [deg]
#   7 A_WORLD                Profile RMS along major axis (world units)                 [deg]
#   8 B_WORLD                Profile RMS along minor axis (world units)                 [deg]
#   9 THETA_WORLD            Position angle (CCW/world-x)                               [deg]
#  10 FWHM_WORLD             FWHM assuming a gaussian core                              [deg]
#  11 ELONGATION             A_IMAGE/B_IMAGE                                           
#  12 ELLIPTICITY            1 - B_IMAGE/A_IMAGE                                       
         1 -12.5387      5.8552     61.8372   1.0509756857e+02   6.3334978927e+01      1.42489    0.3424024 -51.81  0.005941928    2.612    0.617
         2 -13.2714    228.5420     29.2448   3.6066312486e+01   2.5591337970e+01    0.8231598    0.7188187  53.07  0.005531947    1.449    0.310
         3 -12.7155     52.5862     22.6659   6.9692865965e+01   6.5397212297e+01     1.507535     1.255465  51.49  0.009579492    1.645    0.392
         4 -11.6975     31.9532     14.3512   7.5005838393e+01   6.9496743715e+01      1.14131    0.4472235 -27.95   0.00532228    2.621    0.618
         5 -12.2345     21.4295     16.5124   8.1417925530e+01   7.0461708515e+01     1.133343    0.7681347   5.55  0.007431426    1.304    0.233
         6 -11.9527     12.6435     18.6450   8.7175521695e+01   7.1012913589e+01    0.9286684    0.5569783 -18.78  0.005784895    1.451    0.311
         7 -12.8590    160.5209     13.4020   3.9608175966e+01   4.2986463613e+01     1.027166     0.563554  63.00  0.005248334    1.586    0.369
         8 -10.0913     83.2405      5.7338   5.1692163786e+01   6.1488943109e+01    0.2444243    0.1866481 -68.81  0.001410437    2.016    0.504
         9 -10.1956     79.1176      9.7276   5.4562265659e+01   6.1981506074e+01    0.2551728    0.1427123  17.03  0.001257604    2.130    0.531
        10 -11.6434    182.8510      8.4856   3.5652425396e+01   3.8161176032e+01    0.3994639    0.1863074  86.60  0.001803998    2.307    0.567
        11 -11.2678     72.0474    202.7643   1.0792313368e+02   2.2681785902e+01     0.648381    0.4147355 -85.10  0.003317181    1.696    0.411
        12  -8.6490     25.6431    249.7476   1.2153187029e+02   1.8474840222e+01    0.1495575   0.08535349  84.49 0.0007229394    1.591    0.372
        13 -14.0629      2.9693    239.4306   1.2506606796e+02   2.2751030138e+01     13.27684          nan -76.23   0.02760972   16.252    0.938
        14 -13.1816     40.1949    207.6913   1.1563367526e+02   2.5572316299e+01     1.316976    0.8571141  44.27  0.007730063    1.439    0.305
        15 -13.1091     55.7939    204.5756   1.1186044435e+02   2.4408993487e+01     1.249093    0.7596008  85.23  0.004587911    1.749    0.428
        16 -14.9223     32.5692    189.3788   1.1568285767e+02   3.0609143625e+01     6.338313     2.489612  71.21   0.02192848    4.150    0.759
        17 -11.2905     46.3437    181.6271   1.1159015232e+02   3.0929331214e+01    0.3629326    0.2669619 -45.75 0.0005914269    1.591    0.371
        18 -11.1910     53.7386    175.1303   1.0895721761e+02   3.1624225309e+01    0.2759852    0.2429328 -40.25 0.0004365814    1.340    0.254
        19 -10.3824     66.0867    164.8102   1.0428814048e+02   3.2586105971e+01    0.2390118    0.2259644 -43.42 0.0003593943    1.179    0.152
        20  -8.5181    135.6289    164.4813   8.5981859992e+01   2.1125071365e+01    0.1486588    0.1445694 -51.85 8.060208e-05    1.043    0.041
        21 -12.6119     51.5939    161.4391   1.0769043021e+02   3.5276776626e+01    0.5303569     0.309936 -39.58  0.001579843    2.147    0.534
        22 -11.5037     74.9050    157.7553   1.0075606657e+02   3.3116974375e+01     0.540766    0.4850942 -27.12  0.003016439    1.280    0.218
        23  -8.9227     38.3136    162.3077   1.1134542653e+02   3.6559021827e+01    0.1335284   0.09464456 -42.61 0.0002924923    1.625    0.385
        24 -13.2749     12.9915    208.3295   1.2145005082e+02   2.8252319097e+01    0.7757757    0.4570676  70.17  0.001249735    1.467    0.318
        25 -12.1485     67.9502    143.7021   1.0025944711e+02   3.7646729822e+01    0.7348844    0.4654031  64.35  0.003115033    2.018    0.504
        26  -9.3995     90.7264    144.1994   9.3781267048e+01   3.4067992699e+01    0.2612362    0.2014617  48.19  0.000909111    1.357    0.263
        27 -11.4500     78.3815    142.4173   9.6981145081e+01   3.6461379934e+01    0.3218139    0.2616876 -53.46 0.0006112505    1.166    0.142
        28 -10.2296    105.7592    131.5004   8.6705854389e+01   3.4574630884e+01    0.3811425    0.3179382   2.51  0.001040759    1.424    0.298
        29 -10.0138     91.4541    128.3707   9.0155030228e+01   3.7869455713e+01    0.2725967    0.2602231  -7.90  0.000690526    1.105    0.095
        30 -10.7248     54.1286    123.6551   1.0068091230e+02   4.4516136038e+01    0.2657361    0.1900177 -72.01  0.001344386    1.390    0.281
        31  -8.8601    103.5026    120.1021   8.4609337147e+01   3.7728084418e+01    0.2197206    0.1485337 -49.18  0.000334693    1.423    0.297
        32 -11.3226     44.5064    108.6817   1.0080985778e+02   4.9349491859e+01    0.4885496     0.406194  28.31   0.00220642    1.353    0.261
        33 -10.0036     52.0052     90.1217   9.3813900100e+01   5.2905162029e+01    0.2805009    0.2541649  88.42  0.001639448    1.339    0.253
        34 -11.4849     35.7553     89.0792   9.9569469621e+01   5.4950580360e+01    0.8830268    0.4938906 -50.55   0.00440589    1.494    0.331
        35 -12.3399     14.8317     73.6675   1.0411991990e+02   6.0198069932e+01     1.297521    0.6468865 -27.06  0.006327355    2.200    0.546
        36 -11.7910     10.1953     88.6715   1.0903335776e+02   5.7058914927e+01    0.6022608     0.495708 -26.16  0.003077548    1.264    0.209
        37 -10.7445     16.2946     83.0742   1.0562160783e+02   5.7965505207e+01    0.4835938    0.2686147 -34.67   0.00206899    1.744    0.427
        38 -11.8897     24.9209     84.2825   1.0256552977e+02   5.7037398347e+01    0.6754475    0.5770679 -66.63  0.002499895    1.199    0.166
        39 -10.0371     39.6582     74.2737   9.4225333831e+01   5.7892866446e+01    0.2629873    0.2557483  24.33   0.00170609    1.241    0.194
        40 -10.8143      2.1946     50.0790   1.0374817978e+02   6.5990556412e+01    0.7496327    0.2451596 -61.66  0.003304282    2.680    0.627
        41 -11.6476     10.6323     53.1581   1.0067190159e+02   6.4867526607e+01     1.378178     0.163849 -51.72  0.004794171    3.824    0.738
        42  -9.6094    169.3236    249.3425   9.3086587524e+01  -1.1124541949e+00     0.128384   0.08711505   2.24 0.0007050716    1.731    0.422
        43 -11.6680     12.6307     60.6184   1.0181963520e+02   6.3183379964e+01     0.758416    0.3428032  23.60  0.003841984    2.466    0.594
        44 -11.2808     41.7024     63.7415   9.0240702158e+01   5.9892201015e+01    0.4885765    0.3798396  35.71  0.002872156    1.508    0.337
        45 -10.2464     34.6907     67.0570   9.4166194940e+01   5.9964545651e+01    0.3351043    0.1844687 -32.31  0.001588861    1.772    0.436
        46  -9.4231     34.6581     62.8706   9.2919186941e+01   6.0843259179e+01    0.2932274    0.1974363 -31.53  0.001445804    1.324    0.245
        47 -11.1906    207.7333     48.0102   4.2585032230e+01   2.7715445772e+01    0.3999772    0.2282791 -68.88  0.001856162    2.071    0.517
        48 -10.7260    132.4554    247.0717   1.0024112907e+02   4.7778671425e+00    0.2053402    0.1488004  36.44 0.0007760339    1.165    0.141
        49 -13.8572     21.7918    202.1040   1.1916485923e+02   2.8784558628e+01     1.163054    0.7644493  74.84  0.004039307    1.324    0.245
        50 -12.0049     54.4827    235.1411   1.1499513504e+02   1.8011660930e+01    0.6318561    0.3930465 -69.74  0.002527175    1.650    0.394
        51  -9.0610     60.8079    233.2052   1.1354144135e+02   1.7608761197e+01    0.1920113     0.140574  65.30 0.0005759271    1.192    0.161
        52 -11.9097    119.1137    229.6958   1.0078252559e+02   9.9927157317e+00    0.3948371    0.2805862  38.83  0.002237545    1.239    0.193
        53 -10.7543     10.9503     30.8883   9.3164435950e+01   6.9106632554e+01    0.4232616    0.2805682  18.55   0.00258693    1.600    0.375
        54 -11.1958     39.1814     26.4718   7.7246796883e+01   6.6839786068e+01    0.3956046    0.3725374 -87.57   0.00265558    1.840    0.456
        55 -10.4223     83.1822    228.3313   1.0836340636e+02   1.5600006314e+01    0.4367517    0.1545572 -57.36  0.001840378    2.953    0.661
        56 -10.4105     67.4864    207.0362   1.0946922862e+02   2.2336874348e+01    0.2661798    0.1578943  53.38  0.001015031    1.595    0.373
        57 -10.4274     54.3167    189.7137   1.1057936793e+02   2.8038326209e+01    0.3502774    0.2573127  43.27  0.001583454    1.344    0.256
