#   1 NUMBER                 Running object number                                     
#   2 MAG_AUTO               Kron-like elliptical aperture magnitude                    [mag]
#   3 X_IMAGE                Object position along x                                    [pixel]
#   4 Y_IMAGE                Object position along y                                    [pixel]
#   5 X_WORLD                Barycenter position along world x axis                     [deg]
#   6 Y_WORLD                Barycenter position along world y axis                     [deg]
#   7 A_WORLD                Profile RMS along major axis (world units)                 [deg]
#   8 B_WORLD                Profile RMS along minor axis (world units)                 [deg]
#   9 THETA_WORLD            Position angle (CCW/world-x)                               [deg]
#  10 FWHM_WORLD             FWHM assuming a gaussian core                              [deg]
#  11 ELONGATION             A_IMAGE/B_IMAGE                                           
#  12 ELLIPTICITY            1 - B_IMAGE/A_IMAGE                                       
         1 -14.0205     68.0848    144.2553   8.7533134385e+01   3.7904801967e+01     4.759843     2.602109  81.61   0.01356196    5.000    0.800
         2 -12.4356    249.5696     21.0666   2.2120238250e+01   2.4024505495e+01      1.04259    0.3880518 -30.25  0.003534503    3.196    0.687
         3 -14.0652    225.8729     42.3898   2.7813290515e+01   2.5827359840e+01     2.106928     1.109241  46.98   0.01065566    2.731    0.634
         4 -13.4686    232.5936     36.2792   2.6067224896e+01   2.5313968606e+01     1.102014    0.7391686  38.18  0.001366589    2.490    0.598
         5 -12.5696      2.9544     40.3905   9.2023934299e+01   6.8831535255e+01     1.330011       0.2031 -58.43  0.004345058    4.760    0.790
         6 -11.8307      2.4367     22.2677   8.5962212551e+01   7.2300806256e+01    0.8336028    0.2304322 -50.86  0.003557721    3.093    0.677
         7 -12.8717      4.5058      6.9524   7.7372869081e+01   7.4651666890e+01     1.029365     0.610796 -34.14  0.006390449    1.567    0.362
         8  -9.5284    123.3595     23.4603   3.6396517839e+01   5.0223481661e+01    0.2604242    0.1764779 -79.73 0.0003493539    1.859    0.462
         9  -9.4909     86.9692    249.9552   9.6860417837e+01   1.0965224936e+01    0.1535186    0.1342567  26.02 0.0004869209    1.052    0.049
        10 -15.4521     21.2281    240.6967   1.1132328170e+02   1.9815074151e+01     9.300997     3.104892  12.36   0.02998392    5.771    0.827
        11 -14.0612     10.5711    206.5425   1.1184470557e+02   2.8150690593e+01     1.188299      1.04176 -51.60   0.00449071    1.274    0.215
        12 -12.9854     12.9273    198.4467   1.1073670954e+02   2.9853730210e+01    0.4677107    0.3879952   5.49 0.0007748915    1.365    0.267
        13 -15.9540     22.4214    191.0582   1.0768117647e+02   3.0861201127e+01     8.782145      3.04849 -88.03   0.02950362    4.065    0.754
        14 -10.0283    192.9898    194.9152   6.3929281984e+01   6.9905291578e+00    0.6986224    0.3881778 -64.23  0.001902171    8.196    0.878
        15 -12.3626    236.6254    172.9291   5.1891704086e+01   4.7341584804e+00    0.4123133    0.3599684 -35.75  0.002863635    1.303    0.232
        16  -9.2734    247.6783    249.6780   6.2998923305e+01  -7.5868460893e+00    0.1182107   0.06187928 -10.02 0.0003758916    1.675    0.403
        17  -9.6809    110.6715    167.4057   7.8734865551e+01   2.5727264239e+01    0.2565645    0.2292458 -53.74 0.0006922964    1.224    0.183
        18 -13.4380     50.9382    154.7895   9.5005452936e+01   3.7298744600e+01    0.7629783    0.4564294 -38.87  0.001574686    1.780    0.438
        19 -11.3008     65.4100    159.1401   9.1011472928e+01   3.4445627111e+01    0.3034127    0.2809696  -1.95 0.0004042094    1.066    0.062
        20  -8.4660    134.0000    147.9877   6.8234161804e+01   2.6136754385e+01    0.2511972   0.08656254 -47.69 0.0008010184    2.933    0.659
        21 -11.4380    238.3604    145.2852   4.6472958907e+01   8.8839859530e+00     0.309987    0.2062021   8.61  0.001734804    2.068    0.516
        22  -9.9212    172.8480    240.4420   7.5886913810e+01   1.8390600228e+00    0.3623836    0.1859311 -52.13  0.001718242    2.734    0.634
        23 -10.1074     90.8860    140.6582   7.9307121447e+01   3.5412831107e+01    0.3593423    0.3212237 -20.61 0.0009244735    1.100    0.091
        24  -9.6649     94.4193    137.5979   7.7514301420e+01   3.5578718583e+01    0.3542085    0.2408393 -16.06  0.001492268    1.844    0.458
        25 -12.6509     46.3150    173.5111   9.9026006747e+01   3.2990750884e+01     1.034758    0.5618621 -24.46  0.001278697    2.609    0.617
        26 -12.8478     73.9403    153.1160   8.7234501633e+01   3.4844752206e+01    0.8913572     0.815302  84.64  0.001297901    1.245    0.197
        27 -12.1155    243.2946    132.6167   4.3378169687e+01   1.0155396717e+01    0.4070218    0.2165326 -30.54  0.002185325    1.755    0.430
        28 -12.3710     77.8648    138.4464   8.3112733547e+01   3.7988854981e+01    0.4689968    0.4437256 -49.89 0.0006226666    1.108    0.097
        29 -10.5615    105.5063    130.3057   7.2371112034e+01   3.5388149297e+01    0.3906583    0.3485085  -3.86 0.0009680151    1.104    0.094
        30  -9.0259     74.2790    130.6198   8.2690606615e+01   4.0481880024e+01    0.1548544     0.121221  72.31 0.0007006499    1.714    0.417
        31 -11.0786     67.1451    127.4133   8.4508534845e+01   4.2311961418e+01    0.5224693    0.3861539 -83.51  0.002386158    1.805    0.446
        32 -11.0398     90.9482    126.0221   7.6010797313e+01   3.8957229189e+01    0.3316848    0.2753794   2.17 0.0005332584    1.239    0.193
        33  -8.4454    112.6391    124.6765   6.8852989374e+01   3.5363153795e+01    0.1674792    0.1198574  -5.30 0.0007042508    1.780    0.438
        34 -11.3989    114.5514    238.4148   8.8952309300e+01   9.7312232800e+00    0.3329893     0.262338 -67.32  0.001400152    1.679    0.404
        35  -9.4254    103.2806    118.5778   7.0215235107e+01   3.8503608573e+01     0.240438     0.203556 -36.91 0.0004260774    1.188    0.158
        36 -12.0463    244.7205    109.7560   3.8865955685e+01   1.3411389924e+01    0.5423025    0.1803389 -32.14  0.002086086    3.586    0.721
        37  -9.9406    204.8556    110.6500   4.4644892235e+01   1.9981940905e+01    0.3506168    0.2284718  35.69  0.001338365    1.847    0.459
        38 -11.2454    247.3117    169.6964   4.9645149252e+01   3.8767648669e+00    0.2607578    0.1913232  -6.38  0.001716008    1.349    0.259
        39 -11.1428     53.2000     92.8068   8.1713602451e+01   5.2645440553e+01    0.6722496    0.3178909 -52.27  0.002740384    2.059    0.514
        40 -11.2244    242.5239     94.5598   3.6235149808e+01   1.5981732065e+01    0.3278414    0.1856553  36.62  0.001746109    2.726    0.633
        41 -10.0145    241.5133     85.4942   3.4616869176e+01   1.7435830416e+01    0.1167564   0.09540103 -50.75 0.0008104172    1.022    0.022
        42 -10.0509    164.8155     85.6149   4.5870161388e+01   3.2180106391e+01    0.1937085    0.1313697  65.31  0.000514543    1.637    0.389
        43  -9.2592    184.4615     77.2487   4.0385030342e+01   2.9335353382e+01    0.2413733    0.1282012 -31.85 0.0009215402    2.031    0.508
        44 -10.2174    240.4113     77.2165   3.3152757726e+01   1.8767058462e+01    0.1716547   0.08616652 -47.29 0.0009498641    1.677    0.404
        45 -11.2815     12.7701     59.7291   9.1937998576e+01   6.4186727927e+01     0.383297    0.2780218  35.13 0.0007552686    1.674    0.402
        46 -11.5433     80.5173    247.5336   9.8133408710e+01   1.2201321481e+01    0.4076917    0.3117944 -52.20  0.002321812    1.521    0.342
        47 -10.6505     80.3239    210.1393   9.3985276160e+01   2.0116638708e+01    0.2712987     0.243102  84.10  0.000586375    1.277    0.217
        48 -11.9496     53.2514    168.0587   9.6186970935e+01   3.3624267090e+01    0.3958366    0.2961319 -28.78 0.0006688883    1.464    0.317
        49 -11.0105    114.1990    246.9770   9.0115559109e+01   8.1617859385e+00    0.2542162    0.1675798  25.48  0.001412547    1.254    0.203
        50 -11.7243    137.6699    229.3570   8.2162743205e+01   8.3841496189e+00    0.5119516     0.188844  31.20   0.00206319    2.321    0.569
        51 -10.7609     95.3780    241.8085   9.3978824766e+01   1.1516237742e+01    0.2981351    0.1673598 -63.19  0.001433205    2.201    0.546
        52  -9.4310    189.6138     15.0938   2.5400450497e+01   3.6036497775e+01    0.1957256    0.1381727 -84.87 0.0007135425    1.246    0.198
        53  -9.9517    118.5128     26.5794   3.8348111929e+01   5.1036208874e+01      0.25477    0.2054267 -81.61 0.0006849042    1.419    0.295
