#   1 NUMBER                 Running object number                                     
#   2 MAG_AUTO               Kron-like elliptical aperture magnitude                    [mag]
#   3 X_IMAGE                Object position along x                                    [pixel]
#   4 Y_IMAGE                Object position along y                                    [pixel]
#   5 X_WORLD                Barycenter position along world x axis                     [deg]
#   6 Y_WORLD                Barycenter position along world y axis                     [deg]
#   7 A_WORLD                Profile RMS along major axis (world units)                 [deg]
#   8 B_WORLD                Profile RMS along minor axis (world units)                 [deg]
#   9 THETA_WORLD            Position angle (CCW/world-x)                               [deg]
#  10 FWHM_WORLD             FWHM assuming a gaussian core                              [deg]
#  11 ELONGATION             A_IMAGE/B_IMAGE                                           
#  12 ELLIPTICITY            1 - B_IMAGE/A_IMAGE                                       
         1 -15.7924    210.5763     67.8562   7.5111460378e+01   2.3876614247e+01     10.16074     5.222495  79.07   0.03852947    2.685    0.628
         2 -15.0003    216.6058     22.3211   6.3413035153e+01   2.8906133934e+01     1.991641      1.64408  35.34   0.01193246    1.668    0.400
         3 -14.2768    246.6833      3.4734   5.6670094010e+01   2.4266158667e+01      1.90132    0.3283926  71.71  0.006340841    4.843    0.794
         4 -17.6591    246.1703     30.1902   6.2119781991e+01   2.1115170686e+01     6.338601      2.77797 -29.69   0.01652412    2.905    0.656
         5 -13.9221    240.6718     22.0530   6.0937842669e+01   2.3386153170e+01    0.4244417    0.2833846 -84.20  0.001075841    1.330    0.248
         6 -10.7802    112.4773     20.2788   7.9758426199e+01   5.3918553374e+01    0.4818074    0.1739055 -30.27  0.002017468    2.913    0.657
         7  -8.7939     92.4049     22.0230   8.5572195872e+01   5.7829421867e+01    0.2749682    0.1143904 -30.70 0.0009529236    2.493    0.599
         8 -10.8761    142.9068     10.1780   7.0269658074e+01   4.8025138812e+01    0.8980967     0.357444 -14.58  0.003174592    3.851    0.740
         9  -9.1625    164.7977      7.5480   6.6100483207e+01   4.3041164477e+01    0.1835791    0.1750888 -20.45 0.0002894888    1.260    0.207
        10  -9.7960    208.9075      6.5669   6.0611304454e+01   3.2519543617e+01    0.1888482    0.1761751 -57.43 0.0004134342    1.265    0.210
        11  -7.5506    181.3726      6.2439   6.3580101600e+01   3.9155584003e+01    0.1326203   0.08235424  50.90 0.0002874836    1.624    0.384
        12  -8.9055    158.6721      3.5876   6.5863021980e+01   4.4873595017e+01    0.2548744    0.1928109  30.52 0.0007534531    1.551    0.355
        13  -8.7372    136.8716      2.9812   6.9079898895e+01   5.0062399778e+01    0.2539153     0.172975  -4.87  0.001080424    1.833    0.454
        14  -9.0168    249.4022    176.2468   9.3324842475e+01  -3.7253400785e+00    0.2408962    0.1569428  29.32   0.00124644    1.677    0.404
        15  -9.2071    242.1988    174.2299   9.4171147586e+01  -2.1108389764e+00     0.275424    0.2344441  44.35   0.00161768    1.299    0.230
        16  -9.2416    189.4319    170.2437   1.0354245933e+02   9.0072432135e+00    0.2567368    0.1880586  69.34  0.001177228    1.751    0.429
        17 -10.4510    230.0610    166.9601   9.4840303451e+01   1.4252009930e+00    0.3715812    0.2033615 -49.22  0.001583237    2.003    0.501
        18  -8.8708     44.8057    168.3587   1.3681082793e+02   3.5287969703e+01    0.1508256    0.1256839  24.24 0.0004387702    1.606    0.377
        19  -8.8029    205.0351    163.4816   9.8894337984e+01   7.0944917872e+00    0.2155424    0.1447601  44.52 0.0003845623    1.503    0.335
        20 -12.2285     67.9928    144.8872   1.2761492450e+02   3.7925565908e+01     1.256822    0.9877726  50.49   0.00444486    1.352    0.260
        21 -11.1872     51.0621    160.0792   1.3424370313e+02   3.6491933711e+01    0.4340932     0.350898 -54.83 0.0008580631    1.311    0.237
        22 -12.2622     58.1034    156.2632   1.3197380689e+02   3.6518402616e+01    0.8270403    0.6982869  84.48  0.003445728    1.100    0.091
        23 -11.6028     64.9959    151.1409   1.2944356706e+02   3.6834201865e+01    0.6808369    0.4386254  89.22  0.001505905    1.772    0.436
        24  -8.2124    155.2826    159.9264   1.0885608646e+02   1.8451632345e+01    0.2177006    0.1942105 -59.69 0.0009937842    1.131    0.116
        25  -8.2126    113.3924    244.8180   1.3176262706e+02   8.6899931867e+00    0.1558945     0.116954 -52.74 0.0004983706    1.658    0.397
        26  -8.9182    116.0814    151.9802   1.1662351775e+02   2.8257937239e+01    0.2170745     0.206338 -87.40 0.0002813637    1.028    0.028
        27  -8.4636    114.1369    136.8717   1.1388471665e+02   3.2202235750e+01    0.2163008    0.1906893 -80.34 0.0002656353    1.142    0.124
        28  -9.3378    135.6840    131.3308   1.0709048087e+02   2.9120189179e+01    0.4901616    0.1862923 -50.97  0.001605161    2.691    0.628
        29  -9.3480    135.5064    124.9983   1.0559738341e+02   3.0595165845e+01    0.6056172    0.2431245 -58.84  0.001712663    3.888    0.743
        30  -9.3543    134.3549    121.2847   1.0496580645e+02   3.1677715125e+01    0.4328404    0.3617747  81.51  0.002105924    1.357    0.263
        31 -10.9213    160.1508    128.6518   1.0053056149e+02   2.4308828705e+01    0.5246034    0.4270726  55.55  0.002524676    1.240    0.194
        32 -10.1146    174.4630    121.7456   9.5591610602e+01   2.2480001356e+01    0.4820105     0.245209 -52.42  0.001055825    2.148    0.534
        33 -11.4492    167.8430    113.6554   9.5007543354e+01   2.5728524802e+01    0.7550192    0.5642863 -57.25  0.001702678    1.400    0.286
        34 -10.0832    175.0477    114.9641   9.3757537569e+01   2.3754583421e+01    0.4343842    0.3398187 -38.95 0.0009619817    1.300    0.231
        35 -11.0558    193.1467    116.9173   9.0478611319e+01   1.9082808169e+01    0.7382361    0.3671536  66.79  0.002436376    3.106    0.678
        36  -9.7018    178.2157    117.6167   9.3745230453e+01   2.2458362418e+01    0.3839545    0.2892593  31.64  0.001420903    1.570    0.363
        37  -8.9825    128.9480    115.1215   1.0478944430e+02   3.4207293651e+01    0.3684675    0.2084903 -64.08   0.00126691    2.429    0.588
        38 -10.1121    134.6351    105.8818   1.0089976109e+02   3.4993458526e+01     1.236466    0.2017119 -44.13  0.002721643    6.089    0.836
        39  -9.2898    132.6581     98.4857   9.9393125921e+01   3.6985846893e+01    0.3776096    0.2796668 -46.85   0.00125202    1.343    0.256
        40  -9.0308    152.8028    121.2541   1.0041848638e+02   2.7596199715e+01    0.3945206    0.2111783 -60.13  0.001397425    2.452    0.592
        41  -8.1161    140.5182    105.9735   9.9440920768e+01   3.3667465852e+01    0.2170733    0.1389669 -19.43 0.0007901063    2.440    0.590
        42  -8.3218    113.3169    106.3387   1.0667274635e+02   3.9354330987e+01    0.1546921    0.1199282  -9.77 0.0007048612    1.704    0.413
        43  -9.8832    120.2280    103.9631   1.0416029922e+02   3.8475738117e+01    0.3529859    0.2432219 -35.37  0.001070344    1.540    0.350
        44  -9.2241    124.1572    102.2086   1.0263543916e+02   3.8033307749e+01     0.340263    0.2418522  11.19  0.001435116    2.112    0.527
        45  -9.1464    145.5787    102.7020   9.7312980249e+01   3.3206617677e+01    0.2720417     0.241922  38.07 0.0006778681    1.172    0.146
        46 -10.3125    154.4202     98.3079   9.4012213166e+01   3.2050784203e+01    0.5028407    0.4553628 -45.75  0.002430881    1.108    0.097
        47  -8.0234    111.3166    100.7022   1.0571641755e+02   4.0973187563e+01    0.1487633    0.1191219  88.61 0.0003036678    1.611    0.379
        48 -10.0618    160.9232     87.1614   8.9469981066e+01   3.2677212064e+01    0.4940574    0.2600892 -48.31  0.001401216    1.992    0.498
        49 -11.6211    167.9539     89.2826   8.8524624549e+01   3.0571107695e+01     1.084514    0.8245057  -4.15  0.004850603    1.875    0.467
        50  -8.6243    174.7207     90.3700   8.7395727157e+01   2.8715231948e+01    0.2966747    0.2111749 -62.46 0.0007110093    1.584    0.369
        51 -10.0743    174.2974     85.4238   8.6150399914e+01   2.9742809749e+01    0.3269838    0.2908704  -4.83 0.0003154833    1.349    0.259
        52  -9.5898    138.8137     93.0261   9.6312867714e+01   3.6725488694e+01    0.3627892    0.2986352  84.76  0.001763506    1.445    0.308
        53 -10.6331    151.5641     88.3298   9.1918648748e+01   3.4692372054e+01    0.3269674     0.268001 -38.69 0.0005272187    1.246    0.197
        54  -8.6725     23.6516    231.2742   1.4686343959e+02   2.3990087179e+01    0.1751574    0.1153529 -76.46 0.0004031389    1.406    0.289
        55  -9.9644    169.2741    207.5754   1.1503610599e+02   5.6855259779e+00    0.2378982    0.2252215  60.50 0.0002943859    1.076    0.071
        56  -9.3367    191.7774    192.9261   1.0765739409e+02   4.0997242552e+00     0.599578    0.2930518 -63.78  0.001684592    5.685    0.824
        57 -10.3576    179.3298    149.4240   1.0113050422e+02   1.5499790728e+01    0.4475294    0.3485583  15.08  0.002058208    1.662    0.398
        58  -9.6467    120.5673     68.1183   9.3637427439e+01   4.5454259683e+01    0.3059169    0.1824757  32.75  0.001322317    1.934    0.483
        59 -10.3088    125.7250     60.6167   8.9948036370e+01   4.5595432539e+01    0.3091013    0.2647105 -85.91  0.000460063    1.437    0.304
        60  -9.8872    181.6859    144.9992   9.9606151562e+01   1.5911971808e+01     0.280854    0.2523369  12.23 0.0003440833    1.262    0.207
        61  -8.9844    102.4976     43.0668   9.0332637252e+01   5.3178304193e+01    0.2013042    0.1296597 -30.22  0.001016303    1.593    0.372
        62  -9.6943    162.8041     34.5569   7.4054494204e+01   4.0563496253e+01      0.43463    0.2024845 -26.89  0.001748453    2.536    0.606
        63  -9.2906    133.8681    147.4525   1.1124253254e+02   2.5788326454e+01    0.5028887    0.1620442 -54.96  0.001447968    3.628    0.724
        64 -12.7452     24.7113    175.2237   1.4204734785e+02   3.5882915043e+01    0.8573662    0.6830922  89.87  0.003770256    1.042    0.041
        65  -8.1821    143.2329    145.2346   1.0846641610e+02   2.4334137335e+01    0.2567845     0.124926 -58.60  0.000891847    2.461    0.594
        66  -8.7585     57.5123     30.9876   1.0032009755e+02   6.2601075674e+01    0.1723434    0.1068898 -32.23 0.0004482051    1.515    0.340
        67  -8.4912    146.0782    157.1867   1.1041558427e+02   2.1012177065e+01    0.4582084    0.2750629  79.60  0.001512033    3.360    0.702
        68  -9.2259    192.3398    152.9165   9.9153375310e+01   1.1912871073e+01    0.3165085    0.1350896 -49.43  0.001104078    2.520    0.603
        69  -9.8931    159.1961     24.4915   7.1765386163e+01   4.2650120640e+01    0.3637289    0.2650681  62.82 0.0009692265    1.209    0.173
        70 -12.2045      6.8480    184.5919   1.4654697519e+02   3.5479665183e+01     1.132006    0.6843923  81.40  0.007209423    1.360    0.265
        71 -11.6919      7.5535    170.9737   1.4527593809e+02   3.8420433244e+01    0.8300073    0.4737193  60.15  0.005050914    1.719    0.418
        72  -9.5245    143.9969     20.0147   7.3094257660e+01   4.6794696337e+01     0.271484    0.2228764   0.40 0.0008037311    1.443    0.307
        73 -10.2807    213.0610    187.7147   1.0236249210e+02   9.3975031291e-01    0.4560309    0.2125912  51.36   0.00181417    2.498    0.600
        74  -8.4665    166.9825     13.4691   6.7424323404e+01   4.1933683283e+01    0.2051518    0.1156264  69.38  0.001015989    1.556    0.357
        75 -10.6511    187.2309    137.9346   9.6775486232e+01   1.6145689526e+01    0.5168097    0.2997655  42.48   0.00138092    1.807    0.446
        76  -7.7902    188.3113     22.6542   6.6903254743e+01   3.5712517077e+01     0.143433   0.09172451 -69.47 0.0007045846    1.708    0.414
        77 -11.5668    180.3625    135.3366   9.7623701363e+01   1.8251540182e+01    0.6413503    0.5288292 -81.86  0.003080604    1.412    0.292
        78 -10.6725    217.1139    181.9361   1.0040488857e+02   1.2068259576e+00    0.5693272    0.2332782  48.33  0.002177632    2.622    0.619
        79 -10.2547    223.5979    179.2103   9.8606185553e+01   4.6034493611e-01    0.3448546    0.2337133 -20.00  0.001680958    1.679    0.404
        80 -11.0306    220.4978    175.9721   9.8525174202e+01   1.6365843739e+00    0.4864577    0.3024318 -25.84  0.002245483    1.807    0.447
        81 -11.1807    225.0828    171.8703   9.6800235871e+01   1.4961376150e+00    0.9996357    0.4659958  53.82  0.003896627    2.720    0.632
