#   1 NUMBER                 Running object number                                     
#   2 MAG_AUTO               Kron-like elliptical aperture magnitude                    [mag]
#   3 X_IMAGE                Object position along x                                    [pixel]
#   4 Y_IMAGE                Object position along y                                    [pixel]
#   5 X_WORLD                Barycenter position along world x axis                     [deg]
#   6 Y_WORLD                Barycenter position along world y axis                     [deg]
#   7 A_WORLD                Profile RMS along major axis (world units)                 [deg]
#   8 B_WORLD                Profile RMS along minor axis (world units)                 [deg]
#   9 THETA_WORLD            Position angle (CCW/world-x)                               [deg]
#  10 FWHM_WORLD             FWHM assuming a gaussian core                              [deg]
#  11 ELONGATION             A_IMAGE/B_IMAGE                                           
#  12 ELLIPTICITY            1 - B_IMAGE/A_IMAGE                                       
         1 -13.4711    158.7282     92.5064   5.4588152579e+01   3.2123441866e+01     3.728383     1.305072 -33.35  0.001035307    3.282    0.695
         2 -12.3278    241.1682     24.2893   2.6595532012e+01   2.3979682383e+01    0.8534663    0.6912635  56.15 0.0004993914    1.557    0.358
         3 -12.6376    246.8625      5.6783   2.2496006477e+01   2.4843908661e+01     1.627093    0.5608032 -41.20  0.008648307    2.132    0.531
         4 -14.1982    177.6920     83.1633   4.8314257890e+01   2.9475754767e+01      3.04992     1.741947  37.52  0.001832664    2.173    0.540
         5 -13.8131    220.5706     39.5741   3.1607229154e+01   2.6323795289e+01     3.348052     1.296928 -51.92  0.006343839    2.551    0.608
         6 -12.9814    249.8636     33.9347   2.7954867380e+01   2.1253599540e+01    0.9425514    0.3427126 -34.09  0.001011931    2.307    0.567
         7 -14.3705    237.9299     44.7072   3.1159060109e+01   2.2220545496e+01     1.427775     1.135728 -31.84  0.003251624    1.283    0.220
         8 -13.6424    250.0486     58.8784   3.3067258438e+01   1.8166962349e+01     1.184273    0.3581712 -36.00  0.001754773    2.596    0.615
         9 -11.5064    122.5091     36.3530   4.5037073314e+01   4.9686561408e+01    0.5261739    0.3411359 -22.19  0.002082058    1.733    0.423
        10  -9.0878    189.9772     14.8921   2.8552674220e+01   3.5776508850e+01    0.2026531     0.171179 -46.49 0.0007056749    1.178    0.151
        11 -10.7674    156.5350     11.1334   3.1067659080e+01   4.4052214806e+01    0.3917439    0.2814635  -5.72  0.001366836    1.783    0.439
        12 -15.5924    214.0175     81.2166   4.2100648741e+01   2.1981832052e+01     8.069045     5.259323 -50.33   0.04274435    1.470    0.320
        13  -9.6919    219.8130     11.0710   2.5251677801e+01   2.9647074179e+01    0.2045897    0.1496436 -71.38 0.0004940009    1.177    0.150
        14  -9.7274    127.1442     10.7494   3.5091360396e+01   5.1309392728e+01     0.273574    0.1871589 -12.23  0.001296273    1.740    0.425
        15  -8.4964    208.1016      8.0798   2.5408460988e+01   3.2421981562e+01    0.1524955    0.1514082  32.00 0.0004952569    1.306    0.235
        16  -9.8322    227.6749      6.4393   2.3738076498e+01   2.8497605915e+01    0.2526402    0.2365513  28.42  0.001904546    1.487    0.328
        17  -9.6235    180.7575      2.6593   2.6240644142e+01   3.9047705416e+01    0.5383731    0.1791204 -64.41  0.001748734    4.879    0.795
        18  -8.8197    194.4613    171.5024   6.5748637479e+01   1.0312819382e+01    0.2422047    0.1234814 -49.24 0.0008049438    2.394    0.582
        19  -9.4737    210.1830    187.4684   6.5833305887e+01   5.1759010635e+00    0.2155185    0.1765528 -71.41   0.00118699    2.277    0.561
        20  -8.4632     22.6585    185.4377   1.1047114050e+02   3.2638153805e+01     0.142829    0.1220751  10.33 0.0004874242    1.417    0.294
        21 -10.2285    234.9919    179.3288   5.9911059378e+01   2.8602781553e+00    0.2377404    0.2027947  -6.88 0.0003788873    1.135    0.119
        22 -10.0395    248.8732    249.2154   6.9563983563e+01  -8.0006754220e+00    0.2835475    0.1301065  23.84  0.001730352    1.895    0.472
        23  -9.4343    178.1593    246.8165   8.1951154628e+01   5.6350008246e-01    0.2484513    0.2281848  63.09  0.001375512    1.780    0.438
        24 -13.1124    197.2547     88.0936   4.6253824081e+01   2.4389786577e+01     2.253936    0.7219725  42.62  0.006910265    4.627    0.784
        25 -10.3751    199.1848    241.1142   7.7059759130e+01  -1.3225049538e+00    0.1923662    0.1583733   0.41            0    1.159    0.138
        26 -14.6334    234.3985    108.5087   4.5477490206e+01   1.3927947669e+01     3.151943     1.902455 -43.99   0.00948646    1.485    0.327
        27  -9.3449    165.8842    240.3521   8.3481631257e+01   3.1357080930e+00    0.1734694     0.158738  -4.77 0.0002743314    1.251    0.201
        28  -9.2290    167.6794    236.0115   8.2488706110e+01   3.5582799262e+00    0.2087201    0.1487521  22.19 0.0007349939    1.157    0.136
        29  -8.5822    250.4937    171.2817   5.5910967802e+01   1.9194941993e+00    0.1664898   0.09807446 -40.09 0.0009413543    1.650    0.394
        30  -9.0084    177.4597    169.9523   6.8931581480e+01   1.3462903275e+01    0.1848191    0.1258203 -64.88 0.0008082142    2.457    0.593
        31  -8.6301    212.1342    165.9572   6.1269344929e+01   8.3853099205e+00    0.1840619    0.1694258 -37.44 0.0004078984    1.312    0.238
        32 -11.7402    193.8098    156.8598   6.2857932555e+01   1.3020663532e+01    0.8603832    0.5786646 -69.14 0.0007624096    3.054    0.673
        33 -12.6079      4.0814    157.8265   1.1332395798e+02   4.0687429519e+01    0.9247385    0.4624324 -78.11  0.004699638    1.730    0.422
        34 -10.0703    167.5522    158.1087   6.8630976578e+01   1.7488488839e+01    0.2578986    0.2326028 -11.80 0.0003342617    1.030    0.029
        35 -11.7344     17.4677    152.2477   1.0909636947e+02   4.1105443266e+01    0.5464712    0.3257261 -84.82  0.002833837    1.561    0.359
        36 -11.5211     14.5953    145.7770   1.0933401064e+02   4.2941498783e+01    0.5180491    0.2784739 -51.49  0.002568184    1.847    0.458
        37  -8.7533    168.7558    231.2118   8.1556113745e+01   4.1586802124e+00    0.1799562    0.1496929  24.78 0.0005855312    1.171    0.146
        38 -10.6920    177.8878    156.1682   6.5968444338e+01   1.5983343537e+01     0.424778    0.2291946 -42.55  0.001875176    1.818    0.450
        39  -9.6507    172.8846    154.9164   6.6774146929e+01   1.7135146539e+01    0.2310082    0.1864501  -6.87  0.000455086    1.270    0.212
        40 -11.9945     65.0997    139.6238   9.2773914369e+01   3.9325311296e+01     1.906612     1.336351  52.79  0.007798063    1.557    0.358
        41 -11.9370     49.7678    141.7042   9.7968169977e+01   4.0700093708e+01    0.7263429    0.4476939 -78.44  0.001896477    1.723    0.420
        42 -12.2428     34.9517    146.3254   1.0322789183e+02   4.1081647971e+01    0.6184201    0.4873337  -1.85  0.001299223    1.537    0.349
        43 -12.8166     42.5406    143.3753   1.0048525679e+02   4.1067948284e+01     0.998246     0.862234 -69.51  0.002989294    1.081    0.075
        44  -8.4779    111.0488    152.7826   8.1641309004e+01   2.8919978433e+01    0.1976008    0.1805986  20.05  0.001049586    1.083    0.077
        45 -10.4034    133.9851    145.5175   7.3947527120e+01   2.6399748992e+01     1.213722    0.3591371 -54.18  0.003127557    5.000    0.800
        46 -10.6338    172.9116    149.1291   6.5505623822e+01   1.8251428285e+01    0.5027019    0.2753065  38.02  0.002194197    1.864    0.463
        47  -8.4759    218.7523    148.8182   5.6565231543e+01   1.0148271794e+01    0.1723818    0.1519997 -46.55 0.0005529798    1.324    0.245
        48  -9.7252    144.4074    146.7650   7.1590168896e+01   2.4147949448e+01    0.5026286    0.3145851 -73.13  0.001799348    3.202    0.688
        49 -10.2291    192.3660    143.7294   6.0299620581e+01   1.5650385230e+01    0.3254004    0.2409651 -13.51 0.0005598046    1.432    0.302
        50  -9.6611    158.5791    143.2232   6.7396418173e+01   2.2160292982e+01    0.3331379       0.2449  56.33  0.001228844    1.653    0.395
        51 -11.3423     23.5121    138.8003   1.0587095663e+02   4.4018392880e+01    0.5048486    0.3412271  49.83  0.002708998    1.544    0.352
        52 -11.4211    202.8705    131.7865   5.5656630079e+01   1.5837613602e+01    0.4844378    0.3256973  58.98  0.002385888    1.965    0.491
        53 -10.6359    150.8503    137.7716   6.7967236267e+01   2.4798629489e+01    0.3919812    0.3185356  84.56 0.0008509132    1.748    0.428
        54 -10.3044    154.5168    136.4927   6.6793941832e+01   2.4338598950e+01    0.3025201    0.2648913  -7.51  0.001067363    1.161    0.139
        55 -10.3364    136.1727    129.8094   6.9738548804e+01   2.9420904414e+01       1.1633    0.2092634 -48.63  0.002494277    6.653    0.850
        56  -9.7097    135.1757    120.8218   6.7772246433e+01   3.1570087875e+01    0.7277306    0.2080684 -48.74  0.002034214    3.874    0.742
        57 -11.7837    134.5499    104.0336   6.3503128487e+01   3.5248002073e+01      1.77602    0.4877309 -46.46  0.003554018    3.888    0.743
        58 -12.1829    121.6454    103.3938   6.6804179452e+01   3.8137990337e+01     1.583073     1.183274  42.64  0.007484694    1.343    0.255
        59 -10.6551    167.0400    134.0685   6.3360248563e+01   2.2339356434e+01    0.4531681    0.2505636  50.62  0.001886494    2.057    0.514
        60 -11.1492    208.3390    137.3136   5.5908809603e+01   1.3883433290e+01    0.4189522    0.3967087 -83.78  0.001792777    1.355    0.262
        61 -14.1254    230.0848     76.9612   3.9065635129e+01   1.9432009865e+01     1.918071    0.7020076  58.99  0.008203056    3.071    0.674
        62 -10.7694    225.1772    129.5231   5.1395111078e+01   1.2219006334e+01    0.4729308    0.3722128 -80.80  0.002605695    1.990    0.498
        63 -11.0696    208.7602    127.5940   5.3675275383e+01   1.5471475406e+01    0.4351605    0.3993064 -64.95  0.002190741    1.305    0.234
        64 -11.0719    161.0023    128.1081   6.3291928088e+01   2.4741803809e+01    0.4572774    0.3827285 -57.53  0.002022384    1.345    0.257
        65 -11.5099    171.1645    123.6886   5.9981207869e+01   2.3535505220e+01    0.6160306     0.441904 -69.85  0.002750459    2.066    0.516
        66  -9.2629    216.9932    117.6990   5.0086832554e+01   1.5609791231e+01    0.2574155    0.2143842  25.48 0.0004746005    1.342    0.255
        67  -9.4968    214.5315    124.4877   5.2006035458e+01   1.4936722359e+01     0.225701    0.1844039 -25.67 0.0008821814    1.099    0.090
        68  -9.2757    214.4804    121.0161   5.1237003947e+01   1.5524761015e+01    0.2709634    0.2270244 -39.92 0.0004771657    1.124    0.110
        69  -8.1411     92.5653    125.4654   8.1180372481e+01   3.8655823032e+01    0.1510433    0.1472989 -30.13 0.0001761235    1.008    0.008
        70 -11.8896    167.0538    114.7902   5.8659755541e+01   2.6104377444e+01     0.907205    0.6205828 -15.61  0.004029668    1.852    0.460
        71 -10.1636    175.5269    112.5288   5.6320983961e+01   2.4745901303e+01    0.5065467    0.3231803 -25.45  0.001519684    1.736    0.424
        72  -8.6008     61.1590    119.0748   9.0132793520e+01   4.5072060028e+01    0.2159044    0.1844624 -32.66 0.0003201737    1.192    0.161
        73 -12.2875    204.1901    111.9502   5.0865867890e+01   1.9006820554e+01    0.8123974    0.5352721 -19.95  0.003955708    1.714    0.416
        74  -9.1478    178.7903    114.5947   5.6176463841e+01   2.3680623602e+01    0.1982768    0.1943632  52.28 0.0002915185    1.112    0.101
        75  -9.1889    109.0163    109.7263   7.2197012372e+01   3.9319137776e+01     0.218073    0.1995786  23.89 0.0004482692    1.093    0.085
        76  -8.2018     78.4816    106.5262   8.1218239444e+01   4.5608098208e+01    0.2669051    0.1488218 -65.93  0.001020935    2.303    0.566
        77 -10.1083    174.9116    104.8077   5.4493969490e+01   2.6300450088e+01    0.3587683    0.2515427 -50.28 0.0007453081    1.484    0.326
        78  -9.7620    149.3189    105.2300   6.0172266947e+01   3.1790074620e+01    0.3265331    0.2754531  22.90 0.0005883355    1.274    0.215
        79 -10.1312     80.3122    101.7673   7.9345387554e+01   4.6440630789e+01    0.2542265    0.2391694  -9.03 0.0002847001    1.047    0.045
        80 -13.3487    240.4839     52.7225   3.2647694484e+01   2.0727035110e+01    0.7263038    0.5623012 -46.00  0.002871595    1.079    0.073
        81 -10.0937    158.2204    137.5872   6.6182617661e+01   2.3380727026e+01    0.3367588    0.2100859  39.85  0.001351523    1.624    0.384
        82  -8.9465    129.4183     82.8980   5.8732187568e+01   4.0582096051e+01    0.2580193    0.2105678  62.43  0.000595761    1.338    0.253
        83 -10.3244    151.0720     71.4994   5.0226032163e+01   3.7577272519e+01    0.2822336    0.2372267 -46.95  0.001483498    1.201    0.168
        84 -10.2908    125.9400     64.7451   5.3908008993e+01   4.4643425223e+01    0.3541467    0.2208293 -36.67 0.0009624076    1.638    0.389
        85  -9.3760    140.8059     64.6249   5.0355804686e+01   4.1145217667e+01    0.2114873    0.1395011  67.16  0.000946618    1.699    0.412
        86 -10.1799    135.6801    224.1198   8.7581682009e+01   1.0054460287e+01    0.2288745     0.217869  -4.14 0.0004837313    1.163    0.140
        87  -9.2715    238.9235    217.8249   6.6162635482e+01  -3.0714287928e+00    0.1835861    0.1526172  27.33  0.001119986    1.582    0.368
        88  -7.9154     96.3259     58.6566   6.0213179044e+01   5.2377620327e+01    0.1466495    0.1193778 -81.58 0.0006399792    1.739    0.425
        89  -8.8217    175.3563    177.3192   7.0849274923e+01   1.2451305698e+01    0.2475166    0.2049776  80.49  0.000760309    1.978    0.494
        90 -10.3313    177.3444     49.1645   3.9149878437e+01   3.4701052949e+01    0.3699053    0.2208515 -61.80   0.00136497    1.962    0.490
        91  -9.5599    146.0510     55.6682   4.6458397708e+01   4.1279908174e+01     0.206639     0.174618  58.83 0.0003657627    1.149    0.130
        92  -9.1468    187.7105     54.2930   3.9042381703e+01   3.1598993353e+01    0.2522699    0.1966935 -78.35 0.0006191312    1.352    0.260
        93 -10.2037    192.5694     54.4010   3.8403256723e+01   3.0481614747e+01    0.2765799    0.2445327  87.54  0.000586752    1.122    0.109
        94 -10.3944    205.5254     44.4032   3.4300702839e+01   2.8925160172e+01    0.4706804    0.3013518 -58.27  0.001559854    1.527    0.345
        95  -8.9605    115.3279     46.9167   5.0513478435e+01   4.9959400949e+01    0.1918652    0.1812055  -1.99  0.000334671    1.093    0.085
        96 -11.5688    191.8846     38.4762   3.4384150690e+01   3.2708127119e+01    0.7835907    0.4857705 -62.77  0.003228793    1.696    0.410
        97  -8.8079    200.7958     37.7745   3.3193963636e+01   3.0789509424e+01    0.2123925    0.1980723 -28.38 0.0005074896    1.216    0.178
        98  -8.9897    237.0411    172.3099   5.8230733974e+01   3.6243322251e+00     0.177615    0.1470462  -9.24  0.001170176    1.066    0.062
        99  -8.2616     87.2440    217.5439   9.7811306539e+01   1.8128067040e+01    0.1666477    0.1174303  21.32 0.0003500832    1.453    0.312
       100 -10.1467    159.1687     34.0115   3.7528185130e+01   4.0989817525e+01    0.2565321    0.1969029 -29.88 0.0004654882    1.386    0.278
       101  -9.0379    147.4804     33.4931   3.9238516477e+01   4.3913693768e+01    0.1373333    0.1278565  67.78 9.310963e-05    1.029    0.028
       102 -10.5945    133.4724     31.8083   4.1204448084e+01   4.7564056972e+01    0.2602814    0.2381625  62.47 0.0005805044    1.012    0.012
       103 -11.2864    146.4599     28.5711   3.7853110680e+01   4.4738565367e+01     0.714256    0.2357387  51.52  0.002634081    2.827    0.646
       104  -8.5206     97.4919     28.4746   4.8225771734e+01   5.6613882945e+01    0.2454868    0.1356113 -10.91  0.001041048    2.448    0.592
       105 -10.3792    179.0720     24.1640   3.2104363452e+01   3.7337102919e+01     0.535141    0.3810629  77.33  0.002652955    1.323    0.244
       106  -9.3503    167.2184     32.7335   3.5986034779e+01   3.9191706079e+01    0.4313803     0.201511 -23.07  0.001823316    2.543    0.607
       107 -11.4039    146.3472     19.6023   3.5032734979e+01   4.5729713552e+01    0.7541984    0.3369881  66.67  0.003311742    2.009    0.502
       108  -9.0244    231.3443     19.7627   2.6332153921e+01   2.6394747679e+01    0.2128699    0.1507007 -27.41  0.000978109    1.537    0.349
       109  -7.9748     78.7621     20.0222   5.0171333954e+01   6.1810760780e+01    0.1608228    0.1112408 -22.98 0.0003691257    1.539    0.350
       110  -8.2518    161.0372     17.7439   3.2461203547e+01   4.2322686129e+01    0.1735288    0.1534438  81.51 0.0002518766    1.027    0.026
       111  -9.1164     37.9587    213.7347   1.0892155628e+02   2.4821801129e+01    0.1782362    0.1455023  47.42  0.001170541    1.094    0.086
       112  -8.3716    158.8180    210.7971   8.0461416593e+01   9.0041190109e+00    0.1904147    0.1553738  -1.63 0.0006171174    1.161    0.139
       113  -9.5667     20.2814    211.2142   1.1275508900e+02   2.7090792941e+01    0.2578013    0.1333428  41.26  0.001436416    1.642    0.391
       114 -14.3354    245.7311     65.8124   3.4931877364e+01   1.8041563162e+01     1.851007    0.5265778  55.76  0.007640979    3.879    0.742
       115  -9.0315    241.6448    207.1703   6.3875954351e+01  -1.9771749259e+00    0.1861931    0.1480301  22.83  0.001295235    1.418    0.295
       116  -9.8800    248.8780    201.5045   6.1700767833e+01  -2.0926072375e+00    0.2959926    0.1908629  49.66  0.001642845    2.910    0.656
       117  -7.4425     68.6694     11.6946   4.9594593254e+01   6.4871457925e+01    0.1404556   0.08540516  27.16 0.0003473452    1.658    0.397
       118  -9.4478     19.5916    201.1150   1.1229433710e+02   2.9351227888e+01    0.1946657    0.1623719  31.88 0.0002974418    1.283    0.220
       119 -10.7438    192.4136    193.5005   7.0394735573e+01   6.8645967015e+00    0.7989318    0.4575465 -60.82  0.003009342    4.276    0.766
       120 -10.8870    217.0622    186.1391   6.4317796826e+01   4.3753007140e+00    0.3935966    0.3169681 -33.99  0.002465047    1.328    0.247
