#   1 NUMBER                 Running object number                                     
#   2 MAG_AUTO               Kron-like elliptical aperture magnitude                    [mag]
#   3 X_IMAGE                Object position along x                                    [pixel]
#   4 Y_IMAGE                Object position along y                                    [pixel]
#   5 X_WORLD                Barycenter position along world x axis                     [deg]
#   6 Y_WORLD                Barycenter position along world y axis                     [deg]
#   7 A_WORLD                Profile RMS along major axis (world units)                 [deg]
#   8 B_WORLD                Profile RMS along minor axis (world units)                 [deg]
#   9 THETA_WORLD            Position angle (CCW/world-x)                               [deg]
#  10 FWHM_WORLD             FWHM assuming a gaussian core                              [deg]
#  11 ELONGATION             A_IMAGE/B_IMAGE                                           
#  12 ELLIPTICITY            1 - B_IMAGE/A_IMAGE                                       
         1 -12.7945    248.2693    153.5458   8.3091915000e+01   3.9620322431e+00     2.624099     1.487773 -18.85   0.01377645    1.644    0.392
         2 -12.8013    248.2426     48.6932   5.8647045043e+01   1.7598564036e+01     2.822891    0.9478741 -20.19  0.009584091    3.720    0.731
         3  -8.5115    225.0079     32.9675   5.7160979215e+01   2.4658396375e+01    0.2797884    0.1788789 -26.84 0.0009511171    1.499    0.333
         4  -9.9020    203.5675    249.0477   1.0740730829e+02  -4.3225702420e-01    0.5275727     0.240229  38.93  0.003074487    1.731    0.422
         5 -10.8348    136.3474    246.4155   1.1908712273e+02   9.4012414772e+00     1.783131    0.7787864  21.09   0.00592124    6.467    0.845
         6 -12.0989    173.9618    244.2542   1.1200996138e+02   4.3062633310e+00      1.85645    0.9360197  20.32  0.009681108    2.392    0.582
         7 -11.8215    171.1683    235.0957   1.1135146805e+02   5.8447984812e+00     1.586685    0.6829636  24.21   0.00698777    3.023    0.669
         8 -10.6565    155.7730    248.2711   1.1576841940e+02   6.4186230734e+00    0.7475108     0.354985  29.02  0.004141122    1.913    0.477
         9  -9.2253    163.8878    244.5305   1.1386413847e+02   5.7244941964e+00     0.264373    0.1611897  32.98  0.001214178    1.228    0.186
        10 -10.1211      3.6284    248.2252   1.4209915899e+02   2.4452470744e+01    0.4248566    0.1455788  52.60  0.002862285    1.873    0.466
        11 -10.2838     12.2178    249.4004   1.4079298425e+02   2.3523334540e+01    0.3302543   0.09578164  41.47  0.002047048    2.210    0.547
        12  -7.6953    239.8435    243.5804   1.0052401546e+02  -4.8054387133e+00    0.1291499   0.08081231  32.41 0.0003529784    1.378    0.274
        13  -7.5782    122.6286    243.7299   1.2132226830e+02   1.1676031624e+01    0.1085484    0.0754747  19.53 0.0006996692    1.673    0.402
        14  -8.2221    134.9381    241.8262   1.1886014353e+02   1.0222682044e+01    0.1732587    0.1281518  24.35  0.001206245    1.328    0.247
        15  -7.9838    213.7807    246.1576   1.0526008747e+02  -1.5469700172e+00    0.1601672   0.09858063  15.00  0.001058385    1.407    0.290
        16  -8.4024    210.9988    240.2404   1.0490963289e+02  -5.4434760681e-01    0.1945695   0.09819605  18.51 0.0007864765    2.014    0.504
        17  -7.9486    125.5334    239.4647   1.2035562254e+02   1.1877196510e+01    0.1144393   0.08704461  39.16 0.0002570731    1.030    0.029
        18  -8.6231    143.0645    236.9494   1.1680946975e+02   9.7308028771e+00    0.2142212    0.1265438  32.76  0.001084303    1.369    0.270
        19  -7.7604    130.3949    244.2790   1.1995313090e+02   1.0523204195e+01    0.1117464   0.07515854  18.47 0.0006994876    1.751    0.429
        20 -12.0123    183.2685    222.6031   1.0738034280e+02   5.6157324271e+00     1.836343    0.6388182  31.15  0.007696563    2.811    0.644
        21  -7.3460    128.6880    234.7009   1.1926177382e+02   1.2116739090e+01    0.1087736   0.08030229  15.36 0.0007013776    1.604    0.376
        22  -7.5835    142.6731    233.7066   1.1650793263e+02   1.0238435314e+01    0.1134693   0.07924594  16.29 0.0004011218    1.623    0.384
        23  -8.1336    147.7793    231.6419   1.1529629748e+02   9.7762039785e+00    0.1951553    0.1442639  -1.56  0.001253663    1.776    0.437
        24  -7.5869    138.3100    232.2877   1.1716968489e+02   1.1076369890e+01     0.111297   0.07993884  16.37 0.0006992426    1.577    0.366
        25  -8.1696    218.4643    230.4647   1.0218128588e+02  -5.5954167641e-01    0.2093133   0.08060956  29.36   0.00101249    2.238    0.553
        26  -8.5516    199.1082    228.8575   1.0537626904e+02   2.4493519920e+00    0.2943381    0.1577397   1.59  0.001405038    2.998    0.666
        27  -9.5405    158.5272    228.3077   1.1283890343e+02   8.6313798356e+00     0.354459    0.2261831 -10.96  0.001966898    2.448    0.592
        28  -8.0311    133.2735    230.1660   1.1788688746e+02   1.2117033299e+01     0.178819    0.1152676   4.00 0.0009390918    2.686    0.628
        29  -9.7184    194.0741    228.6536   1.0625970858e+02   3.2239787701e+00    0.1800238    0.1188529  26.92  0.001154217    1.158    0.136
        30  -7.7158    126.5051    244.4936   1.2068765985e+02   1.1034073752e+01    0.1127643   0.08559877  34.79 -9.898296e-05    1.113    0.102
        31  -9.4946    196.1652    246.1387   1.0830710083e+02   9.1563683044e-01    0.5220906    0.2204272  22.87  0.002460006    2.816    0.645
        32  -9.9274    193.1749    219.2760   1.0503823963e+02   4.5143371934e+00    0.5102577    0.2597849  -8.98  0.002100839    4.032    0.752
        33  -9.4437    201.2319    222.9757   1.0411677914e+02   2.8298923783e+00    0.2363396    0.1238689  17.93  0.001215315    2.105    0.525
        34  -7.8972    146.7522    226.8286   1.1490277025e+02   1.0609340843e+01    0.1812307    0.1136018   4.61 0.0009257164    2.648    0.622
        35  -8.1446    212.8080    225.8992   1.0248207688e+02   7.6496095211e-01    0.1876544    0.1218076  15.27  0.001164239    1.321    0.243
        36  -8.7815    207.6741    222.8704   1.0293531120e+02   1.8740338677e+00    0.2985224    0.1469252  21.50  0.001527149    2.073    0.518
        37  -7.8503    138.9434    226.7954   1.1640341534e+02   1.1778100629e+01    0.1644076    0.0758167  37.27 0.0008351647    1.701    0.412
        38  -7.5706    130.3671    225.3199   1.1789141606e+02   1.3262102841e+01    0.1176163   0.08401973  11.81 0.0007037885    1.787    0.440
        39  -8.7110    173.6767    221.6308   1.0905232896e+02   7.2224951436e+00    0.2681517    0.1618753   8.18  0.001264745    2.264    0.558
        40  -8.6526    176.5087    218.0014   1.0799066858e+02   7.2709288311e+00     0.242455    0.1620101  15.73 0.0008943398    1.518    0.341
        41  -9.0618    153.4363    228.3711   1.1381598772e+02   9.3887296302e+00     0.331553    0.1858137  26.72   0.00186004    1.703    0.413
        42  -8.6727    167.8332    220.2082   1.0996949839e+02   8.3212073275e+00    0.2164247    0.1211681  24.87 0.0009788723    1.743    0.426
        43  -7.3417    155.2829    222.3918   1.1268848064e+02   9.9507561014e+00    0.1191192   0.08415644   5.94 0.0007001589    1.753    0.429
        44 -10.3881    156.8688    236.5406   1.1418514238e+02   7.7699493429e+00    0.9439362    0.4970578  11.41  0.003857934    4.343    0.770
        45  -8.0873    149.2170    220.5878   1.1363169206e+02   1.1139927269e+01    0.1819894   0.09530842  30.12 0.0009539507    1.735    0.424
        46 -11.9638    186.8065    246.4940   1.1000130874e+02   2.2039957499e+00     1.400394    0.7524887  18.89   0.00804205    1.982    0.495
        47  -7.9561    162.2283    217.7695   1.1071294863e+02   9.5351072613e+00    0.1676915    0.1226278  16.67  0.001045219    1.366    0.268
        48  -7.6633    218.4781    217.4714   1.0015776797e+02   8.8426017617e-01     0.124069   0.08852582  16.87 0.0001323919    1.081    0.075
        49  -8.6715    182.2258    215.6282   1.0654831140e+02   6.6934895283e+00    0.3923084     0.212702   3.42  0.001636908    3.627    0.724
        50 -10.8000    145.8219    244.8313   1.1718813703e+02   8.2743012144e+00     1.223176    0.6530037 -16.61  0.004344733    7.524    0.867
        51  -8.3559    193.1249    213.2044   1.0411366588e+02   5.2979856824e+00    0.3118237    0.1645015   8.84   0.00135228    3.127    0.680
        52  -8.5651    172.8629    212.5408   1.0788949816e+02   8.5979362599e+00    0.3011695    0.1683377  -7.31  0.001274189    3.613    0.723
        53  -7.9399    155.4776    213.0167   1.1137626975e+02   1.1285208394e+01    0.1586438    0.1007369 -13.81 0.0008092266    2.462    0.594
        54  -8.3653    179.7193    211.9449   1.0647188888e+02   7.5890578580e+00    0.3786955    0.1767904  14.96  0.001139316    6.227    0.839
        55  -9.2437    217.6217    210.2883   9.9139886709e+01   1.8522218910e+00    0.3457255    0.1789558  -8.72  0.001664919    2.674    0.626
        56  -7.7191    205.4723    211.4661   1.0154037370e+02   3.5852094354e+00    0.1274301   0.09323274  17.87 0.0002802764    1.100    0.091
        57 -10.1027    150.9330    245.0689   1.1628225802e+02   7.5149377283e+00    0.7184597    0.3926901  11.98  0.003357777    3.540    0.717
        58  -7.7080    162.2763    209.3907   1.0950656431e+02   1.0742643011e+01    0.1248382   0.08782928   4.33 0.0006995925    1.733    0.423
        59  -9.2385    199.3839    207.9005   1.0209275619e+02   4.9953166894e+00    0.3766836    0.1226907  34.30  0.001540423    2.706    0.630
        60  -8.0453    177.2182    208.1767   1.0637940553e+02   8.5139345581e+00    0.2095146    0.1191719   7.95 0.0009412892    2.782    0.640
        61  -7.8187    150.4807    207.0455   1.1153629327e+02   1.2985009942e+01    0.1642923    0.1029676 -16.93  0.000809614    2.553    0.608
        62  -9.8935    124.0098    206.0156   1.1682894893e+02   1.7286506802e+01    0.1758887    0.1452479  40.82  0.001158704    1.007    0.007
        63  -7.5141    186.3258    205.3256   1.0416165231e+02   7.4373800432e+00    0.1311384   0.08463352  11.53 0.0005506721    1.694    0.410
        64  -8.4436    198.9862    203.6529   1.0146924992e+02   5.6141603706e+00    0.2260974    0.1474125   8.04  0.001274384    1.618    0.382
        65  -8.3964    209.6959    201.7317   9.9144508983e+01   4.1442691075e+00    0.3053897    0.1437665 -19.74  0.001381891    2.859    0.650
        66  -8.5784    206.2204    206.8903   1.0065401258e+02   4.0414433487e+00    0.2436834    0.1290311  19.01  0.001090338    2.035    0.509
        67  -8.3986    218.4083    198.7344   9.7031370984e+01   3.1350533681e+00    0.3465672    0.1591734  15.18  0.001316686    3.684    0.729
        68  -8.5344    203.6085    197.9606   9.9633990426e+01   5.6175779332e+00    0.3954049    0.1950036   3.97  0.001276911    5.376    0.814
        69 -12.3440    248.4764    178.0097   8.7962190006e+01   9.1464222624e-01     2.124034     1.093676  -8.09   0.01039677    2.226    0.551
        70  -7.6316    195.3479    195.3348   1.0075666922e+02   7.3359316732e+00    0.1377325   0.08621789  11.11 0.0007048174    1.775    0.437
        71 -12.6606    249.2002    131.0630   7.8101914748e+01   6.7231924034e+00     2.611639    0.4921826 -32.87  0.008027696    4.499    0.778
        72  -8.3490    215.9481    190.0356   9.5931322927e+01   4.6386515590e+00    0.2107422    0.1275522  14.73  0.001116285    1.661    0.398
        73  -7.2833    194.3401    186.3445   9.9369358187e+01   8.7779878985e+00    0.1409711   0.08972711   9.83 0.0007047956    1.781    0.438
        74 -10.8238      7.3336    246.6871   1.4147930096e+02   2.4368796802e+01    0.4030347    0.1484987 -89.45  0.002578021    2.632    0.620
        75  -9.6147    224.0202    181.4812   9.2871120714e+01   4.4196884014e+00    0.3531887    0.1091102 -36.16  0.001385694    3.448    0.710
        76  -7.6157    211.4798    182.9732   9.5461699517e+01   6.3232629178e+00    0.1785426    0.1002296  -5.30 0.0008062076    2.397    0.583
        77 -12.0383    247.1626    142.5551   8.0940915678e+01   5.5715748704e+00     1.816422       1.3104  26.86   0.01064665    1.306    0.235
        78  -9.3680    233.6817    173.4822   8.9608635296e+01   3.8500444770e+00    0.2211688     0.134474  -3.28 0.0009656705    1.726    0.420
        79  -8.7322    224.9249    172.5424   9.0982039574e+01   5.4433107921e+00    0.3292097    0.1582527 -10.93  0.001289863    3.228    0.690
        80  -8.3005    223.1318    165.7608   8.9955022449e+01   6.6687636557e+00    0.2483081    0.1480896  -2.48 0.0008663501    1.962    0.490
        81  -8.1459    101.3466    162.9690   1.1592717749e+02   2.8846202972e+01    0.1747327    0.1660059 -81.99 0.0005469852    1.105    0.095
        82  -9.7723    227.0171    154.8235   8.6996118581e+01   7.4886878265e+00    0.2397518    0.1792015 -16.94  0.000960157    1.242    0.195
        83  -9.0386     76.9962    151.2557   1.2027742548e+02   3.4868019955e+01    0.2354236    0.1237337 -32.97 0.0009030545    3.586    0.721
        84  -8.4595     90.3478    139.3263   1.1489549156e+02   3.5595996099e+01    0.1391458    0.1066505 -18.60 0.0007049608    1.752    0.429
        85 -10.4552     78.9929    133.2527   1.1695111752e+02   3.8611194872e+01    0.3082567    0.1827369 -70.57  0.001468146    1.828    0.453
        86  -9.8655     73.8030    133.8667   1.1848975437e+02   3.9182195400e+01    0.2684915    0.1524496  57.40  0.001235544    2.065    0.516
        87  -7.7543    215.0042    195.9649   9.7165979329e+01   4.0280807470e+00    0.2089158    0.1273323   9.65  0.001119288    1.725    0.420
        88 -10.1319     81.5153    124.9928   1.1477708017e+02   4.0134953511e+01    0.2984271    0.1861419  10.09  0.001296429    2.487    0.598
        89 -11.3681     86.0217    119.0000   1.1231387101e+02   4.0838777778e+01    0.8010091    0.2629575  45.94  0.002670183    3.494    0.714
        90  -8.7337     60.8053    119.1707   1.1979723764e+02   4.4225286244e+01    0.1863112    0.1549495 -35.72  0.001090531    1.342    0.255
        91 -10.6083     92.8677    112.7346   1.0897556808e+02   4.1192115160e+01    0.3430966    0.2407597  41.58  0.001711665    1.445    0.308
        92 -10.3998     72.9472    120.1351   1.1637233785e+02   4.2452500138e+01    0.2553208     0.238751 -44.54  0.001558231    1.114    0.102
        93  -8.7773     99.4681    109.9787   1.0639913422e+02   4.0711743461e+01     0.227232    0.1403387 -51.00  0.001033245    1.598    0.374
        94  -8.6867     86.5054    104.5083   1.0904588906e+02   4.4082594040e+01    0.1406951    0.1363471 -59.59 0.0008105137    1.022    0.022
        95 -10.3348    230.6524     81.4852   6.9124813318e+01   1.7205090863e+01    0.3636346    0.2899379  27.62  0.001215755    1.315    0.240
        96 -11.7358    234.6671     77.1658   6.7450430715e+01   1.6923253427e+01    0.8599089    0.5080469  85.90  0.003405618    3.281    0.695
        97 -11.2065    204.1853    238.7282   1.0588629977e+02   5.8673034085e-01      1.05695     0.616107  -1.92  0.006204924    2.151    0.535
        98  -8.2388    129.5601     50.6723   7.9645342361e+01   4.6367208425e+01    0.1952627    0.1450962 -39.57 0.0005184445    1.412    0.292
        99  -9.0808      3.5181     19.9849   1.2063997925e+02   7.1451076814e+01    0.1880488   0.04675689 -45.78 0.0008103925    2.596    0.615
