#   1 NUMBER                 Running object number                                     
#   2 MAG_AUTO               Kron-like elliptical aperture magnitude                    [mag]
#   3 X_IMAGE                Object position along x                                    [pixel]
#   4 Y_IMAGE                Object position along y                                    [pixel]
#   5 X_WORLD                Barycenter position along world x axis                     [deg]
#   6 Y_WORLD                Barycenter position along world y axis                     [deg]
#   7 A_WORLD                Profile RMS along major axis (world units)                 [deg]
#   8 B_WORLD                Profile RMS along minor axis (world units)                 [deg]
#   9 THETA_WORLD            Position angle (CCW/world-x)                               [deg]
#  10 FWHM_WORLD             FWHM assuming a gaussian core                              [deg]
#  11 ELONGATION             A_IMAGE/B_IMAGE                                           
#  12 ELLIPTICITY            1 - B_IMAGE/A_IMAGE                                       
         1 -14.5866    246.9149     11.8739   7.3041332610e+00   2.2157562666e+01     2.016248    0.5605066 -37.80  0.008438196    2.891    0.654
         2 -13.7905     11.5959     23.5762   6.9212979036e+01   6.9271248317e+01     0.829986    0.3025969 -31.20  0.003930156    2.621    0.618
         3 -12.0782      1.6885     25.0035   7.4667603363e+01   6.9625418402e+01    0.5257459    0.1108063 -54.92  0.002160531    3.493    0.714
         4 -13.2449     25.0793      4.0545   5.3686128545e+01   7.1046657861e+01    0.6782247    0.3712811   6.45  0.003932729    1.904    0.475
         5 -12.5569     10.2847      2.0962   6.0606603535e+01   7.2746282019e+01    0.8494204    0.2054609  24.50  0.003578411    4.459    0.776
         6 -12.4211     15.7091      7.0483   6.0047238588e+01   7.1568701105e+01    0.4728636    0.2003489 -25.54  0.002447135    2.284    0.562
         7 -11.9183     26.2139     16.3013   5.8940562226e+01   6.9198124983e+01    0.2987089    0.1176762 -30.28  0.001427185    2.398    0.583
         8 -12.4879     19.8207     13.9146   6.1070907472e+01   7.0177434155e+01    0.3830968    0.1828461 -24.41  0.002080479    1.973    0.493
         9 -13.3072      6.5051     11.0444   6.6820776883e+01   7.1693307867e+01    0.8132723    0.4040069 -27.68  0.004947475    1.641    0.391
        10 -11.0042     41.5147      2.4983   4.5043481429e+01   6.9176284434e+01    0.2794335    0.1437192   7.87  0.001388685    2.395    0.583
        11 -12.1001     13.5721     12.6963   6.3764977520e+01   7.0903944881e+01    0.2961379    0.1611726 -30.48  0.001433772    1.436    0.304
        12 -11.9068     72.6996    240.3436   8.9086876455e+01   1.5985993045e+01    0.2749169     0.148575  64.06  0.001558552    1.732    0.423
        13 -12.3205    248.9759    225.1488   5.2955908818e+01  -9.6590216282e+00    0.3618031    0.1704918 -30.14  0.001908867    2.109    0.526
        14 -11.8910    249.9909    232.8123   5.4117177395e+01  -1.0734404477e+01     0.364963    0.1664083 -27.83  0.001933146    2.203    0.546
        15 -13.0411    242.9900    245.4157   5.7466238002e+01  -1.1222965389e+01     0.655909    0.3310693 -10.89  0.003385745    2.481    0.597
        16 -11.1376    249.6485    249.9285   5.7042264363e+01  -1.2637278866e+01    0.4161399     0.164538  30.79  0.002160558    2.110    0.526
        17 -11.3006    248.8928    245.1097   5.6384388364e+01  -1.2002631657e+01    0.3112049    0.2032909  -3.67  0.002039182    1.380    0.275
        18 -12.4801    212.5039    248.1012   6.3389693341e+01  -7.0916755995e+00    0.4158785    0.2403575  12.84  0.002258156    1.946    0.486
        19 -11.3491     88.0686    250.2177   8.7137725616e+01   1.2089310520e+01    0.2955572    0.1440453  32.91   0.00150892    2.305    0.566
        20 -11.3099     74.5528    250.5093   8.9604983234e+01   1.3927026555e+01    0.2400625   0.09085576  41.10  0.001207694    2.157    0.536
        21 -11.8678     65.0754    248.9741   9.1168047439e+01   1.5464469680e+01    0.3775866    0.1628734  51.45  0.002088766    1.809    0.447
        22 -11.3898     50.5647    250.0348   9.3771255369e+01   1.7127539069e+01    0.3958005    0.1305484  42.47  0.002029415    2.352    0.575
        23 -12.1578     36.7791    248.5381   9.6010633664e+01   1.9039871657e+01    0.4193219    0.2088635  60.61  0.002654831    1.570    0.363
        24 -10.9364     27.4165    248.8646   9.7577942955e+01   2.0039925415e+01    0.2825848    0.1315775  64.28  0.001754599    1.723    0.420
        25 -12.3165      2.3691    210.9025   9.9816436418e+01   2.9675698003e+01     0.784646    0.1998166 -84.23  0.003260867    3.872    0.742
        26 -11.8429     20.3569    249.0390   9.8731401109e+01   2.0774055800e+01    0.3794412    0.1850208  57.51  0.001719469    1.516    0.340
        27 -11.5579     14.2219    232.0766   9.8873846152e+01   2.4482943141e+01    0.3735551    0.1754707  71.18  0.002084558    1.778    0.438
        28 -11.4497     11.0629    225.6857   9.9076000590e+01   2.5999389496e+01    0.3564252    0.1685864  60.93  0.001813844    1.674    0.403
        29 -11.8362     12.1319    248.8848   1.0003241934e+02   2.1656994807e+01    0.3718198    0.1563282  53.00  0.001682162    1.734    0.423
        30 -12.4697     15.9933    240.4043   9.9005870919e+01   2.2772072677e+01    0.5727938    0.2361794  53.85  0.002842163    1.822    0.451
        31 -11.3627      3.3937    250.2420   1.0144816374e+02   2.2289763478e+01    0.2485345    0.1484731  43.52  0.001670815    1.615    0.381
        32 -12.5396      3.4991    243.2979   1.0114425881e+02   2.3497177563e+01    0.5264842    0.2361181  77.90  0.003363721    1.822    0.451
        33 -11.9842      6.6765    236.3915   1.0033187766e+02   2.4433178271e+01    0.4421354    0.2057913  63.78  0.002861359    1.645    0.392
        34 -11.9140      4.6870    228.3008   1.0028055427e+02   2.6118698325e+01    0.4246523    0.2016283  75.72  0.001880437    1.713    0.416
        35 -11.7598      2.2964    220.8306   1.0032501987e+02   2.7754179640e+01    0.3748362    0.1705054  82.62  0.001959513    1.834    0.455
        36 -10.7864     38.3480    240.5038   9.5247199011e+01   2.0303859303e+01    0.2588875    0.1144859  62.55  0.001455931    1.955    0.488
        37 -11.9350     29.5469    240.8390   9.6772396278e+01   2.1242969950e+01    0.4048964    0.1870282  69.39  0.002090165    1.912    0.477
        38 -11.2012     45.0257    237.2455   9.3860600717e+01   2.0114308064e+01    0.2725056    0.1201841  60.09  0.001493178    1.965    0.491
        39 -10.5792     33.2648    236.3780   9.5866508072e+01   2.1646833914e+01    0.2562824    0.1039682  68.74  0.001306313    2.478    0.596
        40 -12.5163    247.3467    239.4769   5.5715389683e+01  -1.1147147160e+01    0.3921794    0.2214019  -9.88  0.002055051    1.865    0.464
        41 -11.4133    231.5519    234.7121   5.7729678425e+01  -8.2897080714e+00    0.2159584    0.1088948 -26.91  0.001143062    2.118    0.528
        42 -11.5115     45.0271    245.0546   9.4390332337e+01   1.8688246590e+01    0.3513004    0.1716019  61.20  0.002034695    1.687    0.407
        43 -10.7395     59.7579    231.8822   9.0775139980e+01   1.9280926016e+01    0.2476473    0.1059904  57.92  0.001245692    2.137    0.532
        44 -11.1296     39.6423    231.1245   9.4397214925e+01   2.1900730025e+01     0.278706     0.142619  71.88  0.001619973    1.797    0.444
        45 -12.2286     25.6478    228.7099   9.6722771424e+01   2.3927748140e+01    0.4645661    0.2246559  76.20  0.002719745    1.878    0.468
        46 -11.3707    116.0283    244.4960   8.1321429349e+01   8.8787878923e+00    0.1982449   0.09885842  42.58  0.001037954    1.610    0.379
        47 -10.6799     48.5087    230.4805   9.2743402493e+01   2.0963905654e+01     0.278817    0.1197459  65.51  0.001383243    2.392    0.582
        48 -10.3743     32.3649    229.3514   9.5577843270e+01   2.3069211772e+01    0.2367547    0.1065834  65.23  0.001173396    1.993    0.498
        49 -11.6903    236.8871    228.3775   5.5678297016e+01  -8.2876352353e+00    0.2487925     0.142152 -12.29  0.001335875    1.940    0.484
        50 -11.3966     18.6808    221.8197   9.7538021155e+01   2.5980640790e+01    0.2817791    0.1472012  75.63  0.001555824    1.618    0.382
        51 -10.6406     44.1775    221.7669   9.2885722371e+01   2.3174869086e+01    0.2128961   0.08406278  65.18 0.0009552772    2.825    0.646
        52 -12.2411     12.1165    216.9561   9.8420014478e+01   2.7580354497e+01    0.4442014    0.2341347  65.22  0.002529097    1.530    0.346
        53 -10.9699    238.5996    219.2070   5.3747750625e+01  -7.3578212487e+00    0.1757978    0.1042476 -18.40 0.0009607273    1.709    0.415
        54 -11.2237     34.6699    217.3323   9.4337504310e+01   2.5152219426e+01    0.2740309    0.1389183  66.78  0.001558806    1.775    0.437
        55 -10.6071     24.1700    217.2438   9.6270795916e+01   2.6308783966e+01    0.2284118     0.104953  73.78  0.001238208    2.067    0.516
        56 -12.0020    248.5276    214.5017   5.1116784448e+01  -8.2384926856e+00    0.3553202    0.1926119 -19.14  0.001881409    1.877    0.467
        57 -11.0914     28.8592    211.5181   9.5014779250e+01   2.6956458144e+01    0.2433956    0.1183855  82.18  0.001322122    1.986    0.496
        58 -12.8586     12.3041    205.3965   9.7709450333e+01   2.9865915522e+01    0.5441152    0.2591751  66.19  0.002962868    1.829    0.453
        59 -11.1314     21.5629    211.5060   9.6378527354e+01   2.7722444061e+01     0.267429    0.1498286  83.92   0.00166157    1.516    0.341
        60 -12.1658      3.5235    197.0599   9.8848692053e+01   3.2360027222e+01     0.429811    0.2017605  77.03   0.00217103    1.864    0.463
        61  -9.6802    243.3148    199.6676   4.9261666033e+01  -5.4178790229e+00    0.1112459     0.105966 -67.53 0.0005745185    1.683    0.406
        62 -12.0405      8.8149    196.5991   9.7822485665e+01   3.1989874532e+01    0.4452359    0.1539519  87.97     0.001974    3.087    0.676
        63 -12.1417      4.1623    188.5532   9.8215859041e+01   3.4071473729e+01    0.5322647    0.2182541  69.58  0.002729097    2.384    0.581
        64 -11.6226     17.6175    195.9205   9.6080011688e+01   3.1314526335e+01     0.244234    0.1084734  52.78  0.001348826    1.984    0.496
        65 -11.5292     11.1937    190.8742   9.6993237298e+01   3.2971993403e+01    0.1859665      0.11982  74.27  0.001098557    1.263    0.208
        66 -11.1961     17.0349    189.7002   9.5753536052e+01   3.2684109792e+01    0.2270275    0.1241037  75.65   0.00124441    1.632    0.387
        67 -10.3826     24.4911    186.9686   9.4028157625e+01   3.2551204364e+01    0.1766977   0.07756167  78.90 0.0008100065    2.550    0.608
        68 -12.3262      5.3649    182.9106   9.7617284590e+01   3.5164207183e+01    0.3111641    0.1586342  89.14  0.001168293    1.629    0.386
        69 -12.0882      2.0949    178.2403   9.7966372784e+01   3.6427465833e+01    0.3777778     0.195149  89.61  0.002251978    1.580    0.367
        70 -12.4465     11.5011    184.0223   9.6460498600e+01   3.4401168809e+01    0.3123114    0.1594898  84.17  0.001669492    1.731    0.422
        71 -12.8557      6.4268    171.2310   9.6586539812e+01   3.7599430393e+01    0.3798413    0.1716905  86.84  0.001983035    2.041    0.510
        72 -11.5893      1.5009    170.4668   9.7564935531e+01   3.8150800535e+01    0.2392661   0.08819389 -77.21  0.001201705    2.134    0.531
        73 -12.1494     10.8084    166.6151   9.5292259750e+01   3.8261185746e+01    0.2434019     0.137208  66.28   0.00142761    1.682    0.406
        74 -12.2191      5.6886    161.2115   9.5983751696e+01   3.9866804745e+01    0.2392931    0.1390646  77.70  0.001437415    1.547    0.354
        75 -12.1019     10.0231    155.5063   9.4536019622e+01   4.0811622229e+01    0.2487507    0.1360612  86.51  0.001400222    1.652    0.395
        76 -12.3990      3.8004    153.2605   9.5766333307e+01   4.1781458760e+01    0.3280514    0.1333382 -72.74  0.001702349    1.892    0.472
        77 -12.0328      5.1722    146.9998   9.4915119972e+01   4.3094193189e+01    0.4254905    0.1479209  62.62  0.001650322    4.146    0.759
        78 -12.0144      4.0919    136.8649   9.4245182379e+01   4.5470319308e+01    0.3057119    0.1379911 -86.42  0.001538661    2.036    0.509
        79 -11.5889    248.2282    129.5612   3.3682182822e+01   4.6459904651e+00    0.2757175    0.1787943 -34.98  0.001263841    1.377    0.274
        80 -11.7490      3.1765    128.1566   9.3616711697e+01   4.7516739772e+01    0.3434179    0.1410574 -86.09  0.001596423    2.406    0.584
        81 -11.1740    241.4985    125.5211   3.3860112031e+01   6.6274847952e+00    0.2633357    0.1155317 -44.63  0.001037043    2.297    0.565
        82 -11.5530      5.9146    122.5797   9.2301557805e+01   4.8624854621e+01    0.2523721    0.1300708  88.46  0.001204461    1.971    0.493
        83 -11.9899    248.6548    118.6162   3.1146871878e+01   6.3603810584e+00    0.2967708    0.1956221 -47.57  0.001492054    1.531    0.347
        84 -10.7660    247.3140    102.6656   2.7704657514e+01   9.2363695158e+00    0.1433591    0.1013706 -62.07 0.0005530529    1.686    0.407
        85 -11.6961    249.1447     97.6465   2.6286790814e+01   9.6729554741e+00    0.2575724    0.1675038 -43.44 0.0008186152    1.391    0.281
        86 -10.4289      2.0000     94.9581   8.9969311099e+01   5.5143534338e+01    0.2038234   0.05316991 -70.20 0.0008040279    2.953    0.661
        87 -12.3032    249.2825     87.1500   2.3858830487e+01   1.1313122902e+01    0.3914436    0.1854936 -31.09  0.001669958    2.076    0.518
        88 -10.7733    243.3145     82.3159   2.3552122895e+01   1.3335596798e+01    0.1348264    0.1081307  10.56 0.0005976816    1.645    0.392
        89 -12.5343    248.3494     74.6057   2.1101986796e+01   1.3452315218e+01    0.4094231    0.1407226 -37.71  0.001572897    2.500    0.600
        90 -12.5457      2.8706     49.9123   8.1284723093e+01   6.4810744285e+01    0.5479159    0.1623483 -59.27  0.002538504    2.424    0.588
        91 -11.4270      8.4937     43.9899   7.7327185577e+01   6.5699555648e+01    0.2740792   0.07054786 -53.27  0.001208495    2.559    0.609
        92 -12.2806     11.8122     38.2888   7.4158640894e+01   6.6598525701e+01    0.3376611    0.1342206 -39.86   0.00174449    1.948    0.487
        93 -11.8676      3.0491     33.9731   7.6877007306e+01   6.7911471083e+01    0.2944824    0.1109497 -48.68  0.001575923    1.839    0.456
        94 -11.8666    225.6530    248.4114   6.1040006854e+01  -9.0924179132e+00    0.2943129    0.1772679  14.56   0.00173983    1.574    0.365
        95 -10.4183    202.4987    249.5028   6.5455838059e+01  -5.7342573899e+00    0.1240202    0.0944304  23.27 1.244915e-05    1.032    0.031
        96 -11.0043    169.0316    250.0000   7.1837557827e+01  -4.9162926402e-01    0.2156938   0.05693631  40.00 0.0008100272    2.995    0.666
        97 -11.8531    127.4157    248.0996   7.9553394237e+01   6.4925991793e+00    0.2719235    0.1267344  51.57  0.001344031    1.963    0.491
        98 -12.7900    234.0261    244.6286   5.8927129552e+01  -9.8605018985e+00    0.3839113    0.2342022  -3.37   0.00199608    1.731    0.422
        99 -12.2856    142.8691    247.6061   7.6533357536e+01   4.0998536970e+00    0.3925915    0.1021642  37.69  0.001409789    3.433    0.709
       100 -11.7042     18.6845     30.6721   6.8398452381e+01   6.7508143671e+01    0.2746445    0.1433381 -26.50  0.001541545    1.750    0.429
       101 -12.0459     98.1740    244.7430   8.4741491610e+01   1.1559980410e+01    0.3076608    0.1431929  55.07  0.001560746    1.972    0.493
       102 -12.4600     84.9941    244.2020   8.7154245302e+01   1.3576258813e+01    0.3602161     0.153777  50.54  0.001850808    1.906    0.475
       103 -12.2958     57.1527    242.0412   9.2048831929e+01   1.7730481293e+01    0.4395352    0.1919047  57.87  0.002372586    1.977    0.494
       104 -12.0849    225.8042    241.2885   5.9867175081e+01  -8.2498043845e+00    0.2383366    0.1515463 -14.56  0.001431039    1.660    0.398
