#   1 NUMBER                 Running object number                                     
#   2 MAG_AUTO               Kron-like elliptical aperture magnitude                    [mag]
#   3 X_IMAGE                Object position along x                                    [pixel]
#   4 Y_IMAGE                Object position along y                                    [pixel]
#   5 X_WORLD                Barycenter position along world x axis                     [deg]
#   6 Y_WORLD                Barycenter position along world y axis                     [deg]
#   7 A_WORLD                Profile RMS along major axis (world units)                 [deg]
#   8 B_WORLD                Profile RMS along minor axis (world units)                 [deg]
#   9 THETA_WORLD            Position angle (CCW/world-x)                               [deg]
#  10 FWHM_WORLD             FWHM assuming a gaussian core                              [deg]
#  11 ELONGATION             A_IMAGE/B_IMAGE                                           
#  12 ELLIPTICITY            1 - B_IMAGE/A_IMAGE                                       
         1 -11.0228    186.7931     31.9892   6.7416676673e+01   3.4749696362e+01    0.8138091    0.7412113 -79.05  0.004923635    1.088    0.081
         2 -11.3533    194.1239     20.3787   6.3589849319e+01   3.4379122219e+01    0.6894136    0.6459652 -88.85  0.002484906    1.160    0.138
         3  -9.2331    202.1121     11.2787   6.0540901385e+01   3.3504794659e+01    0.1852654    0.1773588 -24.70 0.0006301928    1.375    0.273
         4  -7.4057    173.2142      9.8703   6.3640392268e+01   4.0482163853e+01    0.1623908    0.1311965  54.96   0.00033248    1.231    0.188
         5 -11.9216    248.1824    236.1656   1.0212996518e+02  -1.2687252686e+01    0.2565501    0.2266925  29.56 0.0002391326    1.383    0.277
         6  -8.8438    134.2532    249.7859   1.2620792753e+02   3.6819745224e+00    0.2668065    0.1556788  36.29 0.0009429274    1.611    0.379
         7  -9.1609    120.2001    249.8258   1.2895776402e+02   6.0100031065e+00    0.2826123    0.1924117  40.98 0.0004021427    1.322    0.244
         8  -8.1565    104.6447    250.4303   1.3203104912e+02   8.4160097001e+00    0.2245774   0.09990133  45.77 0.0003321029    1.853    0.460
         9  -9.1484     96.8448    249.7083   1.3344003449e+02   9.7784876098e+00    0.3512457    0.2023853  54.67  0.001941524    1.472    0.320
        10 -11.1210     78.9666    220.7684   1.3374777835e+02   1.8348433376e+01     1.076574    0.3553996  52.60 0.0009498393    3.119    0.679
        11 -12.2027     67.1485    248.6174   1.3887048328e+02   1.4398834677e+01     3.760949    0.4454313  39.29   0.01054947    6.857    0.854
        12  -8.1618    102.3647    236.3098   1.3084078386e+02   1.1486304920e+01    0.2354674    0.1686964  85.29 0.0006253035    1.467    0.319
        13  -9.2112     67.3615    237.0908   1.3775962912e+02   1.6645447219e+01    0.2973962    0.1651816  37.71  0.001600294    1.893    0.472
        14  -8.0999    116.3050    232.6619   1.2756459551e+02   9.9067903451e+00    0.1388203   0.09204703  70.82 0.0004332186    1.674    0.403
        15  -8.9370     64.5057    232.1913   1.3783094220e+02   1.8046285206e+01    0.2246237     0.148429  48.86  0.001179808    1.369    0.270
        16 -11.2754     44.8945    218.5146   1.4033142924e+02   2.3530064078e+01    0.8784654    0.6891473 -84.10  0.005861747    1.159    0.137
        17 -12.3334     51.3364    233.9804   1.4048879555e+02   1.9462485401e+01     1.376413     1.085359 -28.35  0.006895374    2.423    0.587
        18 -10.1315     96.1722    228.0959   1.3109804343e+02   1.4139152962e+01    0.4753389    0.2951887  62.62  0.002346734    1.553    0.356
        19  -9.0381    110.3781    224.5791   1.2771631286e+02   1.2531603837e+01    0.2735249    0.2231054 -80.04 0.0009769017    1.258    0.205
        20 -11.3761     10.5525    244.3026   1.4834800959e+02   2.2225174542e+01    0.3809857    0.3494847  74.41  0.001559548    1.527    0.345
        21  -7.0363     12.2988    221.3207   1.4662670442e+02   2.6639303853e+01    0.1022531   0.07759232 -62.03 0.0003441944    1.621    0.383
        22 -14.1525     22.3342    244.3341   1.4640322864e+02   2.0929583649e+01     2.761288     1.250926 -64.42  0.008484484    2.271    0.560
        23 -10.0691    161.1338    214.6905   1.1544013234e+02   5.4508387966e+00    0.2418871    0.2206659 -59.71 0.0004793547    1.209    0.173
        24  -9.0411     18.6633    215.9578   1.4509537393e+02   2.7100358004e+01    0.2084065    0.1379902  57.91 0.0006243798    1.341    0.254
        25 -11.6186     11.8487    207.5316   1.4574085960e+02   2.9589557179e+01    0.6349314     0.358391  43.04  0.003145016    1.806    0.446
        26 -10.4948     10.3254    214.1149   1.4649038205e+02   2.8342070690e+01    0.4668267    0.1881723  35.59  0.001651106    2.683    0.627
        27  -9.8044      2.7817    213.5962   1.4781351045e+02   2.9178207715e+01     0.306349    0.1904551 -71.23  0.001140714    1.471    0.320
        28  -7.6155    168.8956    213.7920   1.1364311557e+02   4.1839058073e+00    0.1840478    0.1616282  73.90 0.0004552225    1.308    0.235
        29  -7.3263    166.6959    210.3123   1.1350057139e+02   5.2639942000e+00    0.2569392    0.1637295 -88.99  0.000946987    3.515    0.715
        30  -9.2121     79.1682    213.0767   1.3279842649e+02   1.9983302264e+01    0.3090574    0.2825276  85.01  0.001882656    1.162    0.140
        31  -9.7503     40.1942    209.6234   1.4043338186e+02   2.6037122084e+01    0.3437119    0.1906194  57.90     0.001906    1.644    0.392
        32  -9.3121     25.2637    204.5040   1.4292902125e+02   2.8864027405e+01    0.4553893    0.2795916  47.79  0.002796403    1.590    0.371
        33 -11.2307     69.1188    199.0747   1.3323732654e+02   2.4598601923e+01    0.7532573    0.5821723 -88.13  0.002479757    1.155    0.134
        34  -8.8060    198.4734    199.7877   1.0491159263e+02   1.3025219336e+00    0.2755828    0.2265696  13.94  0.001145449    1.249    0.199
        35  -7.4402     25.8408    196.8407   1.4214250958e+02   3.0497689325e+01    0.1654493    0.1133313  69.56 0.0009587716    1.282    0.220
        36  -8.2445     14.5328    196.4358   1.4436840939e+02   3.1738074770e+01    0.1963237    0.1539805  79.29 0.0004915443    1.087    0.080
        37  -7.6992    162.6913    200.0475   1.1252189800e+02   8.0674317626e+00    0.1880055    0.1853442 -86.32 0.0002808538    1.072    0.067
        38  -7.5974      8.9359    193.5079   1.4523595540e+02   3.2912228363e+01    0.1435035    0.1105956  44.43 0.0003960897    1.499    0.333
        39  -8.5115     59.2711    189.7590   1.3425629534e+02   2.8112321161e+01     0.285852    0.2110502 -54.80   0.00136945    1.477    0.323
        40  -7.9875    209.3543    187.6867   1.0033115404e+02   1.5136398735e+00    0.1391271    0.1152129  86.20 0.0007045081    1.734    0.423
        41  -7.5593    189.3586    187.4151   1.0436973231e+02   5.4069933268e+00    0.2956058    0.1267656  30.69 0.0009625452    3.334    0.700
        42  -7.8483     88.5059    175.5111   1.2539864794e+02   2.7183432806e+01    0.2333742    0.1373125  41.11 0.0006332821    1.725    0.420
        43  -9.5626     80.3883    183.2460   1.2853351694e+02   2.6615637818e+01    0.4383296    0.2561838 -44.79  0.002002626    2.097    0.523
        44  -9.2910     84.1133    177.6894   1.2680441170e+02   2.7359907517e+01    0.3800208    0.2186372 -48.67 0.0007489229    1.886    0.470
        45  -7.1651      8.4203    184.2381   1.4458943492e+02   3.5012323469e+01    0.1054904   0.08139139 -46.11 0.0006901814    1.716    0.417
        46  -8.1161    198.7986    178.7287   1.0063698723e+02   5.2594781031e+00    0.2787397    0.1755595 -53.65  0.001246396    1.815    0.449
        47  -9.3600     24.0697    177.4117   1.4065143150e+02   3.5091167268e+01    0.3051396    0.1951677  49.36  0.001827958    1.604    0.376
        48  -7.4441    104.4930    174.5051   1.2134731930e+02   2.4735112869e+01    0.1474004    0.1363487  86.63 6.299582e-06    1.009    0.009
        49  -7.4189     37.9159    171.5601   1.3688673822e+02   3.5002466734e+01    0.1660195    0.1261042  37.21  0.001001682    1.529    0.346
        50  -9.0040     12.7157    170.4452   1.4244424788e+02   3.7751868986e+01    0.2872251    0.1277153  22.48  0.001394757    3.233    0.691
        51  -9.4658     90.8514    167.6186   1.2349928712e+02   2.8700106162e+01    0.3879883    0.2841611  64.47  0.000447156    1.437    0.304
        52  -7.6289     36.9684    167.4719   1.3661112073e+02   3.6071881433e+01     0.180361   0.08574884  57.48 0.0008084236    2.425    0.588
        53 -10.8695     79.6785    163.2062   1.2554091196e+02   3.1535713020e+01    0.4733463    0.3131547 -47.06  0.001226947    1.612    0.380
        54  -9.5271     16.8704    164.7773   1.4094794867e+02   3.8688752530e+01    0.2891845    0.1493282  58.15  0.001518808    2.092    0.522
        55  -9.0157     95.8962    160.9143   1.2103210771e+02   2.9481404913e+01    0.4122183    0.2651647 -41.98  0.001298772    1.773    0.436
        56  -8.0268      3.1888    162.1442   1.4375272364e+02   4.0424477254e+01    0.1643285    0.1272811 -73.75 0.0004826926    1.123    0.110
        57  -7.5204     35.9441    163.1557   1.3631714813e+02   3.7204483448e+01    0.1669937    0.1366904 -54.32 0.0004868198    1.310    0.236
        58  -8.6527    175.0155    152.1332   9.9966846699e+01   1.5710683347e+01    0.2418803    0.2160734 -46.07 0.0002567576    1.112    0.101
        59  -8.9623     50.8037    152.9218   1.3122258871e+02   3.7973238181e+01    0.2027591    0.1659542 -53.53  0.000490523    1.234    0.190
        60 -10.7957     68.1830    144.9162   1.2533962523e+02   3.7664471654e+01    0.7463373    0.4796071  85.49  0.003413926    2.038    0.509
        61  -9.2685     68.1806    135.0454   1.2349878829e+02   4.0054585212e+01    0.3283441    0.1953184  62.20  0.001435059    2.275    0.560
        62 -10.2819    221.5087    146.5903   8.9249700156e+01   6.9725510092e+00    0.2619897    0.2571376  65.76 0.0004143321    1.102    0.093
        63  -8.8548    107.6114    143.6541   1.1455010831e+02   3.1582300491e+01    0.4870769    0.2435045 -45.36  0.001413731    2.048    0.512
        64  -7.3329    238.6439    143.2997   8.5489870394e+01   4.1951386081e+00    0.1410849    0.1091409 -75.39 0.0004541908    1.705    0.413
        65  -7.9525      8.6705    140.6633   1.4021914379e+02   4.4931504324e+01    0.1256515   0.07310596 -48.23 0.0007052018    1.731    0.422
        66  -7.7756    114.9813    133.1856   1.1026082991e+02   3.2680326045e+01    0.2457297    0.1846298   3.78  0.001075819    1.941    0.485
        67  -7.7992    168.6538    129.5012   9.6083419221e+01   2.2022165357e+01    0.2602036    0.1464612 -44.96  0.000643521    1.755    0.430
        68  -7.9197     66.3072    130.3294   1.2310065569e+02   4.1445302145e+01    0.1436812    0.1012997 -33.08 0.0007038669    1.659    0.397
        69  -9.0451    240.1304    128.3604   8.1992252066e+01   6.6502463654e+00    0.2372407    0.2285915 -33.43  0.000261722    1.088    0.080
        70  -7.5877    133.6024    145.2125   1.0819770079e+02   2.6128393109e+01    0.2312708    0.1446269 -40.49 0.0009594664    1.710    0.415
        71  -7.1144     34.4643    129.5257   1.3188999126e+02   4.5344361536e+01    0.1304841    0.1087934 -69.88 0.0002511717    1.031    0.030
        72  -8.3118     25.6624    127.5600   1.3400664447e+02   4.6615379639e+01    0.2346491     0.130444 -68.89 0.0006869148    1.509    0.337
        73  -7.0942    225.5402    127.5184   8.4259222797e+01   9.7897935766e+00    0.1466863    0.1340872 -51.51 0.0002827231    1.028    0.027
        74  -7.1849    110.6513    122.3222   1.0884997858e+02   3.6048219315e+01    0.1586978    0.1204294  83.28 0.0007049052    1.743    0.426
        75  -7.1787     32.7851    121.8004   1.3107671400e+02   4.7315207631e+01    0.1683701    0.1364922  84.61 0.0005161426    1.335    0.251
        76  -8.0131     11.9683    115.5361   1.3600009167e+02   5.0448370110e+01    0.1473965    0.1215627  23.36 0.0004080195    1.524    0.344
        77  -7.7575    168.4666    113.9949   9.2266378956e+01   2.5351319414e+01    0.3320206    0.2020044  87.23  0.001043854    3.599    0.722
        78  -7.7705    117.0569    108.8074   1.0366896359e+02   3.7835649525e+01    0.2502133    0.1799966  10.74  0.001074755    1.982    0.495
        79  -8.3460    195.7872    106.3102   8.4687992037e+01   2.0498289198e+01    0.4259427    0.2718996 -72.06  0.001703641    2.239    0.553
        80  -7.4052     97.8695     96.7995   1.0588753473e+02   4.4118525965e+01    0.1884738    0.1704428  82.99 0.0002817362    1.304    0.233
        81  -8.4876     96.9859     90.2263   1.0431734075e+02   4.5653784894e+01    0.2286138    0.1969071 -42.40 0.0003865012    1.128    0.114
        82  -9.7524    235.6281     72.8053   7.0362321673e+01   1.7346488036e+01    0.2534993    0.2350245 -79.33 0.0007479822    1.117    0.105
        83  -8.1968    239.9150     68.8632   6.8945021796e+01   1.7042513790e+01    0.1909144    0.1803424 -55.93 0.0004856938    1.209    0.173
        84  -8.4207    121.8712     67.2386   9.0443788059e+01   4.5004507667e+01    0.2402127    0.2047412 -24.78 0.0002448395    1.215    0.177
        85  -7.3672    230.5922     62.7858   6.8796734878e+01   2.0058852643e+01    0.1974349    0.1112454 -50.51  0.000944152    1.632    0.387
        86  -7.0609    237.2884     62.3191   6.7850033225e+01   1.8643395807e+01    0.1203878    0.1083059  17.73 0.0004104628    1.597    0.374
        87  -7.6694    109.5578     57.0835   9.0547791730e+01   4.9274836945e+01    0.2015248    0.1350176 -34.41 0.0007801224    1.536    0.349
        88  -7.3921    221.2408     54.4236   6.8122877482e+01   2.3464496869e+01    0.2013586    0.1209124  82.50 0.0009546209    1.800    0.445
        89  -9.9917    176.2178     40.7888   7.1297156185e+01   3.6182002226e+01    0.3533599    0.2750602  80.83  0.001046573    1.231    0.188
        90 -12.8910     60.6917    211.8272   1.3650299926e+02   2.2915821393e+01     4.732449     1.576129  59.55  0.005058215    4.711    0.788
        91 -12.1030      4.3703    237.8572   1.4899278338e+02   2.4115915027e+01    0.9426808    0.7417548 -74.51  0.004729932    1.483    0.325
        92  -9.1130    201.1959     17.8453   6.2152965136e+01   3.2994021495e+01    0.2394588    0.1842761  69.37 0.0005126936    1.191    0.160
        93  -9.3402    228.8707     24.2708   6.0618840447e+01   2.5853606479e+01    0.3510379    0.2477308 -53.68  0.001464308    1.308    0.236
        94  -8.8933     88.1026    243.3613   1.3443212547e+02   1.2342686816e+01    0.2140841    0.1596965  89.34 0.0002998903    1.301    0.231
