#   1 NUMBER                 Running object number                                     
#   2 MAG_AUTO               Kron-like elliptical aperture magnitude                    [mag]
#   3 X_IMAGE                Object position along x                                    [pixel]
#   4 Y_IMAGE                Object position along y                                    [pixel]
#   5 X_WORLD                Barycenter position along world x axis                     [deg]
#   6 Y_WORLD                Barycenter position along world y axis                     [deg]
#   7 A_WORLD                Profile RMS along major axis (world units)                 [deg]
#   8 B_WORLD                Profile RMS along minor axis (world units)                 [deg]
#   9 THETA_WORLD            Position angle (CCW/world-x)                               [deg]
#  10 FWHM_WORLD             FWHM assuming a gaussian core                              [deg]
#  11 ELONGATION             A_IMAGE/B_IMAGE                                           
#  12 ELLIPTICITY            1 - B_IMAGE/A_IMAGE                                       
         1 -10.9713     72.9057     57.6931   1.0878134129e+02   5.6794402045e+01    0.6167728    0.1735763 -48.76   0.00197612    3.811    0.738
         2 -10.4760    111.5893     33.8244   8.7211519168e+01   5.3197251108e+01    0.2050836    0.1291073 -40.10 0.0009566651    1.752    0.429
         3 -14.1025    231.4673    228.1960   1.0933166144e+02  -5.6394029610e+00    0.9162768    0.4155675 -31.01  0.004797698    2.470    0.595
         4 -13.9829    239.1649    216.7548   1.0604270902e+02  -5.5033605174e+00     0.645941    0.5251327  11.26  0.004429737    1.089    0.082
         5 -14.0205    248.8105    202.1936   1.0175980542e+02  -5.2737428374e+00     1.013796    0.3852147 -25.13  0.004379513    2.994    0.666
         6 -10.5825    159.7999    237.5861   1.2393560241e+02   4.9473812069e+00    0.1968495   0.09865431 -43.40  0.001026524    2.583    0.613
         7 -11.0770    164.6296    226.0797   1.2142637455e+02   5.8273065183e+00    0.3406081    0.2125251  52.33  0.001880439    1.556    0.357
         8 -10.1667     84.3292    227.6693   1.3720840323e+02   1.8541736647e+01    0.1278592    0.0714296  64.79 0.0005434101    1.715    0.417
         9  -9.9708    109.4747    222.5039   1.3180356151e+02   1.5663661548e+01    0.1263229    0.1001845  55.74 0.0001512874    1.013    0.013
        10 -10.6079    126.2301    220.6238   1.2825362188e+02   1.3267719678e+01    0.1731625    0.1037542  36.85 0.0002959142    1.531    0.347
        11  -9.9609    143.7507    216.9781   1.2425811730e+02   1.0902170824e+01     0.148474    0.1135803 -52.58  0.000887665    1.588    0.370
        12  -9.9857    185.5243    213.0158   1.1534950052e+02   4.1115060481e+00     0.176334    0.1301684 -34.04  0.001030812    1.593    0.372
        13 -10.7593    116.6507    210.6588   1.2892577325e+02   1.6629353492e+01    0.2705493    0.1600054  67.64   0.00133693    2.051    0.512
        14 -10.0918     99.3233    206.0091   1.3193221681e+02   2.0299817121e+01    0.1958445   0.09633881 -88.78 0.0007041274    4.225    0.763
        15 -10.6822    164.0000    201.0215   1.1769615595e+02   9.9478938651e+00    0.3333684    0.0793534 -46.09  0.001051913    4.940    0.798
        16 -10.4256     88.9872    199.2474   1.3329767419e+02   2.3212671469e+01    0.2335533    0.1140738  75.12  0.000896078    3.517    0.716
        17 -10.3247    149.3282    198.6660   1.2037195887e+02   1.3071617601e+01    0.1388152   0.09984446  69.33 0.0007051835    1.720    0.419
        18 -10.9102    125.3390    197.9077   1.2535868618e+02   1.7526950116e+01    0.2814358    0.1850467  37.29  0.001487575    1.435    0.303
        19 -10.6159    112.9909    197.9774   1.2801653259e+02   1.9629835811e+01    0.2231682    0.1432663  68.11  0.001138183    1.750    0.429
        20 -10.9166    172.8110    195.7921   1.1499566361e+02   9.1779053903e+00    0.1843344    0.1544237  59.50 0.0007424197    1.321    0.243
        21 -14.3882    248.0731    220.5786   1.0516884734e+02  -7.3249945426e+00     1.364227    0.4044295 -34.02  0.005861642    3.627    0.724
        22 -10.6100    139.4061    190.1700   1.2112982655e+02   1.6462863922e+01    0.1835365    0.1323453 -70.38 0.0009492844    1.735    0.424
        23 -10.3938     87.3218    189.6444   1.3249731190e+02   2.5407016987e+01    0.1405034   0.08604933  69.75 0.0007046033    1.761    0.432
        24 -10.0446    156.4899    187.5123   1.1698704260e+02   1.3737836753e+01    0.1417188     0.123853  45.72 0.0008101892    1.038    0.036
        25 -11.2040    120.5220    185.5825   1.2456651524e+02   2.0774923753e+01    0.3669471    0.1397565 -60.14  0.001368207    3.282    0.695
        26 -11.0079     94.8747    186.5647   1.3043300289e+02   2.4874240420e+01    0.2692889    0.1655914 -87.04  0.001325553    2.005    0.501
        27 -10.3233    109.3316    186.0048   1.2712966159e+02   2.2624687469e+01    0.2128049    0.1080395 -83.46 0.0007051267    4.344    0.770
        28 -11.1081    243.7328    180.1978   9.8422389609e+01  -1.5811845952e+00    0.2264581    0.1463751 -29.25  0.001246413    1.533    0.348
        29 -10.3103    138.3328    179.6570   1.1960958008e+02   1.8689883789e+01    0.1475277    0.1054846  73.09 0.0005455186    1.756    0.431
        30 -10.2349    173.8148    191.8273   1.1409176592e+02   9.6560989080e+00    0.1850954    0.1549588  59.78 0.0003958077    1.328    0.247
        31 -10.1380    105.4898    174.9948   1.2635705582e+02   2.5559574184e+01    0.1932455     0.114978 -89.49 0.0008103228    2.537    0.606
        32 -10.7377    121.8336    169.7276   1.2167824541e+02   2.3785901640e+01    0.2776714    0.1849767  89.10  0.001246301    2.152    0.535
        33 -10.8792    139.7931    165.4672   1.1671141018e+02   2.1249062279e+01    0.3590169    0.2416667  71.93  0.001593773    2.034    0.508
        34 -10.6860     79.6761    163.7940   1.3080760285e+02   3.2095173365e+01    0.3684691    0.1868864  85.00  0.001335007    3.611    0.723
        35 -10.1356    160.3179    164.6813   1.1187493520e+02   1.7270847358e+01    0.1469841     0.115246  77.82 0.0003814576    1.659    0.397
        36 -10.3155    178.6581    161.3500   1.0716638309e+02   1.4088178307e+01    0.1490017    0.1181974  84.30 3.559109e-06    1.802    0.445
        37 -10.0467    152.3231    161.6392   1.1307467733e+02   1.9505641644e+01    0.1524637    0.1156214  81.07 0.0007042643    1.778    0.438
        38 -10.6390     92.8015    160.2253   1.2706792965e+02   3.0865454201e+01    0.2440424    0.1341037  71.82 0.0009547522    2.797    0.642
        39  -9.8472    128.6544    159.3163   1.1817296749e+02   2.4696754727e+01    0.1530741    0.1101788  73.72 0.0007048216    1.720    0.419
        40 -10.5610    105.3046    158.1373   1.2364226803e+02   2.9236277325e+01     0.291465    0.1686053  63.28  0.001244076    2.143    0.533
        41 -10.7144    119.4921    155.4846   1.1967048637e+02   2.7257939351e+01    0.3323796    0.2125778  78.52    0.0013731    2.391    0.582
        42 -10.1596    145.0156    155.1780   1.1346297242e+02   2.2308160791e+01    0.2537535    0.1668818  67.39  0.001078779    2.020    0.505
        43 -10.6971     81.8345    154.5912   1.2889827972e+02   3.3838287371e+01    0.2716213     0.160932  75.10  0.001203061    2.240    0.554
        44 -10.7811     49.8039    155.2246   1.3693255770e+02   3.7963625972e+01    0.2263574    0.1068668  67.73 0.0009537177    2.797    0.642
        45 -10.6865    133.3945    153.0421   1.1580447188e+02   2.5099460294e+01     0.359006    0.2407687  82.02  0.001491362    2.328    0.570
        46 -10.7209     67.9978    154.0031   1.3227646863e+02   3.5950374263e+01    0.2265881    0.1426708  70.72  0.001139829    1.761    0.432
        47 -13.0640    249.0028    149.8695   9.1223295147e+01   1.7618351574e+00    0.6519082    0.1675799 -34.24  0.002187122    3.623    0.724
        48 -10.5446    191.4805    151.4948   1.0232688411e+02   1.3156918205e+01    0.2777845    0.1387444  56.01  0.001038823    2.457    0.593
        49 -10.0836     98.4871    150.9705   1.2408877833e+02   3.1999610305e+01    0.2014219    0.1203605 -86.64 0.0008099719    2.526    0.604
        50 -10.1550    200.3178    148.6776   9.9890312441e+01   1.1761867931e+01     0.142847    0.1201028 -85.12 0.0003993212    1.667    0.400
        51 -10.8569     38.9900    147.2831   1.3865168672e+02   4.0950108883e+01     0.267452    0.1293647  79.98  0.001172142    2.682    0.627
        52  -9.9962    234.4549    147.5033   9.3190397883e+01   4.9029418945e+00    0.1396202    0.1251633   0.09 0.0001156186    1.015    0.015
        53 -11.5646    149.5868    145.3264   1.1029499486e+02   2.3385047786e+01     0.538936    0.3700168  83.93  0.002128611    2.398    0.583
        54 -11.2730    107.4772    145.5260   1.2078759619e+02   3.1660031837e+01     0.547244    0.3226078  75.97  0.002048857    2.962    0.662
        55 -11.6382     55.9588    145.6100   1.3414440395e+02   3.9418909634e+01    0.4690712    0.2330133  73.79   0.00188311    3.080    0.675
        56 -10.0031    166.3184    144.6588   1.0626261185e+02   1.9910394381e+01    0.1540527     0.122242  88.05  0.000704933    1.714    0.417
        57 -11.2205    124.9358    142.8393   1.1580104562e+02   2.8971628321e+01    0.4848281    0.3003336 -78.42  0.001875152    2.643    0.622
        58 -10.9851     88.1051    143.9075   1.2551250690e+02   3.5303870695e+01    0.3151547    0.1923405  73.94  0.001361654    2.268    0.559
        59  -9.9106    182.6739    142.3344   1.0212092305e+02   1.6754684285e+01    0.1518538    0.1228012 -88.08 0.0007051463    1.716    0.417
        60 -11.8031    249.4106    135.2170   8.7939435943e+01   3.8464400363e+00    0.2516108    0.1617006 -26.37  0.001282356    1.454    0.312
        61 -10.8764     22.7479    137.5031   1.4163794322e+02   4.4696109457e+01    0.2990729    0.1108782  75.10 0.0008990794    6.132    0.837
        62 -10.0022    179.9850    134.4764   1.0086473556e+02   1.8838414776e+01    0.2128766    0.1366478  71.26 0.0008089792    2.450    0.592
        63 -10.3543    112.8033    133.2259   1.1689428023e+02   3.3445295622e+01    0.2532255       0.1584  78.92 0.0009485661    2.764    0.638
        64 -11.8352     83.3850    131.4649   1.2449517216e+02   3.8914988272e+01    0.4851917    0.3024065 -84.43  0.001855698    2.132    0.531
        65 -10.5637    143.1983    131.6883   1.0875272752e+02   2.7603886088e+01    0.3313684    0.2472117 -80.84  0.001382123    1.840    0.456
        66 -11.1413    132.0002    131.0408   1.1141358320e+02   3.0116300173e+01    0.4554107    0.2558681 -63.82  0.001718947    2.466    0.594
        67 -11.5779    247.8644    130.2384   8.7070720404e+01   4.8944664179e+00    0.3038763    0.2100067 -74.61  0.001329558    2.844    0.648
        68  -9.7881    205.6658    131.3320   9.4814370839e+01   1.3625106513e+01    0.1497048    0.1208837 -77.86 0.0007052216    1.731    0.422
        69 -10.5430    168.9810    129.9999   1.0223372592e+02   2.2204659409e+01    0.2507574    0.1977578 -88.40  0.001139326    1.735    0.424
        70 -10.6233    153.1883    129.3972   1.0577513565e+02   2.5890256892e+01    0.3950638    0.2460308 -67.72  0.001491296    2.521    0.603
        71 -11.6308     98.7086    127.1817   1.1940624839e+02   3.7380530950e+01    0.6305698    0.3533168 -76.74  0.002328212    2.933    0.659
        72 -10.8739     72.8827    128.8095   1.2691105681e+02   4.1091078125e+01    0.2766069    0.1729913  88.19  0.001248924    2.135    0.532
        73 -11.0559    117.5357    125.0300   1.1380651931e+02   3.4369045486e+01    0.4199586    0.2787947  86.11  0.001656522    2.506    0.601
        74 -11.3987     59.2233    123.8669   1.2988424263e+02   4.4065027442e+01     0.510776    0.2670853  84.27   0.00189629    3.508    0.715
        75 -12.2033    249.2197    124.1276   8.5469900998e+01   5.5480298571e+00    0.4520031    0.2286517 -53.62  0.001715076    3.194    0.687
        76 -10.4236    180.0108    125.0547   9.8573237040e+01   2.0624086442e+01    0.2495544    0.1977067 -86.29  0.001137468    1.734    0.423
        77  -9.7303    189.3160    124.6617   9.6496200651e+01   1.8540670381e+01    0.1551961    0.1239195 -78.80 0.0007048135    1.701    0.412
        78 -11.9742     42.8664    121.0882   1.3409471263e+02   4.6577949612e+01     0.734537    0.2903263 -82.26  0.002413313    4.431    0.774
        79 -11.5208     28.4801    122.5109   1.3834544300e+02   4.7619408968e+01    0.5100346    0.2090158  77.02  0.001552645    6.021    0.834
        80 -10.2592    158.7812    121.5919   1.0252234083e+02   2.6218791594e+01    0.2284827    0.1468703  58.06 0.0009470347    1.712    0.416
        81 -11.1703    141.8119    118.7999   1.0596669077e+02   3.0631648270e+01    0.5688347    0.3195145 -63.08  0.002031267    2.698    0.629
        82 -10.6707     70.9854    120.0252   1.2579376412e+02   4.3408793633e+01    0.2285419    0.1605702  77.46  0.001137891    1.748    0.428
        83 -10.9099    130.6602    118.2483   1.0869639259e+02   3.3171897270e+01     0.381605    0.2387898 -68.15  0.001487558    2.312    0.567
        84 -10.9392      2.8391    117.1209   1.4473388337e+02   5.0704966145e+01    0.3048526    0.1161149  78.85  0.001214831    3.805    0.737
        85 -10.0142    186.3035    116.6350   9.5115016296e+01   2.0731210789e+01    0.1593896    0.1236821 -74.32  0.000703613    1.737    0.424
        86 -11.3876    108.8017    113.3250   1.1342043849e+02   3.8681548482e+01    0.6305568    0.3284552 -65.71  0.002237667    2.877    0.652
        87 -11.7299     92.2583    111.2499   1.1768001388e+02   4.2143472140e+01    0.7329882    0.3016048 -61.72  0.002478475    3.142    0.682
        88 -11.7457     78.6778    111.9742   1.2186520972e+02   4.4161339499e+01    0.5887235    0.3216177 -76.17  0.002280482    2.781    0.640
        89 -10.7770    121.9100    112.1083   1.0948651256e+02   3.6341943574e+01      0.32627    0.2062602 -51.88  0.001293522    1.632    0.387
        90 -10.1947    175.0015    112.2058   9.6403025455e+01   2.4255928915e+01    0.2341737    0.1737577 -59.78  0.001040366    1.620    0.383
        91  -9.9192    159.4780    111.9900   9.9889068085e+01   2.7987067318e+01    0.2243134    0.1356894 -63.35 0.0008096154    2.503    0.600
        92 -11.3066     66.4110    110.4301   1.2522643085e+02   4.6272132993e+01    0.3561501    0.1917097 -75.28  0.001487588    2.411    0.585
        93 -11.4432     14.1910    110.1282   1.4079401961e+02   5.1554948102e+01    0.3131467    0.1942215  80.07  0.001832585    1.687    0.407
        94  -9.7999    189.5049    108.5109   9.2358454923e+01   2.1459312112e+01    0.1527501    0.1517956  61.31 0.0008100968    1.048    0.046
        95 -10.6421    139.7792    104.3279   1.0269328915e+02   3.4114314087e+01    0.3885146    0.2111856 -56.83  0.001421869    2.385    0.581
        96 -11.8085     22.5657    102.1457   1.3720220160e+02   5.2767958083e+01    0.5485632    0.2574209  72.38  0.002202802    3.757    0.734
        97 -12.0051     44.8319    101.5845   1.3015139163e+02   5.0898897063e+01    0.5926297    0.3044502  77.32  0.002079487    4.434    0.774
        98 -10.9485    128.2925    101.2581   1.0488031829e+02   3.7315319931e+01    0.4026017     0.256967 -50.69   0.00173415    1.647    0.393
        99 -10.8340    150.1249    102.6298   9.9625849608e+01   3.2064870137e+01    0.4861616    0.1870956 -53.24  0.001340308    4.091    0.756
       100 -11.7122    108.9216     98.3826   1.0952688899e+02   4.1958555542e+01    0.7089745    0.4764052 -84.68  0.002782915    2.628    0.619
       101 -11.0634     81.9036     99.9135   1.1807884531e+02   4.6426031169e+01    0.3366195    0.2060603 -68.17  0.001490542    1.972    0.493
       102 -12.5381    248.9281     98.7672   7.9628868648e+01   9.4386835351e+00    0.3657248    0.1952623 -34.16  0.001675837    1.700    0.412
       103 -11.3743     94.7951     95.9231   1.1307608191e+02   4.5148729282e+01    0.5481279    0.1970544 -52.08   0.00187679    2.826    0.646
       104 -11.7642     63.3481     95.3484   1.2288155418e+02   5.0152965349e+01    0.5222362    0.2851198 -77.71  0.002060573    2.939    0.660
       105 -10.5625    138.6879     91.7224   9.9427722446e+01   3.6926897187e+01    0.3216205    0.1864395 -59.98  0.001175899    2.467    0.595
       106 -11.7616    124.3960     89.4690   1.0259623192e+02   4.0614476623e+01     0.664134    0.2736497 -46.52  0.002313236    2.523    0.604
       107 -11.2436     34.3062     88.4400   1.3102619174e+02   5.4921435284e+01    0.4348436    0.1832404 -74.51  0.001738537    3.003    0.667
       108 -11.6304     86.5757     86.6839   1.1311845445e+02   4.8598866199e+01    0.4343905    0.3017856 -85.43  0.001801595    2.381    0.580
       109 -11.9409    104.6156     82.6126   1.0629077856e+02   4.6153790489e+01    0.6205745    0.3301067 -58.95  0.002321449    2.608    0.617
       110 -11.5180     47.9949     83.6274   1.2528603355e+02   5.4647345705e+01    0.4482186    0.2270839 -77.98  0.001711068    3.424    0.708
       111 -13.0783    249.7992     87.3782   7.6814417130e+01   1.0950283305e+01     0.483319    0.3486243 -46.88  0.002577618    1.345    0.256
       112 -10.2751    140.6096     82.8202   9.6292196199e+01   3.8211910236e+01     0.229871    0.1448095 -49.00 0.0009535623    1.731    0.422
       113 -10.6430     74.4245     80.1709   1.1528229146e+02   5.1959024684e+01    0.3312665    0.1329264 -58.96  0.001143888    3.208    0.688
       114 -10.9825     24.0525     80.5491   1.3299306318e+02   5.7531154414e+01    0.2639145     0.141657 -84.71    0.0012569    2.443    0.591
       115 -10.1704    150.2339     80.2305   9.3122095239e+01   3.6364220682e+01    0.2560552    0.1178632 -47.28 0.0008480048    2.460    0.593
       116 -10.9468    119.1536     79.7427   1.0113391448e+02   4.3714542805e+01     0.311224    0.1728596 -52.90  0.001219704    2.136    0.532
       117 -11.4190    243.5058     77.0429   7.5188999516e+01   1.3851898126e+01    0.2183665     0.128585 -33.56 0.0009005729    1.574    0.364
       118 -12.1603    248.8891     74.8872   7.3964137846e+01   1.2970529968e+01    0.3369043    0.1679894 -44.68  0.001221819    1.899    0.473
       119 -11.0300    127.8612     74.2047   9.6970388008e+01   4.2831759417e+01    0.6002859    0.2008509 -42.03  0.001910976    3.036    0.671
       120 -11.7102     62.4516     70.1363   1.1656102433e+02   5.5817213870e+01    0.8046841   0.08034615 -49.50  0.001884035    6.919    0.855
       121 -11.6104     81.9832     70.6629   1.0986810489e+02   5.2746222910e+01    0.6902258    0.2230744 -49.55  0.002330563    3.172    0.685
       122 -10.5250    115.5047     72.0224   9.9736751157e+01   4.6005908839e+01    0.2377962    0.1474484 -40.44  0.001039996    1.617    0.382
       123 -10.8573    105.6537     71.1496   1.0238547964e+02   4.8244566048e+01    0.3363479    0.1782183 -50.85  0.001344613    2.156    0.536
       124 -11.1465     94.7615     70.0005   1.0542822724e+02   5.0604649845e+01    0.5830925    0.1947909 -49.12  0.001871848    3.405    0.706
       125 -11.0835     50.9212     68.7363   1.2038829160e+02   5.7566922277e+01    0.4169789    0.1743247 -65.80  0.001439161    3.931    0.746
       126 -10.2299    147.1554     68.1667   9.0117829522e+01   3.9283064831e+01     0.219155    0.1898576 -71.53  0.001080227    1.342    0.255
       127 -10.8004    249.3192     67.0101   7.2032873504e+01   1.3996958104e+01    0.2168055    0.1136114  -7.32 0.0007047617    4.269    0.766
       128  -9.7657    203.6055     66.8148   7.8465115217e+01   2.4983952622e+01    0.2184061    0.1312097 -43.97 0.0008959709    1.670    0.401
       129 -10.6962    138.5105     65.5322   9.1387533175e+01   4.1871582691e+01    0.2866673    0.1358416 -46.03   0.00103835    2.381    0.580
       130 -10.7122    109.8919     63.1325   9.8434528815e+01   4.8870430308e+01    0.3701517    0.2035959 -47.73  0.001531064    2.023    0.506
       131 -10.7531    242.3216     62.6795   7.1853308401e+01   1.6182863589e+01    0.1471127   0.09740284 -62.30 0.0007044732    1.672    0.402
       132 -10.5909    100.1075     59.7561   1.0027108612e+02   5.1511711144e+01    0.4240809    0.1745996 -48.99  0.001477437    3.014    0.668
       133 -10.4340    100.4598     54.6391   9.8348600562e+01   5.2353903894e+01    0.3161441    0.1920314 -12.73  0.001235752    2.343    0.573
       134 -10.5700    166.8225    248.3744   1.2403412119e+02   2.2892892306e+00    0.1849031    0.0884211  34.71  0.000955672    1.780    0.438
       135 -10.7903    121.5458     64.8714   9.5660533112e+01   4.5989444121e+01    0.3844177    0.1438846 -40.06  0.001316101    2.694    0.629
       136 -10.9571    119.0023     55.5219   9.3165429584e+01   4.8191771169e+01    0.2978262    0.2077514 -50.21  0.001379342    1.670    0.401
       137 -11.7340    238.8357     68.8154   7.3801491991e+01   1.6109775825e+01    0.2038116    0.1548081 -57.84  0.000638566    1.342    0.255
       138 -10.3449    140.4077     75.1966   9.3996506179e+01   3.9687332028e+01     0.227531    0.1441721 -48.11 0.0009524012    1.725    0.420
       139 -10.5322     53.6198     53.0370   1.1450555632e+02   6.0445766165e+01    0.3483119    0.1218221 -58.93 0.0009548874    6.216    0.839
       140 -10.4047    105.4867     52.5101   9.6027079487e+01   5.1675213730e+01    0.2665355    0.1294907 -46.42  0.001037194    2.385    0.581
       141 -10.8716    232.6747     51.0032   7.0163034216e+01   2.0055641909e+01    0.2468136   0.06690533 -47.51 0.0007050082    4.308    0.768
       142 -11.1054     92.0002     48.6277   9.8867326700e+01   5.5073002125e+01    0.5893709    0.1826666 -41.59  0.001990446    3.275    0.695
       143 -10.1673    112.2194     46.2125   9.1731603493e+01   5.1235013562e+01     0.235186    0.1053416 -42.99 0.0008846282    2.493    0.599
       144 -10.6717     81.8498     45.2324   1.0103815969e+02   5.7546352198e+01    0.3583302   0.09285131 -37.42  0.001119023    3.877    0.742
       145 -10.6287    122.3124     44.8011   8.8432250384e+01   4.9130582005e+01    0.3028668    0.1195361 -39.36  0.001088405    2.660    0.624
       146 -10.9919    105.6339     40.0129   9.1311133299e+01   5.3638660322e+01    0.3310805    0.1336859 -32.77  0.001259053    2.517    0.603
       147 -10.4731      7.3349     57.0210   1.3442328937e+02   6.3672322560e+01    0.1812369   0.08561882 -89.53 0.0007046232    4.301    0.767
