#   1 NUMBER                 Running object number                                     
#   2 MAG_AUTO               Kron-like elliptical aperture magnitude                    [mag]
#   3 X_IMAGE                Object position along x                                    [pixel]
#   4 Y_IMAGE                Object position along y                                    [pixel]
#   5 X_WORLD                Barycenter position along world x axis                     [deg]
#   6 Y_WORLD                Barycenter position along world y axis                     [deg]
#   7 A_WORLD                Profile RMS along major axis (world units)                 [deg]
#   8 B_WORLD                Profile RMS along minor axis (world units)                 [deg]
#   9 THETA_WORLD            Position angle (CCW/world-x)                               [deg]
#  10 FWHM_WORLD             FWHM assuming a gaussian core                              [deg]
#  11 ELONGATION             A_IMAGE/B_IMAGE                                           
#  12 ELLIPTICITY            1 - B_IMAGE/A_IMAGE                                       
         1 -15.8361    192.3247     36.2855   7.6133470289e+01   3.2307589904e+01     3.448301     2.250712 -16.02   0.01429823    1.599    0.375
         2 -16.8344    186.4715     80.6209   9.0379546583e+01   2.7483752298e+01      4.27381     2.793301 -58.50   0.01872294    2.012    0.503
         3 -15.7509    212.9919     48.4212   7.6843305890e+01   2.5509555322e+01     2.212195      1.07768 -15.75    0.0085154    2.341    0.573
         4 -15.4590    244.0392     69.8262   7.8546946730e+01   1.5504888939e+01      1.70282    0.7674156 -45.62  0.006211437    2.617    0.618
         5 -18.7205    222.3857     83.4809   8.5147864695e+01   1.8663044796e+01     8.874506     6.785141  22.20   0.04654801    1.376    0.273
         6 -15.5739    214.4557     61.4308   8.0364071979e+01   2.3471336353e+01     2.584398     0.915946  35.38  0.006386702    6.176    0.838
         7 -12.2532    132.7838     30.9003   8.5136005295e+01   4.8210848880e+01    0.4915567    0.3293802 -16.63  0.002282323    1.591    0.372
         8 -10.5991    247.9545     15.9926   6.3780317818e+01   2.0555534848e+01    0.3743737    0.2146223 -25.55  0.001631248    1.567    0.362
         9 -10.1100    122.5216     15.7373   8.1379584357e+01   5.2712165539e+01    0.3766574    0.2086679 -48.60   0.00158293    2.174    0.540
        10  -9.8149     94.8815     11.6688   8.6539207318e+01   5.9436004576e+01     0.227847    0.1698466 -12.13 0.0003299869    1.306    0.234
        11 -11.8751    238.4476     10.5730   6.3120097469e+01   2.3357988608e+01    0.3690377    0.2765537  47.45  0.001223143    1.445    0.308
        12  -9.3915    233.2075     10.6731   6.3608018381e+01   2.4634159308e+01    0.2108963    0.1510314  48.01 0.0001275348    1.499    0.333
        13 -10.5823    142.8961      8.4586   7.4307176885e+01   4.8495426149e+01    0.2747881    0.2339033  -3.39  0.000361142    1.173    0.148
        14 -10.1669    232.2600      6.9592   6.2643351954e+01   2.5219448203e+01    0.2027091    0.1636291 -45.78 0.0003728639    1.174    0.148
        15 -10.9902    201.4158      6.7613   6.5560541313e+01   3.3160131417e+01    0.2491201    0.2401817  68.19 0.0003961723    1.048    0.046
        16 -10.5954    213.5182      4.7667   6.3710449492e+01   3.0179735971e+01    0.2366721    0.2008978  56.06 0.0004602299    1.208    0.172
        17  -9.7460    151.8208      2.2692   7.0391466137e+01   4.6793785866e+01    0.2565499     0.184133 -32.97 0.0007637379    1.401    0.286
        18  -9.4342    117.0130      7.7760   7.9194059257e+01   5.4972408746e+01     0.188291     0.175082  16.78 0.0003571937    1.025    0.024
        19  -9.3834    180.0936      1.5232   6.6258850325e+01   3.9327735311e+01    0.2103198    0.1393502  68.52 0.0004723398    1.482    0.325
        20  -9.6743     31.9991    233.4724   1.4288157639e+02   2.6722909813e+01    0.1366404   0.06534319  46.34 0.0006124777    1.587    0.370
        21 -10.4212    228.9682    250.4959   1.1507674787e+02  -1.1115969830e+00     0.155194   0.06883118  41.05  0.001030454    1.583    0.368
        22  -9.4435    205.1613    249.8563   1.1835419895e+02   2.2407822802e+00    0.1360975   0.08709843  29.06 0.0004901096    1.302    0.232
        23  -9.6981    182.5153    249.9543   1.2162826369e+02   5.4237842571e+00    0.1112956    0.1003029 -30.01 0.0006879259    1.561    0.359
        24 -10.4703    165.6479    249.5192   1.2404918229e+02   7.8466842854e+00    0.2176278    0.1253021  64.62  0.001397776    2.438    0.590
        25  -9.4904    124.8143    250.1682   1.3013899822e+02   1.3401743229e+01    0.1227535   0.09412407  41.85 0.0006094722    1.277    0.217
        26  -9.9174    144.9872    231.4128   1.2534429953e+02   1.2814385548e+01    0.1613603    0.1249237  72.71 0.0003223679    1.454    0.312
        27  -9.5447     69.0234    230.6610   1.3714583621e+02   2.3047507875e+01    0.1371038   0.09197436  56.83 0.0005700641    1.071    0.066
        28  -9.5463    219.9453    226.9831   1.1338277012e+02   2.1253626070e+00    0.1730592   0.09924231  21.98  0.001131557    1.761    0.432
        29 -12.6718    238.8341    224.2843   1.1027060655e+02  -4.1140504337e-01    0.2482242    0.1847253  38.93  0.000464497    1.271    0.213
        30 -10.0637    127.1953    226.1770   1.2762752608e+02   1.6028365352e+01    0.1473892   0.09833283  62.13  0.001071686    1.366    0.268
        31 -10.7008    181.0929    223.6988   1.1884214018e+02   8.3141944123e+00     0.304879    0.1390492  40.70 0.0009623097    1.680    0.405
        32 -10.5730     93.9400    222.3158   1.3261171136e+02   2.1120258078e+01    0.2157592    0.1268827  51.98 0.0007753687    1.261    0.207
        33  -9.5417      2.2518    222.4442   1.4684907462e+02   3.1160498852e+01    0.1538494   0.06466952  70.31 0.0007444838    1.730    0.422
        34 -10.5726    123.9100    216.1579   1.2716454825e+02   1.7839557211e+01    0.2221647    0.1394137  44.67 0.0007879653    1.284    0.221
        35 -11.1458     60.2718    215.2116   1.3752680366e+02   2.6357723182e+01    0.3357969    0.1619012  51.49  0.002302531    1.533    0.348
        36  -8.9809    235.0308    215.0000   1.0949676616e+02   9.4501656390e-01    0.1741138    0.0476701  44.64 0.0005340286    2.874    0.652
        37 -10.6759     89.8328    211.1614   1.3235249521e+02   2.3295643589e+01    0.1871368    0.1233177  48.43 0.0002933503    1.247    0.198
        38 -11.1179     86.9428    208.0554   1.3257158098e+02   2.4148590190e+01    0.1779147    0.1394712  71.49  0.001414483    1.108    0.098
        39  -8.6199    224.3111    208.3057   1.1010797566e+02   3.2020618748e+00    0.1127264   0.06772275  21.99 0.0005336712    1.616    0.381
        40  -9.6908    237.8313    207.0997   1.0791108030e+02   1.2276207031e+00    0.1600715    0.1286771  38.20 0.0009506625    1.283    0.221
        41  -9.8184    123.9935    205.9765   1.2607937379e+02   1.9259453427e+01    0.1609165    0.1218599  55.35            0    1.040    0.038
        42  -9.5468    100.2802    204.6861   1.2999686753e+02   2.2862014606e+01    0.1085336    0.0665312  67.81  0.000373593    1.570    0.363
        43  -9.4164     39.2518    204.2154   1.4028730439e+02   3.0433217692e+01    0.1367652   0.08004378  65.86 0.0005098712    1.279    0.218
        44  -9.8966    244.5067    202.2547   1.0618425491e+02   6.4222210599e-01    0.1883755    0.1295905  28.40 0.0002176302    1.104    0.094
        45 -10.3618    191.0194    201.3633   1.1429965037e+02   9.2659025448e+00    0.2096538    0.1658435  81.92 0.0009209344    1.968    0.492
        46  -9.0982    111.3701    202.2093   1.2784088986e+02   2.1665975615e+01    0.1369617   0.09471732 -85.13 0.0005262957    1.669    0.401
        47  -9.2655    250.7013    200.3347   1.0498110976e+02  -1.3262577262e-01    0.0901217   0.08599143  51.44 0.0002706535    1.652    0.395
        48 -10.6081     68.3659    198.5729   1.3496486897e+02   2.8016487971e+01     0.268539    0.1745086 -70.51  0.001441729    1.651    0.394
        49 -11.1656    214.5935    197.4471   1.0996330378e+02   5.8488017353e+00    0.3257649    0.2418566  63.81  0.002113569    1.906    0.475
        50 -11.0969    149.4552    196.1494   1.2053851416e+02   1.6712777207e+01    0.2252083    0.1767901  80.76  0.001061237    1.531    0.347
        51 -10.3014     99.9906    196.7173   1.2926084083e+02   2.4138079599e+01    0.1541775    0.1136834  57.29 -0.000275831    1.068    0.064
        52 -10.1181    166.3395    195.9295   1.1762128879e+02   1.3993454037e+01    0.1951593    0.1349947  50.86 0.0007841478    1.246    0.197
        53 -11.6949    155.5398    194.4895   1.1927020058e+02   1.5957454274e+01    0.4036539    0.2490264  52.28  0.002495385    1.407    0.289
        54 -11.4952    117.4710    189.5832   1.2536377300e+02   2.2705857534e+01    0.5107824    0.2252723 -63.39  0.002623784    2.878    0.653
        55 -11.4319    144.0087    189.6537   1.2063524897e+02   1.8521462499e+01    0.2464775    0.1753377 -69.30  0.001583211    1.798    0.444
        56 -10.6111    143.7211    195.3211   1.2142435808e+02   1.7748616140e+01    0.1732373    0.1399392  64.17 0.0004962312    1.198    0.165
        57 -10.4561    141.2430    193.0151   1.2156131955e+02   1.8476674514e+01    0.1667293    0.1449661  38.61 0.0007852377    1.196    0.164
        58 -10.7437    106.7619    194.2734   1.2780749865e+02   2.3556039905e+01    0.2308357    0.1432886 -68.01 0.0007446131    1.835    0.455
        59  -9.5312    249.3071    194.6510   1.0426835766e+02   5.8658639369e-01    0.2069652   0.08886655  46.45  0.001115359    2.122    0.529
        60 -10.7826    217.6259    193.7967   1.0892031340e+02   5.7403343704e+00    0.1959756    0.1558892  42.39 0.0003114591    1.218    0.179
        61 -11.6613    207.9164    190.8063   1.0998690581e+02   7.6788413586e+00    0.3529503     0.259477   2.34  0.001001998    1.529    0.346
        62 -11.5115    202.2442    192.7997   1.1121039797e+02   8.4008438440e+00     0.426728    0.3277442 -41.71  0.002946055    1.668    0.401
        63  -9.9467    129.9023    192.4232   1.2348577158e+02   2.0355733563e+01    0.1709159    0.1401591  82.28   0.00122377    1.297    0.229
        64 -10.8124    226.4878    190.4356   1.0700522138e+02   4.6375115718e+00    0.2985648    0.1589622 -36.39  0.001737585    2.286    0.563
        65 -11.2987    230.8886    187.2188   1.0580022088e+02   4.2455503013e+00    0.2543353    0.2232586  62.81  0.001495194    1.622    0.384
        66 -12.0588    215.1755    186.2365   1.0809400891e+02   6.9701457870e+00    0.3848409    0.2942568  14.77  0.002377113    1.256    0.204
        67  -9.6971    128.4838    188.4788   1.2324938932e+02   2.1177543876e+01    0.1159296   0.09469201  55.18 1.703434e-05    1.009    0.009
        68 -10.2616     75.3845    187.2196   1.3274794282e+02   2.9019900231e+01    0.2473984    0.1730324 -43.27  0.001612236    2.345    0.574
        69 -10.6359    132.3107    247.0159   1.2875729149e+02   1.2755146308e+01    0.1887709    0.1048311  47.21 0.0002968011    1.270    0.213
        70 -15.3819    222.2551    123.8329   9.4928072685e+01   1.3295003512e+01     2.226924     1.268057  33.53  0.008377919    1.801    0.445
        71 -11.4702    215.8649    244.4196   1.1618757010e+02   1.1971919569e+00    0.3238973     0.162952  51.81  0.001522101    2.103    0.525
        72  -9.8168     66.0018    242.5016   1.3832003563e+02   2.1760389398e+01    0.1355577   0.09569543  67.87 0.0003749873    1.124    0.110
        73  -9.1373      2.4456    243.5300   1.4741811088e+02   2.8106173235e+01   0.08523138   0.05480548  65.20 6.246413e-05    1.062    0.058
        74 -15.1985    240.0276     55.7669   7.5352578731e+01   1.8096722601e+01     1.041445     0.769789 -87.87  0.004829733    1.756    0.430
        75  -9.6768    236.9561    243.0000   1.1303569488e+02  -1.6354182173e+00    0.1663677   0.04132199  43.75 0.0008016166    2.937    0.659
        76 -10.4918    110.5039    184.1931   1.2599537771e+02   2.4619745634e+01    0.2216475    0.1751899  55.98  0.000736291    1.056    0.053
        77  -8.8580     33.2945    177.3093   1.3966114638e+02   3.5626932693e+01      0.08745   0.07481603 -65.19 0.0002380446    1.589    0.371
        78 -10.8580    157.5866    161.7908   1.1398892799e+02   2.0418516272e+01    0.2205957    0.1763684 -81.07  0.001181653    1.591    0.372
        79 -11.7688    154.0102    160.9527   1.1452181340e+02   2.1194347456e+01    0.2603325    0.1971417  57.37  0.000764288    1.257    0.205
        80  -9.6855    244.0739    161.4725   9.9222406490e+01   4.7067717123e+00    0.1784814    0.1042762  42.88 0.0009092782    1.542    0.352
        81  -8.5813      8.2992    162.6820   1.4343515136e+02   4.0613671249e+01    0.1077163   0.05301393  67.38 0.0002505875    1.617    0.381
        82 -10.0791    123.4846    175.9783   1.2254869269e+02   2.3953030683e+01     0.159826   0.09711009 -87.61 0.0008101631    2.532    0.605
        83 -12.9275    127.0605    156.4980   1.1903516241e+02   2.6659280569e+01    0.3969384    0.3323604  60.82  0.002582808    1.063    0.059
        84 -11.6073    193.8027    182.1139   1.1091457108e+02   1.1118719395e+01     0.328504    0.1975468 -39.15   0.00123055    1.982    0.495
        85 -11.4854    128.9534    179.5799   1.2201196257e+02   2.2495013214e+01    0.2071072    0.1705697 -80.08 0.0007257561    1.345    0.256
        86 -11.4992    220.9101    177.5252   1.0572072052e+02   6.9648432090e+00    0.3015558    0.2777692  12.45  0.002208279    1.202    0.168
        87 -10.7381     76.9823    154.5064   1.2899415143e+02   3.4702921892e+01    0.2120152    0.1562106 -76.97 0.0006757454    1.287    0.223
        88 -11.7099    169.6862    173.1208   1.1363566888e+02   1.6559304687e+01    0.3201543    0.2292603 -66.51 0.0009826246    1.981    0.495
        89 -11.8725    169.7545    167.6729   1.1273219610e+02   1.7335135021e+01    0.2951568    0.1925763  42.46  0.001703671    1.333    0.250
        90 -12.2235    123.8898    149.1811   1.1850619632e+02   2.8494831402e+01    0.3395858    0.2434487 -21.80  0.001779129    2.353    0.575
        91 -12.0426    120.3226    149.6562   1.1931511032e+02   2.9014353719e+01    0.3345054    0.2070373 -76.72  0.001570857    2.153    0.536
        92 -12.3722    233.4886    171.0869   1.0261334380e+02   5.5062821126e+00    0.2429281    0.1961809  25.97  0.000285868    1.035    0.034
        93 -10.8272     92.4689    152.0072   1.2544649148e+02   3.2987772639e+01    0.1750553    0.1119594 -64.89 0.0006607288    1.579    0.367
        94 -10.2056    235.4407    177.3935   1.0342957138e+02   4.5044622778e+00    0.2189637    0.1738179  50.80  0.001104377    1.474    0.321
        95  -9.3657     77.2847    150.6326   1.2845552152e+02   3.5404251523e+01    0.1252833   0.07763454  76.09 0.0007018903    1.696    0.410
        96 -10.2762    140.8351    172.0251   1.1874031985e+02   2.1735638759e+01    0.2114436    0.1958713  74.81 0.0008645687    1.122    0.109
        97  -9.9353     38.9728    152.1727   1.3663794226e+02   3.9715129693e+01    0.1905234   0.08857492  60.64  0.001072522    1.999    0.500
        98  -9.8114     36.4195    147.1926   1.3673015898e+02   4.0951044134e+01    0.1544477   0.08526367  89.89 0.0006711858    1.617    0.382
        99  -9.2739     11.0099    146.4760   1.4195647588e+02   4.3445736170e+01    0.1343235   0.09085856  45.86 0.0003807489    1.506    0.336
       100  -9.1710     62.4768    173.4303   1.3388609630e+02   3.3054652674e+01    0.1100699   0.08586732  71.05 9.399906e-05    1.014    0.014
       101 -10.5128    226.0441    241.7765   1.1441432176e+02  -1.9160525832e-02    0.1569205    0.1235952  21.27 0.0007002032    1.184    0.156
       102  -9.6507     83.4547    182.4907   1.3081042690e+02   2.8762174838e+01     0.112622   0.08768797  67.46 0.0001698692    1.023    0.022
       103 -10.3132     32.5384    135.7137   1.3651433686e+02   4.3627540782e+01    0.2122697    0.1528388 -64.64 0.0008007081    1.435    0.303
       104 -10.3798     79.8000    170.8524   1.3029089686e+02   3.1296643478e+01     0.191549    0.1113726  67.76  0.001131951    1.688    0.408
       105 -12.4127    120.5519    128.0223   1.1549127435e+02   3.3009178083e+01    0.3081863    0.2787045 -40.38  0.001914949    1.268    0.211
       106 -11.0791     95.7869    127.8877   1.2103891177e+02   3.7187062582e+01    0.2879531    0.1511306  57.30  0.001376293    2.062    0.515
       107 -10.6728     73.1701    128.0572   1.2629762590e+02   4.0461796863e+01    0.1769674    0.1578555 -66.82 0.0004452327    1.225    0.184
       108 -10.4906     41.9698    126.4516   1.3339330994e+02   4.4560213037e+01    0.1742882    0.1296377 -84.85 0.0003378401    1.108    0.098
       109  -9.7976     57.5103    124.5049   1.2947970513e+02   4.3204329517e+01    0.1207395   0.09927327  87.45 -9.846758e-05    1.013    0.013
       110 -10.2213     83.9608    170.0000   1.2938817981e+02   3.0883852371e+01     0.260715   0.05736162  40.09 0.0009626211    4.163    0.760
       111 -12.2714    122.7777    118.4283   1.1309668974e+02   3.4453770976e+01    0.3393084    0.2844939 -58.90  0.001054687    1.199    0.166
       112 -12.6453     97.1119    117.6159   1.1889337339e+02   3.9054276454e+01    0.6047642    0.2767716  49.18  0.002736553    2.204    0.546
       113  -9.4063     29.2993    119.3371   1.3561080457e+02   4.7305999919e+01    0.1087118   0.07590108 -52.93 0.0005418064    1.659    0.397
       114 -11.0992     51.6109    112.8219   1.2928518401e+02   4.6360970022e+01    0.2983005    0.1673509  66.93  0.001587122    2.007    0.502
       115 -10.4400     38.7089    110.8699   1.3227925998e+02   4.8175767098e+01    0.1943049     0.173416 -76.96 0.0005575698    1.198    0.165
       116 -11.6866    113.6921    108.2336   1.1304373352e+02   3.8117965117e+01    0.2734765    0.2295946  10.79  0.001524872    1.607    0.378
       117 -12.2450     99.7291    106.5544   1.1606718806e+02   4.0891323729e+01    0.4171778    0.3140995  33.40  0.001883892    1.563    0.360
       118 -10.4621     29.2643    107.1638   1.3422525139e+02   4.9881408786e+01    0.2769882    0.1670782  72.56  0.001335807    1.648    0.393
       119 -11.6327    212.2136    166.4770   1.0518065371e+02   9.7903705711e+00    0.2790254    0.1943954 -43.36  0.001660538    1.800    0.445
       120 -10.3692     64.1529     97.6016   1.2348900349e+02   4.8095075946e+01    0.2245813    0.1558751 -75.28 0.0006414653    1.345    0.256
       121 -10.5735    110.8116     95.0694   1.1073520034e+02   4.1290720294e+01    0.2200668    0.1845179 -86.16 0.0006460661    1.280    0.219
       122 -10.0772     85.6930     94.1038   1.1698689228e+02   4.5764522416e+01    0.2053929    0.1720481  72.24 0.0003767753    1.230    0.187
       123 -11.8162    107.5046     89.6018   1.1022983406e+02   4.3003540928e+01    0.4794558     0.326596 -21.61  0.002204013    2.263    0.558
       124 -11.2280    104.7870     85.9041   1.0999642269e+02   4.4249533067e+01    0.2130605    0.1968805 -62.99 0.0005510616    1.018    0.017
       125 -11.4562    146.6741    176.6261   1.1833789538e+02   2.0030054192e+01    0.2370648    0.1925396  62.05  0.001455597    1.174    0.148
       126  -9.4840     20.9665     91.0356   1.3440720299e+02   5.4068864247e+01    0.1335787    0.1089632 -85.21 0.0002980523    1.056    0.053
       127  -9.3241     60.6444     89.2643   1.2284603798e+02   5.0349459277e+01    0.1266152   0.08865839  74.71 0.0002964869    1.626    0.385
       128 -10.7916     98.8289     87.7568   1.1202210431e+02   4.4926891405e+01    0.2514032    0.1695504 -77.55 0.0006077118    1.910    0.477
       129 -10.4350     87.7113     87.7955   1.1500467879e+02   4.6776147621e+01    0.2128349    0.1587817 -43.11  0.000567714    1.391    0.281
       130  -9.2696     82.6595     88.2608   1.1649030343e+02   4.7472357193e+01    0.1313399   0.09730023  78.97 0.0005777869    1.588    0.370
       131 -12.2114    115.7787     84.7546   1.0688465685e+02   4.2418877490e+01    0.5703121    0.3070278  64.80  0.002215653    2.825    0.646
       132 -10.4801     75.2152     84.8073   1.1776720042e+02   4.9324718681e+01    0.1750135    0.1526781 -34.80  0.000632464    1.323    0.244
       133 -10.3932     58.9005     83.7358   1.2221530920e+02   5.1769143205e+01    0.2257373    0.1596434 -64.58  0.000681139    1.224    0.183
       134 -10.9614    109.2023     81.9491   1.0781526887e+02   4.4233686012e+01    0.2253294    0.2036873  52.93 0.0004788405    1.155    0.134
       135  -9.8701     53.4694     81.9740   1.2344470310e+02   5.2815638354e+01     0.177358    0.0990067 -86.02 0.0008085876    2.442    0.591
       136 -11.5399    114.2545     78.1147   1.0546519224e+02   4.4026824418e+01    0.4318493    0.2209041 -59.90  0.001575783    2.603    0.616
       137 -12.1938     99.9142     79.6114   1.0964314706e+02   4.6408551978e+01    0.4407327    0.2685874  44.49  0.001740095    1.749    0.428
       138 -11.7082    105.2050     73.0246   1.0639957207e+02   4.6769028978e+01    0.4158913     0.230492 -55.09  0.001011968    1.887    0.470
       139 -12.3388    122.7810     76.5519   1.0287319635e+02   4.2621444704e+01    0.5254028    0.3707688  78.77  0.002431174    1.976    0.494
       140  -9.5462     49.0463     73.4723   1.2298377600e+02   5.5180843162e+01    0.1599957    0.1252802  35.65   0.00037218    1.519    0.341
       141 -10.1774    102.2248    166.7881   1.2542648188e+02   2.8825561549e+01    0.1445956     0.141177  33.54 0.0007355858    1.351    0.260
       142 -11.9784    119.8151     69.7318   1.0161754037e+02   4.4532309534e+01    0.3710518     0.295267  80.59  0.001074701    1.545    0.353
       143  -9.7066     56.0003     70.4441   1.2011582477e+02   5.5008746248e+01    0.1712564    0.1263387  38.18 0.0004166595    1.574    0.365
       144 -12.7945    109.1179     64.4540   1.0279534298e+02   4.7695448321e+01    0.6602006    0.3804726 -41.63  0.002562106    1.647    0.393
       145 -12.3102    112.2602     59.6493   1.0043715690e+02   4.7978875050e+01    0.4846165    0.3645678 -86.98  0.002156027    1.858    0.462
       146 -11.3570     99.6315     68.1904   1.0651532200e+02   4.8765874278e+01    0.4029423    0.2233591  66.81  0.001546641    3.128    0.680
       147 -10.4745     69.4706    167.4796   1.3195386584e+02   3.3263339677e+01     0.112878   0.09053366  72.98 7.454325e-05    1.016    0.016
       148 -11.1364    130.4520     66.3423   9.7952424208e+01   4.2903905093e+01    0.2816373    0.1911426  55.53  0.001032539    1.558    0.358
       149 -10.3277     12.6864     64.1732   1.3295264010e+02   6.0519515217e+01    0.1686776    0.1431514  63.89 0.0004463287    1.335    0.251
       150 -11.9049    125.6431     61.9692   9.7752709230e+01   4.4743360867e+01    0.4528462    0.2283616 -32.08  0.001175997    2.136    0.532
       151 -12.8356    142.8826     54.8479   9.1378594745e+01   4.2077448161e+01     0.729663    0.5873709 -79.58  0.003619025    1.548    0.354
       152 -11.8468    134.9854     49.4995   9.1372043493e+01   4.4809658115e+01    0.4559078    0.2949983 -34.73  0.001268386    1.489    0.329
       153 -11.4614    131.4716     49.0193   9.2029807406e+01   4.5700134194e+01    0.3464372    0.2767637 -27.26  0.001139831    1.234    0.189
       154 -10.6332    100.9827     54.4884   1.0183212560e+02   5.1176817281e+01    0.2562574    0.1793511 -49.36 0.0007303936    1.381    0.276
       155 -10.9277    102.7391     59.3967   1.0294427774e+02   4.9905507237e+01    0.3190244    0.1603212 -52.32 0.0009044819    2.116    0.527
       156 -10.6583     95.4501     62.9908   1.0612851644e+02   5.0559501510e+01    0.2161468    0.1273632 -45.66 0.0004326708    1.566    0.361
       157  -9.7930     82.3191     61.2923   1.0947584193e+02   5.3157854280e+01    0.1317826    0.1037581 -16.41 0.0001944543    1.605    0.377
       158 -10.1340     45.9872     58.0604   1.2030853403e+02   5.8851417185e+01    0.1844011    0.1569754 -63.19            0    1.035    0.034
       159  -9.4718      1.9630     58.0092   1.3560615674e+02   6.2515008400e+01    0.1333348    0.1062661 -73.85 0.0009954927    1.066    0.062
       160 -10.6200     56.1547    165.1522   1.3434720949e+02   3.5330031746e+01    0.3090046    0.1387423 -84.59  0.001605356    2.488    0.598
       161 -13.6012    128.8201     54.8170   9.4637859011e+01   4.5314605299e+01    0.9786711      0.54816  39.97  0.004151849    2.004    0.501
       162 -10.8841    107.4796     51.4792   9.9005156791e+01   5.0456749475e+01     0.417143    0.2226205  32.98  0.001679868    2.547    0.607
       163  -9.7989     20.2509     52.0496   1.2797478456e+02   6.2587214102e+01    0.1671753    0.1219852 -68.01 0.0003455233    1.099    0.090
       164  -9.7966     29.2319     50.4055   1.2429748296e+02   6.2185356205e+01    0.2396969    0.1108419 -53.54  0.001236672    1.711    0.416
       165 -11.5311    122.4197     48.7807   9.4151968233e+01   4.7776983388e+01    0.3127589    0.2378493   5.19  0.001517184    1.660    0.398
       166 -11.3708    125.9959     46.9944   9.2640315715e+01   4.7282570752e+01    0.3148912    0.2472988  -6.47  0.001016351    1.463    0.316
       167 -12.7247    138.5150     44.5054   8.8831143087e+01   4.4785588768e+01    0.7014869    0.4391444 -62.29  0.002882889    2.275    0.560
       168 -10.5892    140.3421     41.3156   8.7297491803e+01   4.4843646379e+01    0.2805032    0.2633919  16.92 0.0006808782    1.073    0.068
       169 -10.3078     33.5091     44.6193   1.2116997204e+02   6.3008114756e+01    0.2091331     0.166961 -59.66 0.0001365934    1.046    0.044
       170 -10.7946    101.1545     63.1696   1.0457401832e+02   4.9474905052e+01    0.2105827    0.1886965 -16.56  0.000351946    1.223    0.182
       171  -9.3285      3.3517     45.3093   1.3291248875e+02   6.5157137533e+01    0.1171488   0.06391521 -46.27 0.0007044005    1.717    0.418
       172 -11.9180    126.6959     40.3645   9.0087863304e+01   4.8206704454e+01    0.4748442     0.244416  38.84   0.00111176    2.269    0.559
       173 -10.1328      6.0031     40.4836   1.3088918660e+02   6.6029556462e+01    0.1299407    0.1137924  19.49 0.0003524256    1.499    0.333
       174  -9.8066    241.8183    165.8613   1.0038337735e+02   4.6311825422e+00    0.1831617    0.1361386  17.69 0.0005302216    1.161    0.139
       175 -10.7072    123.3642     35.4723   8.9069983676e+01   4.9739079479e+01    0.3058362    0.1753789 -34.82  0.001353272    1.654    0.395
       176  -8.9869    131.3308    242.2925   1.2848665688e+02   1.3444098556e+01   0.09316029   0.06683979  30.39 0.0007022043    1.630    0.387
       177  -9.9711    111.5493     31.9951   9.0708387871e+01   5.2921006276e+01    0.2238467     0.133896 -32.20 0.0005598672    1.580    0.367
       178 -10.4204     70.2436     30.9616   1.0285752667e+02   6.0971117531e+01    0.2029297    0.1892017  18.37 0.0004057457    1.183    0.155
       179  -9.9183     99.0628     25.9269   9.1651699870e+01   5.6512387442e+01    0.2078296    0.1891203 -14.61 0.0003391127    1.017    0.017
       180 -10.7329    152.5521     24.5836   7.8732112445e+01   4.4137805599e+01    0.2561259    0.2347296 -18.56 0.0006176105    1.071    0.066
       181 -10.4291    236.7122    164.8009   1.0096804332e+02   5.6293708792e+00     0.254693    0.1587485 -15.72  0.001253306    1.688    0.408
       182 -10.1995     41.5325     20.6428   1.0962906574e+02   6.6904867451e+01     0.387373    0.2418429 -71.23  0.001309496    2.790    0.642
       183  -9.0877     74.7012     21.7079   9.7419184306e+01   6.1818407686e+01     0.131192   0.09727927  -2.56 0.0003341368    1.563    0.360
       184  -9.8546     93.0321    241.5352   1.3422167158e+02   1.8615572961e+01    0.1342673   0.09916931  61.15 0.0003266343    1.082    0.076
       185 -10.5007    139.9963    165.5331   1.1791805786e+02   2.2923108430e+01    0.1744775    0.1641957  79.02 0.0004853909    1.119    0.106
       186  -9.8895     32.6628    242.6852   1.4317281893e+02   2.5355054185e+01   0.07157391   0.06579856  61.12   0.00068464    1.695    0.410
       187 -10.1649     95.9544    166.0063   1.2656286138e+02   2.9896758131e+01    0.1759318    0.1465513  68.16 0.0003655278    1.008    0.008
       188  -9.6802     18.5084    166.1557   1.4170505158e+02   3.9079153990e+01    0.1467633    0.1057071  44.88 0.0005570857    1.476    0.322
       189  -9.0435     56.5014     15.5323   1.0124815127e+02   6.5781689763e+01     0.127634    0.1081431 -29.20 0.0001390433    1.027    0.027
       190 -10.4011    230.4385    164.8573   1.0195418664e+02   6.7242934752e+00    0.2965247    0.1444251  42.41 0.0009985424    1.774    0.436
       191  -9.5447    141.1049     13.2031   7.6519391856e+01   4.8432147129e+01    0.2019607    0.1703458 -65.09 0.0008765174    1.360    0.265
       192  -9.6412    130.2824     13.0381   7.8584571200e+01   5.1159885486e+01    0.1988256    0.1790196 -10.59 0.0003168143    1.073    0.068
       193  -9.7475    127.2440    238.4002   1.2876037268e+02   1.4478334806e+01    0.1973777   0.07484791  41.37 0.0008420539    2.088    0.521
       194 -11.0505    187.8311    236.5330   1.1934941821e+02   5.9665343264e+00    0.1700741    0.1326613  38.69 0.0003098738    1.084    0.077
       195  -9.2991     22.6470    236.7176   1.4437245396e+02   2.7187923285e+01   0.07141349   0.06448942  60.60 0.0004161077    1.658    0.397
       196  -9.7687    167.6568    233.2508   1.2203251590e+02   9.2830612367e+00    0.2109645     0.151436 -20.60  0.001555712    2.121    0.528
       197 -10.2274    237.0338    234.0183   1.1185540808e+02  -9.4540061610e-01    0.1622572    0.1119775  28.84  0.001004709    1.029    0.029
       198  -9.8868    220.0256    233.4994   1.1422542793e+02   1.5367150420e+00    0.1764823     0.120698  12.66 0.0008153511    1.508    0.337
       199  -9.2306    211.3184    234.3076   1.1559867386e+02   2.7330544116e+00    0.1050607   0.06185509  24.56 0.0004210391    1.635    0.388
       200 -12.5778    154.0262    231.3708   1.2393256663e+02   1.1501596995e+01    0.2257732      0.16433  47.40 0.0004487456    1.024    0.023
       201 -10.0500    149.9698    226.9712   1.2409752873e+02   1.2620911473e+01    0.1859692    0.1557905  25.83  0.000852707    1.392    0.282
       202 -11.4647    119.7396    163.5014   1.2153612356e+02   2.6658204114e+01    0.3219301    0.2044847  27.25  0.001621155    2.219    0.549
