#   1 NUMBER                 Running object number                                     
#   2 MAG_AUTO               Kron-like elliptical aperture magnitude                    [mag]
#   3 X_IMAGE                Object position along x                                    [pixel]
#   4 Y_IMAGE                Object position along y                                    [pixel]
#   5 X_WORLD                Barycenter position along world x axis                     [deg]
#   6 Y_WORLD                Barycenter position along world y axis                     [deg]
#   7 A_WORLD                Profile RMS along major axis (world units)                 [deg]
#   8 B_WORLD                Profile RMS along minor axis (world units)                 [deg]
#   9 THETA_WORLD            Position angle (CCW/world-x)                               [deg]
#  10 FWHM_WORLD             FWHM assuming a gaussian core                              [deg]
#  11 ELONGATION             A_IMAGE/B_IMAGE                                           
#  12 ELLIPTICITY            1 - B_IMAGE/A_IMAGE                                       
         1 -12.8768    198.2907     34.4571   5.9095503380e+01   3.1215582530e+01     1.125459    0.7377492  39.61  0.005310865    1.751    0.429
         2 -13.8553    212.0350     18.3092   5.2905269870e+01   2.9655108264e+01     1.399336    0.9571126  29.35  0.006979203    1.925    0.480
         3 -10.9649      1.8986     18.4731   1.1373532350e+02   7.1127487679e+01    0.4654353   0.05701039 -58.76  0.001325919    7.129    0.860
         4 -10.7105      2.2914      4.6346   1.0800127617e+02   7.3552681185e+01     0.396078   0.09787966 -51.84  0.001738038    3.182    0.686
         5 -12.6576     32.1669    222.9523   1.3356942353e+02   2.5630249360e+01    0.3080863    0.2638136  79.91 0.0008094382    1.290    0.225
         6 -11.2536    163.0698    250.0743   1.1290570942e+02   3.3170220467e+00    0.3264803    0.1253565  39.17  0.001647054    2.028    0.507
         7 -12.3384    140.8642    249.4257   1.1670953092e+02   6.7755930387e+00    0.5733835    0.2236748  45.93   0.00295382    1.998    0.499
         8 -14.9428     97.9514    246.4518   1.2389996837e+02   1.3464924046e+01     4.190341    0.8752198  37.67   0.01458839    4.965    0.799
         9 -14.4935      9.6428    207.3670   1.3662806911e+02   3.0714984150e+01     2.354471    0.9332259 -86.87   0.01360479    2.197    0.545
        10 -15.3597     40.9081    197.4055   1.3026344588e+02   2.9470844828e+01     9.217055     3.170104  74.39   0.02845784    6.802    0.853
        11 -14.1936     39.6551    213.6763   1.3166827674e+02   2.6503148758e+01    0.9899818    0.7867635  79.57   0.00765995    1.123    0.110
        12 -12.3258     48.2936    236.8420   1.3166919094e+02   2.1409327523e+01    0.3706238     0.185151  71.23  0.002046527    1.843    0.457
        13 -10.8401    224.5950    198.5327   9.4117372251e+01   1.8700294987e-01    0.2889676    0.2146864 -47.21 0.0009522029    1.869    0.465
        14 -11.4829     59.8092    191.2229   1.2597799645e+02   2.8477079337e+01     0.317502     0.226186 -50.02  0.001652732    1.829    0.453
        15 -11.4682     65.8509    184.1331   1.2400627846e+02   2.9153129788e+01    0.2467322    0.2195291 -74.17 0.0004741235    1.252    0.202
        16 -10.7888     76.0487    172.6025   1.2045153277e+02   3.0201658022e+01    0.2201509     0.194121  87.89 0.0003975334    1.072    0.067
        17 -13.1049     62.8595    169.7538   1.2305313432e+02   3.2563863916e+01    0.4617305    0.2571664 -48.57  0.001590669    2.224    0.550
        18 -11.6525     83.6830    164.2426   1.1759655447e+02   3.0910572474e+01    0.4977063    0.4475529  75.61  0.003185668    1.039    0.038
        19 -10.7057     32.6166    156.0564   1.2841585990e+02   3.8967610545e+01    0.2760251   0.09748316 -72.61   0.00125258    2.445    0.591
        20 -12.6312     67.7415    144.4046   1.1854994287e+02   3.7545050834e+01    0.8550867    0.5230649  82.56  0.004195732    1.978    0.494
        21 -11.6063     85.4394    147.8048   1.1467523925e+02   3.4278005887e+01    0.2685172    0.2226364 -55.40 0.0005888973    1.246    0.197
        22  -9.0921    100.0158    145.0196   1.1058285995e+02   3.2602709495e+01    0.2092338    0.1684901 -22.52 0.0006191338    1.672    0.402
        23  -9.6293     97.0055    148.9635   1.1202127457e+02   3.2218468729e+01    0.2128045    0.1971895  83.66 0.0007658303    1.010    0.010
        24 -10.3516     96.0926    132.0478   1.0914125066e+02   3.6162885606e+01    0.2258341     0.206769 -38.28 0.0004731751    1.209    0.173
        25  -9.1390    106.2715    122.2692   1.0442501805e+02   3.6627284374e+01    0.1950971    0.1859162 -38.52 0.0004617008    1.108    0.097
        26  -9.2579    109.0059    135.0051   1.0640675784e+02   3.3294937258e+01    0.2251045    0.1780717 -14.08  0.001007132    1.749    0.428
        27 -10.1803    167.8722    112.9585   8.6997004502e+01   2.5855048669e+01    0.3780169    0.2886898 -74.91  0.001074694    1.782    0.439
        28 -11.2218      2.2016     80.0793   1.2767608213e+02   5.8327578783e+01    0.5086409   0.07725795 -71.01  0.001609635    4.983    0.799
        29 -10.7733    249.1273    248.4512   9.8191879961e+01  -9.1333476126e+00    0.2083703    0.1480177 -14.15  0.001560492    1.448    0.310
        30 -14.9989     98.7813    229.8444   1.2221193820e+02   1.6025660004e+01     3.969044    0.5921251  43.48   0.01358623    4.472    0.776
        31 -15.4221     14.4917    244.3597   1.3749216392e+02   2.3778984664e+01     8.642421     1.971316 -81.17   0.04029692    4.452    0.775
        32  -9.6957    189.5193     15.5025   5.4735401556e+01   3.5662599815e+01    0.1389136    0.1299387  85.00 0.0001535373    1.006    0.006
