#   1 NUMBER                 Running object number                                     
#   2 MAG_AUTO               Kron-like elliptical aperture magnitude                    [mag]
#   3 X_IMAGE                Object position along x                                    [pixel]
#   4 Y_IMAGE                Object position along y                                    [pixel]
#   5 X_WORLD                Barycenter position along world x axis                     [deg]
#   6 Y_WORLD                Barycenter position along world y axis                     [deg]
#   7 A_WORLD                Profile RMS along major axis (world units)                 [deg]
#   8 B_WORLD                Profile RMS along minor axis (world units)                 [deg]
#   9 THETA_WORLD            Position angle (CCW/world-x)                               [deg]
#  10 FWHM_WORLD             FWHM assuming a gaussian core                              [deg]
#  11 ELONGATION             A_IMAGE/B_IMAGE                                           
#  12 ELLIPTICITY            1 - B_IMAGE/A_IMAGE                                       
         1 -14.4653    152.9579     55.3375   2.9031377511e+02   6.2588233269e+00   0.05739214   0.05083113  13.05 0.0009480456    1.159    0.137
         2 -14.8190    164.5009     40.5553   2.9009045992e+02   6.3632888552e+00   0.06406391   0.04397674 -50.19  0.003994462    1.430    0.301
         3 -14.6165    180.5711      7.1690   2.8970244210e+02   6.6569566287e+00   0.07695149    0.0482844  15.34  0.006607751    1.782    0.439
         4 -11.4904    119.2636    243.3042   2.9183092850e+02   4.2704104510e+00  0.009745723  0.008655683 -86.80 0.0006829844    1.199    0.166
         5 -19.8805     72.9100    168.0023   2.9192128055e+02   5.4135533142e+00    0.9299058    0.3937846 -65.86   0.07587587    2.498    0.600
         6 -10.9119      9.3404    201.7887   2.9286318251e+02   5.3871306091e+00    0.0101425  0.008170272 -41.54 0.0003861699    1.256    0.204
         7 -11.2140     14.0000    240.9248   2.9304156092e+02   4.9052019692e+00    0.0106805  0.003736724 -62.95 0.0007868565    2.836    0.647
         8 -10.9932    157.1723    202.1278   2.9114419287e+02   4.5296207001e+00   0.02611987   0.01299755  61.68   0.00191568    3.504    0.715
         9 -12.7251    163.5932    203.3301   2.9107669547e+02   4.4784639171e+00   0.02522014   0.01451558 -57.12  0.001709822    1.673    0.402
        10 -12.5430    160.7386    197.9942   2.9107800080e+02   4.5569960272e+00   0.02056919   0.01604695 -56.88  0.001426508    1.257    0.204
        11 -11.9484    168.8880    202.4473   2.9100983786e+02   4.4580503806e+00   0.01363817  0.009910443  73.08 0.0006091601    1.702    0.412
        12  -9.6519    136.9012    197.9164   2.9135486230e+02   4.6959122675e+00   0.02656541   0.01286029  67.04  0.001647226    5.024    0.801
        13 -11.2129    154.6279    196.2989   2.9113894975e+02   4.6120855759e+00   0.01689206   0.01136385  86.12  0.001650981    1.953    0.488
        14 -11.1145    133.6658    248.5408   2.9169466346e+02   4.1262911003e+00   0.01382613  0.006880768 -59.02 0.0006440858    1.929    0.482
        15 -10.3411    135.1523    234.7922   2.9159537120e+02   4.2774732416e+00     0.007883  0.006331766 -63.95 0.0006686923    1.245    0.197
        16 -13.4989    210.1262    187.9833   2.9044383789e+02   4.3869868600e+00   0.04681933   0.02134046 -83.29  0.002954134    4.746    0.789
        17 -12.8289    206.4967    179.0079   2.9043228360e+02   4.5122794471e+00   0.02160947   0.01736297  11.69  0.001639977    1.320    0.242
        18 -12.3630    209.8361    175.8489   2.9037454409e+02   4.5295885668e+00   0.02232925   0.01496809  79.02  0.001695642    2.008    0.502
        19 -12.0826     30.1978    183.7016   2.9251253441e+02   5.4773720072e+00   0.02563614   0.01229227  42.43  0.002246996    2.169    0.539
        20  99.0000     17.3921    233.4164   2.9295746938e+02   4.9729959717e+00   0.01859188  0.008773807  57.03  0.001369437    3.357    0.702
        21  -9.7620     25.5834    232.0775   2.9285416257e+02   4.9414126072e+00  0.008623296  0.006376502 -61.97 0.0003077241    1.340    0.254
        22 -10.8721    117.0473    180.3114   2.9148075846e+02   5.0153912326e+00   0.01541517  0.008831708  53.64  0.001404296    2.120    0.528
        23 -10.4952    108.7271    182.3999   2.9159010408e+02   5.0392354400e+00   0.01002133  0.008659985 -83.39   0.00117096    1.236    0.191
        24 -11.9319      4.1407    180.3363   2.9279610951e+02   5.6665107046e+00   0.01807015   0.01179344   5.03  0.001298449    1.871    0.466
        25 -10.2050     19.4151    231.2182   2.9292085699e+02   4.9869144208e+00  0.006774754  0.004899538 -12.62 0.0004906164    1.669    0.401
        26 -12.0147    195.6979    174.3298   2.9052982401e+02   4.6292610060e+00    0.0180734   0.01242782  68.92 0.0007372609    1.853    0.460
        27 -13.3142    195.7767    170.8671   2.9050817131e+02   4.6690205433e+00   0.03494055   0.02219348 -85.20   0.00274988    2.032    0.508
        28 -10.9678     10.3249    174.8819   2.9269156795e+02   5.6943522146e+00    0.0100793  0.009148854  21.11 0.0005641315    1.113    0.101
        29 -12.7211    177.2751    171.3552   2.9072627944e+02   4.7706542790e+00   0.02338744   0.01477311 -82.65  0.002236751    1.989    0.497
        30 -13.1516    138.5769    170.9633   2.9117424694e+02   4.9994304874e+00   0.03721138   0.03433915  -6.97  0.004570838    1.119    0.106
        31 -13.5888    143.8685    168.4712   2.9109774814e+02   4.9977458296e+00   0.03355743   0.02219849  72.94  0.003240701    2.038    0.509
        32 -11.4358    203.0171    172.4168   2.9043326397e+02   4.6090148528e+00    0.0125358  0.009469278 -89.72 0.0007659578    1.555    0.357
        33 -11.2149    125.9332    172.1479   2.9132851803e+02   5.0588540988e+00    0.0138221   0.01098293 -62.94  0.001099373    1.254    0.202
        34 -11.0214     24.6592    226.4135   2.9283124745e+02   5.0125985123e+00   0.02838706  0.006907083 -51.75  0.001880793    3.621    0.724
        35 -11.1178    201.0722    164.9280   2.9041102015e+02   4.7072708786e+00   0.01389918  0.009446738  83.44 0.0008659837    1.937    0.484
        36 -10.9868    122.9594    166.0977   2.9132697009e+02   5.1463744610e+00   0.01416465  0.008033521  47.08 0.0007590996    1.930    0.482
        37 -12.0479    219.2278    224.6471   2.9055748611e+02   3.9084162959e+00   0.01770899  0.009969845 -74.39  0.001137401    2.097    0.523
        38 -10.7014     14.5099    163.9379   2.9257759904e+02   5.7975143505e+00   0.01454882   0.01006459  14.56  0.001515703    1.574    0.365
        39 -10.8630    110.2038    222.9117   2.9181472067e+02   4.5598019567e+00  0.009048632  0.008425228 -85.89 0.0003499137    1.118    0.105
        40 -10.4507    222.7437    162.5658   2.9014492101e+02   4.6089001747e+00   0.01178617  0.008144694  86.41   0.00107254    1.854    0.461
        41 -12.6933    129.8525    161.0048   2.9121625501e+02   5.1656600447e+00   0.02142404   0.01855927 -22.65  0.001922691    1.219    0.180
        42 -11.2145     19.7768    222.8056   2.9286663716e+02   5.0826624730e+00   0.01018449  0.008087006 -39.78 0.0006828927    1.288    0.223
        43 -12.6346    163.8669    156.3118   2.9079222511e+02   5.0231402326e+00   0.01801613   0.01369969 -55.82 0.0009090607    1.286    0.223
        44 -11.3651    174.1509    148.7014   2.9062697352e+02   5.0519116418e+00   0.01609139   0.01266787  61.24  0.001469969    1.424    0.298
        45 -10.3168     14.3212    221.6402   2.9292322710e+02   5.1276138744e+00    0.0110194     0.004803 -49.31   0.00059786    2.246    0.555
        46 -12.7248    121.9811    222.8514   2.9167733530e+02   4.4924202105e+00   0.02624897   0.01630478  -3.84  0.002416562    2.218    0.549
        47 -10.6828      1.3113    214.6172   2.9303297118e+02   5.2841315106e+00  0.008109936   0.00562093 -49.93 0.0003539438    1.417    0.294
        48 -10.6411     22.0341    138.1665   2.9233621353e+02   6.0537996706e+00   0.01017933  0.008640804 -18.07 0.0004384708    1.267    0.211
        49 -10.3522     13.8226    137.2136   2.9242628693e+02   6.1121619041e+00   0.01086424  0.007793557  -4.25 0.0003149188    1.677    0.404
        50 -11.7288      5.6852    136.9712   2.9251974160e+02   6.1618167670e+00   0.01847572   0.01371817   0.57   0.00134765    1.554    0.357
        51 -12.2948    160.5871    127.8696   2.9066003681e+02   5.3725281367e+00   0.01930994   0.01568168  86.71  0.002185192    1.398    0.285
        52 -11.7813    116.1256    211.9067   2.9168015735e+02   4.6534882613e+00   0.01480237   0.01005762  62.80  0.001167551    1.810    0.448
        53 -11.7922    139.9820    120.7332   2.9085722023e+02   5.5748616902e+00   0.01528266   0.01115977  45.79 0.0008588675    1.427    0.299
        54 -11.2725    110.5980    212.1108   2.9174570016e+02   4.6830717989e+00   0.01498294   0.01018761  78.20  0.000920221    1.946    0.486
        55 -12.2282    109.3507    208.2155   2.9173697133e+02   4.7355602054e+00    0.0154327   0.01207954  -0.95 0.0008730688    1.437    0.304
        56 -10.7203    167.5083    112.6239   2.9048806746e+02   5.5094292146e+00   0.01380592  0.008796913  71.29  0.001276696    2.190    0.543
        57 -11.5319      7.2052    111.0042   2.9234707967e+02   6.4548838103e+00   0.01438212   0.01011949 -17.44  0.001470322    1.734    0.423
        58 -10.8844    205.4014    110.1737   2.9003236168e+02   5.3178597837e+00   0.01432049  0.009907793  11.33 0.0009892593    1.622    0.383
        59 -11.3067      7.4004    101.9936   2.9229100228e+02   6.5584683174e+00   0.01485285   0.01284657  45.57  0.001183541    1.188    0.158
        60 -10.3244     10.3610    210.8682   2.9290529514e+02   5.2756715753e+00   0.00882903  0.005725237 -49.69 0.0005211328    1.515    0.340
        61 -13.4336     11.7402    206.1335   2.9286107547e+02   5.3227967928e+00   0.02973071   0.01710742  18.12  0.002443191    1.917    0.478
        62 -10.5180    144.7971     80.2005   2.9055811533e+02   6.0176165431e+00  0.009312169  0.007550878 -29.77 0.0004587253    1.313    0.239
        63 -10.0402    160.1396    249.1532   2.9139053526e+02   3.9660364631e+00  0.009125497  0.007630032  85.80 0.0006464664    1.336    0.251
        64 -11.6385    125.0055    246.9356   2.9178580025e+02   4.1950149740e+00   0.01559563  0.007785448 -62.67   0.00139939    1.987    0.497
        65 -12.9328    168.5418     32.5321   2.8999515103e+02   6.4328626308e+00   0.01944488   0.01714094 -43.34 0.0008768914    1.130    0.115
        66 -10.8488     13.4996     59.9410   2.9196844154e+02   7.0118394849e+00   0.01197046  0.008790186  45.37 0.0004208789    1.416    0.294
        67 -10.4261    142.1584     32.9405   2.9030511320e+02   6.5813221895e+00  0.009971083  0.008645438  60.70 0.0003261228    1.238    0.192
