#   1 NUMBER                 Running object number                                     
#   2 MAG_AUTO               Kron-like elliptical aperture magnitude                    [mag]
#   3 X_IMAGE                Object position along x                                    [pixel]
#   4 Y_IMAGE                Object position along y                                    [pixel]
#   5 X_WORLD                Barycenter position along world x axis                     [deg]
#   6 Y_WORLD                Barycenter position along world y axis                     [deg]
#   7 A_WORLD                Profile RMS along major axis (world units)                 [deg]
#   8 B_WORLD                Profile RMS along minor axis (world units)                 [deg]
#   9 THETA_WORLD            Position angle (CCW/world-x)                               [deg]
#  10 FWHM_WORLD             FWHM assuming a gaussian core                              [deg]
#  11 ELONGATION             A_IMAGE/B_IMAGE                                           
#  12 ELLIPTICITY            1 - B_IMAGE/A_IMAGE                                       
         1 -14.8157     67.8246    143.9573   1.1270478902e+02   3.7377563447e+01     5.227543     2.583029  70.37   0.02021535    3.272    0.694
         2 -14.5978    196.3580     33.7021   5.3072437986e+01   3.1638759596e+01     2.409266     1.607413  24.09  0.008464871    2.045    0.511
         3 -14.6324    207.7159     20.4363   4.7814779447e+01   3.0325484656e+01     1.824402      1.30776  20.08   0.00901712    1.885    0.469
         4  -9.9454     62.7665      8.5887   7.4398874054e+01   6.5665600457e+01     0.152235    0.1173627  46.50 0.0004404752    1.560    0.359
         5 -11.4441     57.9576      2.9896   7.3382057082e+01   6.7110765691e+01    0.2714668    0.2048391  29.03   0.00175501    1.265    0.209
         6 -10.5426     40.7988      2.3936   8.0160913349e+01   6.9726657684e+01    0.1635194   0.09597436  22.92 0.0008378136    1.696    0.410
         7  -9.8438    164.1347    205.9619   1.0137247870e+02   8.5829527719e+00    0.1907137    0.1681174  43.26 0.0002552421    1.030    0.029
         8 -13.1246     35.8867    209.8277   1.2631512841e+02   2.7276659488e+01    0.7892131    0.2301731  57.66  0.003255819    3.252    0.693
         9 -16.2288     83.0612    245.8754   1.2092260471e+02   1.4938168314e+01     8.819006     1.963346  38.53   0.03185503    4.953    0.798
        10 -16.3895     52.8026    202.9773   1.2271257190e+02   2.6616984527e+01     5.632204     3.213354  79.98   0.02515543    1.631    0.387
        11  -8.5438     78.2984    193.2539   1.1680336657e+02   2.5181151026e+01    0.1014095   0.09877691 -12.47 0.0001842554    1.498    0.332
        12 -10.8635    206.1349    180.8436   8.8802272651e+01   4.8233881946e+00     0.349761    0.3092955  40.48  0.001699209    1.164    0.141
        13 -10.3959    210.8425    179.1341   8.7577706818e+01   4.1977228335e+00    0.3321806    0.2505114  41.37  0.001854695    1.266    0.210
        14 -12.1389     71.3543    180.1870   1.1674152410e+02   2.8856932895e+01    0.4030893    0.2674745 -40.41  0.002148665    2.326    0.570
        15 -12.0398     75.7786    174.6377   1.1512316857e+02   2.9424063668e+01    0.2892296    0.2461218 -49.92  0.001159679    1.471    0.320
        16 -10.2362     99.4290    180.6625   1.1082741863e+02   2.4578052838e+01    0.2262084    0.2067311  70.17 0.0005714624    1.108    0.097
        17 -10.0822    144.6204    178.7245   1.0083959874e+02   1.7047820363e+01    0.2597283    0.1653283  34.42  0.001257731    1.647    0.393
        18  -9.0076    153.3049    195.3002   1.0181648835e+02   1.2364614332e+01    0.1282253    0.1021764  12.10 0.0003817111    1.591    0.372
        19  -9.5623    166.9991    174.4847   9.5364300463e+01   1.3533571549e+01    0.3321062    0.1939496 -68.66  0.001272792    3.197    0.687
        20 -15.1344     10.1773    206.4268   1.3055904722e+02   3.0572847660e+01    0.6954876    0.5699969 -86.52  0.002641268    1.357    0.263
        21  -9.5501    167.0067    188.2314   9.7865029870e+01   1.1061540360e+01    0.1932989    0.1727368  44.19  0.001160974    1.026    0.025
        22 -12.4721     90.3375    157.7815   1.0946414466e+02   3.0957219722e+01     1.396337      0.69964 -70.16  0.002590467    2.201    0.546
        23 -12.5343     84.0913    164.7836   1.1195471363e+02   3.0360015935e+01    0.5884147    0.4147663  63.31 0.0003969255    1.368    0.269
        24 -13.7642     72.4586    160.3949   1.1398745666e+02   3.3012377883e+01    0.6392415     0.550913 -45.38  0.003211109    1.452    0.311
        25 -10.3011    173.9545    247.7899   1.0550251131e+02   8.0951749302e-01    0.1871024    0.1744413  82.73  0.001434138    1.395    0.283
        26 -10.8288    189.3616    154.9408   8.6772876512e+01   1.2562439328e+01    0.4444019    0.4114325 -46.80   0.00202664    1.178    0.151
        27 -10.8022    195.4702    169.2968   8.8564703555e+01   8.7914672663e+00    0.3356464    0.3139017  39.93 0.0008290192    1.112    0.101
        28 -11.0192    133.7321    144.1990   9.6699006240e+01   2.6248118246e+01     1.049595     0.254896 -54.06  0.002596462    5.656    0.823
        29 -10.6318    174.3450    148.2151   8.8429092900e+01   1.6994643584e+01    0.4045762    0.2923482 -58.47  0.001359511    1.644    0.392
        30 -10.4744     86.8020    145.5284   1.0830405533e+02   3.4276573656e+01     0.300804     0.225065  70.32 0.0007732543    1.378    0.274
        31 -12.4673     91.3419    142.1709   1.0659949050e+02   3.4332761125e+01    0.2628567    0.2420716 -52.08 0.0004887161    1.200    0.167
        32 -10.1654    102.6813    143.3176   1.0401177924e+02   3.2195579641e+01     0.281454     0.263228 -67.12 0.0009470137    1.098    0.089
        33 -10.0084    105.3478    139.9736   1.0271446630e+02   3.2493134999e+01    0.3513046    0.2306336 -38.67  0.001080919    1.841    0.457
        34 -11.1756     45.9757    139.1751   1.1738560416e+02   4.1156100336e+01    0.3527961    0.1408929 -64.32  0.001617816    2.074    0.518
        35 -13.0206     44.1021    129.0025   1.1644519952e+02   4.3711918008e+01    0.6775433    0.4604746 -78.05  0.003093712    1.271    0.213
        36 -10.3831    137.0620    170.5072   1.0102338458e+02   2.0094292162e+01    0.2188875    0.1307749  43.46 0.0006047013    1.573    0.364
        37 -10.0057    231.3267    169.6610   8.1904697575e+01   1.7874769003e+00     0.125844    0.1103624 -74.63 0.0007051584    1.730    0.422
        38 -10.2280    112.4457    131.5405   9.9217128354e+01   3.3133155246e+01    0.2848603    0.2493205 -11.25 0.0006822135    1.442    0.307
        39 -10.1091    105.9602    130.6900   1.0068453541e+02   3.4500343810e+01     0.304708     0.275017 -84.15   0.00126049    1.072    0.067
        40 -11.1018     99.9018    128.1199   1.0170722194e+02   3.6148466479e+01    0.3534445    0.2518215 -39.85 0.0008796128    1.569    0.363
        41 -10.8862    160.2809    128.9092   8.7074980867e+01   2.3901764770e+01    0.4306663    0.3038515  -6.69  0.001789024    2.161    0.537
        42 -11.2087    135.6566    128.1880   9.2700542231e+01   2.9334647221e+01    0.4291881    0.2469811 -59.03  0.001743277    2.001    0.500
        43 -10.5360    135.0000    120.0049   9.0906923042e+01   3.1253769289e+01    0.3672259   0.08601884 -46.28 0.0009691268    4.217    0.763
        44 -11.3217    118.8394    125.7362   9.6319425347e+01   3.3238587297e+01    0.8078158    0.3771529 -39.61  0.002973892    2.548    0.608
        45 -10.0497    125.8986    127.3776   9.4917451549e+01   3.1490730881e+01    0.2878988    0.2039194 -68.08 0.0006712982    1.618    0.382
        46 -11.3235     23.6455    116.7554   1.2010331143e+02   4.8485579954e+01    0.2832675    0.1679948 -78.81 0.0007897007    1.418    0.295
        47  -9.7949    108.6139    120.0811   9.7672107392e+01   3.6443594536e+01    0.2168045    0.1922823  64.64 0.0004213498    1.163    0.140
        48 -10.3968    167.9201    112.6643   8.1271454217e+01   2.5462661296e+01     0.436957    0.3130992 -79.18  0.001656623    2.090    0.522
        49 -10.5976    134.5271    104.4144   8.7020576201e+01   3.4723919590e+01    0.7001973    0.1735641 -44.51   0.00190423    3.942    0.746
        50 -11.3990    118.3367    110.4307   9.2785887993e+01   3.6765977622e+01    0.7203347    0.3753382  48.93  0.002908953    2.038    0.509
        51 -10.2239    205.4153    110.2304   7.2936333374e+01   1.7126342852e+01    0.3557654    0.2277162  36.90  0.001138437    1.716    0.417
        52 -10.3423    145.7305    168.9197   9.8844906808e+01   1.8758076068e+01     0.196862    0.1866089 -67.77 0.0008681857    1.113    0.102
        53 -11.8970     40.7739    107.8677   1.1402430325e+02   4.8978843338e+01    0.3095519    0.1815912 -67.92 0.0009926402    1.431    0.301
        54 -10.9226     19.8359    110.9938   1.2035966288e+02   5.0111379157e+01    0.2084877    0.1774988  34.04 0.0006583643    1.477    0.323
        55  -9.3499     95.2032    105.2631   9.7814669085e+01   4.2213823831e+01    0.1874617    0.1597299  83.77 0.0002028793    1.316    0.240
        56 -17.2293      4.6562    238.0417   1.3287559531e+02   2.5442290179e+01     11.93296     1.089818 -77.61    0.0177952    8.551    0.883
        57 -11.2733    242.0928    100.8257   6.4316928481e+01   1.0419248490e+01    0.2816755    0.2159041 -17.60 0.0007488647    1.310    0.237
        58 -10.0264    121.5249     98.9675   8.8924933065e+01   3.8643349562e+01    0.2359008    0.1463261 -45.53 0.0005587001    1.554    0.356
        59  -9.7861     86.4595     99.4743   9.8895721212e+01   4.4990241968e+01    0.3232008    0.2064633  64.74  0.001021219    2.213    0.548
        60  -9.0272     60.5140     97.5136   1.0616806415e+02   4.9162602107e+01    0.1358749    0.1176307 -68.49 6.399955e-05    1.072    0.067
        61 -10.3680     53.4666     95.5057   1.0787745015e+02   5.0477632414e+01     0.245835    0.1333995  31.62  0.001209852    2.162    0.537
        62 -10.3625    190.4195    160.7409   8.7798755260e+01   1.1302826404e+01    0.3049444    0.2348525 -75.82  0.001474321    1.934    0.483
        63  -9.9188    156.7015     79.9335   7.4589316755e+01   3.4531812872e+01    0.2266341    0.2001171 -39.99 0.0005068342    1.121    0.108
        64  -8.8530    184.4992     77.4498   6.7986985614e+01   2.8046719520e+01    0.1560814    0.1500717  12.39 1.621204e-05    1.075    0.070
        65 -10.2705     61.3613     68.6559   9.8517169556e+01   5.5495564545e+01    0.2583475    0.2170805  64.32 0.0008526765    1.545    0.353
        66 -11.4863    154.9514     57.6143   6.7961040667e+01   3.8899238082e+01    0.4738902     0.333421 -78.44  0.001423599    2.058    0.514
        67 -10.7132    157.7526     51.8661   6.5482972223e+01   3.9110612422e+01     0.352925    0.2796027 -76.78 0.0008817091    1.548    0.354
        68 -12.7986    187.3339     40.3261   5.6404518418e+01   3.3114440992e+01    0.9582317    0.5335304  49.77  0.001152222    1.806    0.446
        69 -13.8490     21.9485    193.6748   1.2772863589e+02   3.1902118893e+01    0.8349387    0.4589316  62.73  0.002784463    1.499    0.333
        70 -11.6248    182.8661    233.9633   1.0206875108e+02   1.1797412073e+00    0.3930027    0.1980646  52.73  0.001986751    2.135    0.532
        71 -12.2298    194.1673    195.1573   9.3761026751e+01   4.8267560944e+00    0.9979438    0.5913752 -60.20  0.004408084    2.993    0.666
        72 -11.4373     24.0632     34.4242   1.0196896615e+02   6.6380073083e+01    0.6122876    0.1699337  37.71  0.002345407    5.212    0.808
        73 -10.4874     20.4627     52.0726   1.0887589117e+02   6.3150706539e+01     0.263798    0.1013596 -47.03  0.001292602    1.972    0.493
        74  -9.8809    170.6348     20.1669   5.2736223963e+01   4.0018046343e+01    0.1924989     0.138686  -5.77 0.0003122704    1.643    0.391
        75  -9.4434    146.4491     20.3167   5.6934870636e+01   4.6259695785e+01    0.2350005    0.1675381  89.64 0.0006939484    1.735    0.423
        76 -10.6103    189.7879     15.1320   4.8482458593e+01   3.5556073892e+01      0.22152    0.1817351 -65.07 0.0007104229    1.229    0.186
        77 -10.6350    204.4847    199.0002   9.2504842724e+01   2.3660068765e+00    0.1821292     0.127684 -33.98 0.0005407541    1.573    0.364
        78  -9.8674    160.2976     14.6519   5.2555944806e+01   4.3314222088e+01    0.1487057    0.1037398 -61.05  0.000703508    1.681    0.405
        79 -10.1804     70.9131    230.1664   1.2171280669e+02   1.9230094150e+01    0.3274487    0.1548493  40.45  0.001521259    1.978    0.494
        80 -10.5501    163.8292    215.5362   1.0289067068e+02   7.1008680178e+00    0.2491389    0.1763139 -48.83  0.001221786    1.695    0.410
