#   1 NUMBER                 Running object number                                     
#   2 MAG_AUTO               Kron-like elliptical aperture magnitude                    [mag]
#   3 X_IMAGE                Object position along x                                    [pixel]
#   4 Y_IMAGE                Object position along y                                    [pixel]
#   5 X_WORLD                Barycenter position along world x axis                     [deg]
#   6 Y_WORLD                Barycenter position along world y axis                     [deg]
#   7 A_WORLD                Profile RMS along major axis (world units)                 [deg]
#   8 B_WORLD                Profile RMS along minor axis (world units)                 [deg]
#   9 THETA_WORLD            Position angle (CCW/world-x)                               [deg]
#  10 FWHM_WORLD             FWHM assuming a gaussian core                              [deg]
#  11 ELONGATION             A_IMAGE/B_IMAGE                                           
#  12 ELLIPTICITY            1 - B_IMAGE/A_IMAGE                                       
         1 -15.3416    244.4709    117.2966   6.5329882309e+01   7.3786588224e+00     11.15909     7.526198 -53.26   0.05477553    1.718    0.418
         2 -14.1572    222.4022     14.1803   4.2379516028e+01   2.7481882084e+01      2.20743    0.8251165  41.37  0.006340847    6.133    0.837
         3 -15.8401    220.1819     77.7565   5.9260646050e+01   1.9241058959e+01     5.797143     2.437478 -59.01       0.0151    5.498    0.818
         4 -15.5581    232.4093     75.5773   5.6900405191e+01   1.6705363988e+01     5.793463     2.926817 -74.29   0.01301213    5.621    0.822
         5 -15.5991    220.4694     27.8185   4.6071561960e+01   2.6353120641e+01     4.212175     2.449885  10.89   0.01581392    3.686    0.729
         6 -15.4451    231.0143     40.8390   4.8238538452e+01   2.2105609365e+01     1.985906    0.9501892 -18.07  0.007532242    3.028    0.670
         7 -17.5017    245.5341     48.2781   4.8467375418e+01   1.7699105152e+01     9.254904     4.548954  49.85   0.04071147    2.419    0.587
         8 -16.0653    248.2923     24.7202   4.2586608116e+01   2.0134643119e+01      1.62626    0.7951023 -45.47  0.007877967    1.754    0.430
         9 -13.7141    203.8899     28.0690   4.8061744913e+01   3.0490762650e+01     2.735634    0.3438309 -35.94  0.007592946    4.752    0.790
        10 -11.7249    159.7728     31.1052   5.5532737021e+01   4.1598706707e+01    0.8624154    0.5893977   9.51  0.002958259    1.950    0.487
        11 -10.8063    167.2467     36.6073   5.6006617345e+01   3.8940164004e+01    0.8805543    0.2159289 -26.97  0.002431908    4.581    0.782
        12 -11.7373    110.6594     38.9770   6.9334533853e+01   5.2550103217e+01    0.5544438    0.2583368 -26.77  0.001793773    2.299    0.565
        13 -11.0262    178.3643     24.0798   5.0309696331e+01   3.7590303151e+01    0.5865552    0.4569324  73.67  0.003103931    1.219    0.180
        14 -10.9569    155.8875     12.2801   4.9920313638e+01   4.4724411161e+01    0.5637099    0.3100829  -3.93  0.001760095    2.494    0.599
        15 -10.5417    116.1965     12.5892   5.7513337376e+01   5.4562351058e+01    0.3334421    0.2320969  47.56  0.001220948    1.290    0.225
        16 -12.3742    120.3035      8.8952   5.5150422336e+01   5.3948076232e+01    0.7719772     0.568446 -56.85  0.001898943    1.722    0.419
        17  -9.8392    146.7902      8.5760   5.0113622743e+01   4.7415272704e+01    0.3538284    0.1950167 -12.10  0.001549545    2.168    0.539
        18 -10.8543    129.0405      9.2460   5.3521245585e+01   5.1799157617e+01    0.3393764    0.2139924 -10.55  0.001679001    1.786    0.440
        19  -9.0415    205.5888      5.1231   4.1635995028e+01   3.2616346734e+01    0.1620053    0.1246297  11.99 0.0004769268    1.759    0.432
        20  -9.8056    210.4439      1.2962   4.0182908013e+01   3.1780901550e+01    0.2216396    0.1100849  79.79 0.0005638992    1.899    0.473
        21 -12.2150     17.5289    168.0938   1.2528026143e+02   3.7844395853e+01    0.6274123    0.2029002  41.49  0.002717829    2.793    0.642
        22 -13.3723     19.2356    162.9925   1.2449407966e+02   3.8808834087e+01    0.8075992    0.6140562  65.45  0.004285319    1.217    0.179
        23 -10.4758    196.7300    159.3284   8.3590260324e+01   1.0121396212e+01    0.3154809     0.301221 -78.09  0.001170768    1.237    0.191
        24 -11.5770    191.8186    152.5952   8.3105898557e+01   1.2370446615e+01    0.8593435    0.3803103 -47.09  0.003222617    2.522    0.604
        25  -9.2142    178.6826    158.3613   8.7085349911e+01   1.4050118805e+01    0.3556277    0.2364481  52.47  0.001655017    1.555    0.357
        26 -10.2612    158.8190    157.4926   9.1200536937e+01   1.8362391471e+01    0.5440973    0.3552342 -82.49  0.002095351    2.830    0.647
        27 -12.0911    149.0901    146.6444   9.1086266866e+01   2.2642510964e+01    0.8843079    0.5992503  78.89  0.001706244    2.258    0.557
        28 -12.2824     46.2322    152.1366   1.1718211644e+02   3.8497999602e+01    0.4494904    0.3744549 -73.79 0.0009105389    1.140    0.123
        29 -13.3123     67.6245    144.3776   1.1079543481e+02   3.7631346777e+01     1.334443     1.084886  75.07  0.005068109    1.180    0.153
        30 -13.2837     54.3959    148.4575   1.1471224575e+02   3.8386746025e+01     1.266639    0.8974996 -37.12  0.003018388    1.944    0.486
        31  -8.7350     75.0277    162.5341   1.1170437714e+02   3.2368833872e+01    0.1794721    0.1267724  43.21 -6.741965e-05    1.453    0.312
        32 -10.3435    203.9069    152.4051   8.0654739505e+01   9.8696548047e+00    0.2868412    0.2796708  79.80  0.000804969    1.190    0.160
        33 -10.8905    133.6940    144.9090   9.4344113589e+01   2.6184730213e+01     1.256597    0.3197595 -54.95   0.00299479    5.894    0.830
        34 -10.3316    173.5163    149.6553   8.6287349657e+01   1.6832389051e+01    0.2811531    0.2395239  31.77  0.001085112    1.179    0.152
        35 -10.4038    157.2730    149.0521   8.9741680249e+01   2.0415825830e+01    0.3614305    0.2406344 -88.93  0.001383996    2.715    0.632
        36 -12.4989     61.0150    145.2493   1.1260163764e+02   3.8305661045e+01     1.014136    0.4022921 -63.22  0.001625156    2.210    0.547
        37  -9.0992    218.8528    148.9325   7.7039523747e+01   7.3929304570e+00    0.2463977    0.1880945  77.50 0.0004905033    2.004    0.501
        38  -9.5887    192.2802    144.2050   8.1116367490e+01   1.3832384566e+01    0.2578286    0.2309245  69.51 0.0003637529    1.278    0.218
        39  -9.7672    198.1470    143.9690   7.9881331862e+01   1.2610390913e+01    0.3102211    0.2237098  59.97 0.0007382151    1.619    0.382
        40  -9.8966    174.0769    143.6779   8.4817052493e+01   1.7894007859e+01    0.2465693    0.1931374  65.22  0.001183107    1.468    0.319
        41 -11.0023    159.1259    142.5303   8.7868653717e+01   2.1372371810e+01    0.4248046    0.2833782  56.28  0.001504067    1.605    0.377
        42 -10.5022    156.3113    138.7115   8.7636133930e+01   2.2778317890e+01     0.323745    0.2174913  61.91  0.000748037    1.741    0.426
        43  -8.3258    137.6944    158.2736   9.6150501526e+01   2.2484154868e+01    0.1462159    0.1120256  76.50 0.0002132223    1.543    0.352
        44 -10.2803    166.8218    134.6699   8.4306939625e+01   2.1307139605e+01    0.3308264    0.2063477 -44.04  0.001426178    1.619    0.382
        45 -10.0359    122.7704    241.3788   1.1169672612e+02   9.3966627724e+00    0.1914131    0.1627815  50.56 0.0002416659    1.124    0.111
        46 -12.0130    158.0004    131.0407   8.5436567498e+01   2.4018044343e+01    0.5559703    0.4868202 -41.33  0.002336512    1.153    0.133
        47 -11.7574    160.3613    128.1529   8.4192297534e+01   2.4095352610e+01     0.685133    0.3674801 -47.69  0.002712342    1.911    0.477
        48 -11.7233    139.8670     95.0465   8.0315521995e+01   3.5709208963e+01     1.177183     0.519132 -45.32  0.001682642    2.256    0.557
        49 -12.0194    136.8760    128.0307   8.9753375592e+01   2.9256224131e+01     1.189165    0.6204181 -65.74  0.003919266    3.206    0.688
        50 -10.1797    134.9911    119.8089   8.8213265608e+01   3.1472104929e+01    0.3589458    0.2231544 -47.27 0.0009402961    1.589    0.371
        51 -11.0967    134.7831    111.6437   8.6173358847e+01   3.3309608289e+01    0.9398702     0.286619 -42.83  0.002784217    3.319    0.699
        52 -11.9753    133.9284    101.5168   8.3656621986e+01   3.5686935573e+01     1.216577    0.5857981 -60.34  0.003774638    3.416    0.707
        53  -9.7611    196.9768    129.4582   7.6679859232e+01   1.5556527786e+01    0.3227794    0.2396208 -62.06  0.001487331    1.684    0.406
        54  -8.7542     96.1485    128.2048   1.0032732155e+02   3.7074553608e+01    0.2002633    0.1635515  84.60 0.0004188812    1.316    0.240
        55 -10.5209    170.9078    126.0836   8.1310855492e+01   2.2133923793e+01    0.5148158    0.2542202  34.57  0.001796327    2.612    0.617
        56 -10.1195    156.3275    113.8541   8.1497862931e+01   2.7996698219e+01    0.7114867    0.4507955  85.48  0.002404474    3.206    0.688
        57  -9.5626    173.8963    114.4990   7.7705432734e+01   2.3767728717e+01    0.3299354    0.2883077 -89.78  0.001091366    1.320    0.243
        58 -10.7691    162.5618    120.3312   8.1734195354e+01   2.5219365423e+01    0.3641746    0.3112373 -61.74 0.0004813445    1.254    0.202
        59 -11.8709    167.8900    115.3582   7.9251020195e+01   2.5002951045e+01    0.9592413    0.7071948  75.51  0.004206083    1.759    0.432
        60  -9.2627    153.5592    126.4792   8.5358294748e+01   2.5966560974e+01    0.2744519    0.1480093  57.51 0.0006799972    2.190    0.543
        61 -10.8585    142.6982    123.1592   8.7138504462e+01   2.9073087046e+01     0.632856    0.3989731 -82.29   0.00218253    3.124    0.680
        62  -8.7431    147.9137    116.8605   8.4279517214e+01   2.9276893425e+01    0.2122572    0.1849164 -86.42 0.0003918385    1.296    0.228
        63  -8.1463    233.7078    216.2738   8.7744956906e+01  -5.2985870864e+00    0.1034004   0.09445705  47.25 0.0006930695    1.518    0.341
        64  -9.3138    110.9612    109.9048   9.2025053026e+01   3.8617546417e+01     0.334427      0.21961 -13.44  0.001256533    2.809    0.644
        65 -10.4031    146.3257    104.0522   8.1251964983e+01   3.2349866678e+01    0.3454508    0.2912252 -38.48 0.0006455204    1.183    0.155
        66 -10.4354    112.2804    104.5758   9.0276105511e+01   3.9563408463e+01    0.2701638    0.2508374 -64.08  0.001359706    1.061    0.057
        67 -11.1680    155.9878     99.8721   7.7783317202e+01   3.0951747534e+01    0.6680912    0.3634636  41.78  0.001987191    1.959    0.489
        68 -10.6865    161.7228     96.3325   7.5468409637e+01   3.0285410135e+01    0.4161236    0.3063031  74.09  0.001790904    1.685    0.407
        69 -11.8987    169.5139     93.6667   7.2988383633e+01   2.8907599180e+01    0.7836108    0.6472223   4.48  0.003707084    1.465    0.317
        70 -10.7805    177.2781     89.5012   7.0166911996e+01   2.7778368982e+01    0.2881894    0.2701529  18.37 0.0002660411    1.134    0.118
        71  -9.5868    250.6260    190.5510   8.0109066663e+01  -4.6956328159e+00    0.2137677    0.1092989 -30.95 9.913208e-05    1.886    0.470
        72 -10.2425     99.7057     90.6045   9.0033651515e+01   4.5089689731e+01    0.2763061    0.2165479 -11.41  0.000697316    1.601    0.375
        73  -9.2180    194.1025     88.4382   6.6568921322e+01   2.3799115366e+01    0.2988392     0.201548 -50.23 0.0009319104    1.540    0.350
        74 -10.9019    204.8101    189.9998   8.8223420303e+01   3.3719101447e+00    0.3281996    0.2495277  71.17  0.001365035    2.039    0.510
        75  -8.9052     83.7598     76.8184   9.0890497526e+01   5.0905130901e+01    0.3076743    0.1111681  33.33   0.00101948    3.593    0.722
        76  -8.9355    111.3382     74.3063   8.1663912213e+01   4.6216402391e+01    0.1546681     0.117881   3.15 0.0003425026    1.677    0.404
        77 -10.2070    114.7112     69.2125   7.9036469040e+01   4.6498876169e+01    0.2493311     0.232537  11.98 0.0002541714    1.084    0.078
        78 -11.9118    125.3216     60.7791   7.3294673494e+01   4.5690021408e+01    0.6514698     0.296949 -32.45  0.002426719    2.296    0.564
        79  -8.7111     72.5609     58.4862   8.8697692970e+01   5.6474960401e+01     0.138073     0.122176 -28.90 7.879049e-05    1.017    0.017
        80  -9.5581    103.3308     46.9792   7.4471886413e+01   5.2880730013e+01    0.2078383    0.1744871 -23.18 0.0004438075    1.148    0.129
        81  -9.1664    203.7181    184.1333   8.7305938448e+01   4.5112534019e+00    0.2044097     0.150762  87.66  0.000664101    2.672    0.626
        82  99.0000    170.6481     29.7472   5.3252780517e+01   3.8929859063e+01    0.3373515    0.1981264  67.54  0.000563986    1.649    0.393
        83  -8.8101    180.3158    210.6323   9.6590125823e+01   4.5776626323e+00    0.1274886    0.1003734  74.65  0.000703762    1.777    0.437
        84  -9.9012     10.3331    206.1420   1.2918064134e+02   3.0631383612e+01    0.1681626    0.1376213  52.13  0.001333739    1.425    0.298
        85 -11.0876    163.9927     36.8000   5.6642861459e+01   3.9763267811e+01    0.4818774     0.378723 -18.49  0.001228062    1.392    0.282
        86 -11.4755    192.7570    194.9326   9.1460909342e+01   4.8168887450e+00    0.9577271    0.5024579 -61.19  0.003356342    4.593    0.782
        87  -9.0262    171.7052     34.2364   5.4496982430e+01   3.8084992351e+01    0.2334824    0.1763467 -51.85  0.001160437    1.386    0.278
        88 -10.3189     92.0393     31.8396   7.1919288359e+01   5.7524204654e+01    0.5420673     0.192146 -30.85  0.002026177    2.824    0.646
        89 -11.4455    118.6351     31.5631   6.4392657129e+01   5.1776555855e+01    0.4531595    0.1573102 -33.82  0.001639218    2.814    0.645
        90 -10.1431     78.3321     30.7868   7.5950696076e+01   6.0294221992e+01    0.4538306    0.1708351 -33.37  0.001681243    2.545    0.607
        91 -10.2842    159.3743     40.2376   5.8614976834e+01   4.0496111390e+01    0.3599991    0.2366676 -33.96 0.0009067742    1.547    0.354
        92 -12.0459      3.0654    178.1905   1.2892283153e+02   3.6950298189e+01    0.5312309    0.3337538 -82.48  0.003664044    1.253    0.202
        93 -10.5000    204.4087    200.4175   9.0227563293e+01   1.8392779388e+00    0.2346683    0.1541596  10.83  0.001047506    1.861    0.463
        94  -9.9723     78.9300     18.5806   7.0373557789e+01   6.1855550861e+01    0.2445487     0.172436 -27.25 0.0007018308    1.387    0.279
        95 -10.6725    209.9463     16.9484   4.4343555980e+01   3.0262337630e+01    0.2486863    0.1800136  81.67  0.000386089    1.305    0.234
        96  -9.2170     41.3319     17.6746   8.4543123751e+01   6.7970720300e+01    0.1059541   0.09679291 -58.56 0.0005187125    1.708    0.415
        97  -9.5049    232.1675    198.4746   8.4800133373e+01  -2.7123461230e+00     0.228037    0.1664688 -49.15 0.0007696735    1.933    0.483
        98  -9.3701     90.1533     14.8149   6.5176400977e+01   6.0087329487e+01    0.1879553      0.13875  12.44 0.0007704553    1.326    0.246
        99  -9.2957    148.2417     14.4282   5.1902072896e+01   4.6474287555e+01    0.1888481    0.1308876  78.65 0.0003051713    1.510    0.338
       100 -10.2371    211.7419    180.6102   8.5084979898e+01   3.5658081103e+00    0.2579651    0.1641321 -22.55  0.001277565    1.734    0.423
       101  -8.2356    142.2456    180.9754   9.9353455865e+01   1.6916071577e+01    0.1602259    0.1205166 -54.29 -0.000430966    1.438    0.304
       102 -10.2151    189.5853    179.8923   8.9249159957e+01   7.9305217722e+00    0.2482469    0.2193574  41.67 0.0004390283    1.109    0.098
       103  -8.6238     75.0236    178.0827   1.1379511202e+02   2.8883906320e+01    0.1487284    0.1252322  82.01 0.0009214691    1.016    0.016
       104 -11.2788    200.6607    174.3604   8.5958501825e+01   6.7144287312e+00     0.523398    0.4201365  12.28  0.002876669    1.286    0.222
