#   1 NUMBER                 Running object number                                     
#   2 MAG_AUTO               Kron-like elliptical aperture magnitude                    [mag]
#   3 X_IMAGE                Object position along x                                    [pixel]
#   4 Y_IMAGE                Object position along y                                    [pixel]
#   5 X_WORLD                Barycenter position along world x axis                     [deg]
#   6 Y_WORLD                Barycenter position along world y axis                     [deg]
#   7 A_WORLD                Profile RMS along major axis (world units)                 [deg]
#   8 B_WORLD                Profile RMS along minor axis (world units)                 [deg]
#   9 THETA_WORLD            Position angle (CCW/world-x)                               [deg]
#  10 FWHM_WORLD             FWHM assuming a gaussian core                              [deg]
#  11 ELONGATION             A_IMAGE/B_IMAGE                                           
#  12 ELLIPTICITY            1 - B_IMAGE/A_IMAGE                                       
         1 -14.1786    169.5702     47.9407   7.1850912975e+01   3.6888813831e+01     1.575943     1.167293  26.73  0.005342489    1.814    0.449
         2 -14.3328    183.2845     33.6082   6.6025987495e+01   3.5515349690e+01     0.920737    0.8762838 -84.21   0.00384361    1.147    0.128
         3 -13.6791    187.7449     27.2497   6.3864765343e+01   3.5240159922e+01    0.6093089    0.5188246 -75.18   0.00127211    1.109    0.099
         4 -13.4950    189.7668     15.0456   6.0719435388e+01   3.6148732304e+01     1.054897    0.5342391 -76.99  0.004774935    2.511    0.602
         5 -14.2304    204.0658      4.9128   5.6931668721e+01   3.3947349183e+01      1.00294    0.8077716  66.50  0.006059657    1.279    0.218
         6 -12.6030     53.0855      5.3277   8.6137152547e+01   6.5831609288e+01    0.4007756    0.1881455  46.92 0.0009571338    2.090    0.522
         7 -13.5445    107.1494    208.6713   1.2368606491e+02   1.6215938300e+01    0.8598969    0.6005699 -67.14  0.004424326    1.477    0.323
         8 -13.4318     11.3061    206.8680   1.4401028056e+02   2.9508239526e+01    0.7533102      0.43462  25.43  0.004338867    2.400    0.583
         9 -18.6152     38.6475    241.9413   1.4154664920e+02   1.8993702725e+01     7.369268     6.969049  64.74   0.05530632    1.434    0.303
        10 -10.4925    153.9915    196.0174   1.1089213908e+02   1.0505132174e+01    0.2295966    0.2198688  66.67 0.0007852601    1.058    0.054
        11 -10.8221     97.3287    212.9109   1.2649329449e+02   1.6896467980e+01    0.3116588    0.2321526  40.72   0.00169077    1.337    0.252
        12 -10.7524    167.8411    189.0086   1.0644697478e+02   9.3349880146e+00    0.3378693    0.2171683 -48.25  0.001081599    1.594    0.373
        13 -10.6637     10.4889    213.7130   1.4467307697e+02   2.8090441843e+01    0.1333006    0.1059944  14.36 0.0007802943    2.004    0.501
        14  -9.9649     64.2588    186.7713   1.3046939807e+02   2.8005090575e+01     0.197867    0.1605756  78.26  0.001134065    1.138    0.121
        15 -11.7964     90.6246    184.0028   1.2374202257e+02   2.4718334897e+01    0.3792425    0.2527011  66.53   0.00179003    1.676    0.403
        16 -10.7123    112.1524    214.2225   1.2338919946e+02   1.4136202287e+01    0.2298542    0.1621615 -89.77 0.0003587067    1.675    0.403
        17 -12.2714     92.7348    194.8506   1.2492653916e+02   2.1790273101e+01     0.526523    0.4071596  72.84  0.002805213    1.296    0.228
        18 -11.9038    207.0824    179.9457   9.6296681177e+01   3.6301650183e+00    0.6759357    0.4054249  24.02  0.002513138    2.156    0.536
        19 -12.2690     99.4747    180.4106   1.2098687134e+02   2.4118068548e+01    0.3889915    0.2938294 -41.46 0.0009645958    1.519    0.342
        20  -9.9143     59.0576    177.5436   1.3044583624e+02   3.0940892987e+01    0.2184416    0.1734556 -52.07 0.0009027441    1.348    0.258
        21 -11.8005    195.9015    170.2015   9.6534400880e+01   7.7364084871e+00    0.6677768    0.3737245 -47.31  0.002786398    1.778    0.438
        22 -10.8200    193.7865    164.7707   9.5810883239e+01   9.2777560410e+00    0.3693767    0.3491532  81.15  0.001697612    1.173    0.147
        23 -13.3584     93.1906    204.4666   1.2623434954e+02   1.9479094866e+01     1.509488    0.4914718  38.17  0.005414193    2.983    0.665
        24 -10.9513    144.5082    173.4887   1.0871580474e+02   1.7379674544e+01    0.1520055    0.1487678  77.44 0.0001322409    1.001    0.001
        25 -11.8963     66.7239    171.7579   1.2771579455e+02   3.1314955267e+01     0.458747    0.1863716  46.36  0.001109524    2.569    0.611
        26 -10.4531    163.8854    204.8375   1.1031485341e+02   6.7846042214e+00    0.2341209    0.2264878  33.22 0.0004237671    1.021    0.020
        27  -9.8365    223.5815    163.7815   8.9734400993e+01   3.6637393766e+00    0.2060036    0.1262936 -50.60 0.0009447116    1.688    0.408
        28  -9.6218      6.4564    161.3879   1.4106939656e+02   4.0330807820e+01      0.12063   0.09550971 -79.32 0.0001444883    1.033    0.032
        29  -9.7943    141.9768    158.7058   1.0623011897e+02   2.1316284843e+01    0.2114989    0.1995302  64.91 0.0003850929    1.063    0.059
        30 -10.8106    159.1665    205.7105   1.1150965302e+02   7.4848508324e+00    0.3485561    0.2329632  62.62  0.001586604    1.898    0.473
        31 -10.4005    119.9161    156.1249   1.1120441562e+02   2.6308147874e+01    0.3073406    0.2287095  85.23  0.001373762    1.711    0.416
        32 -11.2430    166.0569    154.4454   9.9590113040e+01   1.7262718631e+01    0.4688168     0.282671  70.07  0.001663657    2.820    0.645
        33 -11.0104    151.8081    151.3309   1.0222334612e+02   2.0981119285e+01    0.3323948    0.2459884 -81.17  0.001082134    1.792    0.442
        34 -12.4646    133.9528    145.1439   1.0521595035e+02   2.6138507513e+01     1.206504    0.3244702 -54.28   0.00298123    4.811    0.792
        35 -11.7200    109.0065    149.9939   1.1275252661e+02   2.9844124157e+01    0.3944548    0.3064926 -18.34  0.001834619    1.712    0.416
        36 -10.4263    174.8585    149.1192   9.6405635156e+01   1.6560514451e+01    0.2416119    0.2140113 -83.69 0.0006326428    1.256    0.204
        37 -19.1621     27.9546    108.1410   1.2771494264e+02   5.1089380563e+01     17.23209    0.8552575 -62.41   0.02693851   17.132    0.942
        38 -12.2724    145.0581    145.9926   1.0264457177e+02   2.3631568910e+01    0.5138965    0.3761802 -86.56    0.0021912    1.883    0.469
        39 -13.1704    110.0894    140.0364   1.1029706662e+02   3.2053149851e+01     0.954645    0.6323036 -19.18  0.003749925    2.442    0.591
        40 -11.7591    105.9646    130.9740   1.0935156743e+02   3.4989009699e+01    0.4325157    0.3535486 -68.95  0.001575708    1.287    0.223
        41 -11.3458    104.7189    126.6311   1.0867419596e+02   3.6246520553e+01    0.2969759    0.2486598 -26.86 0.0007019213    1.317    0.241
        42 -10.9166     92.9933    142.6855   1.1552868891e+02   3.4457525372e+01    0.2110786    0.1957993  46.46  0.001139847    1.136    0.120
        43 -12.4454     99.0725    139.9781   1.1328067753e+02   3.4069239625e+01    0.3005054    0.2904386 -33.19 0.0004198352    1.095    0.087
        44 -12.2972    117.5077    129.8478   1.0593570847e+02   3.3048018735e+01    0.5000504    0.3984182  14.88  0.001760805    1.553    0.356
        45 -11.4508    120.5144    124.9011   1.0392623274e+02   3.3598820521e+01    0.3005243    0.1903116 -36.98 0.0008231223    1.715    0.417
        46 -13.0565    136.0000    128.9998   1.0088422963e+02   2.9456221229e+01     1.460266    0.4677537 -46.35  0.004455516    3.066    0.674
        47 -10.9074    161.2791    128.4621   9.4609918776e+01   2.4059707131e+01    0.4013867    0.2798961 -76.30  0.001649014    2.006    0.502
        48 -10.8050    125.7770    127.8793   1.0325744455e+02   3.1844158045e+01    0.3073372    0.2085803  71.80  0.001096412    2.100    0.524
        49 -10.4949    210.0937    199.8576   9.9679074557e+01  -6.9126764397e-01    0.1963886    0.1893996 -64.76 0.0004790747    1.257    0.205
        50 -10.7204    111.5645    119.1573   1.0494096859e+02   3.6686081865e+01    0.2690286    0.2209069  32.18  0.000453858    1.294    0.227
        51 -11.4865    104.1919    201.7663   1.2331695008e+02   1.8282456092e+01    0.3017615    0.2707674  32.70  0.000875112    1.250    0.200
        52 -10.8513    167.9320    112.8279   8.9222416447e+01   2.5882698740e+01    0.4334671    0.3048511 -82.31  0.001386382    2.022    0.505
        53 -10.2667    135.0000    111.9857   9.6838036131e+01   3.3459830312e+01    0.2639107    0.0877209 -45.00 0.0008074131    2.977    0.664
        54 -12.4389    193.5300    192.9498   1.0169303384e+02   3.6198005034e+00    0.8673052    0.4941602 -53.75  0.003591704    2.061    0.515
        55 -10.4462    205.3783    110.2249   8.1113347506e+01   1.7878145334e+01    0.2999651    0.2097746  48.92 0.0009339424    1.528    0.346
        56 -12.9184     61.7493    109.1059   1.1727693996e+02   4.7187945119e+01    0.4467253    0.3617367  -8.34  0.002494129    1.413    0.292
        57 -11.5059    105.4474    197.9321   1.2243055127e+02   1.8952904740e+01    0.3920322    0.2536762 -75.72  0.001068703    1.749    0.428
        58  -9.7165    151.5013     79.5360   8.4055380360e+01   3.6165850191e+01    0.1476733    0.1424254  67.19 0.0001425981    1.007    0.007
        59 -11.5869    175.2993     73.7783   7.7625492795e+01   3.1527084274e+01     0.366577    0.2665784 -85.40 0.0006754498    1.639    0.390
        60 -11.6158    170.6504     70.3047   7.7592717916e+01   3.3217509187e+01    0.4046263    0.2527854 -80.45  0.001642829    2.435    0.589
        61  -9.2282    168.4418    248.4312   1.1659542118e+02  -2.1791189391e+00    0.1293111    0.1113775  37.07 -4.621769e-06    1.048    0.046
        62 -11.1147      1.8377    249.1354   1.4837144923e+02   2.1669514866e+01    0.2058092    0.1175719 -78.69  0.001388577    1.514    0.340
        63 -14.1723    110.3807    189.5566   1.1990003615e+02   2.0052339738e+01     1.538331      0.91254  13.44  0.005379762    3.623    0.724
        64 -12.7281    116.2353    211.1732   1.2201971783e+02   1.4103378206e+01    0.6715543    0.4179654  84.63  0.002868955    2.387    0.581
        65 -14.4427    113.4342    197.0548   1.2042680742e+02   1.7771344733e+01    0.9654542    0.8244301 -30.42  0.005197195    1.445    0.308
        66 -11.0838     87.5841     12.9077   7.8484660283e+01   5.9111503598e+01    0.2260348    0.1566453  54.31 0.0006541064    1.400    0.286
