#   1 NUMBER                 Running object number                                     
#   2 MAG_AUTO               Kron-like elliptical aperture magnitude                    [mag]
#   3 X_IMAGE                Object position along x                                    [pixel]
#   4 Y_IMAGE                Object position along y                                    [pixel]
#   5 X_WORLD                Barycenter position along world x axis                     [deg]
#   6 Y_WORLD                Barycenter position along world y axis                     [deg]
#   7 A_WORLD                Profile RMS along major axis (world units)                 [deg]
#   8 B_WORLD                Profile RMS along minor axis (world units)                 [deg]
#   9 THETA_WORLD            Position angle (CCW/world-x)                               [deg]
#  10 FWHM_WORLD             FWHM assuming a gaussian core                              [deg]
#  11 ELONGATION             A_IMAGE/B_IMAGE                                           
#  12 ELLIPTICITY            1 - B_IMAGE/A_IMAGE                                       
         1 -11.7947     82.0231     57.6776   6.5475245517e+01   5.5134900022e+01     1.261782    0.8679771 -49.83  0.004462763    1.666    0.400
         2 -12.4164    130.1381     46.9634   4.8371396527e+01   4.6015630579e+01     2.308435     1.560738 -17.12   0.01111296    1.841    0.457
         3 -12.3134     58.3403     34.8938   6.5355520957e+01   6.3383838514e+01     3.139099     1.968922 -25.08   0.01625529    1.661    0.398
         4  -8.7241     15.1343     46.9068   9.1460132297e+01   6.6954703120e+01     2.338399    0.7985249 -66.88  0.006326167    7.361    0.864
         5 -10.9237      2.2870     30.0311   9.2980359601e+01   7.1252157200e+01    0.5878815    0.2721078 -49.38  0.003134328    1.778    0.437
         6 -12.3308     99.6986     45.6019   5.5427098462e+01   5.3339326798e+01     1.089593    0.6463818 -41.14  0.002495074    1.817    0.450
         7 -11.5587    162.1205     43.0419   4.1339770911e+01   3.8838332112e+01     0.935381    0.7005628  -6.97  0.004898541    1.812    0.448
         8 -11.5083    151.1859     46.4735   4.4137363560e+01   4.1001172441e+01    0.7535505    0.5284591  -6.89  0.001546156    2.014    0.503
         9 -11.9394     59.3336     54.7445   7.3020308758e+01   5.9838957095e+01     1.733417    0.6245697 -41.43  0.006518004    2.745    0.636
        10 -11.4839     84.1478     30.5462   5.4193036742e+01   5.8857692333e+01     1.273851    0.6275589  52.04  0.005364818    1.862    0.463
        11 -13.0064    243.7742     11.9413   2.5984314189e+01   2.4852329931e+01     1.807827    0.8285585 -47.83   0.01066836    1.669    0.401
        12 -12.4027    108.3402     63.3599   5.9224481395e+01   4.8529151001e+01     1.690492     1.097503 -31.73  0.004868761    1.641    0.391
        13  -9.3672     37.9036     15.0353   6.5103075958e+01   6.9633484406e+01    0.4035485    0.2035512 -34.46  0.001640331    2.054    0.513
        14 -10.2984     45.1077     18.8190   6.3603666045e+01   6.7957190377e+01    0.7436711    0.4534599  24.06   0.00309903    1.595    0.373
        15 -10.1759    107.7306     25.1021   4.5761157648e+01   5.4152286767e+01    0.4303539     0.245991  42.93 0.0005131115    1.700    0.412
        16  -9.1404     92.0038     18.0180   4.6833787850e+01   5.8560528366e+01    0.3465802    0.2148301  -1.38  0.001433399    2.099    0.524
        17  -9.2122     84.4088     22.2906   5.0686032785e+01   5.9797992872e+01    0.4674026    0.3257562  32.93  0.002455434    1.385    0.278
        18  -8.1679     84.1936     11.2622   4.6065393848e+01   6.0982753759e+01    0.1160934   0.08512893  25.94 0.0006515436    1.377    0.274
        19  -9.7744    213.8719    249.7234   7.6969157188e+01  -6.0196513141e+00     0.392782     0.178678  19.41   0.00204592    2.144    0.534
        20 -10.6247    188.0377    249.0646   8.1721044565e+01  -2.7907298288e+00    0.3036808    0.2541755  18.61  0.002127584    1.223    0.182
        21 -10.9388    165.5246    248.2171   8.6065410879e+01   2.6368518905e-01    0.3976315     0.302052  11.92  0.002566646    1.119    0.106
        22 -10.4634    153.2282    249.8379   8.8805763411e+01   1.6581653311e+00    0.4386503    0.1256656  34.37  0.001746507    2.867    0.651
        23  -9.8614      2.0658    144.9013   1.1418684230e+02   4.3953533279e+01    0.4048052    0.2119798 -86.84  0.001981666    1.734    0.423
        24  -9.3425     29.6020    143.3462   1.0562520969e+02   4.2200681400e+01     0.345276    0.1030389 -64.21  0.001234959    2.710    0.631
        25  -8.5805     48.8648    138.9507   9.8846432207e+01   4.1301603584e+01    0.2168492     0.178016 -44.98 0.0002602596    1.231    0.187
        26  -9.6895     35.9942    143.9718   1.0370662757e+02   4.1408436007e+01     0.208473    0.1899169 -81.12  0.001218804    1.013    0.013
        27  -8.7859     15.5041    136.5425   1.0923188893e+02   4.5171725556e+01    0.2905641    0.1697461  89.35  0.001398053    1.737    0.424
        28  -8.9838     24.6018    134.3009   1.0602667754e+02   4.5015863553e+01    0.2189898    0.1851605  73.62 0.0003057066    1.204    0.169
        29  -9.8584     30.6552    132.9703   1.0385711976e+02   4.4814692320e+01    0.3069356    0.2311546 -85.71 0.0001333128    1.307    0.235
        30 -10.0605      8.7558    131.5565   1.1082533081e+02   4.6940701764e+01    0.3048014    0.2271396 -70.31 0.0003505933    1.145    0.127
        31  -8.6991     61.8811    132.8768   9.3528152317e+01   4.1224260250e+01    0.2251986     0.194065 -30.35  0.000268096    1.237    0.192
        32  -9.1391     43.6566    132.0881   9.9408875075e+01   4.3701677435e+01    0.2023651    0.1729787 -59.92 0.0005019269    1.081    0.075
        33  -9.7810     73.6495    130.3114   8.9176695061e+01   4.0181161394e+01    0.2679675    0.2550787  81.76 0.0002812669    1.092    0.084
        34  -9.1331     82.9844    129.4046   8.5987707357e+01   3.8930028065e+01     0.252936    0.2152026 -74.58 0.0006126329    1.256    0.204
        35  -9.0454     23.4023    128.8998   1.0568605945e+02   4.6528012252e+01    0.4055093    0.2288594 -45.90  0.001921481    1.758    0.431
        36  -7.9883     13.6828    129.2623   1.0895774197e+02   4.7193174441e+01    0.1328949   0.09293224  62.12 0.0002330397    1.545    0.353
        37 -10.1908      3.8774    124.8389   1.1168093166e+02   4.8972749289e+01    0.3090881     0.267907  67.24  0.001596867    1.212    0.175
        38  -8.8565     10.5028    125.4711   1.0955352979e+02   4.8394443845e+01    0.1349764    0.1157777 -71.02 0.0001480584    1.010    0.010
        39  -8.0896    104.6648    124.2935   7.8111086130e+01   3.6344759525e+01    0.1583897    0.1244773  75.47 0.0002632088    1.642    0.391
        40  -9.3320     47.0958    111.2024   9.4273089663e+01   4.8722823378e+01    0.2554538    0.2201397 -49.46 0.0007265359    1.069    0.065
        41 -11.1095     43.3467    122.6766   9.7865123712e+01   4.6195462638e+01    0.3917664    0.2619988 -67.44 0.0002118101    1.412    0.292
        42 -10.4544     45.9745    116.1577   9.5693825768e+01   4.7583608637e+01    0.4616219    0.2895277  28.84  0.001909671    1.697    0.411
        43  -9.5224     76.5484    120.5419   8.6070669903e+01   4.2208710656e+01    0.4152687    0.2836715 -69.53  0.001848056    1.658    0.397
        44  -8.6651     70.8669    120.0298   8.7853017559e+01   4.3226150732e+01    0.2782061    0.2038856  49.21  0.001315866    1.498    0.332
        45  -9.4467     35.7721    120.9401   1.0020208798e+02   4.7457382356e+01    0.4023362    0.2803447 -34.71  0.001824761    1.542    0.352
        46  -8.8885     10.8071    120.0522   1.0877867594e+02   4.9771982263e+01     0.264061    0.1479283 -53.65 0.0009820558    1.571    0.363
        47  -8.0058    108.0259    120.0046   7.6051303171e+01   3.6721279470e+01    0.1820411    0.1772955 -32.63 0.0009523677    1.006    0.006
        48  -8.9491     89.4192    120.2719   8.1824008773e+01   4.0111721200e+01     0.269246    0.1815593  55.70 0.0004023662    1.775    0.437
        49 -11.1847      3.3058    114.5496   1.1069977768e+02   5.1637363702e+01    0.7839599    0.2824624 -65.43  0.002590968    2.132    0.531
        50  -9.6156     26.5761    111.3082   1.0183943760e+02   5.0821222023e+01    0.4581194    0.3176271  79.40  0.002295169    1.725    0.420
        51  -8.0264     89.8542    113.3900   7.9975152535e+01   4.1711912455e+01    0.2180538    0.1480523  20.61 0.0006284895    1.749    0.428
        52  -9.3325     59.4115    108.7912   8.9260953199e+01   4.7737222383e+01    0.3492689    0.2417659 -35.10  0.001645214    1.515    0.340
        53 -10.6776     56.0948    106.2674   8.9875193569e+01   4.8825259453e+01    0.4575023     0.307262 -46.58  0.001504645    1.394    0.283
        54 -10.6177     41.1572    109.7895   9.6163199615e+01   4.9767578845e+01    0.5731295    0.2917476 -33.85  0.001142112    2.401    0.583
        55  -8.2488     32.7555    112.4889   9.9779782153e+01   4.9946243288e+01    0.1792191    0.1342968  -8.81 0.0005178678    1.559    0.359
        56  -8.6351     21.4436    112.5558   1.0392816525e+02   5.0930086140e+01    0.2726267    0.1391504  16.48  0.001228176    2.267    0.559
        57  -8.6919     82.1007    110.9177   8.1888905712e+01   4.3673072875e+01    0.2332888    0.2118557 -24.74 0.0004822085    1.112    0.101
        58  -9.1104     68.6183    107.8093   8.5738376040e+01   4.6630630498e+01     0.245971      0.21319  62.86 0.0003866084    1.323    0.244
        59 -11.2198     65.1614    103.4054   8.5870920595e+01   4.8239980754e+01    0.6662186    0.4930341  17.98  0.002534423    1.490    0.329
        60  -8.7982     90.0276    107.8606   7.8482812400e+01   4.3004789482e+01    0.2707341    0.2119738   9.87 0.0008117102    1.504    0.335
        61  -9.5767     77.5494    107.5538   8.2568563498e+01   4.5260961443e+01    0.3017366    0.2586049 -31.50  0.001547701    1.171    0.146
        62 -10.1857     12.9249    112.9646   1.0707653851e+02   5.1453702324e+01    0.5043206    0.2052508 -52.77   0.00217224    2.065    0.516
        63 -10.0611    114.5487    104.5152   7.0054142738e+01   3.8957102424e+01    0.3984319    0.2577527  15.75  0.001091902    2.363    0.577
        64  -8.9370     36.3099    105.0391   9.7010888133e+01   5.1496730963e+01    0.2739612    0.1911289 -10.37  0.001352102    1.716    0.417
        65 -10.1218     12.7830    105.0149   1.0594651628e+02   5.3494545484e+01    0.3996594    0.1733322  20.99  0.001761809    2.544    0.607
        66  -9.6988      6.6493    113.2953   1.0936510932e+02   5.1766854398e+01    0.2740542    0.1698646 -78.87 0.0005663262    1.460    0.315
        67  -8.9329    144.9452    103.0758   6.1694680991e+01   3.2683825990e+01    0.2281028    0.2219333 -37.40  0.000342086    1.011    0.011
        68 -10.5983    112.2016    100.1690   6.9518126256e+01   4.0402951194e+01    0.5560883    0.3505282 -19.71  0.002126291    2.383    0.580
        69 -10.4663     97.1577     99.4926   7.3898369093e+01   4.3598374147e+01    0.5969897    0.3596536 -32.92  0.002441036    1.901    0.474
        70 -10.6311     80.3035    100.0822   7.9639428672e+01   4.6580314609e+01    0.3593034    0.2874034  17.74 0.0003350705    1.355    0.262
        71  -9.9009     74.7139     99.0388   8.1304421875e+01   4.7779063096e+01    0.5730948    0.3556499 -44.60   0.00254697    1.554    0.357
        72 -10.4591     72.6112     89.0920   7.9252738296e+01   5.0445699259e+01    0.4405057    0.3530466  64.01  0.002182059    1.586    0.370
        73  -9.7289     66.2051     87.8655   8.1269928546e+01   5.1774504783e+01    0.5259828    0.2932431 -40.42  0.002252038    1.784    0.440
        74 -10.2770     72.3696     76.0047   7.5311384177e+01   5.3366945282e+01    0.3625303    0.3169568 -16.71  0.001973744    1.122    0.108
        75  -8.9247     41.2437     98.2176   9.3630100245e+01   5.2678780608e+01    0.2662552     0.201807 -82.22 0.0003285955    1.542    0.352
        76 -11.4190     63.7826     82.0672   8.0476456592e+01   5.3474213408e+01      1.40666    0.7985562   2.74  0.004950773    3.337    0.700
        77 -11.7290     46.1702     96.1610   9.1218953200e+01   5.2609358164e+01    0.9145088    0.7451361 -88.97  0.004834726    1.487    0.328
        78 -11.5560     53.7753     78.6365   8.3415931762e+01   5.5747029084e+01     1.136969     0.960176 -11.53  0.006301498    1.179    0.152
        79 -10.8630     48.9117     86.9572   8.7768290868e+01   5.4486057703e+01    0.7736857    0.3323058 -57.59  0.003022045    2.284    0.562
        80  -9.8857     44.5257     85.8285   8.9249042511e+01   5.5306470978e+01     0.507179    0.3037678  13.49  0.001021268    1.959    0.490
        81 -11.1614    118.5953     99.1264   6.7399518221e+01   3.9276311899e+01    0.5373231     0.366353 -76.24  0.001882639    2.341    0.573
        82  -8.7284     15.7091     94.9659   1.0311883882e+02   5.5828429442e+01    0.1990025    0.1769882  -2.69 0.0006097127    1.240    0.194
        83  -8.3879     14.7191     99.6923   1.0434018768e+02   5.4711231547e+01    0.1891893     0.117916 -78.24    0.0003724    1.594    0.373
        84  -9.4112     10.9603     97.3913   1.0542801920e+02   5.5538006343e+01    0.3181039    0.1826486  13.97  0.001056051    1.998    0.500
        85  -8.2698      1.4128    100.4468   1.0958343816e+02   5.5306000790e+01    0.1318718    0.1078543 -62.08 1.634909e-05    1.020    0.019
        86  -8.8949      5.0066     97.7354   1.0781349214e+02   5.5800027144e+01    0.3574011    0.1706765 -53.65  0.001110939    1.703    0.413
        87  -8.8826    131.5163     99.5159   6.4040045949e+01   3.6384800767e+01    0.1528125    0.1509092 -52.29 6.076302e-05    1.018    0.018
        88  -8.9756     34.0393     99.0602   9.6638593427e+01   5.3236874155e+01    0.2082484     0.188046 -51.97 0.0003019229    1.024    0.023
        89  -9.3384     61.5917     97.4196   8.5639983223e+01   5.0227087614e+01    0.3149509    0.2561915 -41.58 0.0009948136    1.160    0.138
        90  -8.5602     64.6269     94.2279   8.3653492544e+01   5.0535012224e+01    0.2170682    0.1977645  16.56 0.0003027632    1.124    0.110
        91  -9.1712     21.9978     96.7890   1.0094334410e+02   5.4897117034e+01    0.3091897    0.1729001  35.70  0.001481343    1.996    0.499
        92  -8.7886    127.6829     95.6887   6.3958726192e+01   3.8021279080e+01    0.1566752    0.1231148   3.98 0.0004272272    1.641    0.390
        93 -10.6221    116.4920     88.4886   6.4896143226e+01   4.1956470975e+01    0.6721229    0.2956451 -26.79  0.001779251    4.926    0.797
        94 -11.2568    111.2476     93.4001   6.7848311230e+01   4.2062465687e+01    0.6354986    0.3252392  42.33  0.001520787    1.969    0.492
        95 -10.4095    108.0750     89.7240   6.7694025172e+01   4.3509235393e+01    0.4307313    0.3224502  11.89 0.0008360538    1.710    0.415
        96 -10.6987    106.7691     85.9918   6.6955520376e+01   4.4561546390e+01    0.5238181    0.3136838  40.59  0.000317349    1.683    0.406
        97  -9.0955     90.2506     94.2737   7.4637600842e+01   4.6105396234e+01    0.2593584    0.2243829 -14.95 0.0006312994    1.224    0.183
        98 -11.7479     97.4663     89.5566   7.0903037707e+01   4.5732263811e+01     1.695844    0.7148016 -37.79  0.005845269    2.661    0.624
        99 -10.0154    132.8473    245.6699   9.2533069123e+01   5.1374410244e+00    0.3385974     0.226393 -56.51  0.001956118    1.864    0.463
       100 -12.0015    138.9330     55.6622   4.9269054514e+01   4.2620276084e+01    0.8496596    0.7704297 -67.86 0.0009535961    1.131    0.116
       101 -11.2584     84.0875     76.0060   7.1096705972e+01   5.1214679721e+01     1.283021    0.9725502  -4.88  0.006180519    1.596    0.374
       102  -9.8605    197.6917    245.4286   7.9321732970e+01  -3.4811926305e+00    0.2126068    0.1252296 -15.37  0.001200884    1.773    0.436
       103 -10.8635    177.0291    234.4749   8.1695455986e+01   8.7261243036e-01    0.2338642    0.1879113   3.20  0.001050388    1.065    0.061
       104 -10.5453     93.9991     46.1119   5.7286190239e+01   5.4528083661e+01    0.5023544    0.2582223 -39.43  0.000818262    2.061    0.515
       105  -8.9835     84.9598     93.6391   7.6227420747e+01   4.7236932938e+01     0.490711    0.2303091  39.79  0.001878254    2.158    0.537
       106  -9.0460     31.7073     94.1982   9.6513072023e+01   5.4679525826e+01     0.247488    0.1941709  22.38 0.0006626187    1.389    0.280
       107  -9.3403    134.8710     93.5098   6.1500301121e+01   3.6862015113e+01    0.2255914    0.1509351  47.34 0.0006578324    1.506    0.336
       108  -8.7083     21.7802     89.4117   9.9552168906e+01   5.6746733268e+01    0.3458398    0.1584458 -60.31 0.0009274361    1.845    0.458
       109  -8.4708      1.2294     90.5367   1.0822020933e+02   5.7780942302e+01    0.2272696   0.09167159 -70.06 6.698577e-06    2.075    0.518
       110  -9.2009     15.2805     86.4790   1.0167884100e+02   5.7956920410e+01    0.5095028    0.3060514 -73.76  0.002555803    1.675    0.403
       111  -9.2154      7.0773     87.9421   1.0539491164e+02   5.8116365653e+01     0.189323    0.1655461 -55.74 0.0003768457    1.043    0.041
       112  -8.2288    174.0038     87.0405   5.1299904142e+01   2.9202453693e+01    0.1868178    0.1689948  22.25            0    1.280    0.219
       113  -8.3335    177.4604     85.5155   5.0278067708e+01   2.8695127824e+01    0.2379309    0.1414624  56.81  0.001080271    1.763    0.433
       114  -9.5633    121.5001     86.7401   6.2997250487e+01   4.1205568248e+01    0.3355712    0.1912616  60.48  0.001303923    2.190    0.543
       115  -9.8490    166.4624     85.0721   5.2201199242e+01   3.1254794910e+01    0.2621741     0.213354  67.68  0.001364473    1.294    0.227
       116 -10.0438     28.6913     83.1174   9.5211872612e+01   5.7670908767e+01    0.4205796    0.3272038  84.36  0.001450918    1.664    0.399
       117  -8.7411     88.5313     83.9452   7.2107807364e+01   4.8697343657e+01    0.2264965    0.1889878  32.94 0.0003327603    1.199    0.166
       118 -10.0046    139.3021     82.8519   5.7364192861e+01   3.7912631552e+01    0.3534695    0.2430251  77.38  0.001062991    1.976    0.494
       119 -10.8425    128.0189     80.1460   5.9312501438e+01   4.1013175576e+01    0.4664047    0.3577476  71.58            0    1.532    0.347
       120 -11.0895    125.9855     74.7257   5.8173641765e+01   4.2484308604e+01    0.5798214    0.3321983  47.83  0.002484973    1.715    0.417
       121 -11.0685    136.8711     77.4844   5.6356619636e+01   3.9462589178e+01    0.6421018    0.4068361  61.17  0.001767658    1.707    0.414
       122 -12.3316    140.3053     72.4670   5.4076321909e+01   3.9550264607e+01     1.249832    0.5195925  51.62 0.0007526168    2.343    0.573
       123 -11.4521    146.9939     67.6463   5.1206942739e+01   3.8788774755e+01    0.7043405    0.5274819  47.25  0.002208603    1.359    0.264
       124  -9.0932     40.0677     80.9795   8.9802528938e+01   5.6980223769e+01    0.2098549    0.1876713 -32.37 0.0003183011    1.006    0.006
       125  -7.8722      5.6694     75.3638   1.0365042990e+02   6.1234934966e+01    0.2013908    0.1134283  27.31 0.0001274692    2.020    0.505
       126  -9.1760      8.7728     79.6040   1.0311471744e+02   6.0045354508e+01    0.4572989    0.2174373 -22.10  0.002028204    2.505    0.601
       127  -9.0464      9.0000     76.0275   1.0228399224e+02   6.0886478245e+01    0.2685162    0.1716288 -76.83  0.001187661    1.655    0.396
       128  -8.4662      1.9569     80.6905   1.0629539931e+02   6.0149229791e+01    0.1703835    0.1527549 -36.29 0.0005178019    1.125    0.111
       129 -11.4902    169.7709     76.5116   4.9288428397e+01   3.1976143254e+01    0.9251229    0.4659292  67.59  0.003647457    2.472    0.596
       130 -11.6201    172.0934     68.8310   4.6820142792e+01   3.2699775243e+01    0.8059074    0.5879202 -71.98  0.004065305    1.550    0.355
       131  -9.8475     25.0863     77.4269   9.5387885113e+01   5.9354319959e+01    0.6614023    0.3070496 -14.39  0.002245794    3.534    0.717
       132 -11.1715      9.2397     44.0072   9.3749032615e+01   6.8004595939e+01     1.154489    0.6754184  59.79  0.004971388    3.882    0.742
       133 -11.0224     10.9822     68.0193   9.9574955775e+01   6.2638072133e+01    0.5543773    0.3060743 -23.84 0.0007756034    1.905    0.475
       134  -9.7691     18.2732     66.1040   9.5606418555e+01   6.2547218507e+01    0.4222182    0.2140549 -39.54  0.001729039    1.761    0.432
       135 -11.3175     29.2022     61.4329   8.8996429439e+01   6.2579144730e+01    0.7641211    0.5292792 -39.95  0.001628326    1.267    0.211
       136 -10.7299     23.8622     68.5246   9.3615112953e+01   6.1523464495e+01    0.5558475    0.3297803  17.86  0.001744235    1.801    0.445
       137 -10.9458     19.7009     56.5618   9.2165234521e+01   6.4536951784e+01    0.3232772    0.3065035 -43.49 0.0005054002    1.211    0.174
       138 -11.9106    178.6768    242.3385   8.2560946470e+01  -5.7884906412e-01     0.646149    0.3568493  15.12  0.003368167    1.862    0.463
       139 -10.4763     37.7463     72.4278   8.8391978139e+01   5.9213582336e+01    0.4065606    0.3197013  -7.19  0.001497142    1.295    0.228
       140 -10.9000     33.6381     70.5765   8.9691511046e+01   6.0090129372e+01    0.6713696    0.3081746 -43.78 0.0009955888    1.951    0.488
       141 -11.0267      6.9035     35.1491   9.2039734489e+01   6.9946058079e+01     0.451521    0.3964841 -60.82  0.002532361    1.415    0.293
       142  -9.1913    245.3997    241.7457   7.0241880817e+01  -8.4819744363e+00    0.1952834   0.09095778 -36.69  0.001044291    2.076    0.518
       143 -10.8604     87.8846     47.2852   5.9632326596e+01   5.5666716165e+01    0.4801944    0.4066699  23.44  0.001107466    1.148    0.129
       144 -10.0822    193.7933     72.6479   4.4365794506e+01   2.7204099045e+01    0.2385175    0.1739209  78.46 0.0007834968    1.506    0.336
       145 -10.2365    187.1720     72.1355   4.5236323228e+01   2.8747179924e+01    0.2274136    0.2100872 -54.33 0.0002870404    1.048    0.046
       146  -9.5876    181.9610     71.6671   4.5936348391e+01   2.9990890955e+01    0.1977889    0.1798292  84.09 0.0008400516    1.100    0.091
       147 -10.0697    200.0979     70.2726   4.2884657300e+01   2.6205368183e+01    0.2794743    0.1470596 -57.65   0.00122923    2.126    0.530
       148 -10.9172     83.5927     40.9614   5.8571722284e+01   5.7537518390e+01     1.450012    0.4184303  40.74  0.004510169    3.865    0.741
       149  -9.1225    158.2501     78.1050   5.1910470111e+01   3.4368105387e+01    0.2931875    0.1992909 -56.87  0.001364941    1.600    0.375
       150  -8.5357    220.9690    239.2959   7.4062569403e+01  -5.4458279461e+00    0.1693365    0.1247799   5.02 0.0009073471    1.076    0.071
       151 -10.3714    113.3911     80.5882   6.3365927743e+01   4.4215997086e+01    0.3929308    0.2939972  51.96  0.001887756    1.360    0.265
       152 -10.5071     97.0058     60.4752   6.1574294486e+01   5.1527064360e+01    0.4325815    0.2913888 -50.07  0.002038665    1.690    0.408
       153  -8.3403      1.4765     62.5727   1.0291520136e+02   6.4427559307e+01    0.1278875    0.1028242 -43.59  2.20936e-05    1.017    0.017
       154  -8.8612    177.5479     60.1144   4.3614280430e+01   3.2788186270e+01    0.2086402    0.1310103 -36.92  0.001018783    1.562    0.360
       155 -11.8779    162.3614     55.3705   4.4777295080e+01   3.7052721048e+01    0.8488544    0.5500132 -39.46  0.002831469    1.527    0.345
       156  -9.0026    169.3364    235.3062   8.3394156489e+01   1.7976989054e+00    0.1322988   0.08694813  -0.89 0.0007040821    1.673    0.402
       157 -10.4804    149.6730     53.6421   4.6537041106e+01   4.0341799530e+01    0.4533698    0.3371674  79.18  0.001740404    1.427    0.299
       158 -10.9389    190.9516    233.5467   7.8774984224e+01  -8.5841053884e-01    0.3536687     0.224369  25.86  0.002073229    1.395    0.283
       159 -11.9489    204.5004     57.1122   3.9156428713e+01   2.7206135354e+01    0.5142542    0.3084581 -85.03  0.001647866    2.075    0.518
       160  -9.9185      3.0858     56.4878   1.0066045813e+02   6.5714372288e+01    0.5688708    0.3229406  26.87   0.00309667    2.013    0.503
       161  -9.9277      3.1764     51.7420   9.9378152237e+01   6.6751184819e+01     0.382103    0.2197025 -12.43  0.002078856    1.802    0.445
       162  -9.1655    187.6358     58.6793   4.1754860772e+01   3.0697887152e+01    0.1355085    0.1051389  27.34 0.0007040268    1.781    0.439
       163  -9.9902    174.7884     55.9526   4.2933182369e+01   3.4043163156e+01    0.3573159    0.2702791   4.80  0.001253167    1.964    0.491
       164 -11.9570    118.9067     62.2372   5.6008203392e+01   4.6308921439e+01     1.247429    0.6809262 -24.74  0.003838532    2.345    0.574
       165 -11.3893    176.9562     45.2606   3.9770660318e+01   3.5037000971e+01    0.5437742    0.2612723  49.58   0.00224533    2.322    0.569
       166  -9.1191     68.9836     55.8687   6.9580608280e+01   5.7950039925e+01    0.2028496    0.1861515   5.28  0.001179083    1.018    0.018
       167 -11.5907    192.2144     50.6271   3.9115725580e+01   3.0814996646e+01    0.5452037    0.1790774 -42.43  0.002127743    2.669    0.625
       168 -10.6308    193.4779     44.4110   3.7418643097e+01   3.1373929850e+01    0.2326546    0.2049826 -68.24 0.0005591081    1.019    0.019
       169 -11.3430    186.3377     47.5969   3.9113099862e+01   3.2558724928e+01    0.4918025    0.2832034 -21.62  0.002276902    2.279    0.561
       170 -11.3680     39.9928     61.5038   8.3946184568e+01   6.1325096179e+01    0.5748609    0.4421138  -2.17   0.00117233    1.310    0.236
       171 -10.1708    212.9745    216.4762   7.1739073133e+01  -1.1532320550e+00     0.241296    0.1404206  28.31 0.0008893607    1.650    0.394
       172 -11.1243     94.7020     69.0396   6.5243219607e+01   5.0458401806e+01     1.119915    0.4303404 -49.09  0.003754246    3.153    0.683
       173  -9.6916     41.6105     43.4789   7.6515143913e+01   6.4642997858e+01    0.4695339    0.2798368 -59.22  0.002152295    2.569    0.611
       174  -8.8907     23.4471     44.0597   8.5972825641e+01   6.6756108329e+01    0.2374748    0.1758238  24.84 0.0009858366    1.427    0.299
       175 -11.1795     30.7363     37.7654   7.9614400071e+01   6.7115244377e+01    0.3700075    0.2492507 -32.89 0.0006368613    1.347    0.258
       176  -8.9680     25.0262     38.3365   8.2899117589e+01   6.7679814665e+01     0.238105    0.1865421  -5.75 0.0007021318    1.135    0.119
       177 -10.3711    111.6205     34.6465   4.8333633386e+01   5.2093861010e+01    0.5699365    0.4239298 -33.02  0.002084734    1.449    0.310
       178 -11.3500    180.4395     49.1830   4.0318044028e+01   3.3694222226e+01    0.6004571    0.3140607 -28.88  0.002727506    2.124    0.529
       179 -10.0452    132.5819     30.3123   4.2470343694e+01   4.7586250046e+01    0.3702562    0.2089059  53.27  0.001567825    1.630    0.386
       180  -9.9108    125.5600     26.9079   4.2663482889e+01   4.9681858643e+01     0.408196    0.2099042 -36.98  0.001896916    2.050    0.512
       181 -10.4457    138.5467     35.2168   4.2951224060e+01   4.5543283690e+01    0.4030398    0.2853519  72.34  0.001348799    1.367    0.269
       182  -8.3370    219.5894    209.8512   6.9375812961e+01  -1.0090866517e+00    0.1608455    0.1081567 -42.59 0.0005543241    1.671    0.402
       183  -8.6643    229.6587    203.3026   6.6431038436e+01  -1.3261560038e+00    0.1040893    0.1001604 -57.90 0.0007038934    1.676    0.403
       184  -8.8425    174.4977     33.4836   3.6971294102e+01   3.7121722927e+01    0.1300463    0.1192681  86.45 -6.218362e-05    1.080    0.074
       185  -8.9748    123.4839     32.0250   4.4806203869e+01   4.9584839335e+01    0.2476479    0.1699204  51.74 0.0004689184    1.344    0.256
       186  -8.4382    120.4292     31.5231   4.5268729357e+01   5.0380609757e+01    0.1365044    0.1249695  55.71 8.051481e-05    1.023    0.022
       187 -10.8077     41.7014     54.1757   8.0591832805e+01   6.2601088747e+01    0.6716865    0.3822548  12.13  0.002692543    2.141    0.533
       188  -8.0455    101.0740    176.0858   8.9806745202e+01   2.4355011471e+01    0.1632774    0.1599253  28.65 0.0009140471    1.020    0.020
       189  -9.3643    138.0507     28.6894   4.0978157505e+01   4.6445857236e+01    0.2168212    0.1959427 -19.79 0.0002929004    1.261    0.207
       190  -7.9760    115.3257     28.2731   4.5220906142e+01   5.1987609858e+01    0.1404188    0.0945907  36.58 0.0003008004    1.581    0.367
       191  -9.1228     16.2892    174.3521   1.1270909507e+02   3.5474589584e+01    0.1322965   0.08851946 -48.82 0.0002842051    1.671    0.401
       192 -10.4964      6.8580    166.7086   1.1460823792e+02   3.8131580364e+01    0.2815193    0.2370447  60.38  0.001653255    1.154    0.133
       193  -9.1904     41.6280     26.8334   6.9176313917e+01   6.7398661183e+01    0.2198219    0.1971179 -76.64 0.0009784583    1.833    0.454
       194  -9.4636     38.7154     22.7228   6.8619883595e+01   6.8454141638e+01    0.3923865    0.3060075  80.40  0.001996975    2.995    0.666
       195 -10.8636      5.3403    158.7632   1.1440048440e+02   4.0228772875e+01    0.3829805    0.3204464 -55.96  0.002417504    1.261    0.207
       196  -9.1149     23.4779     26.4303   7.8593865198e+01   6.9955412441e+01    0.2760568    0.1120213  23.64  0.001222271    2.608    0.617
       197  -7.8552     94.6664     24.2481   4.8639869247e+01   5.7280049850e+01    0.1271389    0.1024243 -89.02 0.0001467286    1.554    0.356
       198  -9.9016     30.3348    156.8548   1.0706551834e+02   3.8622883193e+01    0.2788026    0.1850037  31.77  0.001446935    1.581    0.367
       199  -9.5169     89.6401     23.0738   4.9523242516e+01   5.8548559244e+01    0.2809176    0.2633379 -79.90 0.0009438687    1.264    0.209
       200  -8.5149     51.1578    156.3883   1.0082977670e+02   3.6477515087e+01    0.1888813    0.1258124  43.20 0.0002119438    1.515    0.340
       201 -10.1506    132.0511     21.2515   3.9617180659e+01   4.8723704633e+01    0.4431148     0.264974 -72.06  0.001423713    2.196    0.545
       202  -9.8420     30.7317     19.9500   7.1381938385e+01   7.0032863380e+01    0.2229531     0.191331  16.18 0.0007083382    1.198    0.165
       203  -9.2829     16.0145     75.1148   9.8908098155e+01   6.0635695688e+01    0.4052756    0.2799848  55.12  0.002148896    1.949    0.487
       204  -9.5192    102.9914     24.4900   4.6641815806e+01   5.5332666262e+01    0.3035984    0.1853113  36.56  0.001008543    1.710    0.415
