#   1 NUMBER                 Running object number                                     
#   2 MAG_AUTO               Kron-like elliptical aperture magnitude                    [mag]
#   3 X_IMAGE                Object position along x                                    [pixel]
#   4 Y_IMAGE                Object position along y                                    [pixel]
#   5 X_WORLD                Barycenter position along world x axis                     [deg]
#   6 Y_WORLD                Barycenter position along world y axis                     [deg]
#   7 A_WORLD                Profile RMS along major axis (world units)                 [deg]
#   8 B_WORLD                Profile RMS along minor axis (world units)                 [deg]
#   9 THETA_WORLD            Position angle (CCW/world-x)                               [deg]
#  10 FWHM_WORLD             FWHM assuming a gaussian core                              [deg]
#  11 ELONGATION             A_IMAGE/B_IMAGE                                           
#  12 ELLIPTICITY            1 - B_IMAGE/A_IMAGE                                       
         1 -15.0525     12.8860    149.4215   1.4172942986e+02   4.2752878070e+01     11.56811     5.002697  82.93   0.04836471    3.257    0.693
         2 -13.3868    198.4861     28.0893   6.6726585636e+01   3.2438027644e+01     1.394538     1.284178  22.00  0.007021288    1.398    0.285
         3 -13.4045    213.7612      9.9449   6.0708283649e+01   3.0889210630e+01    0.9409727    0.8223199  65.24  0.004057524    1.273    0.215
         4 -12.4611      3.2629      5.4704   1.1225207010e+02   7.1723803506e+01    0.5592258    0.3131987 -40.88  0.003906149    1.676    0.403
         5  -9.4812     65.9580    249.8425   1.4083506361e+02   1.4956282679e+01    0.1649409    0.1401218  67.27 0.0004867697    1.232    0.188
         6 -11.4672    247.9641    249.1545   1.0700397406e+02  -1.4062756696e+01    0.5521165    0.2306084  35.60  0.002842914    2.108    0.526
         7 -12.2625    238.6304    247.7234   1.0840888958e+02  -1.2539256841e+01    0.4473274    0.3449089  38.20  0.003002462    1.392    0.281
         8 -11.0924    123.5514    250.0107   1.3033291414e+02   6.0557836464e+00    0.4108842    0.1389004  42.19  0.001723419    2.491    0.598
         9 -10.6774     46.4848    248.7872   1.4410132386e+02   1.7762625172e+01    0.2948054    0.1660239  83.13  0.001112886    1.585    0.369
        10 -10.4972     28.9078    249.0188   1.4702921336e+02   1.9877854057e+01    0.3248822    0.2025504 -63.17  0.001014188    1.922    0.480
        11 -11.5471     35.5328    244.9787   1.4566720468e+02   1.9851474911e+01    0.5898141    0.3190131 -60.39   0.00356885    2.201    0.546
        12  -8.7305     30.6332    242.2982   1.4630074019e+02   2.0951013654e+01     0.261554    0.1259662  68.84  0.001511776    1.790    0.441
        13 -10.8780     10.8002    249.7599   1.4994259591e+02   2.1770578995e+01    0.2457451    0.1861609  32.71  0.001834918    2.039    0.510
        14 -11.7809     99.3393    248.0440   1.3463813965e+02   1.0326869390e+01    0.4528994    0.3085721  34.21  0.002649155    1.712    0.416
        15 -10.3914     81.4984    249.0012   1.3799747709e+02   1.2876321234e+01    0.1975972    0.1373083  54.83  0.001258521    1.182    0.154
        16  -9.6716    209.6565    246.6797   1.1350985931e+02  -7.9261004637e+00    0.1292768   0.08542437  11.20 0.0001184069    1.725    0.420
        17  -9.5237    145.3339    245.3072   1.2557291829e+02   3.1889029787e+00    0.1232538   0.09682191  15.18 0.0007040775    1.669    0.401
        18 -10.8202      3.8003    250.0534   1.5102997236e+02   2.2450475987e+01    0.3589102    0.1758797  64.73  0.002403072    1.520    0.342
        19  -9.9393     17.8898    241.3746   1.4833833742e+02   2.2579845325e+01    0.1828883    0.1104188  80.64 0.0004524771    1.247    0.198
        20  -9.3732     13.2997    239.6756   1.4897917780e+02   2.3402449441e+01    0.1165884   0.05743789  70.28 0.0005243809    1.631    0.387
        21  -9.0972      1.6841    242.3033   1.5096058303e+02   2.4105874160e+01    0.1127847   0.05363445  68.82 0.0002381221    1.621    0.383
        22 -11.9629    184.4022    239.5324   1.1715683396e+02  -2.6325433562e+00     0.439999    0.2468383  55.54  0.002105712    2.166    0.538
        23 -10.9098    229.6825    230.6839   1.0710744889e+02  -8.8668141874e+00    0.5019953    0.2861855 -60.33  0.001892275    5.040    0.802
        24 -10.8098     50.4252    235.6908   1.4238233007e+02   1.9786818240e+01    0.2649545    0.1926874 -87.93  0.001015242    1.197    0.165
        25 -11.3152    176.9805    249.9220   1.2016137471e+02  -2.9828297493e+00    0.3191712    0.2058575  34.17  0.001817066    1.366    0.268
        26 -11.0847    198.8238    247.4851   1.1566189817e+02  -6.2741509357e+00    0.3856497    0.2091724 -39.15   0.00205348    2.130    0.531
        27 -10.2732    135.7469    231.4173   1.2553911386e+02   7.3415875750e+00    0.1893231    0.1160681  35.44 0.0009515085    1.652    0.395
        28 -10.5431      5.9348    240.9728   1.5022637276e+02   2.3925988213e+01    0.1604081    0.1142829  78.61 0.0004362011    1.073    0.068
        29 -10.4403      9.4937    228.0263   1.4890499542e+02   2.6069459862e+01    0.2880331   0.08470683 -75.92  0.001380316    2.800    0.643
        30  -9.4575      4.6927    228.6776   1.4973751148e+02   2.6424609446e+01   0.09599908   0.07284746 -66.21 0.0003144788    1.643    0.392
        31  -8.6533    172.3089    222.6740   1.1682096180e+02   2.3468942806e+00    0.1337233    0.1034237  73.11 0.0007038348    1.655    0.396
        32 -12.4743     46.4668    214.3829   1.4123794402e+02   2.4671793564e+01    0.7016537    0.5267203 -81.53  0.003159946    1.189    0.159
        33  -8.6916    152.4781    212.9341   1.1928738173e+02   7.8327622864e+00    0.1833591    0.1391909 -54.90 0.0004432092    1.451    0.311
        34 -12.4893     10.0725    206.8878   1.4741713595e+02   3.0318720309e+01    0.5799826    0.4110186  32.65  0.002834978    1.892    0.471
        35 -11.6086     58.8031    197.9571   1.3707329667e+02   2.6650226585e+01    0.2749361    0.2242382 -64.86 0.0005192108    1.324    0.244
        36  -9.9795    192.6172    194.5250   1.0760400640e+02   3.6569157218e+00    0.6848932    0.3327601 -63.83  0.001786884    6.731    0.851
        37 -10.8830     10.9423    194.6014   1.4634650707e+02   3.2845329727e+01     0.248542    0.1671208  62.39  0.001679637    1.346    0.257
        38 -12.7774     31.3714    231.7135   1.4542800634e+02   2.2936800089e+01    0.2900991    0.2393583 -78.48 0.0007267234    1.384    0.277
        39 -11.9104     65.3186    189.6442   1.3468515870e+02   2.7638612561e+01    0.2857806    0.2384223 -60.63 0.0004283887    1.321    0.243
        40 -13.7832     36.6637    224.6600   1.4395024454e+02   2.3733770571e+01    0.7068951      0.51502  74.14  0.002361652    1.055    0.052
        41 -10.8337     75.7508    176.8855   1.3059824539e+02   2.9096247044e+01    0.2498489    0.2117938 -74.03 0.0003279818    1.104    0.094
        42 -13.2465     62.3849    174.8482   1.3339650720e+02   3.1468481480e+01    0.5311954    0.2790797 -46.49  0.001893174    2.345    0.573
        43  -9.8353     95.7910    172.4106   1.2517848480e+02   2.6985130576e+01    0.2961522    0.2099282  62.76 0.0007216602    1.450    0.310
        44 -11.7504     83.4542    167.7935   1.2736685226e+02   3.0073106122e+01    0.6392896    0.5646302 -50.91  0.003711333    1.263    0.208
        45 -10.5198     11.2784    232.4026   1.4887497686e+02   2.5024185065e+01    0.2388513    0.1309436  36.78  0.001514293    2.165    0.538
        46 -10.0292     96.6058    152.0550   1.2130459450e+02   3.1688786736e+01    0.3017417    0.2779907 -72.91 0.0008169012    1.035    0.034
        47 -12.0538     85.0192    151.0483   1.2406796088e+02   3.3833742638e+01      0.30423    0.2483942 -46.63 0.0005381693    1.295    0.228
        48  -9.1336     99.6478    147.9846   1.1972648195e+02   3.2137858758e+01    0.2090486    0.1739662 -59.33 0.0004241164    1.140    0.123
        49 -12.1968     67.4837    143.6271   1.2725726297e+02   3.8211617325e+01    0.6786463    0.4473327  70.03  0.002955192    1.852    0.460
        50 -10.4793     95.7892    134.3291   1.1789657355e+02   3.6059807682e+01    0.2551431    0.2208286 -40.62 0.0003681437    1.211    0.174
        51 -11.6567     25.9721    128.5617   1.3575957762e+02   4.6448083306e+01    0.4761012    0.2282574  54.89  0.001702409    2.785    0.641
        52 -11.2928     20.3526    125.8016   1.3684656545e+02   4.7558504669e+01    0.2757986    0.2095148  61.74 0.0008172399    1.500    0.333
        53  -9.5527    108.5222    137.3392   1.1518103590e+02   3.3072874069e+01    0.4479488    0.2934255 -17.35  0.001709673    2.816    0.645
        54 -10.3529     82.3459    125.0448   1.1955446854e+02   4.0458407583e+01    0.3370981    0.2292795  65.51  0.000938713    1.895    0.472
        55  -9.3845     76.2696    129.1903   1.2212198384e+02   4.0403408970e+01    0.2500184    0.1666983  65.17 0.0004585995    1.915    0.478
        56  -8.9738    106.1081    123.7260   1.1270509219e+02   3.6706022180e+01    0.1903796    0.1861653  43.68 0.0002656264    1.084    0.078
        57  -7.9634     68.6703    123.3060   1.2302338677e+02   4.2881152391e+01    0.1399859    0.1044083  79.51 0.0004170282    1.657    0.396
        58 -10.4353    167.8488    112.9035   9.4543571665e+01   2.5822491401e+01    0.3285721    0.2713943 -81.17 0.0004987448    1.390    0.281
        59  -8.8836    203.1585    111.6027   8.6977710165e+01   1.7762731487e+01    0.2107318    0.1415062  41.76 0.0005755766    1.655    0.396
        60 -10.6081     42.3906     96.8998   1.2516693100e+02   5.2077771415e+01    0.4498906    0.2318344  50.93  0.002046875    2.865    0.651
        61 -11.3030    242.0016     93.9024   7.6362929322e+01   1.2229694787e+01    0.2662585    0.2414903  16.56  0.001536607    1.407    0.289
        62  -8.3148     65.2893     81.6672   1.1397197415e+02   5.2571370879e+01     0.126305    0.1054423 -84.71 0.0003028245    1.628    0.386
        63  -9.4078    158.4756     77.0013   8.6870149017e+01   3.5021375241e+01    0.2257574    0.1497877 -38.00 0.0005190121    1.545    0.353
        64 -10.0022     47.6679     69.9258   1.1657508133e+02   5.7122918065e+01    0.2165824    0.1865816  50.68  0.000726796    1.528    0.346
        65 -12.6359      6.3005     52.7296   1.2702702851e+02   6.3939952719e+01    0.5340915    0.4157557  -1.80 0.0009015173    1.404    0.288
        66 -11.2522    172.1878    247.8920   1.2077606504e+02  -1.8526281541e+00    0.3033352    0.2534891 -80.87  0.001909786    1.597    0.374
        67  -9.3415    156.6746    249.6813   1.2399506339e+02   5.1351320895e-01    0.1234216   0.09414626  14.34 0.0007045658    1.676    0.403
        68 -11.1904      2.7175     38.4093   1.2444627663e+02   6.6712579956e+01    0.2433755    0.1411327 -56.28  0.001578076    1.638    0.389
