#   1 NUMBER                 Running object number                                     
#   2 MAG_AUTO               Kron-like elliptical aperture magnitude                    [mag]
#   3 X_IMAGE                Object position along x                                    [pixel]
#   4 Y_IMAGE                Object position along y                                    [pixel]
#   5 X_WORLD                Barycenter position along world x axis                     [deg]
#   6 Y_WORLD                Barycenter position along world y axis                     [deg]
#   7 A_WORLD                Profile RMS along major axis (world units)                 [deg]
#   8 B_WORLD                Profile RMS along minor axis (world units)                 [deg]
#   9 THETA_WORLD            Position angle (CCW/world-x)                               [deg]
#  10 FWHM_WORLD             FWHM assuming a gaussian core                              [deg]
#  11 ELONGATION             A_IMAGE/B_IMAGE                                           
#  12 ELLIPTICITY            1 - B_IMAGE/A_IMAGE                                       
         1 -17.1501    148.3383    193.7545   1.0447451696e+02   1.4780720541e+01     6.481966     3.817403 -88.40     0.027146    3.486    0.713
         2 -16.4236    178.2556     45.6776   6.2866572267e+01   3.5111537833e+01     4.016579     2.969258  23.93    0.0160446    1.584    0.369
         3 -17.3438    215.1666     98.6777   7.1399485929e+01   1.7249887631e+01     5.870254     4.174583 -59.00   0.02673168    1.742    0.426
         4 -12.6706    132.9839     34.8399   6.8667854738e+01   4.7948192391e+01    0.6080019    0.3686977   9.50  0.002447578    2.444    0.591
         5 -18.9312    190.3097    129.5450   8.3841363188e+01   1.7687012215e+01     8.534363     5.571304  68.84   0.03663775    2.067    0.516
         6 -12.5027    210.3746     24.9332   5.1468639137e+01   2.9412376438e+01    0.3905632    0.2389867  50.31  0.001785305    1.657    0.396
         7 -11.2246     50.6869     18.1426   8.7243384278e+01   6.5411869429e+01    0.2949991    0.1405781 -43.53  0.001112334    1.951    0.487
         8 -10.8383     89.9282     13.6970   7.1723798004e+01   5.9874411249e+01    0.2196215    0.1584948 -10.69 0.0002522864    1.295    0.228
         9 -13.9652    237.2993      6.0433   4.3292490218e+01   2.4641876198e+01    0.8318654    0.5997697  40.85  0.004433573    1.646    0.393
        10 -12.4452    244.4840      9.3792   4.3482818824e+01   2.2515378051e+01    0.2842827    0.2032939 -53.26  0.001282521    1.306    0.234
        11 -12.6745    248.5820      4.8418   4.1988323166e+01   2.2009182213e+01    0.5765391    0.3692368 -34.31  0.002466654    1.477    0.323
        12 -11.5112     26.2155      7.6900   9.2866384728e+01   6.9724445798e+01    0.2237017    0.1802976  -3.46  0.001086023    1.243    0.196
        13 -12.1705    178.4284      5.7390   4.9941954407e+01   3.9951644810e+01    0.2810239    0.2537501 -19.91 0.0002500162    1.180    0.152
        14 -11.9148    224.2597      4.9848   4.4268741512e+01   2.8036652816e+01    0.1907843    0.1768314 -50.11 0.0004302236    1.087    0.080
        15 -10.6296    185.4759      5.4553   4.8886860708e+01   3.8122106462e+01    0.1417519     0.132426  68.70 3.699246e-05    1.004    0.004
        16 -11.1033    202.1136      3.8811   4.6342651293e+01   3.3891859770e+01    0.2163297    0.1783043 -69.19 0.0003783021    1.226    0.184
        17 -11.0462    208.0035      1.6474   4.5035601046e+01   3.2568811920e+01    0.2022698    0.1669489  76.34 0.0005218155    1.134    0.118
        18  -9.9071     93.7680      2.0324   6.5415681142e+01   6.0473990771e+01    0.1652001   0.09926666 -20.55  0.000530873    1.582    0.368
        19 -10.0271     80.5472    238.4890   1.2112631703e+02   1.8029181322e+01    0.1055063   0.07717935  65.95  5.36455e-05    1.043    0.041
        20 -12.2704    236.5936    250.0986   9.7623400324e+01  -7.5149785990e+00    0.3464718     0.102382  43.30   0.00117006    2.536    0.606
        21 -11.5221    222.8903    250.2339   9.9768680507e+01  -5.4267766665e+00    0.1625005    0.1196776  42.91  0.000549891    1.221    0.181
        22 -11.7482    202.7093    250.1154   1.0292176092e+02  -2.2454367137e+00     0.295187    0.1262274  48.18  0.001622138    1.903    0.475
        23 -11.9020    187.3612    249.8174   1.0531472928e+02   2.3392074350e-01    0.3769837    0.1546573  51.38  0.001964874    2.172    0.540
        24 -10.6877     43.3337    238.1123   1.2670843055e+02   2.2712114617e+01    0.1408472   0.09111383  77.11 0.0007383635    1.140    0.123
        25 -11.7121    234.3686    235.5932   9.5867375438e+01  -5.7769583439e+00    0.2285712    0.1784492  35.58  0.001233007    1.153    0.133
        26 -12.0147    193.0358    233.4361   1.0226665839e+02   1.2234645421e+00    0.2812527    0.1820197 -38.85 0.0008345221    1.985    0.496
        27 -10.6649     32.6593    235.1527   1.2809933128e+02   2.4376099417e+01    0.2022472   0.07880779  60.37  0.001207448    1.922    0.480
        28 -11.0236    245.3471    233.9012   9.3875043338e+01  -7.3323685412e+00     0.153154    0.1174093  16.74 0.0004645986    1.123    0.109
        29 -10.9502    249.8519    232.3124   9.2921916057e+01  -7.8771082127e+00    0.1654113    0.1425961  -8.30 0.0007040146    1.374    0.272
        30 -12.2876    175.7064    230.1929   1.0471542244e+02   4.5434298868e+00    0.3636906     0.288787 -10.07  0.002069485    1.774    0.436
        31 -10.1907     57.6825    233.6667   1.2429168025e+02   2.1725609654e+01   0.08321266   0.07816728 -85.98 0.0007047943    1.692    0.409
        32 -11.0177    183.7603    229.1011   1.0321830294e+02   3.3238706860e+00    0.1970445    0.1596031  43.74 0.0006184112    1.040    0.038
        33 -10.6174     81.8234    230.1544   1.2026398989e+02   1.9178036281e+01     0.132303    0.1105348  58.57 0.0002317339    1.323    0.244
        34 -10.4397     69.3535    230.1554   1.2223872931e+02   2.0828450455e+01    0.1658714     0.116977  52.05 0.0004610456    1.323    0.244
        35 -12.0076    197.2060    226.8542   1.0065046105e+02   1.3228275708e+00    0.2445937    0.2080777  49.03  0.001756659    1.187    0.158
        36 -10.3576     91.5033    227.5470   1.1847923120e+02   1.8258079308e+01    0.1112977   0.08249509  65.46 4.295201e-05    1.006    0.006
        37 -13.4165    246.9199    221.2110   9.1614653567e+01  -6.3164894155e+00    0.3448339    0.2409265   9.01  0.000949111    1.366    0.268
        38 -10.2351    219.6393    225.6978   9.6753747664e+01  -2.3266882152e+00     0.123561   0.07472119  22.83 0.0007037251    1.722    0.419
        39 -11.3367    203.1000    225.1351   9.9414296937e+01   5.2992657009e-01    0.2386936    0.1723656  36.66  0.001009156    1.105    0.095
        40 -11.1429    206.8156    221.4634   9.8243439344e+01   3.4076547517e-01    0.3012694    0.1906842   8.10  0.001644348    2.293    0.564
        41 -12.8205    205.5949    214.8011   9.7426481153e+01   1.3784102060e+00    0.3590707    0.2544204  59.19 0.0005375179    1.644    0.392
        42 -10.5324    223.3179    223.2271   9.5768094737e+01  -2.6629406274e+00     0.175193    0.1289655  12.86 0.0009683389    1.373    0.272
        43 -11.8436    132.3380    222.7095   1.1114740039e+02   1.2823115396e+01    0.3049282    0.1598277  46.85 0.0009697929    1.542    0.351
        44 -12.2322    130.4100    219.7541   1.1113601781e+02   1.3594687474e+01    0.2965372    0.2367807 -43.65   0.00203083    1.732    0.423
        45  -9.7257     15.3129    223.6996   1.3004652023e+02   2.8048144688e+01    0.1029548    0.0474502  67.95 0.0003475217    1.608    0.378
        46 -11.8659    182.8703    221.4545   1.0230652531e+02   4.4756218221e+00    0.2982084     0.189576  37.32 0.0009982837    1.364    0.267
        47 -11.1727    187.2570    220.9651   1.0148651018e+02   3.7808234832e+00    0.2743834    0.2307284  79.94  0.001860779    1.541    0.351
        48  -9.9385    106.3316    222.3388   1.1552668625e+02   1.6941122325e+01   0.09889027   0.08905979  19.54  0.000705184    1.742    0.426
        49 -11.0809    231.9232    220.5025   9.3926031457e+01  -3.7937826829e+00    0.3224737   0.09564689  44.81  0.001374112    2.774    0.640
        50 -10.1188    200.0518    220.4377   9.9230954581e+01   1.6325248953e+00    0.1885713   0.09555163  42.42  0.001014127    1.576    0.366
        51 -11.6803     91.0467    219.0146   1.1777588695e+02   1.9727250882e+01    0.1800369    0.1443992  83.48            0    1.163    0.140
        52 -11.9122     93.0610    214.5535   1.1700714125e+02   2.0192431240e+01    0.2970375    0.1921976  46.02   0.00117711    1.447    0.309
        53 -10.8303    121.2027    217.9979   1.1252516837e+02   1.5349036116e+01    0.2209461    0.1634723 -78.24  0.000801656    1.480    0.324
        54 -12.5556    124.6803    215.4635   1.1163115256e+02   1.5203505115e+01    0.3278501     0.262506  65.90  0.001480979    1.058    0.055
        55 -13.8329    220.9046    208.3284   9.3776053171e+01  -4.9950029305e-01    0.4398195    0.3049887  40.92   0.00118264    1.215    0.177
        56 -12.1145    142.7484    215.7299   1.0850026911e+02   1.2188093397e+01    0.2936261    0.2325237  74.91 0.0009738972    1.281    0.219
        57 -11.7586    137.9763    215.8320   1.0934945541e+02   1.2969515515e+01    0.2327963    0.1813728  58.97 0.0006971327    1.056    0.053
        58 -11.7511     59.1061    215.8316   1.2279767198e+02   2.4530037573e+01    0.2816956    0.2595672 -39.23  0.002204319    1.965    0.491
        59 -10.7441    234.7788    215.3174   9.2616469485e+01  -3.6956444101e+00    0.2579922      0.16883  22.15  0.001021956    1.412    0.292
        60 -16.5016    170.1171    201.2863   1.0158785295e+02   9.6301549174e+00     3.517467     1.815303  45.84   0.01801969    1.628    0.386
        61 -10.1190    125.6401    249.2049   1.1501985435e+02   1.0001662265e+01    0.1227648   0.09984254 -52.76 0.0009341639    1.733    0.423
        62 -10.0158     77.3527    192.2600   1.1755061012e+02   2.6408969476e+01    0.1561113   0.09383845 -83.04 0.0005767514    1.610    0.379
        63 -16.8671    177.2830    114.1889   8.2786983537e+01   2.3478065655e+01     2.490188     1.596864   0.09   0.00911175    2.946    0.661
        64 -10.1900    244.7794    191.1842   8.6741023072e+01  -2.6127519198e+00    0.1736369    0.1229541  13.01 0.0002788506    1.352    0.261
        65 -11.2112    227.0329    190.2708   8.9577403736e+01   6.8372648736e-01     0.298438    0.2044185  38.50 0.0008976904    1.258    0.205
        66 -12.6755    213.4759    217.0336   9.6439479808e+01  -2.6772872092e-01    0.4377509    0.3423022  13.46  0.002279583    1.305    0.234
        67  -9.5000     59.7011    186.2894   1.2019509003e+02   2.9851706295e+01    0.1173676   0.06821446  71.83 0.0001990044    1.559    0.358
        68 -11.2975    249.0076    185.1391   8.4906309395e+01  -2.6265341136e+00     0.437429    0.1273804  37.83  0.001611559    3.393    0.705
        69 -10.8620    238.5765    182.2098   8.6094230056e+01  -3.8695773781e-01     0.370364    0.2415089 -45.21  0.001998955    2.024    0.506
        70 -10.9901     92.2140    183.3793   1.1376992093e+02   2.5975393699e+01    0.1679992   0.09601206  54.50 0.0002750884    1.557    0.358
        71 -12.7496     87.4344    173.6683   1.1350609312e+02   2.8581230499e+01    0.4843984    0.2110702 -55.19  0.002337655    2.407    0.585
        72  -9.9345     21.7139    176.3120   1.2624809815e+02   3.5951945478e+01    0.1107552   0.05915812  73.11 0.0002089061    1.578    0.366
        73 -11.1370     11.2579    175.0105   1.2800950593e+02   3.7160874340e+01    0.1703813    0.1151672  67.00 0.0003028646    1.229    0.186
        74 -12.1095    101.2873    172.6564   1.1060029140e+02   2.6678578115e+01    0.3620627    0.2419594 -88.38 0.0007575148    1.599    0.375
        75 -10.6462     62.4907    173.6388   1.1840545135e+02   3.1982456204e+01    0.1975104    0.1455697  67.79 0.0003923842    1.162    0.139
        76 -10.5106     78.8321    171.8659   1.1499454776e+02   3.0170189472e+01    0.1685201    0.1503872 -81.71 0.0003419105    1.229    0.186
        77  -9.8556     56.5279    170.5165   1.1923696590e+02   3.3345161915e+01    0.1176336   0.09159764  83.56 3.751256e-05    1.001    0.001
        78 -10.6991     97.9810    166.4259   1.1040341110e+02   2.8441830436e+01    0.1871917    0.1532237 -82.77 4.603539e-05    1.127    0.112
        79 -11.3360     92.4766    165.4082   1.1139479844e+02   2.9493441378e+01    0.2322834    0.1663756 -36.31 0.0009029178    2.164    0.538
        80 -10.4163     38.1547    165.8252   1.2234309729e+02   3.6373608073e+01     0.141997    0.1148644 -74.61 0.0003579211    1.290    0.225
        81 -10.6492     82.6603    165.2834   1.1339590043e+02   3.0963390396e+01    0.1297373   0.08133851  72.28 0.0003420394    1.630    0.387
        82 -10.4474     48.6637    165.3000   1.2024340356e+02   3.5325428447e+01    0.1220566    0.0699358  71.93 0.0003761699    1.658    0.397
        83 -10.1409     65.6480    163.3116   1.1662574129e+02   3.3675435067e+01    0.1292459   0.07608776  72.61 9.429496e-05    1.724    0.420
        84 -11.1486    248.4691    159.3438   7.9840564634e+01   7.7654809831e-01    0.2618343    0.2499483 -70.17   0.00165894    1.444    0.308
        85 -11.1020     42.1397    158.6551   1.2086985147e+02   3.7409136416e+01    0.2706531    0.1340866 -76.47  0.001534141    1.716    0.417
        86 -11.7789     85.8580    159.0639   1.1189338392e+02   3.1782034755e+01    0.2608665    0.1758589  38.20  0.001077378    1.686    0.407
        87 -10.0827      2.0545    159.2628   1.2864431110e+02   4.0983303719e+01    0.1385154    0.1007588  81.45 0.0003486582    1.081    0.075
        88 -10.6599     67.0133    157.6616   1.1566159958e+02   3.4670144799e+01    0.2428733    0.1259697 -45.91  0.001165296    2.764    0.638
        89 -12.0086    102.9933    155.7426   1.0775433713e+02   2.9831375055e+01     0.329517    0.1920489 -66.04  0.001395953    1.727    0.421
        90 -11.2639     78.3117    155.9872   1.1306527976e+02   3.3501905272e+01    0.1928257    0.1456638  83.46 0.0003572038    1.195    0.163
        91 -11.0528     82.0440    155.9961   1.1227323719e+02   3.2972901028e+01    0.1969736    0.1655965  64.22 0.0003231063    1.149    0.130
        92 -12.8765     80.6598    150.5777   1.1180266054e+02   3.4311454322e+01    0.3761154    0.2617782 -78.45  0.000472163    1.328    0.247
        93 -11.0427     71.8077    152.2836   1.1395253816e+02   3.5169492517e+01    0.2012988    0.1527276 -72.61 0.0002173274    1.182    0.154
        94 -11.1448    211.9454    207.7723   9.5213721754e+01   1.1509063480e+00    0.3125694    0.1679819 -50.65  0.001540945    2.863    0.651
        95 -12.5788     97.1273    149.4553   1.0802974136e+02   3.2082724234e+01    0.4982419    0.2499976 -68.06  0.001665102    2.138    0.532
        96 -12.6259    101.9945    150.0236   1.0705346286e+02   3.1185288017e+01    0.4254465    0.2516694  66.95  0.002046564    1.988    0.497
        97 -12.0881     90.1544    149.7049   1.0959919647e+02   3.3105893227e+01    0.3863003     0.205243 -55.14  0.001275764    1.849    0.459
        98 -11.4118     56.9955    145.4708   1.1626310080e+02   3.8490861690e+01    0.2188643    0.1493976 -74.93 0.0001180171    1.239    0.193
        99 -10.6465     11.9258    143.0611   1.2553279600e+02   4.3462072793e+01    0.1611263    0.1177873 -86.38 0.0003275604    1.033    0.032
       100 -12.4043     99.3582    140.1065   1.0596934949e+02   3.3715624736e+01    0.4752737    0.2090715  45.98 0.0003316057    2.270    0.559
       101 -11.5689     92.5352    141.4874   1.0775438683e+02   3.4495163240e+01    0.2654026    0.1918785  70.35  0.001083854    1.418    0.295
       102 -11.1996     86.9672    140.4617   1.0884967115e+02   3.5559219782e+01    0.2372516    0.1734408 -68.63 0.0003722586    1.249    0.199
       103 -10.8998     11.8681    207.8746   1.2978557923e+02   3.1077959604e+01    0.1379295    0.1033391  86.53 0.0003482404    1.234    0.190
       104 -11.5102     71.2038    137.8317   1.1203150570e+02   3.8347526002e+01    0.3132825    0.1679216  60.81  0.001501871    2.124    0.529
       105 -11.1625     42.2396    138.0937   1.1858739393e+02   4.1720747064e+01     0.176561    0.1574332  75.17 0.0006785627    1.222    0.182
       106 -10.3362     30.0337    249.0035   1.2916071990e+02   2.2495116323e+01    0.1159042   0.07469781  73.94 0.0004290761    1.068    0.064
       107 -11.6224     69.1417    129.5613   1.1122994379e+02   4.0424172298e+01    0.2903568    0.1677283 -52.90 3.578333e-05    1.690    0.408
       108 -12.4242     86.3542    128.4165   1.0694035292e+02   3.8270932375e+01    0.4161288    0.2353385  33.70  0.002020815    2.164    0.538
       109 -11.6443     77.9248    128.1949   1.0891565445e+02   3.9537230188e+01    0.3879559    0.1468485  38.68  0.001632354    2.872    0.652
       110  -9.6176     54.6967    128.7263   1.1451027261e+02   4.2381556369e+01     0.112618   0.08768472 -45.44 0.0002288537    1.538    0.350
       111 -11.6435     94.4045    123.7053   1.0412444215e+02   3.8066375135e+01    0.2841563    0.1495506  54.52 0.0009550701    2.145    0.534
       112 -10.2990     57.0070    123.7573   1.1321908333e+02   4.3202603516e+01    0.1657669    0.1439624 -85.36   0.00029674    1.073    0.068
       113 -10.8472     63.8305    122.5571   1.1137502287e+02   4.2642480752e+01    0.2073429    0.1445781 -60.13 0.0003709563    1.279    0.218
       114  -9.5080     19.4997    123.4772   1.2201379445e+02   4.6955668387e+01    0.1141832   0.08583785 -80.47 0.0001617137    1.020    0.020
       115 -11.7413     70.3745    118.5206   1.0907689561e+02   4.2696832099e+01    0.4346616     0.186229 -44.30  0.001781394    2.929    0.659
       116 -11.3554     34.4795    117.9554   1.1782130451e+02   4.6843005131e+01    0.1837719    0.1447002 -55.18  0.001044851    1.334    0.250
       117 -10.2996     83.6846    192.3722   1.1639981882e+02   2.5506036714e+01    0.1900942    0.1094198  70.56 0.0009548156    1.714    0.417
       118 -12.4193    249.0072    114.3616   6.9625090762e+01   7.0840699497e+00    0.4112511    0.3299331   3.99 0.0009822558    1.284    0.221
       119 -11.3357     76.8695    201.2711   1.1853344312e+02   2.4808858976e+01    0.2841859    0.1406889 -73.29  0.001615636    2.020    0.505
       120 -10.7217     85.5420    105.4540   1.0263339127e+02   4.3453119207e+01    0.3790615    0.1594675 -46.43  0.001552558    2.361    0.576
       121 -11.7402     85.7099     99.8684   1.0135464186e+02   4.4655786475e+01    0.4248808    0.2022109 -44.94  0.001846987    2.091    0.522
       122 -11.2971    241.4067    104.1125   6.8341286603e+01   1.0291818295e+01     0.255279    0.2134935 -28.65 0.0004515683    1.134    0.118
       123 -10.1204     66.5124    104.4605   1.0745191871e+02   4.6312139808e+01    0.1298894    0.1107941 -67.96 1.605567e-05    1.006    0.006
       124 -10.4968     69.4180    203.2337   1.2002076364e+02   2.5447105557e+01    0.1479176   0.08923823 -88.44 0.0003866248    1.542    0.351
       125 -10.4327     72.4652     97.4664   1.0440782496e+02   4.7078074110e+01     0.132446    0.1143243 -66.81 5.528497e-07    1.030    0.029
       126 -10.0939     39.5835     97.4981   1.1339691143e+02   5.0839282964e+01     0.122471   0.09645659 -70.08 0.0008046003    1.023    0.022
       127 -10.5114     32.9805     94.9844   1.1476560124e+02   5.1993049505e+01    0.1820209    0.1384305 -63.05 0.0004359622    1.082    0.076
       128 -11.7833    226.9766    198.9824   9.1146464272e+01  -4.1643904450e-01    0.2898923    0.2317037  46.43  0.001088814    1.288    0.223
       129  -9.5645     92.2785     93.2854   9.8025183995e+01   4.5065105060e+01     0.131603    0.1041639 -25.07            0    1.514    0.340
       130 -10.6431     75.0112     93.4951   1.0282583939e+02   4.7602367676e+01    0.1775872    0.1323053  41.59 0.0004396364    1.521    0.343
       131 -10.4167     51.2272     90.7881   1.0891807041e+02   5.1126631382e+01    0.1693058    0.1278057 -44.81 0.0003882511    1.314    0.239
       132 -10.6637     46.2149     89.3228   1.1004703978e+02   5.1974982942e+01    0.2166918    0.1342255 -54.22 0.0005832968    1.345    0.256
       133 -10.8002     87.5326     89.1531   9.8306328232e+01   4.6707663915e+01    0.2550492    0.1759356 -13.82  0.001186381    2.320    0.569
       134 -10.2852     72.8539     89.1568   1.0243017376e+02   4.8845313797e+01    0.1767364    0.1438822 -36.56 0.0003635521    1.294    0.227
       135 -16.4880    231.3055    121.9091   7.4367695988e+01   9.7792904284e+00     2.444525     2.071639  89.80   0.01293143    1.576    0.366
       136 -10.5095     93.2828     87.9305   9.6400416652e+01   4.6053567407e+01    0.1954946    0.1694205 -48.01  0.000381961    1.061    0.057
       137 -11.0999    230.9026     85.1851   6.5198910089e+01   1.5648279861e+01    0.2504737    0.2168897  20.39  0.001318156    1.230    0.187
       138 -11.1796    107.3608     83.0265   9.1219154905e+01   4.4646880310e+01    0.2164132    0.1971216  12.48 0.0003898455    1.228    0.186
       139 -10.8824    217.4872    200.9434   9.3114369569e+01   1.0351586502e+00     0.239406    0.1479562  29.63  0.001035434    1.521    0.343
       140 -11.5524    101.8293     83.6754   9.2909820871e+01   4.5504695754e+01    0.2819231     0.216975  87.61  0.001418476    1.748    0.428
       141 -11.0652    250.6330     80.2528   6.0952363629e+01   1.1775346947e+01    0.2232499      0.12622 -32.83 0.0003628704    1.617    0.382
       142  -9.8955     52.5865     81.2237   1.0648925511e+02   5.3060003666e+01    0.1757736   0.09671053 -50.52 0.0003416759    1.526    0.345
       143 -13.3336    110.0629     77.0084   8.8762828486e+01   4.5376203087e+01    0.5762145    0.4182906  57.55  0.002883039    1.605    0.377
       144 -12.6713    107.6876     70.2118   8.7381055411e+01   4.7180975333e+01    0.4452468    0.3194833 -89.24  0.001943521    2.314    0.568
       145 -10.1755     70.1383     78.1434   1.0052515110e+02   5.1584619783e+01    0.1690103    0.1449367 -78.80 0.0003104545    1.269    0.212
       146 -17.1689    187.4887    168.3300   9.2658156039e+01   1.1566469331e+01     3.378582     2.122607  45.56   0.01703602    1.441    0.306
       147 -11.3550    204.7693    200.7782   9.5301978836e+01   3.3631511964e+00    0.3711594    0.1823758  55.88  0.001681251    2.434    0.589
       148 -10.8716     45.6520    201.2299   1.2392484638e+02   2.8733573352e+01    0.1744916    0.1325769  65.14 0.0009588502    1.178    0.151
       149 -16.8113    157.3043    141.5846   9.3383408737e+01   2.2597891056e+01     2.561163     2.154175   8.99   0.01357498    1.494    0.331
       150 -10.4802    240.9655     72.8050   6.0423914895e+01   1.5121767122e+01    0.2197805    0.1904127  19.81 0.0006948043    1.262    0.207
       151 -10.2639     23.5072    198.9715   1.2744480447e+02   3.1528213916e+01    0.1476862    0.1047812  71.05 0.0003422919    1.101    0.092
       152 -12.4657    119.1392     71.2630   8.4588628861e+01   4.4739676685e+01    0.3689854    0.2516137  38.80   0.00134011    1.574    0.365
       153 -11.1010     88.7816     72.1588   9.3370000451e+01   5.0090556202e+01    0.1994293    0.1740086 -56.69 0.0003557662    1.132    0.116
       154 -10.9949      7.4513     72.0070   1.1825220348e+02   5.8761949280e+01    0.1481988    0.1370756 -59.14 0.0006488221    1.263    0.208
       155 -10.7019     48.9111     70.5111   1.0510210203e+02   5.5746637371e+01    0.1555819    0.1248351  33.03 0.0004459167    1.511    0.338
       156  -9.9897    237.1093     67.8722   5.9685439302e+01   1.6772392613e+01    0.1817166     0.164129  21.20            0    1.191    0.160
       157 -10.3993     43.6235     68.2594   1.0622464291e+02   5.6763049480e+01    0.1848798     0.089193 -50.55 0.0009482487    1.652    0.395
       158 -12.1072    243.8174     66.0655   5.8263216090e+01   1.5424759476e+01    0.5486827    0.3111613  82.72  0.002165202    2.683    0.627
       159 -11.8603    126.5060     65.5195   8.0851158997e+01   4.4298428791e+01    0.3549013    0.2803097  83.07  0.001725254    1.710    0.415
       160 -10.1819     52.6460     66.3208   1.0285895766e+02   5.6220439858e+01    0.1226073   0.09400673  86.86 0.0007046793    1.754    0.430
       161 -10.3569     11.3079     65.3814   1.1589863697e+02   5.9921225556e+01    0.1228672   0.05997677 -46.05 0.0002015316    1.793    0.442
       162 -12.0554    214.0674    188.1456   9.1456933464e+01   3.3726954766e+00    0.6453692     0.363683 -45.17  0.003254987    2.216    0.549
       163 -10.9043    228.9458     61.8062   5.9248986892e+01   1.9664357464e+01    0.4172136    0.2310836 -59.13 0.0008235964    2.431    0.589
       164 -10.6272    236.3401     60.7431   5.7900875730e+01   1.7995051093e+01    0.4247708     0.167347 -47.20  0.001461701    2.853    0.649
       165 -10.7511     75.3822     62.2249   9.4486188819e+01   5.4153659357e+01    0.2076753    0.1859649  25.28 0.0003325053    1.261    0.207
       166 -11.9469    131.9230     59.8498   7.7629076655e+01   4.4148726477e+01    0.4217835    0.2763134   4.65  0.001195352    2.410    0.585
       167 -11.3810    102.0145     60.9691   8.6072584640e+01   5.0026306498e+01    0.2103821     0.190533 -24.39            0    1.038    0.037
       168 -10.8748    100.0388     71.4711   8.9914158678e+01   4.8326211963e+01    0.1986818    0.1409475  43.91 0.0005798766    1.539    0.350
       169 -12.4683    212.3972    196.2949   9.3197754516e+01   2.5717997505e+00    0.4504278    0.2905709 -54.20  0.002376789    2.325    0.570
       170 -11.8051    138.7561     57.9668   7.5320829154e+01   4.2934590649e+01    0.3473495    0.2389555   0.92  0.001486886    2.021    0.505
       171  -9.5304    236.6348     56.7546   5.6795773517e+01   1.8491489462e+01    0.1473117      0.10741  32.90 0.0002312256    1.612    0.380
       172 -12.1019    215.4787    194.4908   9.2342419910e+01   2.2473824859e+00    0.3019994    0.2436679  40.71 0.0007218753    1.124    0.110
       173 -11.3168    249.3901     53.2631   5.4211021048e+01   1.5895172760e+01    0.2467447    0.2109041 -53.48 0.0003827311    1.138    0.121
       174  -9.8915     51.5630     54.5793   9.9956760883e+01   5.8739607567e+01    0.1247435    0.1025579 -43.71 6.681396e-05    1.008    0.008
       175 -13.7909    140.5145     47.0282   7.1209497961e+01   4.4339275241e+01     0.865801    0.4690709 -23.86   0.00305448    2.042    0.510
       176 -12.3086    137.2813     45.0211   7.1278730026e+01   4.5413799546e+01    0.3981265    0.2968796  58.11  0.001036117    1.425    0.298
       177 -11.5636    120.8503     53.1016   7.8221043159e+01   4.7735105249e+01    0.2232899    0.1980475 -61.63 0.0006067742    1.298    0.230
       178 -11.9628     56.7991     52.9067   9.7683283756e+01   5.8464320579e+01    0.2072282    0.1894204 -27.92 0.0002624918    1.122    0.108
       179 -12.2405    148.4835     51.3807   7.0847973988e+01   4.1741917980e+01    0.3880561    0.2649476  53.07 0.0004190662    1.471    0.320
       180 -10.8095    101.6009    194.7707   1.1335823120e+02   2.2417730416e+01    0.2201243    0.1417176  50.19 0.0005797542    1.366    0.268
       181 -12.2233    242.6713     48.3795   5.3782453082e+01   1.8175279224e+01    0.2921882     0.259913  39.98 0.0005661262    1.230    0.187
       182 -12.8737    117.4400     47.2601   7.7094778110e+01   4.9450234807e+01     0.520916    0.3040643  54.42  0.002336118    1.915    0.478
       183 -10.7865    230.4383     47.1286   5.5040171018e+01   2.1372193737e+01    0.2381233    0.2063014  67.93  0.000417114    1.183    0.154
       184 -12.2158    214.1055     44.1847   5.6507951451e+01   2.5949128832e+01    0.5750607     0.342393 -10.20  0.002344104    2.204    0.546
       185 -12.3682    156.0063     44.3746   6.6846155718e+01   4.0987722977e+01     0.430594    0.3119066 -32.29  0.002060838    1.375    0.273
       186 -16.0445    225.3759    177.5863   8.7484108233e+01   2.6932064976e+00     1.767929     1.473046  58.55   0.01064686    1.441    0.306
       187 -16.3882    171.6638    156.0587   9.3370450351e+01   1.6913668426e+01     2.551448     1.264352  31.48   0.00958418    2.862    0.651
       188 -11.6549    130.2588     44.7157   7.2880363454e+01   4.7073541840e+01    0.3284654    0.2097938  58.61  0.001496447    1.737    0.424
       189 -11.7901    195.3045     43.7972   5.9308933723e+01   3.0917278020e+01    0.2587374    0.2411799  32.96 0.0002978755    1.106    0.096
       190 -11.8097    150.7758     43.8191   6.7782874809e+01   4.2365958783e+01    0.2937533    0.2283822 -52.77 0.0008515868    1.447    0.309
       191 -11.4805    146.0030     43.0297   6.8568842882e+01   4.3648938243e+01    0.2273704    0.2165716  -4.93  0.000394216    1.025    0.024
       192 -12.8205    243.4653    245.5224   9.5907628143e+01  -8.1356922845e+00    0.2934763    0.2270159 -33.12  0.002226819    1.784    0.439
       193 -11.9769    117.2559     40.0419   7.4538972115e+01   5.0662558100e+01    0.3221028    0.2654882  16.55 0.0003411835    1.247    0.198
       194 -10.5059     29.3465     40.9602   1.0380475941e+02   6.3587220559e+01    0.1671545    0.1181298 -47.42 0.0004444931    1.089    0.082
       195 -10.5812     61.8807     40.1202   9.1698804009e+01   6.0249276294e+01      0.17806    0.1574034 -44.07 -0.0006383859    1.199    0.166
       196 -10.2775    235.3217    194.5661   8.8943796978e+01  -1.3542255475e+00    0.1710469    0.1002528  34.07 0.0009260466    1.483    0.326
       197 -12.9433    234.2905    243.0805   9.6981247996e+01  -6.5015815217e+00    0.3277752     0.211675  13.01  0.001099996    1.621    0.383
       198 -17.0207    210.2350    139.6467   8.2309290316e+01   1.1543066010e+01     2.471309     1.588644  33.47   0.01159929    1.622    0.383
       199 -12.4870     84.9550     35.2493   8.2155656137e+01   5.7614635469e+01    0.2684936     0.218135 -26.57  0.000502013    1.092    0.084
       200 -13.3816    199.3938     32.7044   5.5310370791e+01   3.1334406321e+01    0.3613516    0.3545902 -31.07 0.0007397863    1.045    0.043
       201 -13.2271    191.7193    242.0810   1.0363626836e+02   4.1702860596e-01    0.4710372    0.2154279  44.93  0.001352412    1.657    0.396
       202 -10.4187     99.5231     32.9307   7.6801578551e+01   5.5353246101e+01    0.2141362    0.1261661 -30.51  0.001029722    1.591    0.372
       203 -10.5310     55.5003     33.4593   9.1550599939e+01   6.2259504996e+01    0.1264451    0.1015873 -27.15 3.548562e-05    1.036    0.035
       204 -11.9004    214.7882     31.8422   5.2873511993e+01   2.7404505376e+01    0.3456284    0.2454753  75.46 0.0007539804    1.450    0.311
       205 -11.2468    128.7367     30.5770   6.8109574883e+01   4.9531050712e+01    0.2523127    0.1640189 -47.65 0.0006368809    1.800    0.445
       206 -10.9502    118.9893     30.7242   7.0592779784e+01   5.1689016351e+01    0.2038081    0.1809677  28.16  0.001091939    1.092    0.084
       207 -10.4223     60.5886     30.6712   8.8647010176e+01   6.2081377082e+01    0.2327076    0.1401056 -37.77  0.001292756    1.407    0.289
       208 -10.8197    233.0051     35.9641   5.1678188389e+01   2.2210425246e+01    0.2185559    0.2089957 -45.30  0.000564339    1.041    0.040
       209 -10.1683     71.7810    193.1876   1.1865826445e+02   2.6986983926e+01    0.1362684    0.1200297 -86.75  0.001010589    1.293    0.227
       210 -11.7753    188.4404     27.4064   5.5354503658e+01   3.4900754840e+01     0.280088    0.2619382  44.44 0.0005313177    1.069    0.065
       211 -11.4182    161.2242    245.9957   1.0903591282e+02   4.8844015990e+00    0.1791103    0.1286604  51.74 0.0004292607    1.084    0.078
       212 -12.1125    201.1967     22.6201   5.2020915670e+01   3.2104074482e+01    0.4107681    0.1866432 -32.29    0.0016443    2.124    0.529
       213 -10.6456    106.6204     23.1972   7.0922868958e+01   5.5353528528e+01    0.2257868    0.1578055 -15.11 0.0006334875    1.412    0.292
       214 -11.4870    227.3766     23.7258   4.9026466540e+01   2.5156080300e+01     0.394527   0.08735045  61.24  0.001214495    3.721    0.731
       215 -10.7514    175.0095     22.6680   5.5991133299e+01   3.9019793560e+01    0.2130409    0.1766956  62.16 0.0004480903    1.162    0.140
       216 -10.0716    158.6064     22.2901   5.8745534368e+01   4.3320716836e+01    0.1531316    0.1110354 -70.02 0.0007004627    1.777    0.437
       217 -11.5968     15.6494     20.4785   1.0263082257e+02   6.8443509918e+01    0.2821626     0.138781 -33.66  0.001372394    1.780    0.438
       218 -11.2345    248.3952     19.1417   4.5580677850e+01   2.0466420995e+01    0.2086646    0.1068479 -40.53  0.000949856    1.758    0.431
       219 -10.8410    244.0067     24.0178   4.7269915822e+01   2.0960221459e+01    0.1690812     0.155751 -68.56 0.0004520112    1.021    0.021
       220 -12.7523    157.2136    243.8478   1.0943671329e+02   5.8027172970e+00    0.2478569    0.2264441 -21.52  0.001294274    1.543    0.352
       221 -10.0210    160.6627     18.6977   5.7122759489e+01   4.3215080901e+01    0.1570236    0.1023792  32.54 0.0003035501    1.666    0.400
       222 -11.8864    238.8214     16.1440   4.5762098511e+01   2.3157150943e+01    0.2255449    0.1775694 -60.79  0.001245253    1.215    0.177
       223 -11.2567    182.4770     16.0233   5.2661198666e+01   3.7813737732e+01    0.2888269     0.203015 -89.49  0.001362149    1.623    0.384
       224 -10.0625    127.0273     16.1998   6.3011976352e+01   5.1764257144e+01    0.2459286    0.1349342  33.24   0.00106781    1.974    0.493
       225 -10.4582     13.1420     14.8363   1.0167654324e+02   6.9607947887e+01    0.1585864    0.1237857 -44.74 0.0006857213    1.184    0.156
       226  -9.8278     51.5241    245.4803   1.2594524180e+02   2.0605726379e+01    0.1009011   0.06749894  68.45 3.972654e-05    1.004    0.004
       227 -10.8052    205.8579     12.8715   4.8529301671e+01   3.1979012277e+01    0.2054586    0.1611972 -64.63 0.0006717879    1.317    0.241
       228  -9.9813    192.3207     13.2920   5.0402728435e+01   3.5506826954e+01    0.1504996    0.1027194  37.31 0.0004067663    1.607    0.378
       229  -9.6193     28.3046     12.3192   9.3961288498e+01   6.8793760817e+01    0.1184454   0.06882857 -22.68 0.0003036839    1.630    0.387
       230 -12.6895    118.0602    191.9799   1.0993048419e+02   2.0308664020e+01    0.3779235    0.3491754 -16.68  0.001761544    1.589    0.371
       231 -11.0410    201.8196    243.0484   1.0213564981e+02  -1.3352827808e+00    0.1610716    0.1274134  46.87 0.0003793549    1.185    0.156
       232 -10.8093    121.7505    243.3890   1.1507706747e+02   1.1404224581e+01    0.2624485    0.1462808  48.30  0.001698248    1.380    0.275
       233 -12.2009    126.5195    238.6849   1.1384680049e+02   1.1353714074e+01    0.3372297     0.180809  44.96  0.001226759    1.523    0.343
       234 -11.1202    116.3658    187.7227   1.0968775951e+02   2.1364947154e+01      0.24197     0.103964  48.81 0.0007736405    2.047    0.512
       235 -10.0889     21.7838    243.2064   1.3002913396e+02   2.4257477488e+01    0.1126255   0.08524098  76.52 0.0003160084    1.283    0.221
       236  -9.7225      9.4566    193.5326   1.2941012460e+02   3.3859358862e+01    0.1015068   0.06993425  80.81 6.982771e-05    1.027    0.027
       237 -10.1312      2.1950    242.8275   1.3266188191e+02   2.6247108947e+01    0.1128229   0.08168098  85.99 0.0009115232    1.346    0.257
       238 -11.3447    208.1540    241.4555   1.0090248236e+02  -2.1856666415e+00    0.2120292    0.1419788  25.17 0.0007356991    1.440    0.306
       239 -11.0708     90.5148    241.3153   1.1980433379e+02   1.6237348178e+01    0.1761045     0.125771  63.48 0.0002652068    1.008    0.008
       240 -10.5718     32.8950    242.4953   1.2844468925e+02   2.3188094076e+01    0.1356981   0.07214355  50.22  0.000973361    1.542    0.352
       241 -11.7235    182.8012    237.5670   1.0450266793e+02   2.4222806833e+00    0.4389141    0.1536827  42.03   0.00209424    2.260    0.558
