#   1 NUMBER                 Running object number                                     
#   2 MAG_AUTO               Kron-like elliptical aperture magnitude                    [mag]
#   3 X_IMAGE                Object position along x                                    [pixel]
#   4 Y_IMAGE                Object position along y                                    [pixel]
#   5 X_WORLD                Barycenter position along world x axis                     [deg]
#   6 Y_WORLD                Barycenter position along world y axis                     [deg]
#   7 A_WORLD                Profile RMS along major axis (world units)                 [deg]
#   8 B_WORLD                Profile RMS along minor axis (world units)                 [deg]
#   9 THETA_WORLD            Position angle (CCW/world-x)                               [deg]
#  10 FWHM_WORLD             FWHM assuming a gaussian core                              [deg]
#  11 ELONGATION             A_IMAGE/B_IMAGE                                           
#  12 ELLIPTICITY            1 - B_IMAGE/A_IMAGE                                       
         1 -14.5193      6.4843    140.1928   1.4680074961e+02   4.5468462796e+01      4.23488    0.8598592 -78.92   0.01464427    4.624    0.784
         2 -13.0958      2.4533     82.9588   1.4178441678e+02   5.8344709864e+01     1.862491          nan -70.18  0.004384232    9.327    0.893
         3 -13.8395    196.1353     25.0781   7.0582547128e+01   3.3158026090e+01     1.883448     1.558719  25.14  0.007742824    1.449    0.310
         4 -13.4908    211.0922      6.2521   6.3606793917e+01   3.1337138970e+01    0.9767088    0.8105434  72.21  0.004259434    1.155    0.134
         5 -11.4701      3.8639     19.8129   1.2699594614e+02   7.1201105168e+01    0.3322019     0.116107 -46.96  0.001747863    1.973    0.493
         6 -11.0314      2.7528      8.9098   1.2340005805e+02   7.3181799745e+01    0.1947301    0.1381989 -59.60  0.001385672    1.588    0.370
         7 -11.0671    191.0977    247.3947   1.2179162666e+02  -1.0025385738e+00     0.348523    0.2384081  89.79  0.001730798    3.928    0.745
         8 -11.7982    174.0592    248.4724   1.2486377694e+02   1.5928725018e+00    0.3925412    0.2805082  68.12  0.002512225    1.863    0.463
         9 -12.3719    126.4667    245.4095   1.3280835388e+02   9.6094069577e+00    0.3981697     0.224579  57.98  0.002380349    1.585    0.369
        10 -12.6591    123.4883    249.6654   1.3375799469e+02   9.4373179905e+00     0.895945     0.185012  43.59  0.003448979    3.533    0.717
        11 -12.9688    140.4845    248.2440   1.3066621472e+02   6.9943313717e+00    0.5356844    0.4203493  72.78  0.003831099    1.382    0.276
        12 -13.2344     49.0914    218.0700   1.4413289748e+02   2.5227075104e+01     1.419356    0.7633771  57.10  0.007862325    1.450    0.311
        13 -10.7313     81.3323    248.6408   1.4083587507e+02   1.5747782207e+01    0.2494605    0.1314331  66.68  0.001538964    1.724    0.420
        14 -10.1517     21.7875    238.5946   1.4990318536e+02   2.4685598791e+01    0.1893255    0.1310676  70.03    0.0007051    1.055    0.052
        15 -13.1453     34.5050    236.7667   1.4778169049e+02   2.3607164086e+01    0.3166152     0.219633 -87.71 0.0007514882    1.347    0.258
        16 -11.0819    183.8315    236.2152   1.2153908114e+02   1.5849010643e+00    0.2653474     0.195848 -78.52  0.001575899    2.391    0.582
        17  -9.6780     73.9677    250.4721   1.4219172290e+02   1.6451710383e+01    0.1657392   0.08192658  45.64  0.001014654    1.587    0.370
        18 -12.1991     89.4003    227.1685   1.3761588255e+02   1.8189461620e+01     1.075766    0.1290455  49.44  0.002914422    7.168    0.860
        19 -12.7107    106.9451    230.5194   1.3475494244e+02   1.4994298512e+01    0.7558508    0.1604403  44.10  0.002850784    3.500    0.714
        20 -12.9020    120.0220    232.4917   1.3258545281e+02   1.2631849694e+01      0.79747    0.1636134  43.43  0.002884408    3.705    0.730
        21 -11.5283    138.9831    231.8802   1.2905951663e+02   9.6675933235e+00    0.2672653    0.1513256  40.21  0.001512827    1.505    0.336
        22 -10.4900    155.2160    228.9862   1.2572436690e+02   7.4032353707e+00    0.1838874    0.1188147  30.33   0.00104924    1.634    0.388
        23  -9.1747      3.5375    227.6853   1.5230387275e+02   2.8391466964e+01    0.1610285   0.07320163  41.56  0.001080208    2.010    0.502
        24  -9.5173    172.4822    222.5235   1.2165785643e+02   5.4073437982e+00    0.1262261    0.1018685  38.85 3.207793e-05    1.037    0.036
        25 -10.1349     27.6191    221.8237   1.4810140485e+02   2.7002147231e+01    0.2230906    0.1683475  28.04   0.00150631    2.037    0.509
        26 -11.2616     57.1266    211.5965   1.4218180017e+02   2.5438484570e+01    0.4414326    0.2437655  75.82  0.001891566    1.681    0.405
        27  -9.7492     20.8836    211.9747   1.4870951831e+02   2.9520500802e+01    0.2372034    0.1530296  31.28  0.001626877    2.087    0.521
        28 -12.1600     10.5141    206.8588   1.5023460743e+02   3.1501977790e+01    0.4855784    0.3153936  33.23  0.002796708    1.972    0.493
        29 -14.1062     39.0243    230.4853   1.4668117198e+02   2.4182111737e+01    0.7537806    0.4806585  57.59  0.002492529    1.191    0.160
        30 -11.8196     60.9552    201.9151   1.4063708537e+02   2.6809949395e+01     0.230908    0.1963453  84.75 0.0004957226    1.198    0.166
        31 -12.1466     67.3173    193.1148   1.3854752854e+02   2.7717610243e+01    0.2398041    0.2031699  85.61 0.0004877886    1.148    0.129
        32 -13.3054     64.3713    177.9602   1.3756783601e+02   3.1243874704e+01    0.4623497    0.2656433 -49.30  0.002289772    2.297    0.565
        33 -10.8644     77.7146    179.6188   1.3489604264e+02   2.9048931569e+01    0.2202261    0.1899512  83.62 0.0003303053    1.091    0.083
        34  -8.8789    101.9062    178.6072   1.2952108269e+02   2.5533083603e+01    0.1926511    0.1042229  54.16 0.0009218262    1.736    0.424
        35 -10.1791    249.7351    249.4147   1.1237357107e+02  -1.0085610087e+01     0.207309     0.106805  30.49   0.00130411    1.488    0.328
        36  -9.8278    104.3728    154.0967   1.2514127385e+02   3.0359669464e+01     0.254627    0.1947867  69.71 0.0008760722    1.300    0.231
        37 -10.7041     97.4939    154.0051   1.2676375859e+02   3.1540054229e+01     0.317678    0.2786465 -52.83 0.0007746973    1.285    0.221
        38 -10.3167    100.5590    150.2633   1.2539435312e+02   3.1857634637e+01    0.3213471    0.2357279 -67.75  0.001087822    1.338    0.253
        39 -11.9670     86.1679    153.1463   1.2933546566e+02   3.3542288523e+01     0.269094    0.2386797 -53.55 0.0006511875    1.299    0.230
        40  -9.8078    133.7641    145.7316   1.1659635102e+02   2.6706030934e+01    0.5494502    0.1244046 -54.03   0.00132504    6.072    0.835
        41 -12.2435     67.2400    143.4861   1.3248404489e+02   3.8467652974e+01    0.6483327    0.3937731  65.91  0.003298946    1.791    0.442
        42 -10.2429    109.3759    138.2350   1.2100090121e+02   3.3000160053e+01    0.4947742    0.3112973 -26.08  0.001646965    2.926    0.658
        43 -10.6098     96.4993    135.7211   1.2376450798e+02   3.5816343958e+01     0.238013    0.2328764 -66.51 0.0004155638    1.164    0.141
        44  -9.2678    106.5237    124.5348   1.1889824732e+02   3.6603090133e+01    0.1447007    0.1360705 -84.70 0.0001288248    1.011    0.011
        45 -11.6651     14.3931    122.4746   1.4321379588e+02   4.8794592384e+01    0.3817074    0.2027536  67.68  0.002113256    2.017    0.504
        46 -11.1674     29.5354    249.2423   1.4919842117e+02   2.2074628937e+01     0.283465    0.1956151  53.15  0.002297978    1.306    0.234
        47 -10.3322    157.1367     75.6525   9.3034656204e+01   3.5782869531e+01    0.2707429    0.2130869 -48.08 0.0006119197    1.302    0.232
        48 -12.0282     85.1444    170.0855   1.3204387718e+02   2.9979381105e+01    0.6311589    0.5596495 -53.63  0.003993592    1.378    0.274
        49 -10.9700     12.6964     54.1146   1.3287267394e+02   6.3975811593e+01    0.2264337    0.1496364  42.31  0.001292896    1.973    0.493
        50 -11.7023     99.4764    248.3703   1.3775294489e+02   1.3226326425e+01    0.3308665    0.2068621  55.89  0.002231736    1.198    0.165
        51 -11.2784     19.8749    247.5716   1.5059757349e+02   2.3390030511e+01    0.3268444    0.1915603  43.35  0.001958507    1.664    0.399
        52 -10.8017    237.3022    247.0202   1.1401145548e+02  -8.0711820547e+00    0.1576428    0.1214011  18.41 0.0008872614    1.081    0.075
