#   1 NUMBER                 Running object number                                     
#   2 MAG_AUTO               Kron-like elliptical aperture magnitude                    [mag]
#   3 X_IMAGE                Object position along x                                    [pixel]
#   4 Y_IMAGE                Object position along y                                    [pixel]
#   5 X_WORLD                Barycenter position along world x axis                     [deg]
#   6 Y_WORLD                Barycenter position along world y axis                     [deg]
#   7 A_WORLD                Profile RMS along major axis (world units)                 [deg]
#   8 B_WORLD                Profile RMS along minor axis (world units)                 [deg]
#   9 THETA_WORLD            Position angle (CCW/world-x)                               [deg]
#  10 FWHM_WORLD             FWHM assuming a gaussian core                              [deg]
#  11 ELONGATION             A_IMAGE/B_IMAGE                                           
#  12 ELLIPTICITY            1 - B_IMAGE/A_IMAGE                                       
         1 -14.3304    220.6933      4.6753   4.0373271422e+01   2.8838439115e+01     2.692532     1.522827  49.80  0.008018339    2.011    0.503
         2 -13.8680    179.9871     46.8208   5.7467223199e+01   3.4104531991e+01     1.493414     1.074666  13.43 0.0008088217    1.827    0.453
         3 -14.0878    191.3782     37.3503   5.2786082831e+01   3.2455875825e+01     1.284203     1.110662 -34.92  0.003234429    1.169    0.144
         4 -14.2383    199.1206     28.1730   4.9039773749e+01   3.1625359087e+01     1.190709     1.041571   6.79  0.001359898    1.346    0.257
         5 -11.6408     32.5121     29.9949   9.4488550947e+01   6.6555152200e+01    0.3030993    0.1272549 -43.79  0.001496865    1.924    0.480
         6 -11.4515    159.5772     61.2461   6.5929611454e+01   3.7116557655e+01    0.4202976    0.3103015 -84.77 0.0006947697    1.834    0.455
         7 -16.7496     71.3118    148.2230   1.1095374429e+02   3.5858354173e+01     14.80966     6.978806  80.41   0.03413866    6.534    0.847
         8 -12.0880     70.7602    206.9690   1.1835502422e+02   2.3211835477e+01    0.6990079    0.3800669  24.51  0.002151577    3.227    0.690
         9 -10.3691     62.9060    205.0907   1.1969075563e+02   2.4625386006e+01    0.2689367    0.2381801  41.49  0.001351145    1.426    0.299
        10 -11.5198     55.9998    212.2085   1.2162780302e+02   2.4111986630e+01    0.4719854    0.3087702  53.19  0.001323972    1.302    0.232
        11 -13.6462     55.6708    202.9814   1.2088980731e+02   2.5967946232e+01    0.5007057    0.4678648  62.87  0.002348549    1.363    0.266
        12 -12.0965     38.4974    212.1461   1.2481800767e+02   2.6210797952e+01    0.2447796    0.1255253  52.99 0.0008239395    1.607    0.378
        13 -11.1058     34.3548    207.7144   1.2525055778e+02   2.7534222430e+01    0.2369621    0.1197732  61.82   0.00078644    1.669    0.401
        14 -10.8590     31.2747    205.6547   1.2566513131e+02   2.8273748907e+01    0.1829639    0.1302774  70.36 0.0007324943    1.081    0.075
        15  -9.8820     43.4911    207.6066   1.2357063709e+02   2.6520154866e+01    0.4670387    0.2570482 -87.07  0.002824657    1.646    0.392
        16 -11.9418    193.0653    194.6752   9.2017417730e+01   4.8852249726e+00    0.9324839    0.5008079 -62.93  0.003043051    5.472    0.817
        17  99.0000     34.1853    218.6406   1.2602323989e+02   2.5458408404e+01    0.2369213    0.1853098  63.41  0.001819384    1.185    0.156
        18 -11.5359     96.8833    200.4129   1.1244077221e+02   2.0727337983e+01    0.3688649    0.2748503 -34.71  0.001015418    2.045    0.511
        19 -12.8137    107.0529    202.9052   1.1068997844e+02   1.8644404655e+01    0.8036911    0.2832483  50.49  0.002714579    2.736    0.634
        20  -9.1318     61.9466    220.3390   1.2121837701e+02   2.1810650442e+01    0.1453086    0.1113315  76.06 0.0006269335    1.062    0.059
        21 -10.4849     44.5869    198.2683   1.2261145571e+02   2.8256396574e+01    0.2659055    0.2198312  28.07  0.001440416    1.697    0.411
        22 -12.4378     30.0223    197.3386   1.2530409549e+02   3.0064320132e+01      0.20248    0.1516637  65.09 0.0006958784    1.145    0.127
        23 -10.6249     34.9487    197.2695   1.2437051507e+02   2.9547979972e+01    0.1622293    0.1113724  65.62 0.0003639507    1.190    0.160
        24 -11.1907    208.0350    196.0453   8.9407958008e+01   1.9569598502e+00    0.2095257    0.1814524  20.54 0.0008963757    1.029    0.028
        25  -9.9958     82.1093    195.0947   1.1482179754e+02   2.4005795216e+01    0.2185307    0.1984933  63.23   0.00147708    1.188    0.158
        26  -9.6030     52.4728    194.9087   1.2077875112e+02   2.8001161435e+01    0.3181731   0.09606738  52.97  0.001297462    3.224    0.690
        27 -11.2077     97.0457    192.8480   1.1144983777e+02   2.2220994224e+01    0.3291362     0.268694  -3.31  0.001453353    1.998    0.500
        28 -13.3486     65.3749    189.3168   1.1761681015e+02   2.7522231734e+01    0.7250217    0.6179202 -61.74  0.003922071    1.386    0.278
        29  -9.4105     47.5163    191.5380   1.2145219883e+02   2.9294055766e+01    0.1241784   0.09026998  74.69 0.0001420431    1.124    0.110
        30 -12.3657    149.5587    187.6976   9.9587626392e+01   1.4201436568e+01    0.4788562    0.3312795 -74.75  0.002351045    2.023    0.506
        31  -9.5716     57.0105    193.0057   1.1969489619e+02   2.7831452755e+01    0.1552093    0.1360352 -53.06            0    1.529    0.346
        32  -9.8521     43.9405    220.0696   1.2441558118e+02   2.4076481150e+01    0.1511761    0.1120087 -61.99  0.001064378    1.694    0.410
        33  -9.5805     49.8939    216.7892   1.2311233471e+02   2.3985833346e+01    0.2872224    0.2117184   5.24  0.001662959    3.049    0.672
        34 -16.5084     59.0729    247.8428   1.2378327146e+02   1.7317282659e+01     7.244902      2.50893  32.05   0.02650206    5.725    0.825
        35 -11.6777     99.4462    180.6731   1.0927031429e+02   2.4372056663e+01    0.2592182    0.2147879  68.56 0.0005757664    1.096    0.087
        36  -9.8667     68.8000    176.7849   1.1546094647e+02   2.9746013033e+01    0.1838207    0.1272893  72.18 0.0006289973    1.367    0.269
        37  -9.4010     59.5071    176.9509   1.1749351338e+02   3.0929227220e+01    0.1828003     0.108248 -68.50  0.000673636    1.547    0.354
        38 -10.7094     37.5427    176.4303   1.2209560433e+02   3.3628863925e+01     0.348565    0.1488742  55.66  0.001733367    2.271    0.560
        39 -11.7088     44.1369    172.4915   1.2031882989e+02   3.3754361543e+01    0.6358266    0.2358968  50.62  0.001690325    2.599    0.615
        40 -19.4044      7.1775    136.9684   1.2515263050e+02   4.5149895111e+01     17.81474     1.924445 -75.26    0.0405158    9.859    0.899
        41  -9.7606    200.9868    168.6479   8.5371412511e+01   7.6824418245e+00      0.20047    0.1762328  30.94 0.0008096381    1.085    0.079
        42 -11.2813    230.1947    166.8505   7.9487685026e+01   2.3592552418e+00    0.2910876    0.1779099 -42.66  0.001157163    1.822    0.451
        43  -9.7692    163.1278    168.6247   9.3178979211e+01   1.5240088200e+01    0.2276777    0.1984457 -66.93 0.0006589571    1.312    0.238
        44 -10.2737    192.5575    164.8896   8.6263510641e+01   1.0017031951e+01    0.2749227    0.2537504 -24.63 0.0006189231    1.116    0.104
        45  -9.0396     58.9980    227.9912   1.2235867245e+02   2.0777769138e+01    0.1516328   0.09596071  67.88  0.000328861    1.285    0.222
        46 -10.2240    158.1717    161.4179   9.2808296577e+01   1.7649065390e+01    0.2883531    0.1370493  40.98   0.00114128    2.051    0.513
        47 -12.6120     94.3991    154.2120   1.0628830478e+02   3.1017906815e+01    0.6768523    0.4816608 -30.38  0.003312757    2.025    0.506
        48 -10.4875    189.1191    154.7388   8.4776846799e+01   1.2558711374e+01    0.6276392    0.2734963  35.57  0.002262368    2.637    0.621
        49 -11.4976    133.8555    145.2618   9.5019625690e+01   2.5916295678e+01     1.272145    0.3253878 -54.88  0.003027555    5.998    0.833
        50  99.0000     37.8832    225.0155   1.2580178952e+02   2.3858501488e+01    0.4635724    0.1878654  74.46  0.002327545    2.713    0.631
        51 -10.5285    174.3799    148.8487   8.6572709271e+01   1.6779133969e+01    0.3066812     0.267161  79.79  0.000980243    1.384    0.277
        52 -10.9436    143.8293    146.2634   9.2876356071e+01   2.3696468119e+01     0.486126    0.2165251 -59.76  0.001573455    3.371    0.703
        53 -11.7381    106.4779    140.0973   1.0068312695e+02   3.2219087742e+01    0.6959137    0.3580929 -45.66   0.00290563    2.036    0.509
        54 -10.1394    112.2155    141.7856   9.9584570595e+01   3.0806652230e+01    0.3475736    0.2179503  75.18  0.001329033    2.443    0.591
        55 -12.5582     94.4224    139.6634   1.0365879269e+02   3.4370216120e+01    0.3392588    0.3008797  12.89  0.000404645    1.408    0.290
        56 -11.1657    105.6402    130.9807   9.9007119274e+01   3.4471819067e+01     0.439324    0.3624647 -42.00  0.002286103    1.269    0.212
        57 -11.0303    114.1562    130.1172   9.6614044751e+01   3.3115945107e+01    0.3432826    0.3000851 -19.91  0.001010553    1.353    0.261
        58 -10.6710    135.8126    127.7993   9.0607639824e+01   2.9356611707e+01    0.5748975    0.1889974 -51.16  0.001744348    3.320    0.699
        59 -10.1530    135.0000    120.8120   8.9108651535e+01   3.1063404175e+01    0.3655165    0.1634747 -45.81  0.001331376    2.197    0.545
        60 -10.3101    160.7215    127.7799   8.4664918031e+01   2.3999468891e+01    0.3870555    0.2788179  87.73  0.001601941    2.158    0.537
        61 -11.0756    101.5404    126.3754   9.9089109907e+01   3.6264037541e+01    0.2902492    0.2351095 -29.84 0.0008809869    1.449    0.310
        62 -11.1245    119.8809    123.8028   9.3688655755e+01   3.3460783061e+01    0.5033924    0.3135531 -25.85  0.001983428    2.404    0.584
        63 -10.1454    109.6956    119.0732   9.5250697478e+01   3.6482729839e+01     0.229923    0.2105169  50.53   0.00040475    1.137    0.120
        64 -10.2979    167.3950    112.3343   7.9196399023e+01   2.5642864077e+01    0.3362363    0.2607148 -78.26  0.001260225    1.726    0.421
        65 -10.4445    135.0000    111.5584   8.6743672639e+01   3.3088056787e+01    0.5268534   0.08716781 -44.77  0.001153364    5.905    0.831
        66 -11.4064    118.4869    110.5053   9.0775927679e+01   3.6737062761e+01    0.5562815    0.3635361  63.52   0.00235321    1.997    0.499
        67 -10.1403    205.4754    110.0335   7.0743359968e+01   1.7183546573e+01    0.2865026    0.2291292  45.67 0.0006663709    1.293    0.227
        68 -13.8837    106.3901    210.9345   1.1182435750e+02   1.7221174080e+01     1.072947    0.8178706  14.88   0.00615893    2.023    0.506
        69 -11.6363     53.5069     90.8307   1.0507287371e+02   5.1658634181e+01    0.4567318    0.2375223 -62.85  0.001744727    1.786    0.440
        70 -10.8900     41.9970     91.9309   1.0899896344e+02   5.2656267988e+01    0.2236514    0.1919013   7.93 0.0007481547    1.430    0.301
        71  -9.4313     94.4925    250.3400   1.1807045184e+02   1.2179812689e+01    0.1369272   0.09331007  83.56 0.0009283665    1.529    0.346
        72  -9.3020    155.2599     80.5851   7.2933455803e+01   3.4763966941e+01    0.2168666    0.1468349  40.64 0.0005320528    1.547    0.353
        73  -8.9647    184.3597     77.2774   6.5794405001e+01   2.8132763242e+01    0.1613869    0.1193727  23.94 0.0007009585    1.662    0.398
        74  -9.6812     66.9240     70.9636   9.5306566434e+01   5.4364612240e+01    0.2015223    0.1839902 -37.31 0.0004796778    1.060    0.056
        75 -12.5955    161.6661     54.7794   6.3418554517e+01   3.7629487590e+01     1.285945    0.7616215  81.07 0.0004511428    2.621    0.618
        76 -11.1680     62.4930    236.4956   1.2240180239e+02   1.8819288448e+01    0.1818912    0.1316053  71.95   0.00132263    1.090    0.083
        77 -11.0690     51.1886    226.0166   1.2357548462e+02   2.2107605127e+01    0.2128439    0.1217226  72.72  0.000711967    1.518    0.341
        78 -11.9266     49.5681    233.7645   1.2440143478e+02   2.0907783883e+01    0.3261784    0.1568702  79.63 0.0002419672    2.125    0.529
        79 -11.1149     53.6057    231.3232   1.2354274580e+02   2.0850474696e+01     0.192693    0.1399635  78.81 0.0006509116    1.127    0.113
        80  -9.4000     36.0582    234.1416   1.2667639096e+02   2.2419459763e+01    0.1353938   0.08399686  65.39 0.0003384457    1.193    0.162
        81 -10.8538    189.9122     14.9964   4.6411274088e+01   3.5501229787e+01    0.2159041    0.2030115  85.28 0.0006616255    1.025    0.024
        82  -9.6925     75.6739     13.3150   6.9709604962e+01   6.2807077874e+01    0.1179423    0.1031186 -56.37 0.0003247339    1.669    0.401
