#   1 NUMBER                 Running object number                                     
#   2 MAG_AUTO               Kron-like elliptical aperture magnitude                    [mag]
#   3 X_IMAGE                Object position along x                                    [pixel]
#   4 Y_IMAGE                Object position along y                                    [pixel]
#   5 X_WORLD                Barycenter position along world x axis                     [deg]
#   6 Y_WORLD                Barycenter position along world y axis                     [deg]
#   7 A_WORLD                Profile RMS along major axis (world units)                 [deg]
#   8 B_WORLD                Profile RMS along minor axis (world units)                 [deg]
#   9 THETA_WORLD            Position angle (CCW/world-x)                               [deg]
#  10 FWHM_WORLD             FWHM assuming a gaussian core                              [deg]
#  11 ELONGATION             A_IMAGE/B_IMAGE                                           
#  12 ELLIPTICITY            1 - B_IMAGE/A_IMAGE                                       
         1 -14.4343    152.5760     54.3154   8.7294312459e+01   4.0577519306e+01     1.228768     1.144074  17.06  0.003366057    1.125    0.111
         2 -14.7553    164.1517     39.5153   8.0091362029e+01   3.9783502710e+01      1.36011     1.010081 -14.55  0.003721216    1.539    0.350
         3 -14.4150    178.0574      6.6518   6.7383832599e+01   3.9924754217e+01     1.069849    0.8517128  68.13  0.004085832    1.141    0.124
         4  -9.8342    160.2834    247.3120   1.2711151818e+02   3.9612063354e+00    0.1085683   0.08030637  22.34 0.0002402126    1.573    0.364
         5 -19.9067     73.5239    169.5039   1.3456926251e+02   3.1803006314e+01     17.44316     6.789127 -67.89    0.0753242    2.554    0.608
         6 -11.0654    113.9832    250.1506   1.3543725029e+02   1.0808568060e+01    0.1274944    0.1095096  86.42 0.0004848266    1.312    0.238
         7 -10.5073    140.5773    199.5272   1.2445098981e+02   1.4791888426e+01    0.4024179    0.1111738  44.36  0.001434259    3.067    0.674
         8  99.0000    135.6654    196.3185   1.2497144370e+02   1.6249107072e+01    0.3602932    0.2117785  81.02  0.001497956    3.079    0.675
         9 -11.9203     13.2344    244.5396   1.5147712315e+02   2.4576067482e+01    0.2479418     0.104662 -72.05  0.001634547    2.379    0.580
        10 -11.3873    160.5924    194.7819   1.1969938962e+02   1.1964543044e+01    0.2669964    0.1519159  46.92 0.0008060982    1.532    0.347
        11 -11.9463    157.2064    191.2769   1.1980782402e+02   1.3208922381e+01    0.2115946    0.1823433  85.43 0.0006349822    1.325    0.245
        12 -14.2702    206.3117    179.9950   1.0813052935e+02   5.6564838218e+00    0.8580726    0.6778547  35.88  0.003342602    1.136    0.120
        13 -13.4509    197.1810    173.4286   1.0859958499e+02   8.4895710887e+00    0.7593795    0.4381034 -50.77  0.002667421    2.183    0.542
        14  -9.8250    153.4631    194.4657   1.2107983473e+02   1.3344518363e+01    0.1352205    0.1159688  52.76 4.819969e-05    1.037    0.036
        15 -11.8164     30.2859    183.9660   1.4515717800e+02   3.4025135132e+01    0.3691394    0.1610805  55.77  0.001479177    1.991    0.498
        16 -11.2145    108.1465    182.3039   1.2869526077e+02   2.3741108653e+01    0.2783083    0.1862004  70.72 0.0003901273    1.571    0.363
        17 -11.0793      4.2621    180.3139   1.4996769681e+02   3.7227526072e+01     0.223905    0.1788179 -20.33  0.001248458    2.352    0.575
        18  -8.2337      8.1312    245.8956   1.5229426680e+02   2.4864321008e+01    0.2055363   0.06886622  87.54  0.001163571    2.753    0.637
        19 -11.2812     10.1166    174.9364   1.4851561287e+02   3.7815029170e+01    0.1689862    0.1233069  67.56 0.0007450695    1.159    0.137
        20 -12.8410    177.4988    169.9686   1.1184218664e+02   1.3035037510e+01    0.3980144    0.3285988  27.91   0.00220027    1.218    0.179
        21 -12.5961    138.4104    171.7344   1.2044744696e+02   2.0439634933e+01    0.5040137    0.3527644 -78.62  0.002044627    1.825    0.452
        22 -13.7776    145.0773    169.2631   1.1855698989e+02   1.9643346675e+01    0.7967605    0.5154148  76.08  0.003502791    2.267    0.559
        23 -11.8284    202.5456    166.4436   1.0616687755e+02   8.5662751167e+00    0.3800242    0.3153366 -88.92  0.002033213    1.718    0.418
        24 -11.5333    133.7145    249.9072   1.3201810119e+02   7.8196313776e+00    0.1506384    0.1381253 -80.16 0.0007896821    1.373    0.272
        25 -11.0878    122.8912    165.9512   1.2288715010e+02   2.4521095291e+01    0.3566621     0.195391  56.71  0.001054802    1.906    0.475
        26 -11.2123    223.9619    164.4021   1.0175833988e+02   4.6421741476e+00    0.2366102    0.1858168 -47.72 0.0005442497    1.527    0.345
        27 -11.6127     24.1705    229.7635   1.4909459274e+02   2.5956916623e+01    0.3059117    0.1390651  66.46  0.001916544    1.707    0.414
        28  -9.6003      2.3541    164.9850   1.4944497868e+02   4.0511577944e+01    0.1396719    0.1001679  88.88 0.0005567756    1.060    0.057
        29 -11.0365     14.9190    164.0996   1.4679898696e+02   3.9649799157e+01    0.2009772    0.1702504  21.27  0.001137104    1.727    0.421
        30 -11.0389    237.5269    159.4926   9.8348323350e+01   2.7687841062e+00    0.1344448    0.1203023   5.19 0.0001157969    1.023    0.023
        31 -12.1677    164.2533    157.9796   1.1223589121e+02   1.7975397476e+01    0.3342697    0.2006519  42.07  0.000780345    1.582    0.368
        32 -11.4020    153.0404    151.2308   1.1330944227e+02   2.1633881624e+01    0.2437407    0.1639159  70.45 0.0007701688    1.937    0.484
        33 -10.5457     25.7742    222.6561   1.4845780634e+02   2.7049970188e+01    0.2402984   0.08899226 -65.30   0.00133286    2.835    0.647
        34 -11.3487    174.5816    149.0385   1.0815724844e+02   1.7499694254e+01    0.2785987    0.2454407  59.44 0.0008185132    1.152    0.132
        35 -11.5343    219.7798    225.8711   1.1370527712e+02  -3.0423993160e+00     0.241154    0.1529764 -40.53  0.001454735    2.007    0.502
        36 -10.3078    175.2914    141.6445   1.0637769011e+02   1.8754199944e+01    0.1509704    0.1188493 -83.29 0.0007028729    1.684    0.406
        37 -10.9711    110.1235    223.0359   1.3337939936e+02   1.5770799983e+01    0.1766671    0.1368409  62.18  0.000385027    1.056    0.053
        38 -11.9870     15.6827    219.8762   1.5000045204e+02   2.8597235436e+01    0.1708935     0.119011  82.94 0.0006717698    1.146    0.128
        39 -11.5232      5.8710    137.1210   1.4669115877e+02   4.6182312455e+01    0.2401393     0.193849 -54.73  0.001260687    1.469    0.319
        40 -10.0045     13.8270    137.2072   1.4482193844e+02   4.5561292371e+01     0.144262    0.1128981 -64.66 0.0002368745    1.306    0.234
        41 -11.5976    111.2941    209.5797   1.3161534789e+02   1.7967238545e+01    0.2418307    0.1979686  23.80 0.0008012932    1.645    0.392
        42 -12.2532    160.6928    127.7130   1.0635576932e+02   2.4740962606e+01    0.4048616    0.3130675 -58.52  0.001950963    1.410    0.291
        43 -11.4831    140.2220    120.3736   1.0939145683e+02   3.0781004315e+01    0.2742239    0.1893717  56.13 0.0006786115    1.495    0.331
        44 -11.9960    171.6420    117.2980   1.0136553440e+02   2.4307964013e+01    0.4068041    0.3035226  88.94 0.0009808306    1.850    0.460
        45 -10.7731    101.6373    207.4542   1.3325783625e+02   1.9896563330e+01    0.3104171    0.1604891  68.37 0.0008818879    2.368    0.578
        46 -12.8157    163.4807    203.5906   1.2053082119e+02   9.9490601925e+00    0.4718814    0.2950514 -61.49  0.002119497    2.165    0.538
        47 -10.9609    159.0484    205.4920   1.2168733773e+02   1.0439864750e+01     0.259224      0.18419  49.41 0.0008978062    1.215    0.177
        48 -10.7672    205.5107    110.1885   9.2715854439e+01   1.7640586429e+01    0.2723759    0.2129111  50.06 0.0006330612    1.290    0.225
        49 -11.1057      7.4931    111.0038   1.4378883605e+02   5.1840920559e+01    0.1841549    0.1315187 -60.05  0.001192926    1.293    0.226
        50 -10.6048    154.9989    104.8751   1.0189232812e+02   3.0670956714e+01    0.2247149    0.2205921  74.85 0.0003211391    1.006    0.006
        51 -11.3350      7.3376    102.0277   1.4279716919e+02   5.3850781660e+01    0.2095994    0.1881854  50.78  0.001129112    1.354    0.262
        52 -13.3697     11.3942    205.7929   1.5002851839e+02   3.1618781371e+01    0.4367656    0.2848232  50.38  0.003277082    1.414    0.293
        53 -11.8543    169.0219    202.6004   1.1929655859e+02   9.0976994229e+00    0.2157388    0.1827123 -82.77 0.0005572381    1.499    0.333
        54 -10.3319    150.7004    249.0913   1.2898601323e+02   5.2540904474e+00    0.1400383    0.1272008  56.15 0.0005108687    1.215    0.177
        55 -11.2369    125.0736    247.4893   1.3326480543e+02   9.5154272338e+00    0.1573867    0.1159979 -66.40 0.0009125619    1.688    0.408
        56 -12.9042    167.7240     31.5340   7.6848418006e+01   3.9898992120e+01    0.4092995    0.3521227  -1.00 0.0009486598    1.316    0.240
        57 -10.6903     13.7489     60.0133   1.3380026212e+02   6.2671848628e+01    0.1701856    0.1344149 -74.64 0.0005350204    1.240    0.194
        58 -10.6098    144.2469     33.8353   8.2094296665e+01   4.5700792486e+01    0.2514892    0.1954183  74.75 0.0007593312    1.386    0.279
