#   1 NUMBER                 Running object number                                     
#   2 MAG_AUTO               Kron-like elliptical aperture magnitude                    [mag]
#   3 X_IMAGE                Object position along x                                    [pixel]
#   4 Y_IMAGE                Object position along y                                    [pixel]
#   5 X_WORLD                Barycenter position along world x axis                     [deg]
#   6 Y_WORLD                Barycenter position along world y axis                     [deg]
#   7 A_WORLD                Profile RMS along major axis (world units)                 [deg]
#   8 B_WORLD                Profile RMS along minor axis (world units)                 [deg]
#   9 THETA_WORLD            Position angle (CCW/world-x)                               [deg]
#  10 FWHM_WORLD             FWHM assuming a gaussian core                              [deg]
#  11 ELONGATION             A_IMAGE/B_IMAGE                                           
#  12 ELLIPTICITY            1 - B_IMAGE/A_IMAGE                                       
         1 -13.0595    220.6286     55.2706   2.5509829041e+01   2.4389593651e+01     1.191303     1.007481 -76.36  0.007988396    1.246    0.198
         2 -13.0637    238.7654     42.0089   2.0961770636e+01   2.2598742942e+01    0.9602488     0.774789  51.18  0.006703183    1.614    0.381
         3  -9.9545      2.3893      9.7976   8.3391626206e+01   7.8561288129e+01    0.1903615   0.09598344 -51.99  0.000961134    1.712    0.416
         4  -9.7931      3.5188      2.3100   7.7773095027e+01   8.0063879085e+01    0.2220428    0.1062296  17.35  0.001090321    2.063    0.515
         5  -9.4453    249.4995    247.5241   5.7204135120e+01  -3.5848969948e+00   0.09774425   0.06317911  -0.71 0.0003049303    1.014    0.014
         6 -11.8883     37.7529    171.0976   9.3110780853e+01   3.4408432084e+01    0.6392646    0.3880058   6.05  0.000486024    2.103    0.524
         7 -15.3261      7.3245    235.6779   1.0374129697e+02   2.3525829740e+01     10.17443     5.631524 -87.09   0.06484144    2.001    0.500
         8 -13.5185      9.3473    207.3134   1.0256871060e+02   2.8890085744e+01     1.816377     1.094389  -6.44  0.008605347    2.506    0.601
         9 -14.8738     22.6116    180.8889   9.8068094094e+01   3.3555006397e+01     5.337995     1.751601  74.63   0.01867552    3.967    0.748
        10  -9.4211     94.3440    221.6816   8.3054675584e+01   1.7121737191e+01    0.1309011   0.07800606  50.40 0.0007049177    1.721    0.419
        11  -8.5548    119.5764    236.4810   7.9004233194e+01   1.1590471143e+01    0.1186609   0.09254479  23.36 6.612048e-05    1.014    0.014
        12 -10.5529     69.4220    212.2132   8.8085790351e+01   2.1889084813e+01    0.3102611    0.1536575  24.05  0.001520837    1.837    0.456
        13  -8.1211    180.2289    209.3434   6.3196949263e+01   8.1147920825e+00    0.1157147   0.07552682  -8.98  0.000194922    1.545    0.353
        14 -10.3443     78.0012    204.6191   8.5272271382e+01   2.2362293442e+01    0.2574245     0.200546  82.56  0.000604957    1.510    0.338
        15 -12.4250      2.2441    194.2247   1.0398083162e+02   3.2215287803e+01    0.3675158    0.2390126  89.08  0.001037759    1.529    0.346
        16  -7.8332     99.3369    181.2783   7.7082724463e+01   2.4306246612e+01     0.135682    0.1026417  -4.39 0.0007002696    1.614    0.380
        17 -10.1960    230.7809    167.9109   4.7711893865e+01   7.3448734407e+00    0.2145879    0.1437994 -40.67  0.001379773    1.655    0.396
        18 -11.5527     46.0056    165.4700   9.0177508332e+01   3.4879606333e+01    0.3286063    0.2922574 -17.74 0.0005066248    1.361    0.265
        19  -8.7015    110.7802    167.2193   7.1991736275e+01   2.5553840266e+01    0.2000583    0.1793534  51.61 0.0004847108    1.149    0.130
        20 -11.6493     73.9256    136.9008   7.7661288406e+01   3.8354493343e+01    0.4604006    0.3453685 -71.42 0.0003135964    1.406    0.289
        21 -13.0105     68.2765    143.6377   8.0566881188e+01   3.7486731881e+01     2.447525     1.178985  74.11  0.002967029    4.424    0.774
        22 -10.5858     59.5991    156.7501   8.5093642385e+01   3.5391045035e+01    0.2676092    0.2638923 -25.15 0.0004027025    1.151    0.131
        23 -10.6892    236.5289    155.7565   4.4689309325e+01   8.1954644869e+00    0.2927779   0.09159016 -36.91   0.00132257    2.723    0.633
        24 -12.9025     44.2084    152.4934   8.9434401613e+01   3.8289092270e+01    0.5791957    0.3941376 -17.88  0.001364734    2.058    0.514
        25 -10.8012    248.3010    150.7124   4.2164089011e+01   7.3327883864e+00    0.2805634    0.1127206 -32.68  0.001489424    2.001    0.500
        26 -10.4472     86.8676    139.4848   7.4019098488e+01   3.5701078439e+01    0.3377187    0.3059734   8.12 0.0009787874    1.203    0.169
        27  -9.1898     90.8014    136.6537   7.2287732532e+01   3.5741721542e+01    0.2245073    0.2051095 -20.88 0.0004546023    1.219    0.180
        28  -9.9642    241.7490    137.7499   4.0619366421e+01   9.8599035615e+00    0.1513799   0.09913969  58.25 0.0009002822    2.446    0.591
        29 -13.9649      9.8335    188.9726   1.0186859042e+02   3.2791226647e+01     1.440972    0.7666622  69.10  0.002788654    1.710    0.415
        30 -10.1672    104.5978    130.0347   6.6820729702e+01   3.4914149649e+01    0.6008738    0.3276076  46.04  0.002480105    1.829    0.453
        31 -11.8119     68.4003    151.5019   8.1679310277e+01   3.5517477391e+01    0.6289302    0.4164347  46.16  0.001254235    1.408    0.290
        32 -10.5401     68.0295    126.3986   7.7802362429e+01   4.1904210998e+01     0.522617    0.2354448 -72.94  0.001830238    2.815    0.645
        33  -9.8743     88.4859    124.6488   7.0636926287e+01   3.9053094597e+01    0.3081998     0.258641  11.57  0.000643848    1.357    0.263
        34 -10.8272    243.6242    123.7514   3.7679573305e+01   1.1436948326e+01    0.2222831    0.1249539 -37.14  0.001321574    1.481    0.325
        35  -9.0628    101.9222    117.9752   6.4960862698e+01   3.8231515794e+01    0.2203608    0.2135092  56.18 0.0003076367    1.008    0.008
        36  -9.1320    204.3198    110.8074   4.0394647958e+01   1.9571893685e+01    0.2661352    0.1738567  34.31  0.001431956    1.794    0.443
        37 -10.8411     51.4341    108.9697   8.0733687494e+01   4.8817603493e+01    0.6146621    0.1585522 -68.20  0.001666335    4.404    0.773
        38 -10.0377     52.3374    101.6498   7.8947122322e+01   5.0644700153e+01    0.3299162    0.2260177  63.77 0.0009265885    1.649    0.394
        39  -8.7355     34.1950     97.1639   8.5796909735e+01   5.4043019213e+01    0.2044888     0.158533  65.34 0.0003672132    1.330    0.248
        40 -10.1353     53.0194     90.7136   7.6264908229e+01   5.3436698967e+01    0.3453096    0.1927349 -52.68  0.001095994    1.759    0.431
        41  -9.1457     41.7021     92.0288   8.1513352763e+01   5.4582463975e+01     0.208167    0.1911721 -60.88  0.000587609    1.076    0.070
        42  -9.6882    167.1919     87.8165   4.1073869589e+01   3.0672874619e+01    0.1971736    0.1708301   3.48 0.0006818743    1.351    0.260
        43  -8.6843    102.2862     82.9990   5.5521389918e+01   4.6188487101e+01    0.2140068    0.1980502 -57.88  0.000445828    1.090    0.082
        44  -9.1404    184.5873     77.2412   3.5376488042e+01   2.8653439232e+01    0.1888587     0.126186 -24.96  0.000474674    1.582    0.368
        45  -9.5559    139.7589    249.7554   7.6296792221e+01   7.3044116371e+00    0.1876767   0.06206205  36.49 0.0008943122    2.456    0.593
        46  -8.7603    245.3222    227.6634   5.5072260313e+01  -1.2517251026e+00    0.0831515   0.07287104  -4.49 0.0007050565    1.712    0.416
        47 -10.3989     13.4591     60.0829   8.9601188168e+01   6.5737964625e+01    0.3310512    0.2410919 -89.95 0.0004403784    1.432    0.302
        48 -11.0519     11.1595     51.6838   8.9307897503e+01   6.8053707211e+01    0.3919292    0.2571407  84.20  0.001955663    1.729    0.422
        49 -10.1403      2.0001     51.7690   9.5333435833e+01   6.8470606693e+01    0.2674365    0.1399869 -59.92  0.001282749    1.648    0.393
        50 -10.5223      4.5852     39.3495   9.1176994113e+01   7.1515131184e+01    0.3924161    0.1919605  47.76  0.001728391    2.486    0.598
        51  -8.1847    106.6692     14.3481   2.8149715629e+01   5.6839464906e+01    0.1563148    0.1003147 -64.62 0.0007049072    1.765    0.433
        52  -8.8396    102.8045     10.5584   2.7233050902e+01   5.8270309959e+01    0.1961283    0.1285739  86.56 0.0004982752    1.574    0.365
        53  -9.6163     74.9953    227.4989   8.8038977895e+01   1.8367490568e+01    0.1933063    0.0611835  43.84 0.0008106795    2.632    0.620
