#   1 NUMBER                 Running object number                                     
#   2 MAG_AUTO               Kron-like elliptical aperture magnitude                    [mag]
#   3 X_IMAGE                Object position along x                                    [pixel]
#   4 Y_IMAGE                Object position along y                                    [pixel]
#   5 X_WORLD                Barycenter position along world x axis                     [deg]
#   6 Y_WORLD                Barycenter position along world y axis                     [deg]
#   7 A_WORLD                Profile RMS along major axis (world units)                 [deg]
#   8 B_WORLD                Profile RMS along minor axis (world units)                 [deg]
#   9 THETA_WORLD            Position angle (CCW/world-x)                               [deg]
#  10 FWHM_WORLD             FWHM assuming a gaussian core                              [deg]
#  11 ELONGATION             A_IMAGE/B_IMAGE                                           
#  12 ELLIPTICITY            1 - B_IMAGE/A_IMAGE                                       
         1 -12.2387     18.1175     23.5707   1.0369345667e+02   6.9537242604e+01    0.5341765    0.2684236 -60.45  0.002683405    1.954    0.488
         2 -12.0926      6.5414     18.2252   1.0772800347e+02   7.1386495405e+01     0.465519    0.2831734 -17.29  0.001858229    1.802    0.445
         3 -11.5301     35.6268     19.9470   9.3617003687e+01   6.8506068922e+01     0.456729    0.3391229  62.29  0.002065601    2.384    0.581
         4 -12.0960     79.8437     15.4850   7.3429176233e+01   6.2296567623e+01    0.4784464    0.4056627  80.74   0.00144757    1.687    0.407
         5 -10.3910     67.6440     13.4270   7.6763880014e+01   6.4847098925e+01    0.4352781    0.1663299 -32.74  0.001830128    2.438    0.590
         6 -10.7099     75.3519      8.9102   7.1745417575e+01   6.4020976138e+01    0.3395346    0.2301181  53.44  0.001848825    1.647    0.393
         7 -12.1506    174.9209     11.6778   5.1094350427e+01   3.9535217771e+01    0.3762906     0.309479  75.97  0.001234421    1.172    0.147
         8 -10.5192    217.9875     12.0150   4.6303038602e+01   2.8218157718e+01    0.2194967     0.157299  38.07 0.0006903374    1.652    0.395
         9 -12.4729    209.6358      5.7481   4.5350172720e+01   3.0972640808e+01    0.6207029    0.3738523 -39.70 0.0008280815    1.575    0.365
        10 -10.2088     97.8866     12.0250   6.6285020893e+01   5.8973877907e+01    0.2017767    0.1850934   8.98 0.0004181644    1.032    0.031
        11 -10.2392     21.8246     12.0281   9.6967859626e+01   7.1343961684e+01    0.2133472    0.1412921  53.65  0.001179333    2.749    0.636
        12 -11.3859     51.5530      7.2115   8.0044418597e+01   6.8387725093e+01    0.5690781    0.1974113 -27.67   0.00209552    3.263    0.694
        13 -10.7650     39.3441      9.9097   8.7028387498e+01   6.9727361661e+01    0.2493913    0.1681249  38.95  0.001064098    1.752    0.429
        14 -11.4905    194.4385      8.6030   4.7742555482e+01   3.4648953653e+01     0.323261    0.2310779  83.16  0.001069475    1.380    0.275
        15 -10.7775    159.3708      7.3795   5.1820430382e+01   4.4119584045e+01    0.2803921    0.2314051 -66.95 0.0006476614    1.303    0.232
        16 -11.8734    161.7469      3.1967   5.0020158025e+01   4.3875332547e+01    0.5520204    0.3097409  79.44  0.002425092    1.855    0.461
        17 -10.7899    108.0586      7.5124   6.1607958926e+01   5.7154631621e+01    0.2104825     0.131735  58.90  0.001024904    1.570    0.363
        18 -10.5657     24.7899      6.7018   9.2781163926e+01   7.1953190199e+01    0.2105105    0.1602532 -45.38 0.0009739933    1.366    0.268
        19  -9.5609     19.7678      7.0222   9.5687323517e+01   7.2400863767e+01    0.1483476   0.07938474 -44.58 0.0004066881    1.547    0.354
        20 -11.0977     39.1668      4.3982   8.4185083554e+01   7.0585615808e+01    0.3548672    0.2251853 -50.80  0.001960592    2.154    0.536
        21 -10.4029     14.2389      5.0103   9.7823163759e+01   7.3240674325e+01    0.1593315    0.1127338 -37.25 0.0001906304    1.107    0.097
        22  -9.1509      7.5843      5.4880   1.0195410842e+02   7.3679438771e+01    0.1137422   0.08424442 -36.49 0.0001342516    1.016    0.015
        23 -11.4153    194.1962      3.6672   4.6280667953e+01   3.5187971244e+01    0.2859593    0.2241669  59.28 0.0005851407    1.253    0.202
        24 -10.4152    217.9067      2.3145   4.3652511973e+01   2.9201133576e+01    0.2468074    0.1684782 -42.01  0.001308438    1.375    0.273
        25 -11.3691    180.7559      1.9526   4.7220367455e+01   3.8908339766e+01    0.4005422    0.1879228  67.10  0.001691767    1.929    0.482
        26  -9.8099    115.5971      2.1859   5.7549958380e+01   5.5875784556e+01    0.1789176    0.1272209   3.71 0.0002506299    1.499    0.333
        27  -9.9337     87.4818      6.9599   6.6894578111e+01   6.1806682817e+01    0.1941322    0.1254115 -18.97  0.001003458    1.514    0.339
        28 -10.6978     73.6090      1.8693   6.8722407897e+01   6.5190333344e+01     0.231059    0.1873504  47.94  0.001008682    1.324    0.245
        29 -11.1375     46.5789      9.3961   8.3394080515e+01   6.8814465695e+01    0.3497804    0.2012656  -5.49  0.001683259    2.410    0.585
        30  -9.9806    248.8771      2.8843   4.1425840868e+01   2.1689467469e+01    0.1866351    0.1282934 -56.52 0.0004084705    1.309    0.236
        31 -10.1832    143.5134      1.4260   5.2079034514e+01   4.8860791381e+01    0.1415578     0.130079  56.05 -3.87953e-05    1.011    0.011
        32 -10.2863     90.4915      1.4392   6.3330508845e+01   6.1751940959e+01    0.2347846    0.1247978  56.71 3.369475e-05    1.860    0.462
        33 -10.3066      8.6239      1.2294   9.9274502372e+01   7.4341947685e+01    0.2263566   0.08028821  29.30  0.001130306    3.231    0.690
        34 -10.9322     43.7457    236.1397   1.2634609458e+02   2.3200321131e+01    0.3316311    0.1273234  56.94  0.001997652    1.964    0.491
        35  -9.5429    208.5040    250.4849   1.0020944226e+02  -1.8241332900e+00    0.1092793   0.07817752  31.53 0.0008104324    1.017    0.016
        36 -11.5835    187.4415    249.2096   1.0344566763e+02   1.4034355369e+00    0.2196142    0.1623844  33.18 0.0006744171    1.045    0.043
        37 -10.7501    187.5355    245.4594   1.0296784394e+02   1.7991251369e+00    0.2215157    0.1287803  43.48 0.0008001823    1.347    0.257
        38 -11.7006    114.6796    249.1775   1.1551948070e+02   1.2126162537e+01    0.3980706    0.1655188  44.45   0.00191494    1.738    0.425
        39 -10.0786    107.7350    250.4274   1.1677890998e+02   1.2924672766e+01    0.2056627   0.09048937  51.59  0.001029369    1.751    0.429
        40 -12.3161     46.5878    246.7062   1.2645168378e+02   2.1230511408e+01    0.2949787    0.1455738  86.08 0.0009446067    2.046    0.511
        41 -12.0897     31.7776    231.4765   1.2805873512e+02   2.5265490575e+01    0.6713163    0.3089202  65.89  0.004446503    1.727    0.421
        42 -10.8201     45.3928    229.1249   1.2568025137e+02   2.4149108382e+01    0.4713458    0.2260236  82.87  0.002947583    2.099    0.523
        43 -11.2717     40.1823    229.6452   1.2658012862e+02   2.4650229956e+01    0.2821628      0.19494  60.52    0.0011188    1.054    0.051
        44 -12.8494     11.8679    232.3065   1.3128068756e+02   2.7146278577e+01    0.7913619    0.3562344  79.60   0.00544778    1.848    0.459
        45 -13.5618     17.5007    246.9805   1.3095454275e+02   2.4286560485e+01    0.8137055    0.3728056  51.97  0.005771775    1.468    0.319
        46 -12.4794      9.9852    247.7964   1.3210527493e+02   2.4896015882e+01    0.4320256    0.2245857 -89.67  0.002693433    1.708    0.415
        47 -12.6297      3.0557    246.7699   1.3309508790e+02   2.5705272425e+01    0.2931578    0.2057955  63.50  0.001592616    1.150    0.131
        48 -13.3822      3.5431    235.4109   1.3267620272e+02   2.7430386778e+01    0.8723623    0.2803179 -87.06  0.003013227    2.840    0.648
        49 -11.6168     20.8570    234.5105   1.2995034538e+02   2.5906341361e+01    0.2228738    0.1659327  43.01 0.0007773616    1.521    0.343
        50 -12.2446     34.0397    248.2947   1.2848711757e+02   2.2375102822e+01    0.4220007     0.122987  43.94 0.0003806858    2.297    0.565
        51 -13.7705     34.1528    243.8813   1.2826851934e+02   2.3040150093e+01    0.6863409    0.2985004  38.08  0.002436405    2.133    0.531
        52 -10.1900    157.2579    235.1391   1.0681910926e+02   7.6790633646e+00    0.2060609     0.101435 -51.34  0.001171328    2.754    0.637
        53 -10.4168    134.3850    235.5113   1.1083003814e+02   1.1138334988e+01    0.2804777    0.1424765  64.14  0.001400467    2.843    0.648
        54 -11.9690    105.7532    235.1353   1.1577457013e+02   1.5404791403e+01    0.2598941    0.1445695  52.21 0.0002980989    1.390    0.280
        55 -10.4345    247.4633    235.0600   9.1949891186e+01  -5.9372200339e+00    0.1703748    0.1092714  29.65 0.0004374417    1.170    0.145
        56 -10.2350    172.8994    233.9207   1.0397675492e+02   5.3951909371e+00    0.1775565      0.12845  25.32   0.00121122    1.345    0.257
        57  -9.5147    230.4452    233.4441   9.4370302403e+01  -3.3525377328e+00     0.110996    0.0816789  25.33 6.357201e-05    1.026    0.025
        58  -9.9658    183.2271    232.9904   1.0209284699e+02   3.8923122102e+00    0.1499712    0.1213402  33.22 0.0003098534    1.074    0.069
        59 -11.2772    143.5518    232.3814   1.0888357286e+02   1.0171629559e+01    0.3320557    0.1526475  41.35  0.001300476    1.686    0.407
        60 -11.0779     88.5952    231.7994   1.1846604674e+02   1.8304971279e+01    0.4773774    0.1064273  48.23  0.001975241    3.309    0.698
        61 -10.3156     74.5503    231.5466   1.2087769021e+02   2.0207178761e+01    0.1643536    0.1228465  72.15  0.000480718    1.159    0.137
        62 -11.7589     73.5213    226.6423   1.2068521572e+02   2.1131224415e+01    0.3625461    0.1592811  60.87  0.001350219    2.125    0.530
        63 -11.0126    152.2038    230.7753   1.0717949265e+02   9.0457701233e+00    0.1923127    0.1654904  36.43 0.0003587645    1.156    0.135
        64 -10.6648    151.8127    227.1942   1.0681685446e+02   9.5962306514e+00    0.1882842    0.1491197  34.83 0.0003178148    1.163    0.140
        65  -9.9864     80.9131    231.2207   1.1975335108e+02   1.9426819687e+01    0.1646133    0.1067854  59.36 0.0005126462    1.189    0.159
        66  -9.9342     58.7697    230.3398   1.2349441804e+02   2.2377489576e+01    0.2090232   0.09429117  83.88  0.001150675    2.680    0.627
        67  -9.7362    248.5178    230.5111   9.1104275470e+01  -5.6728192538e+00    0.1101213   0.07982728  20.71 0.0008102214    1.022    0.021
        68  -9.8764    232.5685    230.1367   9.3544897125e+01  -3.3399920324e+00    0.2413891    0.1121606  50.01  0.001233782    2.727    0.633
        69 -10.1187     96.3509    230.0223   1.1695649610e+02   1.7513134407e+01    0.1931047    0.1155672  53.87 0.0006019338    1.292    0.226
        70 -10.6837     93.5015    226.9887   1.1719022081e+02   1.8388261851e+01    0.2056246    0.1294397  86.35  0.001325912    1.818    0.450
        71  -9.7955    125.7487    228.4218   1.1159102804e+02   1.3464086431e+01    0.1554307     0.134956   3.89 0.0005529102    1.650    0.394
        72  -9.5667    208.8249    228.2187   9.7125743946e+01   4.4813684704e-01    0.1479932    0.1054221  19.65 0.0003668132    1.259    0.205
        73  -9.9596    173.5267    227.9724   1.0310190952e+02   6.0428088911e+00    0.1928607    0.1205364  40.38 0.0006798914    1.233    0.189
        74 -10.4321    111.3482    227.7001   1.1408206280e+02   1.5722048740e+01    0.1841762    0.1296582  58.97 0.0004362411    1.192    0.161
        75 -10.3553    107.1615    227.8411   1.1484144432e+02   1.6311314491e+01    0.1641196     0.117369  58.73 0.0003142837    1.144    0.126
        76 -10.4971    109.7109    239.7475   1.1551275815e+02   1.4161465251e+01    0.2392411    0.1404096 -54.32  0.001573334    2.252    0.556
        77  -9.8863     23.3682    227.0101   1.2922132131e+02   2.6875852698e+01    0.1408311   0.09273005  74.46  0.001118862    1.148    0.129
        78 -10.4321    216.1368    226.1093   9.5608135356e+01  -4.5101210180e-01    0.1656574     0.127802  27.28 0.0004056106    1.039    0.037
        79 -10.9186    164.2512    224.3985   1.0426243417e+02   7.9933256317e+00    0.2229042    0.1891212  64.98 0.0006646263    1.363    0.266
        80 -10.7552     79.0689    224.1042   1.1950653110e+02   2.0818994441e+01    0.2403987    0.1568696  82.25  0.001643572    1.533    0.348
        81 -10.6495     37.9865    224.1144   1.2664494890e+02   2.5810700003e+01     0.335233    0.1183734  52.91  0.001667434    2.060    0.515
        82 -11.8147     38.8860    218.1984   1.2615561046e+02   2.6715872979e+01    0.3269606    0.2563791  17.18 0.0008918273    2.194    0.544
        83 -12.1540     22.1834    238.1308   1.2989142211e+02   2.5194106080e+01    0.4192757    0.2063501  44.20  0.001518423    1.629    0.386
        84 -10.3067    187.8779    222.5461   9.9871429224e+01   4.4235315556e+00    0.1731648    0.1449064  10.12 0.0004300172    1.257    0.204
        85 -10.1767    176.2656    222.5097   1.0189230417e+02   6.3039497271e+00    0.1663356    0.1570661 -18.29 0.0002488701    1.319    0.242
        86  -9.6543    142.0961    223.1076   1.0805935520e+02   1.1710065365e+01     0.154804    0.1144099  58.16 -0.0009232552    1.279    0.218
        87 -10.3569    121.2752    221.9830   1.1170031718e+02   1.5115238423e+01    0.1508342    0.1261385  58.63 0.0002967542    1.095    0.087
        88  -9.9495    107.0040    222.3318   1.1432771992e+02   1.7196203323e+01    0.1644381    0.1131972  48.53 0.0003424073    1.143    0.125
        89 -10.2988     63.7372    220.9780   1.2198310549e+02   2.3315382501e+01    0.2932994    0.1318359  72.03   0.00154612    2.571    0.611
        90  -9.7549     54.7667    221.9965   1.2363126187e+02   2.4240505274e+01    0.1964963    0.1451916  35.74  0.001442969    1.616    0.381
        91 -11.0684     27.5266    219.7251   1.2818275916e+02   2.7672343876e+01    0.2852249    0.1911946  55.77  0.002232841    1.172    0.146
        92  -9.2570     21.3646    221.2294   1.2928850715e+02   2.8046408948e+01   0.07985139    0.0733411  50.39 0.0003320542    1.586    0.369
        93 -10.2784    228.8434    220.1698   9.2629330406e+01  -1.7688822128e+00    0.1627885    0.1305901  31.05 0.0002742741    1.200    0.166
        94  -9.4781    222.9637    220.1994   9.3594333936e+01  -8.6795436731e-01    0.1551744   0.07305382  40.34 0.0005673762    1.717    0.418
        95 -11.4052    134.2419    217.9772   1.0887426657e+02   1.3713342035e+01    0.4020917    0.3536803  12.45  0.002048047    1.457    0.314
        96 -11.2295     95.8863    219.1959   1.1604389759e+02   1.9309685443e+01    0.2287441    0.1553067 -81.66  0.001009303    1.650    0.394
        97 -11.6340     14.5324    219.2342   1.3033439311e+02   2.9057403603e+01    0.1640258    0.1280017  69.08  0.000230519    1.201    0.167
        98 -10.9807     47.5258    218.1016   1.2464349248e+02   2.5755393483e+01    0.1984971    0.1769444  39.79 0.0007676423    1.550    0.355
        99 -10.5092    173.6785    216.7910   1.0156063432e+02   7.4798662027e+00    0.2850927    0.1980666  67.70  0.001498003    2.061    0.515
       100 -10.6147     20.0716    217.6796   1.2934153047e+02   2.8780222580e+01    0.1601032    0.1465062  58.85 0.0008535934    1.525    0.344
       101 -10.1241    217.6062    217.1749   9.4014948143e+01   3.0130591460e-01    0.1478882     0.100902 -10.03 0.0009454916    1.639    0.390
       102 -10.7259    117.1195    216.3703   1.1184678704e+02   1.6629323493e+01    0.1843791    0.1527244  78.86 0.0003384267    1.255    0.203
       103 -10.7575     73.2799    216.3291   1.1991029302e+02   2.2883436083e+01    0.1874301    0.1759616  11.90 0.0004921458    1.659    0.397
       104 -11.1350     74.4939    212.9967   1.1940993613e+02   2.3296011323e+01    0.2805813    0.1792977  79.78  0.001834403    1.524    0.344
       105  -9.9331    195.5077    216.4367   9.7663933910e+01   3.9405224014e+00    0.1205871   0.09330862  31.31  2.54329e-05    1.021    0.020
       106 -11.4037    112.0524    213.8352   1.1251021396e+02   1.7809611676e+01    0.3079649    0.2030071 -44.47  0.001459843    2.131    0.531
       107 -11.6458     85.1593    213.6014   1.1749312303e+02   2.1750819076e+01    0.3458429    0.3008457 -52.96  0.002572576    1.602    0.376
       108 -12.4574      8.7219    213.1876   1.3105229252e+02   3.0643654840e+01    0.4150585    0.2263196  72.15  0.002981482    1.355    0.262
       109  -9.3994    157.2796    215.3336   1.0432153165e+02   1.0382447977e+01    0.1133576   0.08607694  15.37 0.0004684594    1.609    0.379
       110  -9.9837     58.5696    214.2667   1.2241511144e+02   2.5103202403e+01    0.1805279   0.09405629 -82.91 0.0008172031    1.980    0.495
       111 -12.1289     31.3432    212.4372   1.2714137072e+02   2.8532632502e+01    0.3545937    0.3103883  89.26  0.002134244    1.402    0.287
       112 -11.0991     36.3984    205.8867   1.2585790711e+02   2.9154371929e+01    0.2527453    0.1450892  51.90  0.001729497    1.374    0.272
       113  -9.9518    246.5798    212.6777   8.8596227057e+01  -3.6793294142e+00    0.1329038    0.1010383 -23.66 0.0009374446    1.516    0.340
       114 -11.2529    101.7856    216.9721   1.1474403910e+02   1.8823762068e+01    0.2799793    0.2026361  31.47  0.001238194    1.602    0.376
       115 -12.0122     40.6723    212.1171   1.2547696222e+02   2.7574541176e+01    0.3541246    0.1422403  47.64  0.001780215    1.883    0.469
       116  -9.8907      1.2771    212.0918   1.3225025036e+02   3.1505214370e+01    0.1662578    0.0649386 -76.91  0.001041889    2.302    0.566
       117 -10.7762    117.9462    212.0480   1.1120720427e+02   1.7197819501e+01    0.1849478    0.1459267  52.80 0.0005358054    1.010    0.010
       118  -9.6719     62.2359    212.3873   1.2160872820e+02   2.4977317712e+01    0.1489574   0.07887416  50.63 0.0003480923    1.472    0.321
       119 -12.0961    128.5950    208.0758   1.0872458514e+02   1.6162508944e+01    0.3655386    0.2773975  18.43  0.001149375    1.772    0.436
       120  -9.9666     25.2977    211.3515   1.2813791388e+02   2.9352102187e+01    0.1321137   0.09193875 -74.90 0.0008609777    1.550    0.355
       121 -10.9107     24.2202    208.3152   1.2816834449e+02   2.9998389380e+01    0.2646528    0.1850209  26.43  0.001397706    2.051    0.512
       122  -9.7894     14.3409    211.2658   1.3002128027e+02   3.0449896335e+01    0.1292471   0.07004265  81.82 0.0002012777    1.483    0.326
       123 -10.1724    214.7920    210.0573   9.3371377999e+01   1.5664329883e+00    0.1864876    0.1185173   4.50 0.0007803671    1.881    0.468
       124 -10.4765    144.6979    208.7021   1.0576634398e+02   1.3440857571e+01    0.2513868    0.1442529 -64.16  0.001233603    2.497    0.600
       125 -11.5288     96.5271    200.8419   1.1405595173e+02   2.2347622022e+01    0.4400609    0.2725457 -67.67  0.001384211    1.789    0.441
       126 -11.4406     96.8963    209.0454   1.1485185422e+02   2.0864499839e+01    0.2511081    0.2090917  38.04 0.0003122248    1.347    0.258
       127 -11.1373     99.5159    205.2957   1.1395866041e+02   2.1125529336e+01    0.2412476    0.1384086  50.53 0.0005947629    1.420    0.296
       128 -10.9688     80.4093    209.2661   1.1798159764e+02   2.3150491585e+01    0.2486085    0.1429151  87.96  0.001454987    1.983    0.496
       129  -9.5676    237.4310    208.4313   8.9357967740e+01  -1.8471247986e+00    0.1174731   0.08910032  19.59 0.0001095899    1.017    0.017
       130  -9.8152     89.9146    208.5048   1.1611856698e+02   2.1961129563e+01    0.1718604   0.09615165  42.90 0.0009451436    1.524    0.344
       131 -11.6591     67.0236    207.3446   1.2032149328e+02   2.5260549557e+01     0.266801    0.1574613  43.40 0.0002079556    1.488    0.328
       132 -10.5405     17.7286    207.9969   1.2928696972e+02   3.0699094522e+01    0.1767953    0.1074252  56.58 0.0004416639    1.247    0.198
       133 -10.2340     12.2911    204.0298   1.3004940914e+02   3.1924692558e+01    0.3302768    0.1334978  61.29  0.001195043    1.911    0.477
       134 -12.6804     19.3564    200.8768   1.2864533082e+02   3.1819729367e+01    0.2173026    0.1769376  85.46 0.0005497329    1.261    0.207
       135  -9.7348    157.1879    207.1543   1.0321947542e+02   1.1592315490e+01    0.1706705     0.125142  55.34  0.001057399    1.320    0.242
       136 -10.1189    152.3169    207.6553   1.0419817924e+02   1.2334346947e+01     0.122475   0.08669263  67.76            0    1.719    0.418
       137  -9.2620      4.4477    205.5341   1.3146931572e+02   3.2371767719e+01    0.1537695    0.1238274  71.96 0.0007918238    1.242    0.195
       138 -10.1608      1.4632    204.5682   1.3194140725e+02   3.2805426853e+01    0.1511396   0.07556479 -89.59 0.0004494475    1.630    0.386
       139 -10.8254    195.6824    204.0726   9.5735387861e+01   5.4810949725e+00     0.226863    0.1486403  35.18 0.0006137302    1.256    0.204
       140 -10.3892    133.3072    203.7139   1.0727191238e+02   1.6104171279e+01    0.2078572    0.1561896  59.96  0.000755403    1.249    0.200
       141 -10.3473     90.2697    204.4706   1.1564769305e+02   2.2615188651e+01    0.1671389    0.0877614  51.39 0.0004177768    1.562    0.360
       142 -10.7165    121.1467    199.5783   1.0909618045e+02   1.8767328384e+01    0.2599092    0.1760557 -70.21  0.001001094    1.766    0.434
       143 -11.6607     52.0412    202.6708   1.2275684189e+02   2.7956478683e+01     0.239024    0.1975733  51.88  0.001090158    1.284    0.221
       144 -11.5687     55.5356    198.9811   1.2181125578e+02   2.8213492098e+01    0.2256782    0.1501986  50.31 0.0004510448    1.274    0.215
       145 -11.3574    240.3028    201.3421   8.7703864990e+01  -1.5300619407e+00    0.2139474    0.1498415  25.34 0.0005980897    1.146    0.127
       146 -11.5352    186.0823    200.8652   9.6952043970e+01   7.5544615432e+00    0.2721038    0.2175161  34.41 0.0003990195    1.025    0.025
       147 -10.0979    166.6421    202.1789   1.0073649489e+02   1.0720742802e+01    0.2137238    0.1390432  47.58 0.0006932327    1.334    0.250
       148  -9.5755    158.6583    201.0817   1.0207411773e+02   1.2256521380e+01    0.2185692    0.1177836 -55.46  0.001110105    2.483    0.597
       149 -11.5305     70.5658    201.5142   1.1914853544e+02   2.5849189385e+01     0.288004    0.1702601  55.13 0.0008811752    1.372    0.271
       150 -10.6631     30.3856    202.0466   1.2671692415e+02   3.0491874042e+01    0.3268794   0.05506514  50.10  0.001362153    3.814    0.738
       151 -10.3160    190.8570    200.8723   9.6089156857e+01   6.7306293802e+00    0.1822216    0.1435112  22.83  0.000276622    1.169    0.145
       152 -10.8152    105.1164    200.2417   1.1231168215e+02   2.1164855333e+01    0.2033277    0.1662162  71.14 0.0003111266    1.127    0.113
       153 -11.0329    109.3653    197.5353   1.1115860836e+02   2.0985622511e+01    0.2668041    0.2062527 -84.57  0.001515618    1.405    0.288
       154 -11.9926      5.2602    200.1187   1.3110790245e+02   3.3267882057e+01    0.1730153    0.1269209  60.51 0.0003755876    1.181    0.153
       155  -9.7750    155.0354    199.7537   1.0256777631e+02   1.3082117314e+01    0.1761895    0.1327123  43.78  0.001091031    1.100    0.091
       156 -11.3419     89.9346    199.1757   1.1516552086e+02   2.3606287128e+01    0.2792476     0.199046  69.65  0.000765535    1.273    0.214
       157 -10.5006     86.5388    198.5435   1.1576465988e+02   2.4206083646e+01     0.174279     0.161976 -72.52 0.0001687188    1.354    0.261
       158 -10.7295    209.6904    198.6414   9.2385569586e+01   3.8004898396e+00    0.1990499     0.126654  15.96 0.0008376435    1.726    0.421
       159  -9.9881    169.5113    198.2724   9.9608372750e+01   1.0801736953e+01    0.1989352    0.1261146 -49.57 0.0007472144    1.962    0.490
       160  -9.6119    149.7847    199.4057   1.0352085850e+02   1.4035343540e+01    0.1656937    0.1029944  36.29  0.000220967    1.466    0.318
       161 -10.1664     14.3338    198.3306   1.2941845616e+02   3.2765048555e+01    0.2271035     0.110591  74.20  0.001459226    1.674    0.403
       162 -11.3552    228.0338    196.0001   8.8802588269e+01   1.0514211449e+00    0.3372408    0.2249713  -3.40  0.002027166    1.604    0.377
       163 -10.5587    224.0316    198.4616   8.9897263248e+01   1.4209540649e+00    0.1753148    0.1300267  30.27 0.0003606096    1.111    0.100
       164  -9.5630    161.9648    198.0144   1.0099296072e+02   1.2153201157e+01    0.1488928    0.1229314  41.52  0.000953981    1.008    0.008
       165 -11.2379    137.2043    196.7815   1.0558610278e+02   1.6593640968e+01    0.3354822    0.2373188  72.72  0.001295424    1.708    0.414
       166  -9.8212    140.3539    195.2351   1.0475344000e+02   1.6316493109e+01    0.1738337    0.1366371  68.29  0.001071542    1.354    0.261
       167 -10.2122     25.1951    195.5636   1.2728941379e+02   3.2218834828e+01     0.357277   0.05929152 -73.21  0.001388148    4.934    0.797
       168 -10.6272     62.9707    196.3911   1.2016348069e+02   2.7771441818e+01    0.1939185    0.1364273  84.07 0.0003667531    1.281    0.219
       169  -9.9071     82.5496    195.7286   1.1626040689e+02   2.5282841355e+01    0.1934062     0.106632 -61.78 0.0007393464    1.980    0.495
       170 -10.9688    217.4087    194.3736   9.0324679187e+01   3.0255896651e+00    0.2169157    0.1830021  31.35 0.0006631123    1.145    0.127
       171 -10.2115    104.2140    195.8544   1.1197816866e+02   2.2079587347e+01    0.3030857   0.07854551  38.37  0.001082306    3.759    0.734
       172 -10.5102     95.5491    195.0606   1.1360947132e+02   2.3530172955e+01    0.2093295     0.152556  43.17 0.0003987202    1.284    0.221
       173 -10.1239     44.7818    194.7809   1.2354575287e+02   3.0262750957e+01    0.1532353    0.1245051  75.83  0.000531123    1.120    0.107
       174 -12.2815    122.9625    192.9215   1.0787383095e+02   1.9619601353e+01    0.3843836    0.2505608  68.65 0.0005415736    1.752    0.429
       175 -10.1450     20.8824    194.1958   1.2800965215e+02   3.2901242035e+01    0.1514874    0.1019032  67.63    0.0002311    1.103    0.093
       176 -10.0362    163.1034    193.1353   1.0002926595e+02   1.2704468016e+01    0.1832895    0.1502129  28.30  0.001150026    1.188    0.159
       177  -9.7346     71.2033    193.4509   1.1828038196e+02   2.7253298866e+01    0.1727504   0.08434435  51.62 0.0009426735    1.713    0.416
       178 -12.2687     52.8181    192.4192   1.2180760751e+02   2.9768654456e+01    0.2492682    0.1936824 -70.76 0.0004802496    1.429    0.300
       179 -10.7052     57.5465    188.8824   1.2057569000e+02   2.9868046111e+01    0.2103115    0.1875408 -82.36 0.0007969515    1.312    0.238
       180 -10.5411    249.8364    190.8787   8.4349120894e+01  -1.8879355924e+00    0.1836381    0.1321069  11.75 0.0003864235    1.175    0.149
       181 -11.6418    245.6509    191.1199   8.5058371663e+01  -1.2506259482e+00    0.2720229    0.1525983  29.31 0.0004722699    1.558    0.358
       182 -12.5057     91.6687    189.2479   1.1373030347e+02   2.5175576633e+01    0.2583025    0.2134824 -77.40 0.0004254817    1.273    0.214
       183 -10.9828     65.7038    191.7030   1.1920685354e+02   2.8301920958e+01    0.2967881    0.1788015  22.79  0.001576134    2.690    0.628
       184 -10.3069    188.8813    190.5307   9.4754367722e+01   8.5109713391e+00    0.2535444     0.166592 -11.76   0.00133843    2.083    0.520
       185  -9.9176     16.7357    191.0211   1.2860487769e+02   3.3893507025e+01    0.1424594    0.1012532  81.13            0    1.100    0.091
       186 -10.7194    227.0543    189.2867   8.7789016767e+01   2.0187010718e+00    0.1928335    0.1671899 -16.54 0.0002497731    1.281    0.219
       187 -10.5374     81.1264    188.8978   1.1583207295e+02   2.6757442515e+01    0.2142581     0.149008  39.63 0.0006103846    1.446    0.308
       188  -9.1977    166.4470    189.4440   9.8803760603e+01   1.2684465051e+01    0.1288186    0.1093686  44.00   0.00013196    1.050    0.048
       189 -11.9805    131.5218    186.7470   1.0529572331e+02   1.9266237593e+01    0.3127897    0.2277516  35.06  0.000432015    1.368    0.269
       190 -10.5921      3.7001    187.6468   1.3084655405e+02   3.5698255588e+01    0.2224037     0.169413  10.12  0.001653842    2.287    0.563
       191 -10.2755    205.3892    186.9153   9.1133221437e+01   6.0764964345e+00    0.1840973    0.1473412  29.18 0.0004033971    1.049    0.046
       192 -10.0337    221.0935    186.1476   8.8242675823e+01   3.4263517083e+00    0.1889668    0.1417173  18.53 0.0003580746    1.186    0.157
       193 -11.4198    105.2823    184.1437   1.1031499539e+02   2.4054963311e+01    0.4073853    0.3262531 -29.72  0.002464188    1.861    0.463
       194 -10.7813     75.1791    185.7841   1.1671534706e+02   2.8174393715e+01    0.2444523    0.1590971 -85.63 0.0009539489    1.547    0.354
       195 -12.7703     79.8965    182.4648   1.1538536527e+02   2.8162822987e+01    0.2850779    0.2658049 -52.75 0.0004356788    1.428    0.300
       196 -12.0195     79.8262    174.3024   1.1446629892e+02   2.9779157377e+01    0.3792067    0.2504932  51.94 0.0008533419    1.327    0.247
       197 -11.2275     15.5860    175.7191   1.2795966319e+02   3.6942020339e+01    0.2214733    0.1923049  25.00  0.001172489    1.663    0.399
       198 -11.8761     29.8925    181.1617   1.2547420174e+02   3.4489614874e+01    0.5820248    0.2817114  82.13  0.003329474    1.945    0.486
       199 -12.5066     32.0235    176.4238   1.2470772208e+02   3.5204419479e+01    0.2933161    0.1983513  73.97 0.0003406896    1.183    0.154
       200 -10.2894    173.5431    183.2184   9.6409761137e+01   1.2370478635e+01    0.3187413    0.1767279  48.43  0.001250844    1.654    0.395
       201 -11.1551     55.4047    181.4439   1.2034448474e+02   3.1575329075e+01    0.3227913    0.1767888  71.69  0.000448685    1.792    0.442
       202 -11.1664     60.5155    180.2040   1.1917504339e+02   3.1186941095e+01    0.3491241    0.2048916 -82.42 0.0005089996    1.660    0.398
       203 -10.7907     15.6039    183.4945   1.2840568247e+02   3.5428912979e+01    0.2007618    0.1572971  76.13 0.0008102416    1.110    0.099
       204 -10.8928     88.1212    182.2357   1.1364665660e+02   2.7027616843e+01    0.2213243    0.1620183 -83.14 0.0006745905    1.378    0.274
       205 -10.1405     46.8784    177.1863   1.2172222422e+02   3.3429311692e+01    0.1995733    0.1218534  53.06  0.001159571    1.403    0.287
       206 -10.9792     43.3851    181.4111   1.2278967426e+02   3.2990478756e+01    0.3572729    0.1670724 -81.89  0.001557956    2.061    0.515
       207 -10.6027     48.1446    181.8804   1.2186413122e+02   3.2353661970e+01    0.1973599    0.1601626  36.62 0.0006922108    1.489    0.328
       208 -10.0017      3.1015    183.2387   1.3075698260e+02   3.6580529032e+01     0.139329    0.1094656  80.96 0.0003611742    1.165    0.142
       209 -11.2989    229.8263    180.8222   8.5784392329e+01   2.5878184674e+00    0.2847432      0.23932 -85.80 0.0006901611    2.205    0.547
       210 -10.0737    157.8496    181.1079   9.9129887601e+01   1.5575430061e+01    0.1855907    0.1597229  60.86 0.0002666572    1.196    0.164
       211 -11.1854    131.3826    179.4075   1.0423682351e+02   2.0594135432e+01    0.2403997    0.1944283  67.08 0.0001765235    1.233    0.189
       212  -9.6947    136.4736    179.5458   1.0320766650e+02   1.9678755455e+01    0.1317064    0.1131034  53.68 0.0008081514    1.027    0.026
       213 -10.0276    221.6650    178.2999   8.6707928730e+01   4.3336646452e+00    0.1139949    0.1020486  74.42 0.0006168709    1.655    0.396
       214 -11.4624    108.7640    176.6041   1.0857369272e+02   2.4923203822e+01    0.2895307    0.1960553  51.20 0.0005721872    1.295    0.228
       215 -11.5483     91.6610    177.4064   1.1231532192e+02   2.7439686384e+01    0.2816755    0.1881814  48.63 0.0001693363    1.318    0.241
       216 -10.5527     74.1484    177.1893   1.1600694871e+02   2.9994642859e+01    0.1950741    0.1630872  70.98  0.000406522    1.031    0.030
       217  -9.4260      4.2871    179.3103   1.3034788031e+02   3.7231596797e+01   0.09196142   0.07067575 -66.41 0.0001993718    1.576    0.366
       218 -10.6153    168.0573    174.1041   9.5905410600e+01   1.4843844726e+01    0.1966567    0.1716181  36.94 0.0003015079    1.020    0.020
       219 -10.2254    159.7082    173.8972   9.7539463775e+01   1.6440393195e+01    0.2409769    0.1648737  43.73 0.0002962216    1.287    0.223
       220  -9.6669    156.4581    173.5954   9.8145050481e+01   1.7096693534e+01    0.1877931    0.1488796  20.42 -3.821893e-05    1.422    0.297
       221  -9.5450    206.1898    173.6134   8.8567703918e+01   7.7708169618e+00    0.1774918    0.1078368  34.52 0.0002552237    1.492    0.330
       222 -13.0528     22.3736    175.6366   1.2660159395e+02   3.6323208438e+01     0.345703    0.1901949  74.68 0.0006625528    1.534    0.348
       223  -9.0955    199.6634    171.7260   8.9406044609e+01   9.2574962045e+00    0.1355887   0.09251697  18.65  0.000257285    1.605    0.377
       224 -10.3276    110.3990    171.1704   1.0744855866e+02   2.5701821024e+01    0.1726466    0.1185138 -78.41 0.0004646988    1.679    0.405
       225  -9.9840     63.1780    171.1408   1.1769578642e+02   3.2664887003e+01    0.1699816    0.1146643  63.62 0.0005315587    1.302    0.232
       226  -9.2503     41.4379    171.4849   1.2236650340e+02   3.5189519778e+01    0.1160386   0.09099722  77.20 8.609276e-05    1.011    0.011
       227  -9.7161      2.1885    168.8544   1.3023616355e+02   3.9441655182e+01    0.1367933   0.09953665 -77.15 0.0009718514    1.344    0.256
       228  -9.8461    113.9891    168.4811   1.0626931134e+02   2.5625557151e+01     0.197393    0.1169571  44.82 0.0003541228    1.520    0.342
       229 -10.6003     59.6617    166.2554   1.1794038956e+02   3.4112393103e+01    0.2566697    0.2278214  43.91  0.001112229    1.328    0.247
       230 -10.5195     47.3029    166.8761   1.2069892958e+02   3.5470329422e+01    0.2994525     0.162062  59.89  0.001459378    1.684    0.406
       231  -9.7235    121.9899    167.0223   1.0430299088e+02   2.4536948675e+01    0.1956487    0.1625385   6.98 0.0007977495    1.663    0.399
       232 -13.2667     23.7740    163.6583   1.2547726294e+02   3.8602549785e+01    0.3433504     0.214239  59.51 0.0006337991    1.368    0.269
       233 -10.4605     80.1054    165.1131   1.1327861271e+02   3.1600833040e+01    0.1798564    0.1737907  77.90  0.001235374    1.250    0.200
       234 -11.3404    141.0109    161.1626   9.9198379326e+01   2.2208518338e+01    0.2583964    0.1975139  48.96 0.0003347317    1.188    0.158
       235 -11.0245     97.9741    161.3380   1.0875056072e+02   2.9675179239e+01    0.3674179    0.2739041   7.07  0.001898124    2.285    0.562
       236 -10.2286     75.5271    162.0260   1.1391354133e+02   3.2886696916e+01    0.1811538    0.1145797 -67.74 0.0005355598    1.550    0.355
       237 -10.1003     68.1746    162.1830   1.1558818709e+02   3.3856957196e+01    0.1718666    0.1217814  70.71  0.000314216    1.294    0.227
       238 -11.1671     34.8404    158.1346   1.2262555185e+02   3.8650289995e+01    0.5788949    0.1551178  51.96  0.002331485    3.636    0.725
       239 -10.8481    248.1640    157.8271   7.8310918216e+01   2.2644941575e+00    0.1825066    0.1307842  10.52 0.0006154272    1.321    0.243
       240 -10.5649     44.6416    159.2959   1.2055290433e+02   3.7349710040e+01    0.3429369     0.219868   0.75  0.001636559    3.758    0.734
       241 -10.0834     27.0286    157.9880   1.2433551136e+02   3.9463016438e+01    0.1688104    0.1357398  82.55 0.0003236567    1.060    0.057
       242 -12.0177     95.8453    154.6178   1.0822821522e+02   3.1399702245e+01    0.2984487    0.2280448 -57.12  0.001733169    1.387    0.279
       243 -10.4180     95.0004    150.4469   1.0777728002e+02   3.2408737773e+01    0.1922152    0.1590115  57.32 0.0006087678    1.119    0.107
       244 -10.9672     12.3766    156.3748   1.2739822106e+02   4.1125086794e+01    0.2035448     0.153688 -76.30 0.0008221182    1.276    0.216
       245  -9.8870    158.5251    157.8392   9.4865321207e+01   1.9461101229e+01     0.186352    0.1386642 -45.00 0.0006744117    1.476    0.323
       246  -9.3101    124.4898    156.4095   1.0198867615e+02   2.6162198224e+01    0.1367866    0.1213857  59.98 0.0001135814    1.026    0.025
       247  -9.5909    164.4666    155.4248   9.3161058148e+01   1.8720036516e+01    0.1391774    0.1261508  42.68 5.081807e-05    1.018    0.018
       248  -9.9181    126.8634    161.8410   1.0239091835e+02   2.4674503349e+01    0.2061345    0.1776504  32.03  0.001216143    1.252    0.201
       249 -10.3849     71.0563    154.6719   1.1399574201e+02   3.5051174649e+01    0.2330149    0.1552154 -66.86 0.0002461998    1.449    0.310
       250  -9.7897     71.1552    150.6021   1.1343510878e+02   3.5907845580e+01    0.1763831    0.1180423  43.64 0.0003344237    1.467    0.319
       251  -9.9528    113.5208    154.0439   1.0406543074e+02   2.8577625013e+01    0.1929217    0.1317128 -61.12 0.0009450546    1.541    0.351
       252  -9.6414      4.4925    153.9819   1.2893618934e+02   4.2257375029e+01    0.1556064   0.08451132 -82.61 0.0003583818    1.468    0.319
       253  -9.3803    137.4832    151.4425   9.8192479957e+01   2.4724003744e+01     0.138905    0.1275959  52.28 0.0001058856    1.017    0.017
       254  -9.1327     85.6851    150.2829   1.0995087507e+02   3.3887178957e+01    0.1345159   0.09018689  70.46 0.0001954391    1.578    0.366
       255  -9.5907     15.5441    150.4536   1.2628723213e+02   4.2088745552e+01    0.1126289   0.08680771  84.45 7.209132e-06    1.025    0.024
       256  -9.5843      8.0201    149.5250   1.2788791918e+02   4.2903301923e+01    0.1337865     0.101313  43.85 0.0003359229    1.446    0.308
       257  -9.7343    201.7690    143.7461   8.3354563074e+01   1.3104495186e+01    0.2167295    0.1679551 -80.74  0.001061517    2.089    0.521
       258  -9.3512     36.0082    144.7663   1.2108391462e+02   4.1381542496e+01    0.1385548   0.09357981  40.14 0.0005928247    1.565    0.361
       259 -11.2012      4.8570    143.1469   1.2816650255e+02   4.4483737719e+01    0.1831721    0.1286996 -86.94 0.0002572108    1.115    0.103
       260 -10.5511     17.0443    142.8399   1.2535458553e+02   4.3574829205e+01    0.2330531    0.1770801  -6.47   0.00111842    2.190    0.543
       261 -10.8726    132.3608    140.0544   9.7144935854e+01   2.7955977155e+01    0.3378775    0.2380216 -38.01   0.00168585    1.633    0.388
       262  -9.2414     65.9941    138.9987   1.1307835713e+02   3.9131886926e+01    0.1498255     0.127489 -89.45            0    1.030    0.029
       263  -9.9105     35.5246    139.0198   1.2060030798e+02   4.2683476731e+01    0.1714716   0.08318762  79.92 0.0007591734    2.365    0.577
       264 -10.5054     50.0389    135.8177   1.1663475812e+02   4.1816524968e+01    0.3600717    0.1830149 -48.69  0.001502743    2.349    0.574
       265  -9.5492    197.9326    137.4831   8.2705639071e+01   1.4897867199e+01    0.2017909    0.1338194  46.36 0.0003602191    1.452    0.311
       266 -10.5518     95.6417    136.7188   1.0532886032e+02   3.5243831279e+01    0.3018925    0.2486661  52.90  0.001749057    1.173    0.148
       267 -10.1273     23.7516    136.3716   1.2319441995e+02   4.4386828487e+01    0.1293326    0.1126476  26.44 0.0003642223    1.508    0.337
       268  -9.8313     77.7997    134.5447   1.0943374206e+02   3.8477987550e+01    0.2567288    0.1690074  66.01  0.001338247    1.628    0.386
       269 -10.4283     37.5773    130.4373   1.1912154590e+02   4.4371983473e+01    0.2168265    0.1451383 -64.91 4.203845e-05    1.365    0.268
       270 -11.9400     27.5875    131.6769   1.2178229547e+02   4.5068206410e+01    0.4019157    0.2241688  59.13  0.001670259    1.764    0.433
       271 -10.6936      9.7116    131.4190   1.2616309732e+02   4.6623124086e+01    0.2478525    0.1427585 -57.89 0.0008615202    1.769    0.435
       272 -10.4040     40.5436    133.5702   1.1874290538e+02   4.3366672529e+01    0.3368832    0.1698838  85.84 0.0009985304    2.262    0.558
       273  -9.5189     61.7609    131.0135   1.1298641170e+02   4.1460004496e+01    0.1622061   0.09788411 -68.32 -0.000430966    1.515    0.340
       274  -9.8168     47.9546    131.4713   1.1659974471e+02   4.3023546843e+01    0.1661798    0.1218521  35.07 0.0008274408    1.550    0.355
       275 -10.0821     44.0226    131.5086   1.1760911899e+02   4.3452207731e+01    0.1666443    0.1157127  41.76 -0.0001284167    1.518    0.341
       276 -10.0894     91.9635    126.4824   1.0438781803e+02   3.8085491341e+01    0.2076833    0.1746968 -68.45 0.0003463318    1.139    0.122
       277  -9.7870     30.1016    125.8750   1.2050982529e+02   4.6122327337e+01    0.1769156    0.1330974  78.05 0.0003159921    1.185    0.156
       278  -9.7958      3.5405    124.9887   1.2716093797e+02   4.8460306546e+01    0.1655268    0.0869251 -79.07 -2.161686e-05    1.486    0.327
       279  -9.2178    106.3078    124.2964   1.0026874916e+02   3.6121432378e+01    0.1343579    0.1134204 -11.66 0.0002044323    1.590    0.371
       280  -9.5045     98.4794    124.4237   1.0230387671e+02   3.7456556035e+01    0.1383664    0.1280078  82.88 7.998558e-05    1.014    0.014
       281  -9.4363     81.4725    124.4383   1.0674969365e+02   4.0184964520e+01    0.1360079    0.1201314  85.67 -6.460866e-05    1.052    0.049
       282 -10.0215     39.1494    121.6733   1.1761440264e+02   4.6177510414e+01    0.2179004    0.1413524 -82.84  0.001265179    1.377    0.274
       283  -9.2367    123.4468    121.4125   9.5340086312e+01   3.3531383540e+01    0.1441645    0.1350072  75.25 0.0001033643    1.044    0.042
       284 -11.1193     20.1513    119.2489   1.2237715537e+02   4.8477267737e+01    0.4180162    0.2191998  54.63  0.002349685    1.951    0.487
       285 -10.2851     92.4266    118.1173   1.0262425996e+02   3.9865176405e+01    0.4071202    0.2001968 -66.10  0.001651546    2.388    0.581
       286  -9.8775     81.3395    118.6754   1.0571229230e+02   4.1498719653e+01    0.1439197   0.09911676  76.24  0.000193566    1.725    0.420
       287  -9.9831     68.3667    118.2812   1.0916705962e+02   4.3460166499e+01    0.1273358    0.1018273 -26.91 0.0007014598    1.687    0.407
       288 -10.4987    100.8891    116.6360   1.0006709252e+02   3.8752997908e+01    0.2253143    0.1825207 -49.11 0.0004192401    1.256    0.204
       289 -10.1998     10.4766    117.1539   1.2471346540e+02   4.9689524317e+01    0.1719994   0.09107297 -77.03 0.0004866049    1.497    0.332
       290 -10.0632    139.4306    115.7434   9.0137769074e+01   3.1447084729e+01    0.2684115     0.168879  55.17 0.0009378318    1.665    0.399
       291 -10.2095      1.4877    115.9641   1.2695257419e+02   5.0560801130e+01    0.1887195    0.1113638  80.84 0.0008138622    1.464    0.317
       292 -10.5142      2.9144    107.8406   1.2585872911e+02   5.2256658115e+01    0.1790259    0.1369444 -81.08 0.0005040247    1.038    0.037
       293  -9.5787      5.9892    114.2701   1.2562646970e+02   5.0638853210e+01    0.1478006    0.1111414 -66.38 0.0003001091    1.251    0.201
       294 -10.6465      3.4689    111.8823   1.2607899824e+02   5.1330238194e+01    0.2388507    0.1701428 -50.82  0.001065744    1.563    0.360
       295 -11.6987     60.3454    113.1374   1.1048768326e+02   4.5689764000e+01    0.3482813    0.2674572  57.18 0.0005495889    1.340    0.254
       296 -10.3889     48.6160    115.5039   1.1415401408e+02   4.6557656396e+01     0.179052    0.1696115 -76.97 0.0005707231    1.169    0.144
       297 -11.8695    149.8612    111.2537   8.6587207332e+01   3.0090800195e+01    0.2469422    0.2415269 -23.33 0.0002435946    1.051    0.049
       298 -11.0558     37.4361    109.7173   1.1642568353e+02   4.9065651539e+01    0.4227735    0.1760992 -71.87   0.00194024    2.162    0.537
       299 -10.9591     20.0153    109.7420   1.2134086048e+02   5.0619574146e+01    0.2976689    0.1864127 -43.05  0.001339461    1.920    0.479
       300 -10.0961     85.0726    109.5096   1.0284274678e+02   4.2982114614e+01    0.2381291    0.1723115  73.94  0.001209282    1.630    0.387
       301 -10.1331     65.4359    108.7969   1.0825503286e+02   4.6016746581e+01    0.2579051    0.1220837 -67.00  0.001125081    2.102    0.524
       302 -11.3214     50.7323    101.8950   1.1127117434e+02   4.9431050411e+01    0.3711014    0.2392642  34.90  0.001664421    1.741    0.426
       303 -11.2376     43.2599    102.0780   1.1352864820e+02   5.0215770283e+01    0.3810973    0.2414767 -83.47  0.001387752    1.582    0.368
       304  -9.4530     29.4281    103.4518   1.1782851200e+02   5.1249673482e+01    0.1228216   0.09979972 -81.56 0.0001578562    1.032    0.031
       305  -9.8878     18.6157    103.0550   1.2092287121e+02   5.2237429558e+01     0.186497    0.1485043  58.25 0.0005684954    1.331    0.249
       306 -11.0778    134.9703    100.9787   8.7515451161e+01   3.5392227773e+01    0.2988366    0.2144154 -36.11 0.0005745653    1.467    0.318
       307 -10.3552     71.1530    100.8691   1.0500255662e+02   4.7034569732e+01    0.3656271    0.2023976 -31.77   0.00147581    2.988    0.665
       308 -10.1518     86.5416     97.4577   9.9717280673e+01   4.5447488904e+01    0.2080042    0.1226587 -45.31 3.119223e-05    1.696    0.410
       309 -10.7303     55.2139     98.0463   1.0919923690e+02   4.9782573096e+01    0.4204718    0.2200906  89.33  0.001612906    3.384    0.705
       310  -9.8852      9.0868     99.8722   1.2330419650e+02   5.3633849856e+01    0.1946934    0.1005149  59.43  0.001068015    2.131    0.531
       311 -11.6399    106.4361     97.7055   9.4133881649e+01   4.1880667448e+01    0.2644191    0.2494771 -79.94 0.0004721361    1.051    0.048
       312  -9.9143     16.4131     98.5035   1.2099120241e+02   5.3430874767e+01    0.1195627   0.09364064 -77.04 8.329953e-05    1.020    0.019
       313  -9.3740      3.6691     98.2877   1.2470129583e+02   5.4328720644e+01    0.1151389   0.07124763  69.23 0.0007014673    1.620    0.383
       314  -9.1006    172.2891     96.3532   7.7742530242e+01   2.7745364471e+01    0.1573952    0.1196031   9.07 0.0007025896    1.673    0.402
       315  -9.9076     79.4700     96.0331   1.0146146445e+02   4.6892863104e+01    0.2023186    0.1053722 -37.11 0.0008096549    2.535    0.606
       316 -10.6629     62.9635     96.0834   1.0644336054e+02   4.9248907613e+01    0.1962501    0.1733434 -74.02 0.0003389186    1.034    0.033
       317  -9.5137     23.6712     96.2883   1.1851218685e+02   5.3371059903e+01    0.1212155   0.08019935  71.32 0.0007014077    1.617    0.382
       318  -9.3925     37.3353     95.2781   1.1416781380e+02   5.2377586768e+01    0.1224732   0.08651439 -39.91  0.000312103    1.610    0.379
       319 -10.1028     47.9325     92.8363   1.1042626160e+02   5.1824997325e+01     0.202213    0.1649697 -46.10  0.001246553    1.263    0.208
       320 -10.7702      1.3839     92.5149   1.2475747548e+02   5.5744934461e+01    0.2507166   0.08887427 -77.87 0.0005777364    2.275    0.560
       321 -11.7092      6.6353     90.1771   1.2289871526e+02   5.5959777822e+01    0.4090738    0.2204078  57.26  0.001673539    2.092    0.522
       322  -9.6454     54.2806     92.6469   1.0840422260e+02   5.1130448053e+01    0.1332227   0.09432782  83.54 0.0007013882    1.654    0.395
       323 -10.0709     17.4378     91.6899   1.1976625887e+02   5.4895755270e+01    0.1837355     0.128171  45.97 0.0006360048    1.612    0.380
       324  -9.8787    105.6961     91.3779   9.2687089399e+01   4.3381068620e+01    0.2680817    0.1374524  48.02  0.001103343    2.047    0.511
       325 -10.2557     41.1993     90.3703   1.1207644945e+02   5.3112127881e+01    0.1667575     0.110362  46.37 0.0009407848    1.685    0.406
       326 -10.4162     88.3011     88.9789   9.7093985650e+01   4.7033413742e+01    0.2057578    0.1819367 -52.36 0.0006944979    1.068    0.063
       327 -10.1791     66.9645     88.9193   1.0361588754e+02   5.0332925820e+01    0.1975531    0.1814771 -67.66 0.0003068296    1.025    0.025
       328 -10.7912     27.6464     88.0364   1.1598662614e+02   5.4917814031e+01    0.2688955    0.1328937 -75.52   0.00112403    1.875    0.467
       329 -11.4110     21.2819     88.0558   1.1802270296e+02   5.5429767110e+01    0.2074217    0.1805105 -38.13            0    1.333    0.250
       330  -9.8045     63.2778     86.9731   1.0432533924e+02   5.1275403857e+01    0.1876721    0.1559546 -59.20 0.0003461073    1.074    0.069
       331 -10.3020    120.6088     85.8313   8.7056042357e+01   4.1546429140e+01    0.2075058    0.1381975 -54.22 0.0002464197    1.589    0.371
       332  -9.5415    155.0001     85.2996   7.8414744162e+01   3.3876114304e+01    0.2086854     0.197185  46.90 0.0004466285    1.053    0.051
       333  -9.8818    128.7684     85.6251   8.4854607759e+01   3.9835093492e+01    0.2202358    0.1425967  58.74 0.0009534592    1.727    0.421
       334 -10.0165      9.5795     85.4344   1.2136955348e+02   5.6840615511e+01    0.1728388    0.1099188  31.27 0.0005870091    1.885    0.469
       335  -9.6890     98.4798     83.9809   9.2735086558e+01   4.6316835337e+01    0.2111117    0.1366519 -46.75 0.0003369179    1.476    0.322
       336 -10.9519     49.8108     83.6792   1.0793286923e+02   5.3698724019e+01    0.2649477    0.2214607 -25.97 0.0007700968    1.401    0.286
       337  -9.6896     53.5210     82.5002   1.0644963184e+02   5.3528281642e+01    0.1317767    0.1147887 -61.16 -5.971647e-05    1.009    0.009
       338  -9.6123     30.6336     84.6733   1.1443419437e+02   5.5423274513e+01    0.1302485   0.08001628 -40.17 0.0007036862    1.805    0.446
       339 -10.6481     14.4899     83.7206   1.1954789703e+02   5.6903893421e+01    0.2200572    0.1618359  71.18 0.0003402783    1.445    0.308
       340 -11.2335     20.2173     82.1849   1.1743274096e+02   5.6840010205e+01    0.2057453    0.1654831 -84.69 0.0002620126    1.142    0.124
       341  -9.3858    132.5099     82.4675   8.2976810187e+01   3.9630013763e+01    0.1495208    0.1484198 -58.67 0.0001273048    1.011    0.011
       342 -11.9258     77.4845     80.3366   9.8142712067e+01   5.0692790657e+01    0.3160143    0.2597721  29.00 0.0002135417    1.371    0.270
       343 -10.1155     89.0734     77.8978   9.3840541492e+01   4.9304609753e+01    0.2122156    0.1880278 -85.42 0.0003420256    1.255    0.203
       344  -9.4299     67.7223     78.6870   1.0085043824e+02   5.2515529889e+01    0.1347264   0.09876648 -30.49 0.0002267864    1.564    0.361
       345 -10.5690     53.4569     76.7318   1.0511135415e+02   5.4833008050e+01    0.3981213    0.2301911  64.37  0.001769045    2.746    0.636
       346 -10.8151     43.4230     77.7732   1.0876667465e+02   5.5742075137e+01    0.2497903    0.1455628 -54.92   0.00133023    1.452    0.311
       347 -10.3233     41.6927     74.6913   1.0866981422e+02   5.6617695316e+01     0.177487    0.1399511 -88.48 0.0006005525    1.376    0.273
       348  -9.4574     17.5229     77.9906   1.1763966953e+02   5.7983001988e+01    0.1789019   0.06360801 -50.82 0.0008087126    2.438    0.590
       349 -10.3952      3.7309     75.6852   1.2194379309e+02   5.9361332014e+01    0.2949013     0.159999  87.12  0.001385866    1.887    0.470
       350 -10.1883     28.8650     74.4102   1.1308016415e+02   5.7899795548e+01    0.2628459    0.1154441 -51.58  0.001102617    1.925    0.480
       351 -10.6770     61.3336     74.6701   1.0192398467e+02   5.4286483708e+01    0.2100287    0.1375576  39.53  0.001104825    1.698    0.411
       352  -9.8607     17.2091     74.3644   1.1712931604e+02   5.8819904482e+01    0.1405763     0.106529  43.78 0.0004101041    1.558    0.358
       353 -10.2556    142.4406     72.8755   7.7620632597e+01   3.9153868110e+01    0.3018105    0.2315794  -3.63  0.001385871    1.645    0.392
       354  -9.3610     69.2613     73.6720   9.8997388875e+01   5.3395594485e+01    0.1322517    0.1032177 -84.70 0.0003899483    1.564    0.361
       355 -10.6540     36.7378     71.8846   1.0977377667e+02   5.7746001549e+01    0.2615891    0.1876113  10.12  0.001012666    1.809    0.447
       356 -10.5648     44.9995     69.0414   1.0615857218e+02   5.7523639235e+01    0.1843646    0.1523463 -57.39  0.001151233    1.037    0.036
       357  -9.7975    117.9909     69.7132   8.2889662205e+01   4.5313012240e+01     0.200065     0.188969  32.61 0.0002970159    1.080    0.074
       358 -10.8822     58.5285     69.4979   1.0150259830e+02   5.5794504955e+01    0.2326229    0.1939397 -55.14 0.0005260727    1.068    0.063
       359  -9.1517     79.7043     69.6831   9.4402140472e+01   5.2634696687e+01    0.1398569    0.1054873 -19.66 0.0003578991    1.607    0.378
       360  -9.3054     63.6714     69.6925   9.9778900707e+01   5.5058627415e+01    0.1366417   0.09864349 -24.86  0.000662717    1.658    0.397
       361 -11.7581     52.6325     67.6516   1.0307662263e+02   5.6944258685e+01    0.4295384    0.3139789 -29.53  0.001845458    1.520    0.342
       362 -10.5719      7.1752     68.3150   1.1963833392e+02   6.0807316989e+01    0.1876414    0.1386378 -54.27 0.0003514578    1.201    0.167
       363 -10.6639      1.4079     67.2905   1.2153280932e+02   6.1341111871e+01    0.3629721      0.09164 -73.23  0.001447707    3.216    0.689
       364 -10.2049     88.6139     68.2294   9.1092915503e+01   5.1417337808e+01    0.2096303     0.124748 -37.20 0.0008939293    1.709    0.415
       365 -10.2453     22.0627     67.6961   1.1415205667e+02   5.9955248499e+01    0.2134525    0.1658281  69.07 0.0008325595    1.502    0.334
       366 -10.7103     21.4394     63.1860   1.1344591849e+02   6.1003402480e+01    0.2866957    0.1286435 -66.04  0.001435578    1.848    0.459
       367  -9.7149     75.1011     66.4980   9.4962048564e+01   5.4047226754e+01    0.1868885    0.1381097  36.22 0.0003613578    1.482    0.325
       368 -11.3504      9.8384     62.8536   1.1772287289e+02   6.1860168027e+01    0.2358788    0.2009156  46.99  0.001091017    1.430    0.301
       369 -11.2547      2.0629     60.5606   1.2022768219e+02   6.2787979581e+01    0.2587255    0.1679898 -64.78  0.000542029    1.168    0.144
       370 -11.9057      6.5383     58.3556   1.1814142902e+02   6.3037409169e+01    0.3335884    0.2926529 -26.06  0.002511338    1.331    0.248
       371  -9.6748     31.0343     64.5192   1.1015824539e+02   5.9917076757e+01     0.168145   0.09052447  53.69 0.0008101825    2.607    0.616
       372  -9.2658    101.6097     63.7302   8.5638764504e+01   4.9876992426e+01    0.1489497    0.1127031   8.53  0.000698773    1.717    0.417
       373  -9.3200    193.4086     62.4873   6.4106357063e+01   2.8129832064e+01    0.1488979      0.14454 -31.57 8.763812e-05    1.017    0.017
       374 -10.1140     73.8371     61.1560   9.3724026321e+01   5.5361592230e+01    0.2250855    0.1930486  15.87 0.0006835248    1.300    0.231
       375 -10.3198     70.3598     60.3495   9.4667939879e+01   5.6069278913e+01    0.2504832     0.196402 -40.26 0.0007332247    1.168    0.144
       376 -10.4604     39.1546     60.5774   1.0613189501e+02   6.0003315563e+01    0.2385192     0.202242 -52.02 0.0006511005    1.012    0.012
       377 -10.6328     47.1698     58.8815   1.0264031632e+02   5.9495354048e+01    0.2632522    0.1891189  28.09 0.0009047938    1.611    0.379
       378 -10.5478     31.3731     58.9474   1.0868065065e+02   6.1110200013e+01    0.1943669    0.1640388  64.02 0.0004172765    1.437    0.304
       379  -9.7610     55.4319     58.2196   9.9363260188e+01   5.8623429848e+01    0.1799198    0.1171899 -61.50   0.00054262    1.556    0.357
       380 -10.8655     22.3847     57.4090   1.1179469394e+02   6.2200598611e+01    0.3096432    0.2031258  35.50  0.001399316    1.831    0.454
       381 -11.1212     29.0469     54.0400   1.0832973433e+02   6.2381879477e+01    0.3064209    0.2533374 -48.86  0.001240257    1.047    0.045
       382  -9.9364    110.2124     56.7585   8.0750633238e+01   4.9427629457e+01    0.2250829    0.1881856  75.57 0.0007950009    1.461    0.316
       383 -11.2053    225.8540     55.7086   5.7357953046e+01   2.1023286128e+01     0.246241    0.2202404 -35.46 0.0002610513    1.055    0.052
       384  -9.9518     52.6058     55.7892   9.9673168377e+01   5.9496065891e+01    0.1890456    0.1147647 -62.08 0.0009486045    1.714    0.417
       385 -10.5807     79.0000     54.9129   8.9886413093e+01   5.5778795004e+01    0.2133034    0.1359755 -31.55  0.001022999    1.636    0.389
       386 -10.2738    118.7089     54.6482   7.7649009984e+01   4.7945368081e+01    0.1538511    0.1158667   6.02 0.0003543963    1.674    0.403
       387 -11.6062     42.1295     51.6103   1.0243945576e+02   6.1608068889e+01    0.4591803    0.1768638 -49.87  0.002042279    2.119    0.528
       388  -9.2411    105.3378     51.3071   8.0230948414e+01   5.1448695573e+01    0.1505678    0.1124653   8.77 0.0006471406    1.678    0.404
       389 -10.8817     66.2482     50.2773   9.2782874066e+01   5.8739494679e+01    0.3666711    0.2227854 -58.00  0.001775768    1.843    0.457
       390 -10.3273    173.9901     50.0885   6.3733308817e+01   3.4983733068e+01    0.2197334     0.216647  70.20 0.0003211703    1.012    0.011
       391  -9.5256    128.9964     50.0112   7.3334744744e+01   4.6357532371e+01    0.1812725    0.1695043 -23.04 0.0003459636    1.059    0.056
       392 -11.1517     94.5807     49.1201   8.2704482941e+01   5.4029958150e+01    0.3968934    0.2894591 -18.55 0.0008874822    1.522    0.343
       393 -11.3645     73.7524     49.1892   8.9695760158e+01   5.7772447661e+01    0.3383548    0.2196064 -31.60  0.001699774    1.549    0.354
       394 -10.8265     20.2520     40.9157   1.0838936387e+02   6.5886872342e+01    0.2545201    0.1651053  18.07 0.0009347373    1.864    0.464
       395  -9.8275      5.5573     32.2185   1.1263378097e+02   6.8652930159e+01    0.2675662    0.1230508 -42.63  0.001480033    1.817    0.450
       396 -12.5469     12.7098     45.9957   1.1300547192e+02   6.5345600453e+01    0.4213807    0.3959811 -76.46 0.0006525799    1.221    0.181
       397 -11.8408     13.2010     39.3578   1.1107695077e+02   6.6713868336e+01    0.4676478    0.3059891 -41.48  0.001931926    1.327    0.246
       398 -11.2290      5.7685     38.0363   1.1406912604e+02   6.7435888980e+01    0.3740058    0.2694429  80.99  0.001895436    1.784    0.440
       399  -9.5964    152.8671     48.3495   6.7284019723e+01   4.0711594734e+01     0.224359    0.1290951  46.71 0.0005286668    1.734    0.423
       400 -10.0448     60.9246     51.9297   9.5312878023e+01   5.9184583250e+01    0.2007946    0.1777546 -35.84 0.0006535086    1.016    0.016
       401  -9.7939     22.5147     48.0842   1.0941359804e+02   6.4201791599e+01     0.195132   0.09754815 -59.12  0.001037011    1.606    0.377
       402  -9.8774    114.4475     47.0450   7.6081053211e+01   5.0213590309e+01    0.2162112    0.1417407 -32.85 0.0003611251    1.504    0.335
       403 -10.0658    164.9846     45.9769   6.4077337720e+01   3.7933659534e+01     0.218833    0.2158939   0.51 0.0003322498    1.023    0.023
       404 -10.3554    122.9036     45.9548   7.3425353811e+01   4.8459758457e+01    0.2230939    0.2124427   3.06 0.0004861795    1.025    0.024
       405 -10.8568     61.6582     45.0310   9.2630132517e+01   6.0452719538e+01    0.2658167     0.198989 -31.97 0.0005744803    1.244    0.196
       406 -10.3904     42.5967     44.6538   1.0004145220e+02   6.2996253554e+01    0.2101532    0.1829662 -21.50 0.0005230718    1.150    0.131
       407 -11.3427     69.3824     42.3834   8.8756812948e+01   5.9776655537e+01    0.4178138      0.23609 -33.79  0.001238555    1.737    0.424
       408 -10.0362     33.6483     44.0931   1.0358038391e+02   6.4056604434e+01    0.2146131    0.1612383  52.04  0.001309426    1.757    0.431
       409 -10.7589    141.4982     42.3866   6.7673094061e+01   4.4497240065e+01    0.2493699     0.239424  36.54 0.0001693445    1.019    0.019
       410  -9.8282     80.8394     43.1728   8.4985306759e+01   5.7688926386e+01    0.1854454    0.1527296  -6.16 0.0002875385    1.279    0.218
       411 -11.8175    103.6138     39.0243   7.6111984980e+01   5.3916418269e+01    0.2523173    0.2399189 -49.38 0.0003590601    1.158    0.136
       412  -9.7188     47.2145     40.6221   9.6749284300e+01   6.3259186834e+01    0.1557948    0.1181447   9.25 0.0003655296    1.519    0.342
       413 -11.9987     41.5191     38.1391   9.8238982519e+01   6.4424690354e+01     0.318196    0.2037641 -25.82 0.0003868171    1.682    0.405
       414 -10.3302    117.1473     38.7210   7.2225308472e+01   5.0947958746e+01    0.4089709     0.125591  53.28 0.0009747843    3.203    0.688
       415 -10.5853     85.9890     37.4503   8.0993175134e+01   5.7746960294e+01    0.2110518    0.1729099 -30.41  0.000324137    1.144    0.126
       416 -11.6365     77.0648     33.7025   8.2520944550e+01   6.0027372539e+01    0.3298526    0.2654119 -70.86  0.001783066    1.790    0.441
       417 -12.3833    194.0137     35.3352   5.5909723395e+01   3.1742943059e+01    0.2814638    0.2690897 -50.33 0.0003518414    1.034    0.033
       418 -10.3078    130.9970     36.1480   6.7798697755e+01   4.8028337684e+01    0.3357767    0.1989453  53.41 0.0008053885    1.638    0.389
       419  -9.3609    175.3425     35.6767   5.8880241366e+01   3.6628942033e+01    0.1610961     0.111042 -64.51 0.0006087948    1.730    0.422
       420 -10.7129    119.5517     34.3553   6.9916832399e+01   5.1046905768e+01    0.2883883     0.226752 -83.08  0.001127538    1.715    0.417
       421 -10.2424     91.9631     40.5137   8.0264160286e+01   5.6067086909e+01    0.2112313    0.1379261  44.27  0.001030072    1.585    0.369
       422  -9.8252     57.6979     35.3086   9.0476963368e+01   6.2872014869e+01    0.1688005    0.1112674  33.16 0.0004303947    1.665    0.400
       423 -10.0823     60.7303     34.0134   8.8754038843e+01   6.2661064292e+01    0.1964254     0.151743 -35.17  0.001151095    1.148    0.129
       424 -10.6602    112.9238     33.4792   7.1308116385e+01   5.2715824087e+01     0.260985     0.193861 -47.30  0.000662166    1.489    0.329
       425 -11.7265    107.4490     29.3716   7.1143997889e+01   5.4559328573e+01    0.4756744    0.2748601 -25.09 0.0004636335    1.773    0.436
       426 -10.3243     29.2621     34.0607   1.0217316307e+02   6.6512572893e+01    0.1774851    0.1614534 -21.71 0.0004246309    1.156    0.135
       427 -11.5039    142.3889     31.1499   6.3426795931e+01   4.5863223463e+01    0.4854946    0.3689701  17.42  0.002338237    1.499    0.333
       428 -11.2054     74.3308     35.8264   8.4370501427e+01   6.0140978197e+01    0.4255363    0.2212412  29.37  0.001845845    2.419    0.587
       429  -9.9432     66.0485     32.8508   8.6215414205e+01   6.2040895901e+01    0.1904683    0.1702339 -50.48 0.0004223869    1.275    0.216
       430  -9.7625    206.5046     31.5016   5.3096023293e+01   2.8967975057e+01    0.1425724    0.1379818 -67.97  0.000810638    1.014    0.014
       431 -10.5657     35.1815     30.3906   9.8143401301e+01   6.6631481474e+01    0.3083623    0.2614452 -80.45  0.001347202    1.617    0.382
       432 -10.3752    159.0081     30.0172   5.9801192622e+01   4.1684482353e+01    0.2195326    0.2144869  36.01 0.0003077066    1.022    0.022
       433 -10.7117     10.0129     22.8452   1.0753695088e+02   7.0267709971e+01     0.231461    0.1858958  -9.29  0.001201167    1.355    0.262
       434 -10.5516    149.9629    248.2627   1.0953637445e+02   7.1143995495e+00    0.1609729    0.1311641  59.58 0.0004152228    1.280    0.219
       435 -11.1793     15.7869     18.6110   1.0298299005e+02   7.0666513290e+01    0.1899994     0.169505  -0.72 0.0007964045    1.280    0.219
       436 -11.6394      1.9432     25.7183   1.1254664318e+02   7.0165277579e+01    0.2241562    0.1314294 -62.91 0.0001651285    1.399    0.285
       437 -11.4704    151.9890    244.7739   1.0881882093e+02   7.2491277019e+00    0.1660256    0.1634274  -9.09 0.0003703791    1.363    0.267
       438 -10.9025     70.3368     28.7183   8.2845498867e+01   6.2036825090e+01    0.2374677    0.1553758  19.85  0.001196028    1.823    0.452
       439 -10.4155     99.3722     26.8567   7.2397323517e+01   5.6699211919e+01     0.332025    0.2074146  58.54  0.001135172    1.804    0.446
       440 -10.8629     50.7295     28.5770   9.0581352855e+01   6.5073897975e+01    0.2458875    0.1993453  84.62  0.001299274    2.088    0.521
       441 -11.3414    242.9688     25.3178   4.7472913142e+01   2.0694322893e+01    0.2337874    0.1898878 -36.22 0.0003440205    1.137    0.120
       442 -10.1825     61.3485     23.3400   8.3914853097e+01   6.4401717557e+01    0.2986267    0.1993379  37.24  0.001659733    1.598    0.374
       443 -10.9581    175.7158     22.4213   5.4505650241e+01   3.8158415777e+01    0.3377182    0.1909901  26.49  0.001200094    2.469    0.595
       444 -10.0180    154.0573     22.9993   5.8225394839e+01   4.3854326257e+01    0.3079918    0.1550875  45.16  0.001234911    2.011    0.503
       445 -12.0306    117.0885     22.6747   6.5872952168e+01   5.3244407209e+01    0.2628755    0.2401983  51.68 0.0002524887    1.112    0.101
       446  -9.8224    131.8226     21.8861   6.2165335061e+01   4.9731552987e+01    0.1970491    0.1722548 -60.91 0.0006275527    1.296    0.229
       447 -10.1474    101.8868     22.0740   6.9628329546e+01   5.6818596502e+01    0.2077686    0.1880644   7.54 0.0003899605    1.030    0.029
       448  -9.2117     78.7229     22.2725   7.6966907724e+01   6.1546743497e+01    0.1205064    0.1056805 -61.36            0    1.490    0.329
       449 -10.4102    190.2762     20.2874   5.1812314314e+01   3.4521488949e+01    0.2289008    0.2062929  39.71 0.0002883582    1.174    0.148
       450 -11.2136    128.2223    248.4718   1.1319452751e+02   1.0284520092e+01    0.3293355    0.1992822  27.13  0.002032511    2.085    0.520
       451 -11.1402    182.2193     18.9351   5.2456089609e+01   3.6814185710e+01    0.3122288     0.252954 -14.21 0.0008795597    1.336    0.251
       452 -11.3325     90.0154     19.1980   7.1866573016e+01   5.9750360352e+01    0.3237998    0.2171641  44.25 0.0008178358    1.469    0.319
       453 -10.6066    199.0584     18.6742   5.0235050662e+01   3.2384528785e+01    0.2776856    0.2191725 -10.69  0.001454273    1.411    0.291
       454 -10.8144     77.7820    247.6250   1.2149088075e+02   1.7323390229e+01    0.2499937    0.1355251  85.33  0.001629703    2.160    0.537
       455 -10.5413    175.7962     17.3928   5.2848369264e+01   3.8699367214e+01    0.2120594    0.1228884  55.83 0.0002334027    1.629    0.386
       456 -10.4510     43.9358     16.4342   8.8114925851e+01   6.8075799294e+01    0.2817962    0.2062478  70.89  0.001445772    2.957    0.662
       457 -10.3537     24.7538     16.5127   9.7462861059e+01   7.0268158352e+01    0.2139667    0.1617963 -50.91 0.0007635211    1.328    0.247
       458 -10.2246    112.3894     15.7181   6.4123334193e+01   5.5218982158e+01    0.2452899    0.2130984 -16.71 0.0002815692    1.152    0.132
       459 -10.5640    116.0150     15.2554   6.3050178464e+01   5.4410325527e+01    0.3418527    0.2528977  49.80  0.001251763    1.280    0.219
       460 -12.0813     76.1850    241.3757   1.2131676059e+02   1.8464929557e+01    0.3957241    0.2023377  78.81  0.001637272    2.305    0.566
       461 -10.8894    179.9525     13.9476   5.1162123943e+01   3.7955195843e+01    0.2277944    0.2110393 -79.54 0.0008924703    1.063    0.059
       462 -10.8298    210.1748    246.9211   9.9479232596e+01  -1.7143993936e+00    0.2292687    0.1362995  42.74  0.000696558    1.409    0.290
       463 -11.4350    136.5669    246.0450   1.1155393534e+02   9.3851791239e+00    0.2047491     0.132824  51.61 0.0005300433    1.233    0.189
       464 -10.8404    148.4938     12.9746   5.5567824610e+01   4.6441482692e+01    0.2793938     0.178503  48.87  0.000646981    1.484    0.326
       465 -10.1179    133.3825     12.8528   5.8305738702e+01   5.0372826180e+01    0.1968893    0.1350682  -1.63 0.0005573799    1.655    0.396
       466 -10.6407     31.6407     12.8370   9.2271409495e+01   7.0186939140e+01    0.1990385    0.1492592   3.23  0.001182347    1.372    0.271
       467 -10.4253    100.0820    246.4444   1.1771883722e+02   1.4540309445e+01    0.2229507    0.1275378  35.62 0.0007554332    1.741    0.426
       468 -10.6464     97.3691    244.1546   1.1798528216e+02   1.5242256859e+01    0.2096733     0.137776  74.87  0.001216223    1.569    0.362
       469 -10.1725    200.3346    244.8624   1.0079783843e+02  -5.2488268555e-02    0.1859265    0.1148177  42.44 0.0005933885    1.314    0.239
       470 -11.3025    146.0327    242.9328   1.0962619357e+02   8.3811682924e+00    0.1816787    0.1559284 -89.92 0.0004879273    1.493    0.330
       471 -12.0136    142.6159    238.8927   1.0977151395e+02   9.4299195642e+00     0.321941    0.1784613  43.09 0.0004108589    1.355    0.262
       472  -9.4038     85.3269     10.2847   6.9161422030e+01   6.1865404299e+01     0.140224   0.09305632  21.04 0.0002481752    1.606    0.377
       473 -11.0037    191.6691    241.2432   1.0175131708e+02   1.6408251067e+00    0.2335212    0.2164571  20.26  0.001686102    1.297    0.229
       474 -10.0224      8.9872     11.0000   1.0356997542e+02   7.2586129300e+01    0.1508707   0.06269234  20.46  0.000787438    2.839    0.648
       475 -11.1889     91.7227    242.6731   1.1881401214e+02   1.6225909499e+01    0.2496959    0.1459553  47.21 0.0008314771    1.275    0.216
       476 -10.9254     62.4684    242.7386   1.2367189360e+02   1.9970362175e+01    0.1830866    0.1170135  60.66 0.0005202109    1.134    0.118
       477  -9.8639     64.9486    238.9798   1.2302261341e+02   2.0247623883e+01    0.1675548   0.09790765  59.96 0.0005594243    1.288    0.224
       478 -10.5795    245.8962    240.8265   9.3035854905e+01  -6.2318857189e+00    0.2423417    0.1637831 -33.70  0.001759455    2.043    0.511
       479 -10.9058    129.4744    241.6441   1.1231284144e+02   1.1023732548e+01     0.283497    0.1190778  57.16  0.001377862    2.764    0.638
       480 -11.2409    114.2572    239.9464   1.1475237019e+02   1.3482014355e+01    0.2097333    0.1683049  36.43  0.000415022    1.341    0.254
       481 -10.0147    185.8224     13.8165   5.0364867865e+01   3.6402964113e+01    0.1994873    0.1570187 -60.98 0.0002616047    1.307    0.235
       482 -10.4184    123.5124    241.4766   1.1331475089e+02   1.1922904148e+01    0.1824765    0.1469503  50.10 0.0006295127    1.098    0.089
       483 -10.9298    119.2181    241.1393   1.1401598613e+02   1.2595502519e+01    0.2173968    0.1172951  47.36 0.0003780187    1.374    0.272
       484 -10.6075     55.6680    242.2749   1.2475166354e+02   2.0857766868e+01    0.1576914    0.1010283  64.87 0.0003006297    1.166    0.143
       485 -10.8094     54.5364    239.4458   1.2476909093e+02   2.1431621650e+01     0.157377    0.1179712  69.63 0.0005014146    1.123    0.110
       486 -11.6763    198.7634    240.3017   1.0045795462e+02   6.6906866947e-01    0.3150934    0.1495484  42.04  0.001849469    1.618    0.382
       487 -11.0530    197.6458    234.1617   9.9819904869e+01   1.5156605533e+00    0.3022005    0.1903778  25.70  0.001818765    1.431    0.301
       488 -11.7172    101.7965    239.2612   1.1682357231e+02   1.5348873929e+01    0.3858251    0.1997386  61.93  0.001127814    1.896    0.473
       489 -10.8738     96.9685    239.0038   1.1762612752e+02   1.6056821536e+01    0.2402578    0.1230103  56.55  0.001487273    1.624    0.384
       490 -12.5412    217.3631    236.4619   9.6899837700e+01  -1.7214886290e+00    0.2851439    0.2196617  26.81 0.0002045428    1.067    0.063
       491 -11.1066    178.0431    238.6521   1.0369833293e+02   4.0232030957e+00    0.1672166    0.1489421  34.39 0.0003622015    1.204    0.169
       492 -11.1423    167.7666    238.4538   1.0541493479e+02   5.6323519466e+00    0.2073643     0.180355  74.32 0.0003075648    1.490    0.329
       493  -9.9780     84.0244    238.0183   1.1974978912e+02   1.7955656963e+01    0.1757621   0.09311228  61.64 0.0006931147    1.649    0.394
       494  -9.9476    207.0061    237.2739   9.8697499316e+01  -2.5237385558e-01    0.1577718    0.1046125  35.19            0    1.131    0.116
