#   1 NUMBER                 Running object number                                     
#   2 MAG_AUTO               Kron-like elliptical aperture magnitude                    [mag]
#   3 X_IMAGE                Object position along x                                    [pixel]
#   4 Y_IMAGE                Object position along y                                    [pixel]
#   5 X_WORLD                Barycenter position along world x axis                     [deg]
#   6 Y_WORLD                Barycenter position along world y axis                     [deg]
#   7 A_WORLD                Profile RMS along major axis (world units)                 [deg]
#   8 B_WORLD                Profile RMS along minor axis (world units)                 [deg]
#   9 THETA_WORLD            Position angle (CCW/world-x)                               [deg]
#  10 FWHM_WORLD             FWHM assuming a gaussian core                              [deg]
#  11 ELONGATION             A_IMAGE/B_IMAGE                                           
#  12 ELLIPTICITY            1 - B_IMAGE/A_IMAGE                                       
         1 -11.1730    201.5856      3.2766   6.3733968211e+01   3.4079545304e+01    0.7743392    0.4491386  75.13  0.003052786    1.575    0.365
         2 -11.7947    189.8347     19.5445   6.9777998910e+01   3.5462260862e+01    0.9604663    0.8193226 -17.88  0.005331306    1.317    0.241
         3 -10.7497    195.4703     11.0108   6.6583685731e+01   3.4899131292e+01    0.4709026    0.3566598  25.24  0.001024813    1.659    0.397
         4  -9.8900     40.8313     17.1656   1.0778874009e+02   6.8368737566e+01    0.1740306    0.1185284 -17.46 0.0009535583    1.338    0.252
         5  -8.1719    183.6713    250.3349   1.2344752711e+02  -1.7612086905e-01    0.1114274   0.07921934  61.34 0.0007051956    1.724    0.420
         6 -10.0058    139.2799    249.5603   1.3101838319e+02   6.9972916987e+00    0.4088543   0.09323391  47.91  0.001544741    3.574    0.720
         7 -10.9476    126.8653    246.9804   1.3290132210e+02   9.3133218918e+00    0.4561958    0.2683221 -62.96  0.002853258    2.165    0.538
         8 -11.0991     79.5800    246.2038   1.4094275118e+02   1.6379160292e+01    0.5735478    0.2468414  65.24  0.003015628    2.431    0.589
         9 -10.9838     82.0106    242.0486   1.4020499500e+02   1.6721536619e+01    0.4444245    0.2292766  77.13  0.002297244    2.205    0.546
        10  -9.0987    143.4065    241.2319   1.2936369920e+02   7.5389117365e+00    0.1402369    0.1093844 -83.26 0.0007019645    1.624    0.384
        11 -19.2542      6.0478    127.8570   1.4584562947e+02   4.8200951309e+01     16.64042     1.471136 -75.22   0.03829316   10.086    0.901
        12 -11.6550    139.0178    229.1970   1.2872900516e+02   1.0080348699e+01    0.7740283    0.2018252  39.86  0.002827915    3.538    0.717
        13  -8.5518    227.9319    204.1384   1.0865646606e+02  -1.6918957174e+00    0.1726354    0.1581032  43.12 0.0006031949    1.346    0.257
        14 -10.6043     78.2804    191.4083   1.3613590215e+02   2.6537443135e+01    0.3906875    0.2594232 -43.84  0.002148656    2.268    0.559
        15 -10.2538     82.0329    185.1315   1.3463520928e+02   2.7273668897e+01    0.3117327    0.2384965 -55.84  0.001023834    1.548    0.354
        16  -7.7484     63.4933    192.9879   1.3930488052e+02   2.8252895982e+01    0.1470559   0.09149749 -48.83 0.0005792176    2.286    0.563
        17  -9.6749     89.3729    173.5415   1.3157169984e+02   2.8593413960e+01    0.2385129     0.219814 -72.49 0.0008168123    1.241    0.194
        18  -8.5962    114.6630    171.5029   1.2564534308e+02   2.4842401618e+01    0.4309294    0.1300192 -64.26   0.00110146    6.688    0.850
        19 -11.7342     77.6965    170.4828   1.3376257622e+02   3.0996031436e+01    0.4300324    0.2912311 -43.57  0.001467938    2.033    0.508
        20  -9.8449    101.2010    171.1079   1.2859031213e+02   2.7219052905e+01    0.4247101    0.1226465  44.26  0.001522794    3.099    0.677
        21 -10.7051     94.6760    165.7002   1.2926058420e+02   2.9439006500e+01    0.5466565    0.3466882 -47.69  0.001447754    1.875    0.467
        22 -10.0841     83.9041    163.8157   1.3145512358e+02   3.1527085308e+01    0.3867486    0.2496287  88.78  0.002004955    1.679    0.404
        23  -9.5096     77.4369    158.6947   1.3223065883e+02   3.3612877830e+01    0.2408633    0.1202906 -70.07  0.001116047    1.996    0.499
        24  -9.8646     48.8698    156.0936   1.3855542226e+02   3.7930813986e+01    0.2012269    0.1430283  77.92  0.001229675    1.252    0.201
        25 -12.4010     67.8560    144.2158   1.3243973706e+02   3.8218023385e+01    0.8563607    0.6068472  81.46  0.004165852    1.408    0.290
        26  -9.8704     97.1634    248.8195   1.3818479597e+02   1.3491114257e+01    0.2458099    0.2045227 -86.71  0.001441306    1.361    0.265
        27 -10.9388    101.1256    246.0995   1.3727088164e+02   1.3340817735e+01     0.418123    0.2781943 -85.08  0.002290887    1.692    0.409
        28  -9.0843    105.3198    148.9306   1.2400928778e+02   3.1336432167e+01    0.2006088    0.1757977 -74.81  0.000919928    1.105    0.095
        29 -11.2475     46.4388    145.3039   1.3784586061e+02   4.0626817330e+01    0.3951688    0.1759049  49.84  0.001913053    2.257    0.557
        30 -10.5204     94.8921    148.2975   1.2643164117e+02   3.3240431114e+01    0.2644511    0.2579038  43.12 0.0004839879    1.229    0.186
        31  -8.6425    114.2587    135.0524   1.1913876643e+02   3.2812825466e+01    0.2970996    0.1895764 -42.76  0.001216918    1.746    0.427
        32 -12.6058     58.0592    130.5129   1.3285353440e+02   4.2637213088e+01     1.280223    0.4881029 -76.01  0.004514774    3.597    0.722
        33 -12.7962     44.0998    129.2344   1.3632384933e+02   4.4548764062e+01    0.9823048    0.5640208  79.13  0.004981588    2.001    0.500
        34  -8.3348    109.9842    122.5151   1.1754961611e+02   3.6421366344e+01    0.2184718    0.1862271 -60.78 0.0003356705    1.137    0.121
        35  -8.6381    168.5588    113.2340   1.0100703700e+02   2.5826138429e+01    0.2899996    0.2373671 -85.78  0.001037702    1.485    0.327
        36  -9.2775    102.2178    132.0530   1.2158290437e+02   3.5668477008e+01    0.2733575    0.2351198 -30.03 0.0005928118    1.432    0.302
        37  -9.5115     58.4796    108.9994   1.2902166454e+02   4.7572114971e+01    0.2113044    0.1156122 -62.17 0.0005742433    1.596    0.373
        38 -10.4305    105.2196    245.3504   1.3649765740e+02   1.2854382861e+01    0.3443313    0.2114699  72.97 0.0009294157    1.700    0.412
        39 -10.5583    162.8230    248.3066   1.2678948653e+02   3.4198656710e+00    0.3306521    0.2029123  42.15   0.00209195    1.239    0.193
        40 -11.1905    181.6881     26.6627   7.3072803188e+01   3.6795189753e+01    0.7041516    0.4715247  56.61  0.002734352    1.417    0.294
        41  -9.7860    114.9082    248.1516   1.3508862631e+02   1.0970854747e+01    0.2683496    0.1381758 -67.74  0.001562959    2.496    0.599
        42  -9.8445    110.0183    247.1944   1.3584067258e+02   1.1852811797e+01    0.2126146    0.1719973  84.91  0.001083805    1.310    0.237
