#   1 NUMBER                 Running object number                                     
#   2 MAG_AUTO               Kron-like elliptical aperture magnitude                    [mag]
#   3 X_IMAGE                Object position along x                                    [pixel]
#   4 Y_IMAGE                Object position along y                                    [pixel]
#   5 X_WORLD                Barycenter position along world x axis                     [deg]
#   6 Y_WORLD                Barycenter position along world y axis                     [deg]
#   7 A_WORLD                Profile RMS along major axis (world units)                 [deg]
#   8 B_WORLD                Profile RMS along minor axis (world units)                 [deg]
#   9 THETA_WORLD            Position angle (CCW/world-x)                               [deg]
#  10 FWHM_WORLD             FWHM assuming a gaussian core                              [deg]
#  11 ELONGATION             A_IMAGE/B_IMAGE                                           
#  12 ELLIPTICITY            1 - B_IMAGE/A_IMAGE                                       
         1 -12.7387     42.9956     19.8576   9.4089250689e+01   6.7185968611e+01     1.304313    0.8039727 -34.07  0.007637988    1.391    0.281
         2 -12.5473     19.9000     26.7115   1.0771572984e+02   6.8392150283e+01    0.9075814    0.3744828 -38.28  0.002036361    2.038    0.509
         3 -11.0974     19.0709     10.8200   1.0153171197e+02   7.1241667035e+01    0.3308508    0.2552061 -22.50 0.0008894028    1.033    0.032
         4 -12.9178     10.5347     18.3743   1.0920885558e+02   7.0616005125e+01    0.5398784    0.4849311  15.86  0.002791674    1.430    0.301
         5 -12.1740      2.2862     10.1314   1.1035839133e+02   7.2609208028e+01    0.6327785    0.1745057 -45.78 0.0009272396    2.399    0.583
         6 -11.8399     29.7338     31.0058   1.0473238365e+02   6.6729706627e+01     1.009956    0.4771522  -0.46  0.003982558    4.310    0.768
         7 -11.2691     49.1853      2.4278   8.2726051142e+01   6.8786116195e+01    0.4898057    0.3072695  21.67  0.001989667    1.539    0.350
         8 -11.1485     21.9005      3.7215   9.6547743341e+01   7.2083965648e+01    0.4491301    0.2158355 -24.55  0.002408078    2.042    0.510
         9 -11.3129     16.3342      3.4485   9.9431736792e+01   7.2661734184e+01    0.2920399    0.2568285  -4.72   0.00106769    1.320    0.242
        10 -11.5734     51.5326      8.9910   8.5145101560e+01   6.7595879980e+01    0.4214621    0.3350843   5.08  0.002783865    1.084    0.077
        11 -11.2844     42.1168     10.0459   8.9802973644e+01   6.8785596406e+01    0.4363695    0.2765829   4.95  0.002315994    1.690    0.408
        12 -12.6338    248.4183     33.3683   5.3011145056e+01   1.9273091842e+01    0.7229449    0.3569897 -28.48  0.003381822    1.943    0.485
        13 -11.7275     65.9077     26.6069   8.7657348401e+01   6.2820387164e+01    0.4606671    0.3403948  16.42   0.00209717    1.355    0.262
        14 -12.0655    246.5223     22.9247   5.0693091085e+01   2.0934490525e+01     0.407869    0.2858214 -84.12  0.001776033    1.464    0.317
        15 -11.4804     30.8016     14.9813   9.7529799624e+01   6.9401960322e+01    0.4377564    0.2653799 -49.63 0.0009810993    1.857    0.462
        16 -10.8885     86.6519     13.3575   7.4532825523e+01   6.0855864996e+01    0.2602913    0.2173382 -61.47  0.001503326    1.717    0.417
        17 -10.9771     82.3617      7.8568   7.3323282589e+01   6.2334528246e+01    0.4062256    0.2302176  50.16  0.002083038    1.728    0.421
        18 -11.5787     77.1923      3.3739   7.2810839387e+01   6.3822456271e+01    0.5946144    0.3745418  38.93  0.002731458    1.437    0.304
        19 -10.0949     67.5959     13.7266   8.1143835817e+01   6.4376166640e+01    0.2252494     0.156847 -12.66 0.0005427866    1.343    0.255
        20 -11.8162     67.0016      8.9772   7.9061830015e+01   6.5075886509e+01    0.9129569    0.3458182  41.86  0.004016522    2.520    0.603
        21 -11.1404     26.0786      7.5181   9.6295433326e+01   7.1077587510e+01     0.308591    0.2545061  -7.79   0.00041321    1.143    0.125
        22  -9.0210    148.0289      5.9904   5.7580896460e+01   4.7299739052e+01    0.1648939    0.1482704  57.42 0.0003757722    1.017    0.016
        23  -9.1741     57.6552      6.6697   8.1462660063e+01   6.6935814009e+01    0.1792456    0.1082965  24.42 0.0006993614    1.646    0.392
        24  -9.9719     59.4902      2.4668   7.8577241066e+01   6.7129687220e+01    0.2691671    0.1530364 -20.30 0.0009960813    1.642    0.391
        25  -9.2713    222.5445      3.5400   4.8031775623e+01   2.8621133159e+01    0.1301019    0.1160149 -75.36 7.767985e-05    1.013    0.013
        26  -9.5354     35.2641      2.1205   8.8886832226e+01   7.0775697432e+01    0.1655649    0.1203159 -18.99   0.00110207    1.128    0.113
        27  -9.9804      7.4995      1.7851   1.0361891145e+02   7.3658999383e+01    0.2722727    0.1297075  28.36  0.001619669    2.444    0.591
        28 -12.0195    210.2711    237.6519   1.0302483873e+02  -2.4045608494e+00    0.5750543    0.2812411  40.86  0.003199585    1.684    0.406
        29  -9.3714    249.9199    250.0532   9.8305271141e+01  -9.3903004768e+00    0.1718175   0.09648104  14.27 0.0007210855    1.620    0.383
        30 -10.0849    233.1556    248.9374   1.0084149448e+02  -6.9826573157e+00    0.3963363     0.220139  13.32  0.002393994    1.892    0.472
        31 -10.4889    233.9830    244.0490   9.9983856054e+01  -6.6031363391e+00    0.3527269    0.1525325  33.49  0.001358431    1.823    0.451
        32  -9.9850    218.4209    250.1290   1.0344421174e+02  -5.0020395781e+00    0.2299782    0.1168499  27.66  0.001223597    1.674    0.403
        33 -11.3083    166.3228    248.5902   1.1215846003e+02   3.0118932230e+00    0.2051676    0.1784442  37.43 0.0004482339    1.144    0.126
        34 -11.9173    139.7834    246.9226   1.1662372995e+02   7.2899086427e+00    0.4104159    0.2637174  22.93 0.0008455925    1.981    0.495
        35  -9.8018     87.4983    249.9715   1.2598401514e+02   1.4345656388e+01    0.1757743    0.1283208  39.54 0.0004649168    1.386    0.279
        36  -9.4993     72.7448    250.6565   1.2850939831e+02   1.6166242115e+01    0.1437509   0.07190485  49.03  0.000387344    1.480    0.325
        37 -10.9319     61.5348    248.5310   1.3021723152e+02   1.7902581579e+01    0.2021285    0.1641978  76.31 0.0005764873    1.209    0.173
        38 -11.2714     46.1500    250.0083   1.3280357390e+02   1.9487764701e+01    0.2951084    0.1381707  44.53  0.001259949    1.674    0.403
        39  -9.9991      1.7021    249.0659   1.3958539863e+02   2.4238089491e+01     0.184962    0.0958123 -79.75  0.001408933    1.825    0.452
        40 -10.9509    218.6820    241.7197   1.0218894306e+02  -4.1313851215e+00    0.2822121    0.2306286 -52.49  0.001982254    2.032    0.508
        41 -11.2241    221.4235    237.0268   1.0102603962e+02  -4.0180135525e+00    0.4041248    0.2376455  16.38  0.001183756    1.731    0.422
        42 -10.0873     98.5094    241.4804   1.2335881860e+02   1.4167086077e+01    0.2029759    0.1742696  41.69 0.0007395779    1.303    0.233
        43 -10.8138    125.3871    240.1539   1.1844595205e+02   1.0456147569e+01    0.2153565    0.1821868  49.06 0.0004703026    1.100    0.091
        44 -10.5175    103.3338    240.1454   1.2238256954e+02   1.3695472900e+01    0.1967431    0.1469189  47.95 0.0004011631    1.113    0.101
        45 -10.4981     68.8882    240.1136   1.2839617554e+02   1.8355971240e+01     0.208562    0.1478041  38.03 0.0005050839    1.515    0.340
        46 -11.2714     50.4343    239.6639   1.3148774656e+02   2.0684589835e+01    0.3458625    0.1790885  58.86  0.002285594    1.493    0.330
        47  -9.0637     35.5773    240.1989   1.3396581114e+02   2.2278522790e+01    0.1205512   0.08332501 -75.01 0.0004918326    1.583    0.368
        48 -11.2105     26.4826    238.6279   1.3535304914e+02   2.3513825549e+01    0.2983415    0.2438268 -35.13  0.001183031    2.444    0.591
        49 -11.7150     34.7155    230.8340   1.3359006494e+02   2.3967472757e+01    0.3918996    0.2775253  36.30  0.002648066    1.670    0.401
        50 -10.5377      9.6778    238.8470   1.3801219623e+02   2.5156724257e+01     0.185852    0.1309894  68.08 0.0005552054    1.067    0.063
        51 -10.0378    247.0432    238.8898   9.7066850848e+01  -7.9171143143e+00    0.1741428    0.1202954  17.00   0.00058912    1.098    0.089
        52 -13.1550    248.8999     78.4028   6.3851431794e+01   1.3152050389e+01     1.226583    0.4952927 -35.14   0.00456675    2.140    0.533
        53 -12.4687    247.9855    142.0152   7.8759197590e+01   3.9804081442e+00     1.359821    0.6566079 -24.99  0.006059103    2.080    0.519
        54 -12.1756    246.1770    127.2570   7.5764018733e+01   6.4880277147e+00     1.107772    0.5955899  -2.65  0.004028195    3.508    0.715
        55 -10.5911    238.9435    215.9536   9.4681428391e+01  -4.2625788805e+00    0.4038465    0.1944684 -20.19  0.001089225    2.413    0.586
        56 -10.9286    245.6281    167.2778   8.4474596230e+01   8.3476896549e-01    0.5810838     0.330615 -22.97  0.001067264    1.715    0.417
        57 -12.9470    236.0685    123.9615   7.6637483273e+01   8.9846611734e+00     1.469667     1.007843  27.38  0.007440044    1.605    0.377
        58 -12.7731    237.4284    160.0920   8.4382155485e+01   3.2961988084e+00     1.520295    0.7452049 -33.91  0.006593305    1.976    0.494
        59 -13.2369    247.9701    102.9092   6.9845894423e+01   9.7599155976e+00     1.450525    0.6234508 -37.23  0.004772699    2.076    0.518
        60 -11.5013    234.8359    238.5784   9.9015561680e+01  -6.1562952113e+00    0.7952285    0.1938959  36.48  0.003240299    3.415    0.707
        61 -12.3994    247.5625    204.4119   9.1232552225e+01  -4.2291045580e+00    0.9589285    0.4195744 -13.75  0.003898678    3.699    0.730
        62 -11.5420    241.5756    175.3789   8.6782115973e+01   4.2593045314e-01    0.7167931    0.2643279 -28.23  0.002554283    2.888    0.654
        63 -11.3085    239.1988    206.2065   9.2954400872e+01  -3.1472742982e+00    0.4364863    0.2490743 -33.89  0.001529922    1.911    0.477
        64 -11.9116    242.7094    198.7103   9.1018844228e+01  -2.7840645976e+00    0.7556968    0.3756567  15.12  0.003334758    2.862    0.651
        65 -12.0304    237.4772    196.6897   9.1540063583e+01  -1.6927583167e+00    0.7706309    0.3771725 -16.73  0.003568816    2.610    0.617
        66 -12.0326    245.8838    191.6998   8.9193235646e+01  -2.4174808648e+00    0.5579463    0.4232582  17.52  0.002177308    1.109    0.098
        67 -11.2626    248.5709    212.8757   9.2550472875e+01  -5.3607673963e+00    0.3099462    0.2165698  19.08  0.000468872    1.156    0.135
        68 -11.9484    249.5322    183.5748   8.7045476784e+01  -1.9768362844e+00    0.4196789    0.2795199  -5.82 0.0009180105    1.461    0.315
        69 -12.5537    247.8137    175.7461   8.5805978635e+01  -6.7656990202e-01     1.084024    0.4587412 -16.24   0.00390253    3.982    0.749
        70 -11.8691    243.5197    231.7414   9.6515324046e+01  -6.6847216884e+00     0.551516    0.2808587  26.31  0.002932193    1.681    0.405
        71 -12.3142    245.1201    225.0135   9.5163622192e+01  -6.1970984425e+00    0.5388758    0.5020422 -55.02  0.003959326    1.919    0.479
        72 -12.0025    246.7770    218.0805   9.3735560724e+01  -5.6788545372e+00     0.311277    0.1985876 -26.39  0.001423803    1.636    0.389
        73 -10.5691    148.5187    238.2200   1.1405759374e+02   7.1886599273e+00    0.2415836    0.1635315  38.15 0.0004129887    1.214    0.176
        74  -9.9728    134.9442    238.8223   1.1657939290e+02   9.2038486833e+00    0.1699515    0.1542888  52.17 0.0003712537    1.163    0.140
        75 -10.0082     61.8581    239.0516   1.2952060567e+02   1.9412141309e+01    0.1818849    0.1228575  52.10 0.0005085169    1.176    0.150
        76 -10.9169    184.0269    236.7416   1.0748970768e+02   1.7887747262e+00    0.2540986    0.1875363  18.55 0.0004687205    1.345    0.257
        77  -9.8806     41.3736    236.5054   1.3280562250e+02   2.2257799776e+01    0.2084165    0.1209887  60.93  0.001099181    1.292    0.226
        78 -11.1392    159.1124    235.1454   1.1175536624e+02   5.9585351670e+00    0.2849614    0.1852127  40.01  0.000805393    1.221    0.181
        79 -11.6897     86.9711    233.1101   1.2465726299e+02   1.7135625768e+01    0.4587475    0.2167604  49.35  0.001693675    1.665    0.399
        80 -10.7301     77.0868    235.3264   1.2660162557e+02   1.8092838452e+01    0.2871355    0.1785682  58.49  0.001178285    1.278    0.218
        81 -10.7170    140.4969    234.7379   1.1509622942e+02   8.9546018157e+00    0.3519958    0.1702043  44.06  0.001160632    1.636    0.389
        82 -10.6490    145.5109    230.5097   1.1365873672e+02   8.8001844755e+00    0.2388036    0.2051941 -12.14 0.0006921527    1.532    0.347
        83  -9.6503    143.8897    225.9203   1.1338073869e+02   9.7612865661e+00    0.1859265    0.1526986  42.54 0.0004354171    1.038    0.036
        84 -10.9168    128.8859    233.8407   1.1711544502e+02   1.0892015223e+01    0.2987847    0.2196227  68.08  0.001968514    1.443    0.307
        85 -10.8043    124.0503    230.6440   1.1764306623e+02   1.2136860830e+01    0.3466148    0.1860547  32.46  0.000540482    1.972    0.493
        86 -10.0196      3.6990    235.1010   1.3879350941e+02   2.6345132274e+01    0.1349638   0.09336589  76.64 0.0005899614    1.106    0.096
        87 -10.8675    230.3223    233.3608   9.8962112536e+01  -4.9352870192e+00    0.2269991    0.1630418  28.41 0.0003949191    1.119    0.107
        88 -10.5383    226.6636    230.0474   9.9061751525e+01  -4.0181912033e+00    0.3627871    0.1999634 -14.94  0.001215016    2.220    0.550
        89 -10.9898    236.2570    226.2816   9.6842631781e+01  -5.0320409706e+00    0.2463258    0.1734201  11.10 0.0004333103    1.222    0.182
        90  -9.9380    229.5095    225.1558   9.7799645781e+01  -3.8899502316e+00    0.1815953    0.1549994  20.52  0.001037225    1.207    0.172
        91 -10.5555    233.1803    222.0833   9.6676932680e+01  -4.0941107600e+00    0.3814583    0.1642166  36.14 0.0009483776    1.936    0.483
        92 -10.7721    177.6455    232.1051   1.0798933776e+02   3.4175220039e+00    0.2590198    0.1974252   8.68 0.0006243773    1.491    0.329
        93  -9.7465    170.9707    232.9245   1.0931012463e+02   4.3762164202e+00    0.1802504    0.1439719  34.60 0.0004383397    1.030    0.029
        94 -10.5351     91.1869    235.8039   1.2414364100e+02   1.6106968304e+01    0.2111252    0.1616252  36.21 0.0005618337    1.430    0.301
        95  -9.0541    108.5672    233.1980   1.2075957123e+02   1.4051643087e+01    0.1259536    0.1099612 -52.85 0.0003700157    1.502    0.334
        96 -10.5376      9.6988    231.9289   1.3772826412e+02   2.6322964712e+01    0.1892475    0.1319004  87.66 0.0006947112    1.255    0.203
        97  -9.6083    165.3107    232.4275   1.1027194713e+02   5.3530812764e+00    0.2310973   0.09576145  38.13 0.0006703425    2.000    0.500
        98 -11.0647     55.3004    230.4699   1.3004901016e+02   2.1672321495e+01    0.2952126    0.2220878 -75.71  0.001388319    1.452    0.311
        99 -10.9626    216.7035    230.4218   1.0082556885e+02  -2.5431819088e+00    0.2386298    0.1697932  23.39 0.0004997183    1.134    0.118
       100 -10.5204    189.1688    230.8566   1.0573837558e+02   1.7363283627e+00    0.4760151    0.1536341  36.04  0.001986042    2.794    0.642
       101 -10.2351    100.5805    230.2610   1.2192347735e+02   1.5697240105e+01    0.1910298    0.1879208  13.97 0.0007245661    1.411    0.291
       102 -10.9863    103.8681    227.8719   1.2107782179e+02   1.5618931495e+01    0.3036413    0.2068369  38.11  0.001130536    1.403    0.287
       103  -9.5794    134.3743    230.2926   1.1569241422e+02   1.0591625939e+01    0.2222815    0.1318762  43.06 0.0007323885    1.355    0.262
       104 -10.4386     44.9524    229.3253   1.3176139987e+02   2.3087553207e+01    0.1734635    0.1349118 -86.74 0.0005378146    1.300    0.231
       105  -9.1525    158.5487    229.2111   1.1108360344e+02   6.9029203729e+00    0.1342881    0.1142846 -15.22 0.0003233667    1.472    0.321
       106 -10.7149    113.7455    227.9996   1.1925980408e+02   1.4131415201e+01    0.2823252    0.1819288  35.64 0.0005441779    1.510    0.338
       107 -10.6569    115.1671    222.5845   1.1839270549e+02   1.4817208604e+01    0.3953614    0.2133736 -78.56  0.001952695    2.879    0.653
       108  -9.8183    174.2262    227.3044   1.0793780341e+02   4.6314775901e+00    0.1777791    0.1533629   3.92 0.0005419626    1.280    0.219
       109 -10.5727    169.7538    222.3102   1.0805300588e+02   6.0793481721e+00    0.3232293    0.2208381 -63.35  0.001858762    2.192    0.544
       110 -11.1257    163.7222    225.1815   1.0957968367e+02   6.6518330276e+00    0.2980513    0.2898513 -26.38  0.001472844    1.258    0.205
       111 -10.1287    165.8162    220.2204   1.0849011115e+02   7.0401164090e+00    0.2201518    0.1711906  25.51 0.0006763735    1.247    0.198
       112  -9.5362     92.8997    227.8761   1.2309986007e+02   1.7195149597e+01    0.1576853    0.1402179  46.30  0.000478765    1.276    0.217
       113 -10.3829     78.7570    226.8878   1.2559372856e+02   1.9311156101e+01    0.3222707    0.1640711 -80.36  0.001079079    2.306    0.566
       114 -10.5164     67.9265    227.1385   1.2756987257e+02   2.0685386095e+01    0.2066085    0.1483245  43.55 0.0005103532    1.346    0.257
       115 -10.9317     19.0748    227.5196   1.3601501558e+02   2.6174007484e+01    0.3598501    0.2171706  68.98    0.0019682    1.218    0.179
       116 -11.0025     16.4555    221.4731   1.3615606661e+02   2.7499627980e+01    0.3328278    0.1898214  68.02  0.001608687    1.315    0.240
       117  -9.7074      1.6476    227.1417   1.3881458095e+02   2.7890077351e+01    0.1348323    0.0940938  78.60 0.0008512439    1.112    0.100
       118 -10.9306    215.6128    196.0547   9.5279234076e+01   2.0425028911e+00    0.2905945    0.2411955  27.43  0.001351507    1.091    0.084
       119 -11.0984    228.2686    217.7507   9.6799767465e+01  -2.8295653223e+00    0.2781741    0.2177515   2.39 0.0005427044    1.165    0.142
       120 -11.8027    223.7204    213.2371   9.6832274880e+01  -1.5604807296e+00    0.4881506      0.32452  -8.72  0.002206679    1.619    0.382
       121 -10.7452    210.9854    215.9570   9.9531545571e+01   1.4839087330e-01     0.300574    0.2216576   4.97 0.0004022537    1.366    0.268
       122 -10.4987    210.8214    210.8259   9.8712017684e+01   8.4665239784e-01    0.2436127    0.1806083   9.28  0.000509292    1.317    0.241
       123 -11.2366    222.5107    225.1578   9.8997780489e+01  -2.8176172906e+00    0.4861186    0.2035106  37.77   0.00194489    1.966    0.491
       124 -11.8834    216.4179    220.6877   9.9339330117e+01  -1.3227738759e+00    0.4266231    0.3462489  -5.67  0.001289747    1.240    0.194
       125 -12.6804    216.8489    205.7001   9.6759350375e+01   5.2682250000e-01     0.603423    0.3890676 -19.71  0.003473237    1.693    0.409
       126  -9.6766    184.8365    225.8911   1.0579585820e+02   3.0975650089e+00     0.178323     0.139616  21.81 0.0003699992    1.181    0.153
       127  -9.7822    199.8070    224.7128   1.0291683317e+02   8.2644200626e-01    0.1834771    0.1466042   2.26 0.0004360292    1.283    0.221
       128  -9.6986    120.7860    224.8925   1.1759613203e+02   1.3570250018e+01    0.1660199    0.1459229  40.14 0.0004893824    1.195    0.163
       129  -9.8521      8.0326    225.1336   1.3771025011e+02   2.7655304146e+01    0.1372375    0.1116289  74.59 0.0004593099    1.262    0.208
       130 -10.0004    191.0789    223.1798   1.0425645795e+02   2.4456809414e+00    0.1853205    0.1604975   4.21 0.0004539945    1.198    0.165
       131  -9.6900    129.5773    223.8516   1.1581608181e+02   1.2369198479e+01    0.1937023    0.1406885  37.32 0.0004512853    1.263    0.208
       132 -10.7342    207.1330    222.5508   1.0127488390e+02  -7.4484154629e-02     0.214783     0.176194  14.66 0.0004467864    1.097    0.088
       133  -8.5639    155.4545    223.4381   1.1088504174e+02   8.2657071864e+00     0.123229    0.1002886  39.72 0.0001782177    1.023    0.022
       134  -9.9001    135.9007    222.9599   1.1451050886e+02   1.1509015138e+01    0.1881863    0.1531873  48.39 0.0004940578    1.012    0.011
       135  -9.9537     82.6752    222.9220   1.2452034884e+02   1.9474462485e+01    0.1811951    0.1375555  42.74 0.0004806596    1.301    0.232
       136 -10.1632     50.1595    222.4721   1.3039221603e+02   2.3695936491e+01    0.1683146    0.1545395  88.86  0.000517349    1.393    0.282
       137 -10.1887     28.7465    222.1028   1.3410760555e+02   2.6144220277e+01    0.1808725    0.1270361  68.66 0.0004794888    1.033    0.032
       138  -9.2611     97.8369    222.0821   1.2160900364e+02   1.7485241209e+01    0.1392999    0.1296052  47.54 0.0003768439    1.282    0.220
       139 -10.3060     73.7489    222.3516   1.2611597091e+02   2.0773854311e+01    0.2497154    0.1438303  32.38  0.001450847    2.009    0.502
       140 -10.6767     40.1445    220.8163   1.3205143485e+02   2.5142443738e+01    0.1939441    0.1887571  68.62 0.0006363221    1.536    0.349
       141  -9.8082    180.8456    220.8929   1.0578722411e+02   4.4461145560e+00    0.1826315    0.1421191  21.80 0.0003864239    1.219    0.180
       142  -9.9014    174.8895    220.7020   1.0686338495e+02   5.4616090679e+00    0.1846668      0.15968  -0.74 0.0003905957    1.288    0.223
       143 -10.2987    148.5971    220.1918   1.1174156236e+02   9.8911632759e+00    0.2134884    0.1963909   5.89 0.0007364856    1.278    0.218
       144 -10.3710     68.4998    220.9741   1.2696289074e+02   2.1703892712e+01    0.1923591    0.1499619  32.99 0.0007632611    1.572    0.364
       145 -10.2148     59.1287    220.0021   1.2859670287e+02   2.3060321268e+01    0.3079428    0.2031512  49.73  0.002103256    1.276    0.216
       146 -10.3422     56.0632    216.8586   1.2891282659e+02   2.4007784520e+01    0.1790973    0.1300966  87.10 0.0007437067    1.235    0.190
       147  -9.8584    186.2063    219.0843   1.0452462235e+02   3.8107006852e+00    0.1816256    0.1435711  19.33 0.0004190969    1.198    0.165
       148 -10.0217    159.1193    218.0251   1.0944236481e+02   8.4874460375e+00    0.1967721    0.1797831  64.07 0.0007601962    1.223    0.182
       149  -9.3380    128.8006    219.1435   1.1538648556e+02   1.3265341438e+01    0.1553248    0.1334931  26.89 0.0003819572    1.307    0.235
       150  -9.3662    109.3165    218.9435   1.1909498978e+02   1.6328209874e+01    0.1577779    0.1375379  65.10 0.0004085467    1.092    0.084
       151  -9.0088    154.4969    218.4743   1.1038433954e+02   9.1865179190e+00    0.1252282    0.1034898  37.02  0.000105549    1.062    0.059
       152 -11.3346    137.9565    214.1691   1.1297821840e+02   1.2612016573e+01    0.3335003    0.2610983  88.73  0.002067774    1.584    0.369
       153  -9.9330    119.7816    216.3595   1.1678145170e+02   1.5160715599e+01     0.194964    0.1694924 -79.00 0.0005576678    1.287    0.223
       154 -11.1039    119.1830    212.3050   1.1640222650e+02   1.5956962626e+01    0.3143083    0.1951314  36.85  0.001359044    1.524    0.344
       155 -10.5109    193.7327    215.7784   1.0262561274e+02   3.0170673574e+00    0.2473411    0.1862468  21.80  0.000426759    1.210    0.174
       156 -10.8769    202.5056    215.7868   1.0102754143e+02   1.5602966420e+00     0.402622    0.3072044  -5.97  0.001679396    1.407    0.289
       157 -11.3615    198.0776    212.4769   1.0129889658e+02   2.7462853676e+00    0.6755726    0.3529836  18.75  0.002969373    2.825    0.646
       158  -9.3072    179.8273    215.2471   1.0512206995e+02   5.4260771734e+00    0.1640657    0.1244435  21.79 0.0003209418    1.280    0.219
       159  -9.3601     83.0886    215.4750   1.2373958551e+02   2.0749360665e+01    0.1655175    0.1002545  41.83 0.0005013082    1.487    0.328
       160 -11.0270     63.8859    213.3772   1.2718010417e+02   2.3679178419e+01    0.2864278    0.1706998  57.71 0.0009918808    1.387    0.279
       161 -10.3049     31.4583    214.3447   1.3317840749e+02   2.7268547722e+01    0.1860476    0.1609162  86.84 0.0007102999    1.309    0.236
       162  -9.3539    186.5037    213.9613   1.0367546072e+02   4.4853107149e+00    0.1560186    0.1238135 -32.90  0.000397504    1.463    0.316
       163 -10.1859    171.1870    213.8305   1.0653578276e+02   7.0973472858e+00    0.2033575    0.1705877  36.91 0.0004538307    1.020    0.020
       164  -9.6024    165.8502    213.8706   1.0755759515e+02   7.9954071503e+00    0.1884041    0.1501993  20.14 0.0004605534    1.298    0.230
       165  -9.7306    143.3607    214.2244   1.1193718777e+02   1.1712097124e+01    0.2059548    0.1444315  35.01 0.0004882852    1.315    0.240
       166 -10.8412    132.3177    213.5835   1.1399793172e+02   1.3631175515e+01     0.225174    0.1846213  35.75 0.0006354346    1.192    0.161
       167  -9.8455     51.8481    212.6412   1.2936462167e+02   2.5293897741e+01    0.1657251    0.1351707 -83.53 0.0005592084    1.273    0.214
       168 -10.7260     41.2100    212.4750   1.3130454277e+02   2.6552976734e+01    0.1744367    0.1553842 -78.72 0.0005840649    1.410    0.291
       169  -9.3647    154.7559    212.2149   1.0944741953e+02   1.0131684394e+01    0.1607852    0.1361632  14.85 0.0004580874    1.317    0.241
       170  -9.4899     96.9447    212.3628   1.2075309230e+02   1.9339444469e+01    0.1668757    0.1298297  48.23 0.0005142421    1.148    0.129
       171 -10.7278      7.5586    215.7057   1.3737640327e+02   2.9376034237e+01    0.3397908    0.1926506  69.44  0.001597265    1.309    0.236
       172  -9.6738     25.5187    210.4749   1.3400091577e+02   2.8602946851e+01    0.1521516    0.1270642 -63.32 0.0006042107    1.608    0.378
       173 -10.2606     18.2393    210.7360   1.3530069530e+02   2.9278524968e+01    0.1785569    0.1646327 -87.53  0.000870756    1.471    0.320
       174  -9.1780    106.6508    210.2072   1.1861064990e+02   1.8276275778e+01    0.1473585    0.1107974 -53.34 0.0002781765    1.595    0.373
       175 -10.4089     56.4794    209.9289   1.2828602855e+02   2.5244151861e+01     0.182838    0.1514004  35.45 0.0004265035    1.501    0.334
       176 -10.2624    161.1413    208.5690   1.0767101488e+02   9.6279984345e+00     0.236644    0.1868298  24.48 0.0006684634    1.277    0.217
       177  -9.2079     93.4508    208.7675   1.2104454753e+02   2.0508075681e+01    0.1461585    0.1109329 -54.82 0.0005941787    1.592    0.372
       178  -9.0885     78.4210    208.8163   1.2398700065e+02   2.2618618233e+01    0.1414182    0.1050565 -60.86 0.0004254935    1.557    0.358
       179  -9.5419    177.0112    208.0738   1.0453637997e+02   6.9731391754e+00    0.1858327    0.1567837  30.28 0.0003419663    1.032    0.031
       180 -10.2401    145.6956    207.6674   1.1056246240e+02   1.2408298248e+01    0.3631403    0.1638609  31.25   0.00150941    2.670    0.625
       181  -9.5176    149.0330    205.4599   1.0958215634e+02   1.2211144168e+01    0.2367368    0.1747601  22.84  0.001360614    1.525    0.344
       182 -11.0788    132.5187    206.9519   1.1307236445e+02   1.4734840548e+01    0.3635067     0.241775  34.78  0.001784549    1.454    0.312
       183 -11.0570    115.1684    206.9062   1.1652300568e+02   1.7549328049e+01    0.3683127    0.1938466  57.22   0.00183882    1.952    0.488
       184  -9.8322    120.3862    206.7187   1.1545857336e+02   1.6752626146e+01    0.1670606    0.1575614  80.73 0.0006547613    1.157    0.136
       185  -9.8653     72.8172    207.6876   1.2496542927e+02   2.3585265123e+01    0.1671449    0.1343518  40.36 0.0005289909    1.362    0.266
       186 -10.5671    206.6767    206.1796   9.8678547066e+01   2.1660773007e+00    0.2370212    0.1674607  24.76  0.000358085    1.253    0.202
       187  -9.1637    193.0817    207.5462   1.0141635037e+02   4.2871981761e+00    0.1833882    0.1073911  39.02 0.0003750668    1.453    0.312
       188 -10.0486    124.2361    205.9686   1.1459182748e+02   1.6264993271e+01    0.2229071    0.1555016  36.82  0.001298603    1.366    0.268
       189 -10.4899     47.1187    206.1097   1.2974717767e+02   2.7080794041e+01    0.1957828    0.1547128  36.95 0.0005545053    1.510    0.338
       190  -9.2518     32.1935    206.5757   1.3255352201e+02   2.8643904608e+01     0.125288   0.09928223  36.80 0.0004183403    1.554    0.356
       191  -8.9191    183.5290    205.4704   1.0287551241e+02   6.2388914029e+00    0.1295738    0.1083658  28.62 0.0001005376    1.029    0.028
       192 -10.9407    139.4713    203.5766   1.1121201029e+02   1.4158450000e+01     0.364047    0.2503496  13.56   0.00130876    2.192    0.544
       193 -10.5995    145.0682    200.3389   1.0961316821e+02   1.3764327064e+01     0.315239    0.1769132  43.83  0.001140458    1.538    0.350
       194  -9.8515     86.4425    204.9560   1.2201696778e+02   2.2228446276e+01    0.1978999    0.1596364  32.94 0.0005200277    1.450    0.310
       195 -10.6977      6.7666    203.9415   1.3696329606e+02   3.1614550335e+01    0.1934852    0.1831613 -43.73  0.001020795    1.718    0.418
       196  -8.8506    156.6512    204.7636   1.0797348250e+02   1.1017630774e+01    0.1262154   0.09067873  22.06 0.0003093414    1.565    0.361
       197 -10.7679    109.9278    201.5695   1.1690474793e+02   1.9351180513e+01    0.3460289    0.2373435 -81.92  0.001909679    1.710    0.415
       198 -11.3628     56.2334    201.8912   1.2766022590e+02   2.6809831684e+01    0.2204202    0.1792559 -72.63 0.0005041857    1.346    0.257
       199  -9.1532    179.2420    202.3801   1.0319021319e+02   7.4574276344e+00    0.1675484    0.1080793  45.74 0.0002742647    1.414    0.293
       200  -8.6956    173.3091    202.2910   1.0432367976e+02   8.5123623991e+00     0.127895   0.09350138  14.25 0.0003117353    1.582    0.368
       201  -8.6516     21.2793    202.3293   1.3428235455e+02   3.0564171274e+01    0.0944941   0.07486267 -63.31 0.0003895117    1.600    0.375
       202 -10.0389    198.3215    201.1039   9.9353202857e+01   4.3139189602e+00    0.2024477    0.1515826  25.47 0.0003971685    1.185    0.156
       203  -9.2459    186.8126    201.0126   1.0151118211e+02   6.3378763475e+00    0.1681813     0.148588  19.81 0.0003369669    1.064    0.060
       204 -10.7653    164.3084    200.3705   1.0577843344e+02   1.0403482507e+01    0.4970436    0.2262513  32.73  0.001990295    2.360    0.576
       205 -10.5247     63.8344    200.2684   1.2602610289e+02   2.6178131342e+01    0.2156616    0.1281352 -60.83  0.001280977    1.824    0.452
       206  -9.1179     34.2928    201.2974   1.3180795795e+02   2.9431734990e+01   0.09446424   0.08126129 -60.30 0.0002278676    1.562    0.360
       207 -12.3924    233.8427    185.1842   9.0018671225e+01   4.1605139497e-01    0.5768079    0.3110302  35.76  0.001577258    1.696    0.410
       208 -11.1614    229.7000    198.1909   9.3158428234e+01  -6.1460675466e-01    0.3332251    0.2873761  33.57  0.001637281    1.278    0.218
       209 -10.5522    231.3595    192.2278   9.1776602238e+01  -1.0727660476e-01    0.3799031    0.2155248   4.95   0.00169063    2.430    0.588
       210  -9.7152    132.2873    199.7032   1.1210696946e+02   1.6053251460e+01    0.2356422    0.1740355   7.87 0.0008409135    2.056    0.514
       211  -9.0360     98.4879    200.5298   1.1909904305e+02   2.1305101600e+01    0.1227219    0.1068346  59.77 7.597885e-05    1.070    0.065
       212  -9.1882     90.5286    200.5050   1.2070886606e+02   2.2487792142e+01    0.1231548    0.1032344  64.69 8.103055e-05    1.012    0.012
       213 -10.4534     69.5237    200.3245   1.2490429136e+02   2.5431509429e+01    0.1711192    0.1432185  19.48 0.0007622505    1.701    0.412
       214 -11.0796    211.1369    179.9300   9.3095203111e+01   5.1615852106e+00    0.3808249    0.2935862 -19.45   0.00104121    1.318    0.241
       215 -10.7512    210.1875    173.9193   9.2098887188e+01   6.2490944052e+00    0.3528234    0.2585272  39.43 0.0008956465    1.289    0.224
       216 -10.5836    209.9137    198.2063   9.6702111989e+01   2.7218176109e+00    0.2522017     0.233157 -57.16 0.0007358508    1.509    0.337
       217 -10.3656    209.3383    192.5149   9.5785852758e+01   3.6315851016e+00    0.3157834    0.2242574  -1.77  0.001196586    1.562    0.360
       218 -10.2421    202.7787    194.8935   9.7432649022e+01   4.4392765813e+00    0.3286155    0.2292555  11.26 0.0005291387    1.570    0.363
       219 -11.1879    207.1825    187.9756   9.5352664910e+01   4.6760093339e+00    0.6441716    0.3577998  23.21  0.002449266    2.103    0.525
       220  -9.0267    138.7024    199.2616   1.1073995340e+02   1.5044748541e+01    0.1261209   0.09108376  64.26 0.0006909078    1.508    0.337
       221  -9.7891     42.0466    199.1459   1.3017782599e+02   2.9003049377e+01      0.15407    0.1394517  82.31 0.0005402039    1.286    0.222
       222 -10.3760    103.2720    197.6459   1.1777001843e+02   2.1125133116e+01    0.3320958    0.2077252  84.39  0.001518189    2.052    0.513
       223  -9.1886     80.5532    198.5981   1.2251597587e+02   2.4275949372e+01    0.1215309   0.09902911  65.72 8.096443e-05    1.017    0.016
       224 -10.6725    205.0829    175.1379   9.3301348276e+01   7.0111281946e+00    0.2496427    0.1903807 -20.48 0.0006954116    1.355    0.262
       225  -9.9366     49.5173    198.0528   1.2864333174e+02   2.8362028774e+01    0.1728824    0.1564275  41.84 0.0005359892    1.414    0.293
       226  -9.5331    169.9025    195.9433   1.0395078432e+02   1.0136201310e+01    0.1943316    0.1597018  21.24  0.000378112    1.216    0.178
       227 -10.3432    157.6506    194.5174   1.0616725838e+02   1.2562388372e+01    0.3390722    0.2140159 -44.95  0.001797638    1.809    0.447
       228  -9.5771    149.2555    196.5484   1.0818850878e+02   1.3694914142e+01    0.1793829    0.1141844  33.22 0.0004629987    1.539    0.350
       229 -10.0559     89.0367    195.9236   1.2048804917e+02   2.3590444361e+01    0.1846445    0.1607492  64.81 0.0004396762    1.067    0.063
       230  -9.7474     60.8283    196.1253   1.2623708128e+02   2.7371389038e+01    0.1433779    0.1333337 -80.03 0.0003929002    1.321    0.243
       231  -9.8510    184.4341    194.5574   1.0086686186e+02   7.7541186605e+00    0.2199539    0.1805627  29.82  0.000239029    1.064    0.060
       232  -9.5298    176.3198    195.4320   1.0259978345e+02   9.0703342078e+00    0.1654791     0.113983  46.50 0.0002957847    1.349    0.259
       233  -9.4634    144.0227    193.8028   1.0882900311e+02   1.5094761403e+01    0.1795152    0.1420549  89.17 0.0005900703    1.591    0.371
       234  -9.6524    113.0225    193.9819   1.1527614407e+02   2.0287742077e+01    0.1785549    0.1552798  -0.06 0.0004114456    1.588    0.370
       235 -10.4167     81.5778    193.7508   1.2177594453e+02   2.5083850839e+01    0.2277814    0.1489076  45.27 0.0006088347    1.387    0.279
       236 -10.3891     74.4325    193.7546   1.2324518990e+02   2.6068784926e+01     0.153994    0.1068103 -60.36 0.0005275165    1.576    0.365
       237  -9.3292     54.5390    194.4862   1.2734373676e+02   2.8470318169e+01    0.1173405   0.09428132  74.11 0.0001029852    1.017    0.017
       238 -12.1725    224.6885    203.9302   9.5060427726e+01  -5.3530079142e-01    0.4753223    0.4024577 -43.57  0.001413657    1.613    0.380
       239  -9.1155     36.3992    192.7844   1.3078586591e+02   3.0876671440e+01    0.1428971   0.09053545 -69.77 0.0003975346    1.539    0.350
       240  -8.9375    194.3875    192.4973   9.8589844869e+01   6.2877787571e+00    0.1300024    0.1132831  20.60  0.000113282    1.028    0.027
       241 -10.2464    151.6825    191.5462   1.0690049242e+02   1.4141809517e+01    0.2416031    0.2212097  34.91 0.0006187048    1.066    0.062
       242 -10.2591    224.4683    190.0590   9.2588583485e+01   1.3513087263e+00     0.250588    0.2283061 -26.86  0.001652781    1.329    0.248
       243  -9.8759    162.1499    190.2207   1.0454761006e+02   1.2491264509e+01    0.2066722    0.2016772 -57.48 0.0004848028    1.174    0.148
       244 -10.8351    158.7415    186.6971   1.0464763108e+02   1.3722725601e+01     0.391254    0.2629152  43.75  0.002087879    1.329    0.247
       245 -10.0288     96.7111    189.1079   1.1805815012e+02   2.3791413974e+01    0.3073539    0.1616924 -65.46  0.001050348    2.039    0.510
       246 -10.9543     73.0001    188.4538   1.2297088227e+02   2.7325876144e+01    0.3130692    0.1880017  78.94  0.001701252    1.806    0.446
       247  -9.3316     64.2558    189.7750   1.2492439669e+02   2.8207433209e+01    0.1430924     0.135502 -78.88 0.0003679658    1.314    0.239
       248  -9.0398     42.5350    190.4922   1.2939460856e+02   3.0664078735e+01     0.115345   0.09156315  77.03 7.493253e-05    1.025    0.024
       249 -10.3066    214.8000    187.2510   9.3809987701e+01   3.4283160366e+00    0.3409717    0.2067149 -12.95  0.001193055    2.048    0.512
       250 -10.1621    199.3950    188.7742   9.6964784316e+01   5.9542601610e+00    0.2376068    0.1959269  10.53  0.000404713    1.163    0.140
       251  -9.5031    172.3950    189.0159   1.0227702466e+02   1.0831417687e+01    0.1747515    0.1653629  -1.81 0.0004344374    1.129    0.115
       252  -8.9977    179.2707    188.0106   1.0073139364e+02   9.7393254673e+00    0.1458259     0.118098 -35.32 0.0003313651    1.367    0.269
       253 -10.0436    116.6111    187.7597   1.1365340051e+02   2.0898690634e+01    0.3552577    0.2080374  33.86  0.001774223    1.802    0.445
       254  -9.8412     77.5501    188.5470   1.2202865154e+02   2.6685980233e+01    0.1241758    0.1031449  70.99 5.667892e-05    1.011    0.011
       255  -9.9679    127.5345    185.4496   1.1098594261e+02   1.9503311089e+01    0.3329553     0.189031  31.42  0.001567221    1.985    0.496
       256  -9.7700    166.9603    184.4427   1.0257505125e+02   1.2606901091e+01    0.1890055     0.179648  -8.75  0.000467133    1.136    0.119
       257  -8.8849     80.6700    184.7074   1.2092392956e+02   2.7030649588e+01     0.111886   0.09979007 -19.70 0.0003166182    1.628    0.386
       258  -9.3097     34.9009    184.5046   1.3043957782e+02   3.2704838019e+01    0.1524063    0.1046827  40.43 0.0008635112    1.531    0.347
       259  -9.1335    140.4336    183.4555   1.0792849801e+02   1.7619918532e+01    0.1334673    0.1210475  44.63 5.669355e-05    1.035    0.033
       260  -9.5686     67.0149    182.4099   1.2357352305e+02   2.9357579515e+01    0.2060733     0.148118  85.37 0.0008117471    1.290    0.225
       261  -9.3006    224.1268    181.8389   9.1091875159e+01   2.5573524772e+00    0.1737533       0.1319  10.12 0.0003266383    1.243    0.195
       262  -9.0370    218.2364    181.9252   9.2172418034e+01   3.5882010772e+00    0.1535278    0.1060547 -31.78 0.0003401289    1.507    0.336
       263  -9.2500    155.2083    181.7767   1.0453516829e+02   1.5247506756e+01    0.1798521    0.1530193  10.38 0.0003149698    1.333    0.250
       264 -10.2138    203.1935    180.2529   9.4650158243e+01   6.5672849084e+00    0.3554912    0.2299751 -50.59  0.001581571    2.036    0.509
       265  -9.5336    184.2533    180.9411   9.8459494509e+01   9.9792172323e+00    0.1821387    0.1630976  11.07 0.0003788954    1.088    0.081
       266  -8.8185    197.6734    180.7207   9.5794525662e+01   7.5142465568e+00    0.1374323   0.09637401  14.08 0.0002723608    1.594    0.373
       267 -10.4146    175.2211    179.6371   1.0003001080e+02   1.1893183202e+01    0.2520051     0.236629   7.85 0.0009028016    1.086    0.079
       268  -9.5552     55.3608    180.0909   1.2580736483e+02   3.1304968887e+01    0.1768344    0.1303258 -62.66  0.000653162    1.444    0.307
       269  -9.4561    235.7235    179.0608   8.8509874588e+01   9.2689994532e-01    0.1791499     0.142345  -1.33 0.0003965233    1.128    0.113
       270  -9.8260     60.9756    177.6321   1.2434981589e+02   3.1127482426e+01    0.3455217    0.1773297  89.11  0.001666737    2.309    0.567
       271  -9.8666    191.0402    176.9294   9.6362043170e+01   9.3628666256e+00    0.2063833     0.179886  20.41 0.0004179076    1.048    0.046
       272  -9.2603     69.4539    177.4722   1.2249383699e+02   3.0066367176e+01    0.1225206    0.1071432  80.16 0.0004880594    1.066    0.062
       273  -9.4109    169.4392    176.2604   1.0058882853e+02   1.3571808397e+01    0.1703072    0.1355476 -55.52 0.0004343374    1.478    0.323
       274 -10.3062    140.2175    175.5337   1.0664673382e+02   1.9161308061e+01     0.281855    0.1640291 -35.81  0.001280901    2.233    0.552
       275  -9.5670    219.3422    175.0301   9.0627282161e+01   4.3988517514e+00    0.1793773     0.152161 -11.19 0.0003584437    1.135    0.119
       276 -11.2563    197.9268    174.1790   9.4485865939e+01   8.5077451767e+00    0.3031925    0.2739312 -45.65  0.001422642    1.313    0.238
       277 -10.1190     46.5165    175.0428   1.2719398734e+02   3.3400970754e+01    0.1765445    0.1026877 -76.95 0.0005950731    1.549    0.354
       278 -10.6971    161.7520    173.9762   1.0176768943e+02   1.5439735139e+01    0.2638305    0.1881367  33.13  0.000553588    1.366    0.268
       279 -10.8117    153.3870    173.4834   1.0345069613e+02   1.7111082586e+01    0.3906727    0.2494788  24.72  0.001608497    1.927    0.481
       280  -9.2526    129.1956    172.8515   1.0860195947e+02   2.1671102425e+01    0.1749803    0.1601867   6.16 0.0003380763    1.295    0.228
       281  -9.3664    233.4142    172.4760   8.7609121575e+01   2.2450726969e+00      0.13194     0.111375   5.17  0.000101442    1.017    0.017
       282  -8.8915     24.3789    172.2703   1.3163208789e+02   3.6289256747e+01     0.102016   0.08252689 -46.78  0.000699484    1.691    0.409
       283 -10.1668    225.8473    170.7949   8.8607786554e+01   3.8407794745e+00    0.2147885    0.1766681  13.85 0.0003957965    1.082    0.076
       284 -10.2452    193.0010    171.0948   9.4841684802e+01   9.9488799445e+00    0.2089657    0.1843313  19.69  0.000408165    1.035    0.034
       285  -9.7287    188.0402    170.7190   9.5750811800e+01   1.0965697184e+01    0.1977618    0.1640422  31.56 0.0003708052    1.102    0.092
       286  -9.0020     76.4638    171.4644   1.2021435818e+02   3.0386419120e+01     0.126086    0.1114926  79.61 0.0008080541    1.046    0.044
       287  -9.4674    182.8854    173.9409   9.7410142992e+01   1.1410525951e+01    0.2072277    0.1733937  10.82 0.0004257692    1.230    0.187
       288 -10.2334    158.6541    168.9000   1.0147766037e+02   1.6966438162e+01    0.1847062    0.1832001  11.98 0.0006007169    1.080    0.074
       289 -10.1490    101.0432    175.9711   1.1533676336e+02   2.5779787063e+01    0.1896445    0.1625434  69.13            0    1.059    0.055
       290 -11.5092    205.4231    166.4286   9.1496112975e+01   8.3239938766e+00    0.4340122    0.2808648  -7.02  0.001640717    2.026    0.506
       291 -10.2475    213.2646    160.2902   8.8747406535e+01   7.7929725934e+00    0.3183476    0.2142749  20.58 0.0003572918    1.614    0.380
       292  -9.5364    211.5780    167.5059   9.0552325794e+01   6.9815685504e+00    0.2190583    0.1979731 -28.90 0.0005701223    1.214    0.177
       293 -10.1198    210.0068    164.5023   9.0232810738e+01   7.7523947494e+00    0.2713774    0.1866704 -14.14  0.001273262    1.622    0.383
       294  -9.3631    134.8645    167.8551   1.0648209299e+02   2.1642218066e+01    0.2021894    0.1846035   8.80 0.0004546994    1.261    0.207
       295  -9.9491    150.4814    166.8926   1.0286456666e+02   1.8909636444e+01    0.1936249     0.140236 -47.49 0.0003582535    1.487    0.328
       296  -9.0291     84.5429    167.4391   1.1784722222e+02   3.0095230991e+01    0.1292307    0.1149065  77.04 8.628119e-05    1.021    0.020
       297 -10.4835    218.8850    165.3062   8.8750212686e+01   5.9448135678e+00    0.2343732    0.1886471  -1.04 0.0003762711    1.201    0.167
       298  -9.3610    179.0266    166.3528   9.6711595908e+01   1.3470275083e+01    0.1968374    0.1676981  35.79 0.0004407711    1.085    0.078
       299  -9.6280    169.9129    166.5068   9.8633034999e+01   1.5225987211e+01    0.2117678    0.1304421  42.38 0.0003410974    1.506    0.336
       300  -9.7523    165.2773    166.3315   9.9576153075e+01   1.6162065748e+01    0.1393987    0.1086244   1.89 0.0001725702    1.601    0.375
       301  -8.7994    140.5124    166.5837   1.0499895235e+02   2.0850165515e+01    0.1399263    0.1275356  52.77 0.0002493975    1.029    0.028
       302 -13.0053    243.9083    110.6587   7.2281098506e+01   9.4269148842e+00      1.81506     1.001184  51.23  0.008519469    1.966    0.491
       303 -10.0343    200.0549    162.5260   9.1729187331e+01   9.9984206266e+00    0.2264417    0.1810604   5.55 0.0005814028    1.304    0.233
       304 -11.5894    205.9239    158.4531   8.9747328163e+01   9.5167865685e+00    0.5389849    0.3674828  -3.44  0.001489147    1.830    0.454
       305 -10.2023    206.0358    152.4529   8.8444923215e+01   1.0481134400e+01    0.2545594    0.1888556 -12.46 0.0004343354    1.459    0.315
       306  -9.6888    192.0040    162.5275   9.3313302259e+01   1.1579706961e+01     0.198738    0.1821372  -0.73 0.0003741177    1.068    0.064
       307  -9.9998    184.8628    163.2182   9.4890028138e+01   1.2870779050e+01    0.2043514    0.1862628  50.85 0.0004403574    1.174    0.148
       308  -9.3887    159.5104    163.0111   1.0016280653e+02   1.7906885730e+01    0.1983513    0.1415624 -43.70 0.0003335401    1.499    0.333
       309  -9.4402    111.1511    162.9027   1.1101634041e+02   2.6854460774e+01    0.1773941    0.1639876 -24.56 0.0004831675    1.315    0.240
       310  -9.0711     80.5200    163.5057   1.1822636091e+02   3.1528401358e+01    0.1307421    0.1146705  79.86 0.0001008242    1.002    0.002
       311  -8.5435    172.6673    162.2805   9.7217026481e+01   1.5451982947e+01    0.1384221    0.1118621  75.19 0.0003658632    1.610    0.379
       312 -10.7221     54.2504    157.9387   1.2362550611e+02   3.6200570463e+01    0.4284491    0.2533802  21.23  0.002191344    2.454    0.592
       313  -9.1877    246.7855    161.2110   8.3038228516e+01   1.4707952390e+00    0.1744758    0.1302785  10.26  0.000301369    1.273    0.214
       314  -9.7831    221.0924    159.7465   8.7192553299e+01   6.3802103102e+00    0.2215208    0.1942332 -55.79  0.000774672    1.495    0.331
       315 -10.0273    153.0126    159.9964   1.0098903066e+02   1.9753542746e+01    0.2153729    0.1719006   3.40 0.0003955257    1.584    0.369
       316 -11.2843    157.2375    157.5091   9.9567009561e+01   1.9404919316e+01    0.4728167     0.259538  58.11  0.001926304    2.296    0.565
       317 -10.3458    250.4023    156.7528   8.1516960171e+01   1.4564506547e+00    0.3048237     0.147602 -30.21  0.001238945    1.926    0.481
       318  -9.5619    140.9509    157.3014   1.0315887322e+02   2.2619375084e+01    0.3033365    0.2124788  80.12  0.001379342    2.081    0.519
       319  -8.7631     99.2917    156.2764   1.1270251829e+02   3.0242283566e+01    0.1243957    0.1083213 -17.00 0.0002647153    1.522    0.343
       320  -9.2767    246.2657    155.5641   8.1945617719e+01   2.3538607571e+00    0.1701004    0.1143749  28.05 0.0003563469    1.468    0.319
       321 -10.2392    226.2365    154.7699   8.5213200746e+01   6.1651494603e+00     0.232169    0.1847022 -14.81 0.0008225721    1.193    0.162
       322 -10.6167    228.0121    150.6715   8.4017327601e+01   6.4526061371e+00    0.2540976    0.2164444  31.54 0.0006940263    1.163    0.140
       323  -9.4978    197.1566    154.6796   9.0647642271e+01   1.1888784727e+01    0.1955549     0.168658  23.09  0.000459546    1.092    0.084
       324 -10.2101    221.5080    150.5595   8.5154943003e+01   7.7273875676e+00    0.3802279    0.1733496 -32.57 0.0009218667    2.187    0.543
       325  -9.5202    216.3701    154.1659   8.6872264689e+01   8.1607719976e+00    0.2092441    0.1942053 -71.07 0.0003543148    1.423    0.297
       326 -11.3984    213.2542    148.9919   8.6328424354e+01   9.6059303293e+00    0.5654657    0.4585557  20.53  0.003131947    1.198    0.165
       327  -8.6816    192.6927    152.6929   9.1107763608e+01   1.3132435463e+01    0.1463657    0.1077664   8.99 0.0003565777    1.610    0.379
       328 -10.4784    144.7905    149.3963   1.0070886662e+02   2.3473139649e+01    0.4955285    0.2365687 -52.50  0.001974034    2.316    0.568
       329  -9.0402    107.9998    151.4670   1.0978794107e+02   2.9843488437e+01    0.2026901    0.1322063  42.68 0.0003998169    1.501    0.334
       330  -8.8738    157.6258    150.7335   9.8092975430e+01   2.0643442908e+01    0.1485901    0.1118459  14.00 0.0004416372    1.672    0.402
       331  -9.0873    202.5154    149.5167   8.8484236129e+01   1.1680931141e+01    0.1434077    0.1310244  10.71  0.000175189    1.008    0.008
       332  -9.8118    161.5704    147.4974   9.6535735513e+01   2.0472199825e+01     0.250053    0.1393355  43.96 0.0006460451    1.720    0.419
       333  -9.9793    159.9012    144.3133   9.6218257133e+01   2.1436942241e+01    0.2477251    0.1990244 -29.20 0.0003779674    1.349    0.259
       334  -9.1055    150.2567    147.0006   9.8963669359e+01   2.2868012627e+01    0.1810101    0.1267853 -45.97 0.0003502029    1.486    0.327
       335 -11.6726     36.9393    144.4422   1.2617070033e+02   4.1115096319e+01    0.4075337      0.23227 -66.51   0.00230548    1.515    0.340
       336 -11.3584     25.8835    144.0751   1.2879330272e+02   4.2250993460e+01    0.3989257    0.2058584  75.48  0.001148981    2.078    0.519
       337  -9.5822    223.5163    144.7624   8.3522627231e+01   8.2446030768e+00    0.1963692    0.1308637 -29.18 0.0009836908    1.453    0.312
       338  -9.6192    119.1210    144.7335   1.0583322036e+02   2.9342548589e+01    0.3695361    0.2424818   7.31  0.001447721    3.024    0.669
       339 -10.3742    234.9691    143.9468   8.1341735936e+01   6.1422934889e+00     0.237545     0.186183  33.89 0.0005197021    1.265    0.210
       340  -9.9519    208.6428    142.9958   8.5865647285e+01   1.1525288562e+01     0.200993    0.1732848 -19.49 0.0004216925    1.126    0.112
       341  -9.1576    113.5164    142.5150   1.0677084625e+02   3.0836296125e+01    0.1454737     0.130447  79.06 0.0008077012    1.116    0.104
       342  -8.9969    139.0192    141.0251   1.0030001282e+02   2.6337457488e+01    0.1741951    0.1636275  48.79 0.0003627793    1.035    0.034
       343 -10.2766    238.5809    139.2979   7.9703933725e+01   6.1506546546e+00    0.2692136    0.2059465 -26.99 0.0004288421    1.218    0.179
       344 -10.0280    237.0343    135.7862   7.9177805314e+01   6.9806077174e+00    0.2130034    0.1729355   8.07 0.0004420783    1.213    0.176
       345  -9.9939    166.9597    153.5240   9.6635722969e+01   1.8219374575e+01    0.2172043    0.1365555  44.09 0.0004707179    1.511    0.338
       346  -9.9420    135.4188    138.4974   1.0061488348e+02   2.7579461483e+01    0.3352794    0.1427447 -53.03  0.001223346    2.579    0.612
       347  -9.8596    131.2994    139.0329   1.0171904000e+02   2.8272358588e+01    0.2032217    0.1859425 -55.47 0.0004963413    1.111    0.100
       348  -9.5153    109.4436    138.6596   1.0702707681e+02   3.2406910598e+01    0.2136473    0.1736057  12.23 0.0005565107    1.596    0.374
       349 -10.5815    166.2830    137.1405   9.3206974386e+01   2.1502715924e+01    0.3524041     0.240785 -49.59  0.000946414    1.572    0.364
       350  -9.6955    243.6524    138.0272   7.8584683574e+01   5.3733548508e+00    0.1929746    0.1524819 -18.65  0.000395876    1.147    0.128
       351  -9.2117    195.8359    137.2099   8.7032861047e+01   1.5189781347e+01    0.1986551      0.16427   3.15 0.0004507065    1.290    0.225
       352 -10.7070    233.9998    209.5275   9.4420521042e+01  -2.7341589212e+00    0.4186522    0.2938996 -18.37  0.000690535    1.427    0.299
       353  -9.8741     38.9076    131.7931   1.2413566102e+02   4.3787741687e+01    0.1895962    0.1532035 -56.78 0.0005819096    1.270    0.213
       354  -9.0563     32.3487    131.3121   1.2576902230e+02   4.4534431590e+01    0.1220495   0.08325277 -44.32    0.0007046    1.717    0.418
       355  -8.8346     80.5025    130.5226   1.1295658970e+02   3.8941247941e+01    0.1361797    0.1252603 -75.82 -1.382569e-05    1.030    0.029
       356  -8.8280    131.2857    129.3337   9.9601012607e+01   3.0345358299e+01    0.1474584    0.1183119  -9.49 0.0003326436    1.622    0.384
       357 -10.5616    102.9977    125.5000   1.0599109455e+02   3.6476579652e+01    0.3672746    0.2651438  -3.66  0.001250206    2.263    0.558
       358  -9.6544    145.8888    123.2740   9.4638364506e+01   2.8622270002e+01    0.2431984    0.1910897  63.44  0.001123933    1.422    0.297
       359 -11.3489    221.9151    126.0385   7.9532868732e+01   1.1566157539e+01    0.2951358     0.208883 -19.88  0.001215755    1.435    0.303
       360  -9.0647    127.5468    121.5027   9.8728863011e+01   3.2773261522e+01    0.1475632    0.1438507 -84.27 -0.0003561201    1.023    0.022
       361 -10.5840      5.0602    120.2784   1.3160246840e+02   4.9176752878e+01    0.1542729    0.1289972 -89.95 0.0005449524    1.106    0.096
       362 -10.8142     12.7044    118.7373   1.2944356202e+02   4.9006035132e+01    0.2514696    0.1325554  69.75  0.000904608    2.117    0.528
       363 -10.1818     16.5576    115.4873   1.2803755555e+02   4.9462773878e+01    0.1762675    0.1161668  -4.33  0.001028948    2.332    0.571
       364 -10.3032     90.2537    112.4098   1.0661310307e+02   4.1591660112e+01    0.2596297    0.2335306 -56.32 0.0005303146    1.053    0.051
       365 -11.2391      6.0102    112.0185   1.3051240157e+02   5.0965212892e+01    0.1851456    0.1425546 -81.81 0.0008465886    1.033    0.032
       366 -12.1758     26.2036    107.4155   1.2426333800e+02   5.0554741370e+01    0.5526302    0.3399051  -2.47  0.002962072    2.582    0.613
       367 -10.1233      2.2696    108.7098   1.3118193266e+02   5.1931863864e+01    0.2270853    0.1148856 -49.06 0.0008316828    1.984    0.496
       368  -9.4213     60.5377    104.9571   1.1366571201e+02   4.7585128835e+01    0.2894538    0.1284391 -42.96 0.0007882737    2.534    0.605
       369  -9.8523     59.4942    101.4931   1.1327003991e+02   4.8515746681e+01    0.1342374    0.1184739 -66.37 7.874545e-05    1.025    0.024
       370  -9.8436     89.2663    102.9346   1.0469684688e+02   4.3904925691e+01    0.2259025    0.2069497  33.01  0.000622399    1.181    0.153
       371 -11.7749      4.6080    101.0264   1.2967266018e+02   5.3518219288e+01    0.4522996    0.1913562  48.13  0.002247219    2.796    0.642
       372 -11.1840     25.0248     98.8769   1.2332425727e+02   5.2608929966e+01    0.3540858    0.1720496 -53.15  0.001336308    1.762    0.433
       373  -9.9155     44.2040     98.1220   1.1729645156e+02   5.1030838329e+01    0.3459271    0.1265553 -53.89  0.001478764    2.240    0.554
       374 -10.1556    214.3689     97.3855   7.3808438868e+01   1.7909564603e+01    0.2778382    0.2468708 -45.61 0.0006652936    1.145    0.127
       375 -10.3857     86.9462     96.1283   1.0370328326e+02   4.5814331979e+01     0.334154    0.2880591 -12.55  0.001176826    1.337    0.252
       376  -9.5342     63.3353     97.2891   1.1118767478e+02   4.8997040134e+01    0.1354172   0.09853563 -28.70 0.0003833533    1.633    0.387
       377  -9.2783    147.8384     95.8217   8.7032137601e+01   3.3777229428e+01    0.2088927    0.1838005 -73.34 0.0007143179    1.295    0.228
       378 -11.1151      6.7079     95.3976   1.2836089748e+02   5.4660961511e+01    0.2714816    0.1437713  80.95  0.001435703    2.166    0.538
       379 -10.4607     39.3159     94.1332   1.1806456448e+02   5.2438447919e+01    0.3044554    0.2096007  -0.60 0.0008843129    2.036    0.509
       380 -10.4230     44.9069     91.4899   1.1575804246e+02   5.2481408701e+01    0.2426907    0.2079653  19.79  0.001202109    1.389    0.280
       381 -10.3741     42.3218     89.3194   1.1614504307e+02   5.3242819122e+01    0.1743487    0.1425648  85.59 0.0004190536    1.355    0.262
       382  -9.9490     68.5492     93.9847   1.0880973108e+02   4.9056419837e+01    0.2177385    0.1226931 -55.83  0.001028808    1.593    0.372
       383 -10.2408     21.8493     93.8403   1.2350287020e+02   5.4005079095e+01    0.1890704    0.1368768 -51.11  0.000554954    1.270    0.212
       384 -11.0161    241.9271     91.3318   6.7947535153e+01   1.2748053630e+01    0.2802541    0.1977493 -24.22 0.0007395924    1.357    0.263
       385  -9.7739    230.5669     90.7159   6.9486421016e+01   1.5316615591e+01    0.4117177    0.1439488 -26.29  0.001304045    3.468    0.712
       386 -10.0217    230.0065     84.5757   6.8027634351e+01   1.6383430050e+01    0.3336529    0.2176783 -45.75  0.001112922    1.524    0.344
       387  -9.2485     35.2710     91.5846   1.1886691975e+02   5.3403769486e+01    0.1474605    0.1209614  -8.57 0.0004874042    1.517    0.341
       388  -9.9420     24.1545     87.9456   1.2178234756e+02   5.5170416473e+01    0.2286853     0.133614 -30.64  0.001224015    2.128    0.530
       389 -10.5209     11.0082     86.0135   1.2570561424e+02   5.6514155335e+01    0.4480231    0.2119231 -20.49  0.002070044    3.556    0.719
       390 -12.3861    242.9594     81.6583   6.5439842499e+01   1.3957472556e+01    0.6468836    0.2088776 -29.35  0.002216387    3.062    0.673
       391 -11.3311    239.4806     83.9918   6.6499286123e+01   1.4370287553e+01    0.3466432     0.202682 -56.65  0.001513573    2.163    0.538
       392 -11.5615    235.5969     81.1981   6.6358954016e+01   1.5641989551e+01    0.4419269    0.1983087 -22.51  0.001641376    2.686    0.628
       393  -9.6528    202.0035     84.6581   7.2615787565e+01   2.2897609234e+01    0.2062476    0.1968724  53.49 0.0005364456    1.082    0.076
       394 -10.9768      2.4508     82.4063   1.2792833745e+02   5.7798723162e+01    0.3042386    0.1688053  86.25  0.001656385    1.960    0.490
       395 -11.5797     46.2864     79.8291   1.1272763262e+02   5.4976548089e+01     0.363723    0.2709045  -7.80  0.002092662    1.689    0.408
       396  -9.9767     60.4927     78.4850   1.0756449675e+02   5.3601359322e+01    0.1357471    0.1181702 -44.77 4.098049e-05    1.025    0.025
       397 -11.4073      7.1491     74.8243   1.2520137697e+02   5.9232352385e+01    0.3734115    0.1981481  54.45  0.002008729    2.568    0.611
       398  -9.8895    217.1808     73.2858   6.7058793514e+01   2.1073084455e+01    0.3115868    0.2099454 -13.36  0.001421954    1.769    0.435
       399 -10.4143     37.7759     80.4562   1.1577416594e+02   5.5695883667e+01    0.3777833    0.1642192 -45.40  0.001742081    2.116    0.527
       400  -9.1797    125.4599     73.5012   8.6085580644e+01   4.3154855548e+01    0.1499205    0.1458025 -21.18 0.0001464664    1.023    0.022
       401 -11.0754    101.6047     68.8203   9.1374836164e+01   4.9001008550e+01    0.4734929    0.2404906 -35.63  0.001000982    2.013    0.503
       402 -11.5614     53.0521     70.9807   1.0813045536e+02   5.6163818668e+01    0.3583415    0.3000849  81.02  0.002019344    1.530    0.346
       403  -8.9762     20.6037     72.7386   1.2012128235e+02   5.8847437431e+01    0.1246958   0.07511413 -36.11 0.0006970197    1.711    0.416
       404 -11.1819      7.5496     67.4523   1.2377167706e+02   6.0831946820e+01    0.4013536    0.2205641  89.75  0.002120348    2.269    0.559
       405 -12.2588    239.4304     69.7428   6.2970296448e+01   1.6461306704e+01    0.5293178    0.3297212  26.76  0.002351744    2.329    0.571
       406 -10.1631    230.5022     69.0499   6.4004687795e+01   1.8587437274e+01    0.2206917    0.1327432 -31.20 0.0005765699    1.562    0.360
       407  -9.1349     58.6721     65.6851   1.0462700395e+02   5.6599627342e+01    0.1386027   0.09383356 -24.01 0.0004653988    1.673    0.402
       408 -10.8532     43.4301     64.1037   1.0973503309e+02   5.8726126666e+01     0.359865    0.1937125 -48.33  0.001856574    1.542    0.352
       409 -11.8304    247.6684     61.5963   5.9925603651e+01   1.5778052688e+01    0.3586347    0.2781415 -38.09  0.002026507    1.155    0.134
       410 -12.1657     16.9424     52.2287   1.1687558180e+02   6.3536485869e+01      0.83717    0.3602342 -57.90  0.004170578    1.781    0.438
       411 -10.6010     12.9998     58.5292   1.1992959163e+02   6.2451667279e+01    0.2309748    0.1886819 -52.95 0.0009103167    1.051    0.048
       412 -10.7268      1.3680     61.1967   1.2489232267e+02   6.2500530667e+01    0.2794431   0.08786877 -67.41 0.0009193238    2.387    0.581
       413 -12.1295      7.6636     56.9265   1.2165217052e+02   6.3102551471e+01    0.8207291    0.2075099 -51.96  0.003640931    2.574    0.611
       414 -11.7187      3.8915     54.6587   1.2265156701e+02   6.3780401937e+01    0.5552552    0.2276634 -67.61   0.00144323    1.987    0.497
       415  -9.9723    135.4352     60.6981   7.9357984857e+01   4.3208536286e+01    0.3406888    0.2103445 -65.36  0.001275611    2.718    0.632
       416  -9.6978     60.4680     60.0000   1.0223892597e+02   5.7544790195e+01    0.2709318   0.07642984  34.30 0.0009374179    3.956    0.747
       417 -11.8418     79.4978     57.1846   9.4587845171e+01   5.5247453110e+01    0.3720599    0.2253174 -52.04  0.001762738    1.771    0.435
       418  -9.9842     65.1692     56.8345   9.9506105379e+01   5.7532346734e+01    0.1893298       0.1461 -16.49 0.0004726426    1.356    0.263
       419 -10.5838     27.8022     55.7649   1.1345124632e+02   6.1973600194e+01    0.5073767     0.227115  28.62  0.002233868    2.585    0.613
       420  -9.9003    250.5137     54.9433   5.7982546231e+01   1.6054566655e+01    0.2104348    0.1220989 -30.82  0.001028021    1.579    0.367
       421 -10.7255     45.6733     54.1707   1.0596730786e+02   6.0560831006e+01    0.3069181    0.2143912 -23.64  0.001481552    1.489    0.328
       422 -11.6474     82.2375     49.7330   9.1014525902e+01   5.6180038970e+01    0.3985307    0.2957791 -52.32  0.002107495    1.527    0.345
       423 -10.7424    223.3032     50.8747   6.0253383357e+01   2.2850832279e+01    0.4016025    0.2777863  10.44  0.001387734    2.070    0.517
       424  -9.8653    241.2869     52.6565   5.8483364083e+01   1.8413780987e+01    0.1459405   0.09318013 -56.81 0.0004453345    1.646    0.392
       425  -9.1560     63.3037     52.3564   9.8674037945e+01   5.8681104278e+01    0.1413378   0.09398174 -19.39 0.0007039584    1.715    0.417
       426  -8.9013    172.2353     49.9569   6.7940422630e+01   3.5795274071e+01    0.1791395    0.1248173 -32.04 -0.0006383859    1.445    0.308
       427  -9.3320     51.4338     50.4427   1.0252151120e+02   6.0632744170e+01    0.1748435      0.15456 -74.01 0.0004313899    1.443    0.307
       428 -10.7627     48.3347     48.0614   1.0293309487e+02   6.1478189873e+01    0.2325145    0.1915332  11.68  0.000538221    1.310    0.237
       429  -9.2482     42.0469     49.9078   1.0604528853e+02   6.1824389685e+01    0.2115975    0.1284865 -26.53   0.00111486    1.766    0.434
       430  -9.7018     25.4209     49.2698   1.1261192591e+02   6.3523493462e+01    0.1628242    0.1032495 -63.93 0.0005135043    1.546    0.353
       431 -10.4950     11.9204     44.3277   1.1691614833e+02   6.5500943342e+01    0.2881085    0.1685302 -35.40  0.001064687    1.548    0.354
       432 -10.8830    225.2472    247.8097   1.0197879658e+02  -5.7433424101e+00    0.2074713    0.1723435  13.70 0.0005186351    1.193    0.162
       433 -11.7213     18.4171     40.5142   1.1301883790e+02   6.5840496752e+01    0.6862307     0.391573 -56.74  0.004039173    1.471    0.320
       434 -10.4628     17.1495    248.7371   1.3726564361e+02   2.2804424548e+01    0.1601345     0.155377  66.95 0.0005592648    1.740    0.425
       435 -10.3012      8.8348    248.4013   1.3850565786e+02   2.3672948579e+01    0.1586727    0.1182105  81.66  0.000448451    1.256    0.204
       436 -10.9401    157.4475    245.5752   1.1335088569e+02   4.7752144536e+00    0.4951471    0.2534191  32.17  0.002127116    1.858    0.462
       437 -10.5386    154.8578    241.1328   1.1327242300e+02   5.7863886206e+00    0.2291789    0.1318916  50.09 0.0006623904    1.538    0.350
       438 -12.1321     30.5297     38.6292   1.0711024608e+02   6.5210061596e+01    0.6900226    0.4548674 -34.44  0.001881087    1.292    0.226
       439 -11.3108    170.1506    240.1003   1.1041116699e+02   3.5332588827e+00    0.4334845    0.2740046  25.17  0.001727863    1.625    0.385
       440 -10.6466    166.0002    240.4811   1.1120021173e+02   4.1333685242e+00    0.3074934    0.2048663  13.15  0.001596679    2.016    0.504
       441  -9.3782    119.2091    248.3895   1.2038603858e+02   1.0139138526e+01     0.169914   0.07908023  48.33 0.0009534843    1.673    0.402
       442 -10.7845     31.3129    246.7527   1.3498529945e+02   2.1658998457e+01    0.2715306    0.1526476  71.10 0.0007593047    1.387    0.279
       443 -11.7403    210.8622    246.1089   1.0414502899e+02  -3.4566914678e+00    0.2463626    0.1769623  20.11  0.000534829    1.173    0.147
       444  -9.8020    124.2253    247.0468   1.1937368714e+02   9.6004559493e+00    0.1553126    0.1301817  39.42 0.0004248694    1.208    0.172
       445  -9.9486    108.4990     45.0854   8.1052690598e+01   5.1874191919e+01    0.2160012    0.1383128 -30.91  0.001013836    1.539    0.350
       446 -10.9225     50.1689     42.8124   1.0036091869e+02   6.2267615922e+01    0.3730079    0.1849827  25.14  0.001777134    2.391    0.582
       447 -10.7257    115.5321     37.2807   7.6169724232e+01   5.1535359285e+01    0.3719808    0.2621295  54.61  0.001708301    1.463    0.316
       448 -10.4508    132.8398    245.3588   1.1767853949e+02   8.5621199933e+00    0.2007014    0.1672122  48.18 0.0004473996    1.085    0.078
       449 -11.5432     59.7902     36.0099   9.3946985967e+01   6.2207828261e+01    0.4459163    0.3106888 -68.48  0.002157443    2.658    0.624
       450 -10.7220    118.7129     41.7903   7.7015162830e+01   5.0143584210e+01    0.4121863    0.2670504  58.71  0.001591098    1.685    0.407
       451  -9.9181    239.6599     33.6968   5.3962462213e+01   2.1220777360e+01    0.1320719    0.1010513  31.12 0.0004829852    1.675    0.403
       452 -10.2532     49.8952     32.6946   9.6605865621e+01   6.4148816491e+01    0.2287375    0.1483271 -29.75 0.0007192469    1.369    0.270
       453  -9.7833      1.4188     30.2529   1.1773891321e+02   6.8903434992e+01    0.3133279   0.06697504 -51.70  0.001392902    2.660    0.624
       454  -9.8192      5.5039     29.4862   1.1556499799e+02   6.8841206103e+01    0.2283678    0.1547446 -52.21 0.0009341283    1.162    0.139
       455  -9.2404      7.7410     27.2594   1.1377970977e+02   6.9142225092e+01    0.1589319   0.09704572 -34.01 0.0003781149    1.371    0.271
       456 -11.9681     58.6664     27.8659   9.1019758226e+01   6.3742456469e+01    0.3089379      0.28312   6.99  0.000770925    1.193    0.161
       457 -10.6365    113.2036    244.5891   1.2106521952e+02   1.1583212472e+01    0.4286399    0.3041217  -6.46  0.001293854    3.320    0.699
       458 -10.3938    114.5223    239.9916   1.2037473385e+02   1.2097702313e+01    0.3296442     0.188741  69.19  0.001576094    2.165    0.538
       459 -10.6845    236.0618     20.3287   5.1014975633e+01   2.3630894040e+01    0.2558756    0.1712203 -44.31 0.0006524597    1.355    0.262
       460 -11.0842    118.0139    238.9907   1.1964666040e+02   1.1736948137e+01    0.4709046    0.2680368  26.34  0.001055267    2.423    0.587
       461 -10.6634     59.7338     17.0513   8.5727598194e+01   6.5224623019e+01    0.2599956    0.2011356  12.01 0.0009250431    1.199    0.166
       462  -9.8983     56.4622     15.0783   8.6102734467e+01   6.6013332836e+01    0.2066321    0.1939661 -34.93 0.0007387578    1.418    0.295
       463 -10.7160     78.3957     21.1686   8.0742441952e+01   6.1452841618e+01    0.3249895    0.2572767 -66.43  0.001159454    2.058    0.514
       464  -9.4633    179.1913     14.9938   5.5926450588e+01   3.8382532631e+01    0.1860176    0.1827502 -61.57 0.0004305432    1.071    0.066
       465  -8.7621    243.3938    245.4510   9.8660697858e+01  -8.0626580651e+00    0.1101678   0.07979207  17.50 0.0001610461    1.020    0.019
       466 -11.5849    191.9904    244.0919   1.0710122881e+02  -3.6951527322e-01    0.3046027    0.2237928  -5.76 0.0005477029    1.624    0.384
       467 -11.5832    204.8810    231.6710   1.0307293433e+02  -8.5633466666e-01    0.3435324    0.2116285  29.19 0.0004965303    1.351    0.260
       468 -10.5424    202.2852    239.9977   1.0474420559e+02  -1.4587766810e+00     0.214232    0.1615328  28.94  0.000471822    1.015    0.015
       469 -11.6469    198.4566    237.8980   1.0510961327e+02  -6.1568596431e-01    0.4500451    0.2590606  33.43  0.001631286    1.387    0.279
       470 -10.1225     93.4821    244.8069   1.2453089682e+02   1.4340138703e+01    0.1971872     0.127252  41.44 0.0005723069    1.364    0.267
       471 -10.2514     80.9036    244.4098   1.2666558996e+02   1.6099763214e+01    0.1833318    0.1472526  47.33 0.0004914709    1.257    0.205
       472  -9.7278     41.5590    244.8162   1.3325016644e+02   2.0850631945e+01    0.1524202    0.1137124  50.95 0.0005199918    1.282    0.220
       473 -11.1325    177.0315    243.4001   1.0962347521e+02   2.0274031091e+00      0.24562    0.1821264  26.60  0.000522676    1.208    0.172
       474  -9.0053    152.2549    244.3538   1.1412387227e+02   5.7428683501e+00    0.1056006   0.08216987  12.13 0.0006961233    1.605    0.377
       475 -10.8809    225.7450    240.2661   1.0078494466e+02  -5.0144385401e+00    0.2434285    0.1940462  11.05 0.0003958498    1.130    0.115
