#   1 NUMBER                 Running object number                                     
#   2 MAG_AUTO               Kron-like elliptical aperture magnitude                    [mag]
#   3 X_IMAGE                Object position along x                                    [pixel]
#   4 Y_IMAGE                Object position along y                                    [pixel]
#   5 X_WORLD                Barycenter position along world x axis                     [deg]
#   6 Y_WORLD                Barycenter position along world y axis                     [deg]
#   7 A_WORLD                Profile RMS along major axis (world units)                 [deg]
#   8 B_WORLD                Profile RMS along minor axis (world units)                 [deg]
#   9 THETA_WORLD            Position angle (CCW/world-x)                               [deg]
#  10 FWHM_WORLD             FWHM assuming a gaussian core                              [deg]
#  11 ELONGATION             A_IMAGE/B_IMAGE                                           
#  12 ELLIPTICITY            1 - B_IMAGE/A_IMAGE                                       
         1 -10.7098      3.7538     31.6174   7.9345418856e+01   7.1240233763e+01    0.2246701     0.184214   7.55 0.0007561023    1.170    0.145
         2 -10.3203    245.8087     23.2099   1.9251243692e+01   2.5525558607e+01    0.1636397    0.1123173 -65.74 0.0004014757    1.038    0.036
         3  -9.7376    174.8949     29.9862   2.5995369922e+01   3.7810879124e+01    0.2167635     0.168418  -8.35  0.001354364    2.079    0.519
         4 -10.5904     66.2259     16.6041   4.1634300863e+01   6.3269614700e+01    0.2835121    0.1847349  39.28  0.001189667    1.378    0.274
         5 -11.0226     49.3519     13.7060   4.6259897718e+01   6.6994050722e+01    0.2448924    0.2278096  33.02  0.001129767    1.190    0.160
         6 -10.0431    203.6549     13.1088   2.0055685316e+01   3.3958151732e+01    0.3216919    0.1313108 -68.35  0.001501748    2.468    0.595
         7  -9.5192    119.7686     12.9341   2.8571981032e+01   5.1675130217e+01    0.1963691    0.1415863   1.00 0.0004931516    2.076    0.518
         8 -10.4358    120.0058      8.6984   2.7297922186e+01   5.1999503736e+01    0.1861239    0.1533829 -79.31 0.0004721238    1.177    0.151
         9 -11.0434    123.3214      6.2517   2.6130821313e+01   5.1460977227e+01    0.3094783    0.1847385  78.01 0.0003528167    1.412    0.292
        10 -10.4581     76.6984      9.0419   3.5677891828e+01   6.1715553531e+01    0.5056996    0.1602715  45.02  0.001385074    2.941    0.660
        11 -11.5039     56.7322      8.9107   4.1425311691e+01   6.5979117755e+01    0.3552585    0.2411034  48.20  0.001236435    1.171    0.146
        12  -9.3795     69.5920      9.2909   3.7655012598e+01   6.3238426337e+01    0.1489028    0.1150095   6.98 0.0008953286    1.556    0.357
        13  -9.8739      3.7715      8.3543   6.8455587050e+01   7.4909328312e+01    0.1715635    0.1461285 -15.66 0.0008039734    1.321    0.243
        14  -9.5890    213.0092      8.4451   1.8587877061e+01   3.2706616160e+01    0.1491125   0.08462058  84.15  0.001013748    1.552    0.356
        15 -10.4260     97.9722      7.2516   3.0442487198e+01   5.7113881083e+01    0.3734494    0.2157523 -79.19  0.001898136    2.290    0.563
        16 -11.6769     86.1165      7.2552   3.2814397296e+01   5.9779556295e+01    0.3661793    0.1883769  48.74    0.0007218    1.687    0.407
        17  -9.0167     46.2830      6.6794   4.4161285661e+01   6.8277734287e+01    0.1064396   0.09278506  87.26 0.0002030404    1.589    0.371
        18  -9.4684    203.4494      4.7302   1.8475796602e+01   3.4839092390e+01    0.1161421   0.09638225 -41.86 0.0003085604    1.479    0.324
        19  -9.2860     17.6589      5.3077   5.7414098904e+01   7.3438364561e+01    0.1049076    0.0892034  51.43 0.0007043186    1.687    0.407
        20  -9.0417    134.7446      4.0062   2.4090415337e+01   4.9095423183e+01    0.1238526    0.0993538 -41.01 0.0003678785    1.439    0.305
        21  -9.5045    131.4368      3.5382   2.4351463199e+01   4.9870264602e+01    0.1182699   0.09456864  83.60 8.930043e-05    1.006    0.006
        22 -10.3371     38.1570      2.4702   4.5376556683e+01   7.0217131721e+01    0.2410732    0.1657407  36.95 0.0007379832    1.150    0.131
        23  -9.7178    229.9815      1.9625   1.6541222786e+01   3.0369790122e+01    0.1642083    0.1032178  76.41 0.0006400785    1.609    0.379
        24 -11.1459    114.1644      1.7962   2.6090775392e+01   5.3887498434e+01    0.3439035    0.1352046  69.44  0.001046083    2.011    0.503
        25  -9.4120    143.7997      1.3665   2.2431466485e+01   4.7323087321e+01    0.1643109   0.08339583  65.80 0.0005728956    1.663    0.399
        26 -11.7217    242.7740     95.2614   3.1853996552e+01   1.6612602326e+01    0.2428915    0.1358142 -64.98  0.001407428    1.987    0.497
        27  -9.8800    208.3591     95.3119   3.5828390043e+01   2.2160023675e+01     0.114228   0.09658922  -1.97 0.0007042572    1.743    0.426
        28 -11.5192    132.2687     92.7781   4.8522634137e+01   3.7609739094e+01    0.2824393    0.2443894  53.40 0.0003810878    1.147    0.128
        29 -11.2094    126.1325     89.3786   4.9077375636e+01   3.9555868358e+01    0.3032906    0.1877205 -38.51  0.000543539    1.711    0.416
        30  -9.5538     50.3107     91.3179   7.4456904730e+01   5.3610233257e+01      0.15454    0.1076418 -18.12 0.0002302231    1.641    0.391
        31 -10.6301    107.9552     89.4674   5.3812950395e+01   4.3400551136e+01    0.3014499    0.1879346 -81.45  0.001046825    3.493    0.714
        32  -9.0446     37.2972     90.3348   7.9806905204e+01   5.5583162420e+01    0.1548119    0.1009564 -25.26  0.000338789    1.649    0.394
        33  -9.7188     72.2427     88.8228   6.5125255859e+01   5.0580223567e+01    0.2401951    0.1636214  77.70 0.0009424489    2.743    0.635
        34 -11.0341     28.1080     87.0270   8.3137634521e+01   5.7412711104e+01    0.2428722    0.2068935 -38.58 0.0003629029    1.103    0.094
        35  -9.7003     63.8472     96.2182   7.0373540228e+01   5.0388365212e+01    0.2227522    0.2071234  43.55  0.001212009    1.151    0.131
        36 -10.6831     53.5154     77.5701   6.9114015187e+01   5.6147785815e+01    0.4653068    0.2615878  49.03  0.001842201    2.190    0.543
        37  -9.6212    215.8477     78.1600   3.1559954609e+01   2.3496326153e+01    0.1462804     0.127599 -38.89 0.0003828329    1.321    0.243
        38 -10.2456    198.1693     78.3887   3.3703138714e+01   2.6647974227e+01    0.1685337    0.1099313  80.51 0.0009506443    1.738    0.424
        39 -10.7171     78.0108     78.0148   5.9809860269e+01   5.1719076092e+01    0.2193743    0.2008375  22.02            0    1.039    0.037
        40  -9.3280     88.1765     76.1197   5.5820308933e+01   5.0062431807e+01    0.1856272    0.1678248  81.95 0.0003031307    1.275    0.216
        41  -9.6810     64.9950     75.9520   6.3964232565e+01   5.4543770395e+01    0.1729828    0.1621523  -7.48 0.0004927081    1.064    0.060
        42 -10.1987    158.5358     72.0346   3.8070218427e+01   3.5569335900e+01    0.1965347   0.09743129 -59.72 0.0008093519    2.538    0.606
        43 -10.4829     94.7593     70.0022   5.1902343397e+01   4.9802448937e+01     0.182131    0.1219689 -41.09  0.000446468    1.603    0.376
        44  -9.0210     64.4740     69.4972   6.2092021573e+01   5.5898081906e+01    0.1425721     0.131039  23.03 -1.804396e-05    1.033    0.032
        45 -10.0792      7.9334     68.8919   8.8618366136e+01   6.3386284876e+01    0.1981827    0.1645565 -23.07 0.0002975905    1.028    0.027
        46 -11.0163    141.1898     65.8738   3.9612617662e+01   4.0286457872e+01    0.2090552    0.1763036 -79.84 0.0006643895    1.174    0.148
        47  -9.0409    192.2675     65.7083   3.1785267882e+01   2.9654560390e+01    0.1228908   0.07989373 -67.57 0.0002612531    1.507    0.336
        48  -9.8523    126.3571     64.6317   4.2273616588e+01   4.3768046240e+01    0.2038248    0.1608704 -46.10 0.0009515467    1.323    0.244
        49  -9.8670     67.2606     64.8206   5.9468458901e+01   5.6254364861e+01    0.2295703    0.1703534 -43.58 0.0005860303    1.468    0.319
        50  -9.3393     75.0301     64.1349   5.6402155100e+01   5.4880691028e+01     0.212494    0.1739927  88.72  0.001106113    1.705    0.414
        51 -10.0638      4.2003     64.1675   8.9450763694e+01   6.4693024602e+01    0.2091621    0.1451455 -29.86 0.0006205032    1.249    0.199
        52 -10.7213     98.8480     61.1370   4.7966092456e+01   5.0411944184e+01    0.4208271    0.2702305 -68.14  0.001859094    2.401    0.584
        53 -10.3571     44.3590     62.0994   6.8114649031e+01   6.0684922946e+01    0.2607621    0.2063387   6.12 0.0006478216    1.217    0.178
        54  -9.9592     86.1861     61.2810   5.1746204910e+01   5.3096193931e+01    0.2581066    0.1868989  -7.89 0.0008440755    1.890    0.471
        55 -10.6966     22.6317     58.8331   7.7814586138e+01   6.4208105701e+01    0.4321998    0.1945101 -52.85  0.001920982    2.259    0.557
        56  -9.3995    115.0452     61.5041   4.3931681352e+01   4.6778896953e+01    0.2182068    0.1282634  58.28  0.001029356    1.611    0.379
        57  -9.7259     34.9505     61.2339   7.2292210429e+01   6.2211089263e+01    0.1970681      0.15029  17.60 0.0003746029    1.200    0.167
        58  -9.3131     14.7903     61.3859   8.2849860834e+01   6.4469276965e+01    0.1803678    0.1134559   0.86 0.0001435917    1.562    0.360
        59 -10.2954     56.7236     59.9879   6.1981475399e+01   5.9042683668e+01    0.1894125    0.1719831  -5.80 0.0001933925    1.094    0.086
        60 -10.6539      3.5403     59.5342   8.8610436359e+01   6.5747685633e+01    0.3071801    0.1916575 -16.55  0.001259421    1.492    0.330
        61 -10.0912    227.5114     56.5128   2.6329395900e+01   2.4514833360e+01    0.1132781   0.08516116 -62.89 0.0008103407    1.023    0.022
        62 -10.4490    169.7681     55.8204   3.2505308712e+01   3.5599823243e+01    0.1993046    0.1347082  26.11 0.0007816739    2.851    0.649
        63 -11.5125     78.3406     55.8705   5.2471872931e+01   5.5606399532e+01    0.2990685    0.2227621  40.66 0.0005125098    1.215    0.177
        64  -9.1030    133.4064     55.4845   3.8312935070e+01   4.3567642066e+01    0.1314962    0.1198341  83.78 4.568888e-05    1.018    0.018
        65 -10.5105     82.9386     53.9842   5.0334763809e+01   5.4950748871e+01     0.233903    0.1829752  46.80            0    1.151    0.131
        66 -11.2450     58.0489     51.1693   5.8265864633e+01   6.0324879085e+01    0.2661627    0.1926515 -30.44  0.001307718    1.499    0.333
        67  -9.9723     63.6635     51.6963   5.6246158430e+01   5.9188826439e+01    0.1417743    0.1000941  13.77 0.0004298936    1.668    0.400
        68  -9.3960     23.5198     50.5046   7.4491796716e+01   6.5739847977e+01    0.1322895    0.1135341   0.42 0.0002338181    1.046    0.044
        69  -8.8676    100.6808     49.6719   4.3842432369e+01   5.1747060741e+01    0.1383712    0.1006789  26.62 0.0004573861    1.684    0.406
        70 -10.3881     94.0354     48.5599   4.5243521287e+01   5.3373905058e+01    0.2149094    0.1993157 -38.90 9.899565e-05    1.206    0.171
        71  -9.9600      7.0476     45.8939   8.2434572491e+01   6.8297176484e+01     0.196085    0.1530269 -17.60 0.0003707487    1.067    0.063
        72 -10.4055     76.0187     43.9714   4.9049266984e+01   5.7891711245e+01    0.1641096    0.1437857  40.96  0.000327764    1.002    0.002
        73 -10.6833     39.0239     43.6988   6.3860077855e+01   6.4802146918e+01     0.430035    0.2067496  34.01   0.00200405    1.866    0.464
        74  -9.6617    117.2901     43.0450   3.7960401804e+01   4.8911519110e+01    0.1746383     0.162474 -85.15 0.0004395203    1.097    0.089
        75  -9.7517     20.3169     44.5670   7.4101907873e+01   6.7221176538e+01    0.1720969    0.1103892  10.97 0.0006755519    1.457    0.313
        76 -10.4242     71.3957     42.3054   4.9984548926e+01   5.9083248187e+01    0.2105103    0.1496381  15.99  0.001099478    1.706    0.414
        77  -9.3737     45.7454     42.3417   6.0158430108e+01   6.3921633977e+01    0.1842041    0.1083544  31.03 0.0005502941    1.546    0.353
        78  -9.2213    151.9885     40.0822   3.1190970790e+01   4.1499399905e+01    0.1451498    0.1255152 -82.96 0.0003557895    1.034    0.033
        79  -9.4208    134.3751     39.8024   3.3844232743e+01   4.5455290994e+01    0.1565714    0.1257489 -20.50 0.0002873739    1.603    0.376
        80  -9.1075    108.0136     41.0000   3.9331886592e+01   5.1277991230e+01    0.2310817   0.06767129  58.47 0.0008122606    3.011    0.668
        81  -9.1694     23.2549     40.3315   7.0794889755e+01   6.7616838628e+01    0.1302188   0.08622752 -13.23  0.000323498    1.561    0.359
        82  -9.6364     12.8437     35.7595   7.5126495921e+01   6.9629520793e+01    0.2782477   0.09268827 -53.40  0.001091481    3.616    0.723
        83  -9.5718     81.7746     35.7531   4.4295650247e+01   5.7774591756e+01    0.1657464    0.1465795  83.17 0.0003136075    1.284    0.221
        84 -10.4260     40.9657     35.9863   5.9780940132e+01   6.5703726527e+01    0.3243566    0.1733166  37.90  0.001200795    1.642    0.391
        85 -10.1469     59.0544     34.7844   5.1548453599e+01   6.2591262697e+01    0.4018631    0.1325649  45.11  0.001570835    2.579    0.612
        86  -9.0318    174.3049     34.6492   2.7102912581e+01   3.7387052728e+01    0.1290299   0.07491031 -67.62 0.0007041385    1.704    0.413
        87  -8.8376     92.6629     33.7072   4.0607975066e+01   5.5636097102e+01    0.1352605   0.09019685  35.03 0.0005518656    1.644    0.392
        88  -9.9272    154.1425     31.9272   2.8867661575e+01   4.2008409850e+01    0.1814147    0.1525235 -88.43 0.0004110518    1.007    0.007
        89  -9.8668     83.3456     31.6930   4.2381344933e+01   5.7933739200e+01    0.3341432    0.1410766  46.25  0.001176381    2.099    0.524
        90  -9.7139     48.5462     31.9750   5.4658337382e+01   6.4955265958e+01    0.1949882    0.1473053  21.88 0.0005776862    1.227    0.185
        91 -10.1843     17.5828     31.4219   7.0415838653e+01   6.9821021433e+01     0.212764    0.1698991   1.59 0.0002088066    1.024    0.023
        92  -8.8445      8.2867    181.2556   1.0466722059e+02   3.4150525801e+01    0.1332267   0.09824282 -39.97            0    1.480    0.324
        93  -9.3015     64.7058     29.6623   4.7430911278e+01   6.2125897787e+01    0.1329944   0.09001995  23.26  0.000369884    1.649    0.393
        94  -9.8739    153.1602     27.8084   2.7974078145e+01   4.2691811320e+01    0.1794613    0.1395874 -81.89 0.0003100031    1.130    0.115
        95  -9.2570     42.3986     28.4927   5.5891829892e+01   6.6526824032e+01    0.1270854    0.1067598  23.07 0.0001763339    1.026    0.026
        96  -9.0485    131.2878     26.3096   3.0622834402e+01   4.7725793806e+01    0.1193777    0.0888197  42.56 0.0003472495    1.576    0.366
        97  -9.5705     60.0076     25.9998   4.7610800218e+01   6.3520210246e+01    0.1947723    0.1568977  85.01   0.00113626    1.768    0.434
        98 -10.1019     33.3721     26.1452   5.9215099490e+01   6.8366277362e+01    0.3510884     0.140639  27.35   0.00137234    3.082    0.676
        99 -10.7502     38.2220     22.7504   5.5259492051e+01   6.8007303386e+01    0.2284492    0.1715947  23.80 0.0003534679    1.136    0.120
       100 -10.6090     35.1308     19.4203   5.5192632536e+01   6.8956276352e+01    0.3250867    0.1692238  28.35  0.001067196    1.872    0.466
       101  -9.4528     29.9901     20.0000   5.8087738112e+01   6.9733174805e+01    0.2510101     0.113021  43.39  0.001211704    2.060    0.515
       102  -9.4472     15.0700    166.9493   1.0128468895e+02   3.7469753908e+01    0.1653114    0.1585041  88.74 0.0004365009    1.025    0.024
       103  -9.8816    110.4726     24.3873   3.3625526987e+01   5.2662488619e+01    0.2573498    0.1337282  67.79  0.001054217    1.706    0.414
       104 -12.3749     96.4545     21.9215   3.5694165562e+01   5.6100387300e+01    0.3135405    0.2298463  75.11 0.0005126441    1.303    0.233
       105 -10.7782     86.9953     22.6606   3.8166592872e+01   5.8143282722e+01    0.4551871    0.2407528 -65.61  0.001780086    3.957    0.747
       106 -10.0925     26.0072    160.2959   9.6964292102e+01   3.8358782291e+01    0.1928334    0.1794276  20.97 0.0001798153    1.121    0.108
       107  -9.7131     72.9846     22.3376   4.1865081938e+01   6.1238165311e+01    0.1827706     0.139013  50.93 0.0004484263    1.094    0.086
       108  -9.0866     66.6761     20.7289   4.3174231369e+01   6.2747199229e+01    0.1306253    0.1114931  54.66 0.0002715253    1.116    0.104
       109  -8.9903     20.3197    142.7564   9.6689818306e+01   4.3654143462e+01    0.1439847    0.1040556  52.36 0.0002342637    1.521    0.343
       110  -9.3988     48.9409     19.5293   4.9065227869e+01   6.6442216595e+01    0.1866381    0.1054003  47.22  0.000489776    1.494    0.330
       111  -8.8147    195.6936     24.6721   2.2927544037e+01   3.4236473532e+01   0.09793513    0.0850349  48.59 0.0001980711    1.654    0.395
       112 -10.6358     20.2314     17.5806   6.2373151134e+01   7.1535273533e+01    0.2716137    0.1910385   9.60  0.001358717    1.272    0.214
       113 -10.0098     23.5524     16.5295   5.9909260118e+01   7.1185672542e+01    0.2014663    0.1761353  13.44    0.0009073    1.191    0.160
       114  -9.9281     11.9458     17.5253   6.7543305514e+01   7.2649242289e+01    0.1852166   0.09959669  27.49  0.001029654    1.584    0.369
       115  -8.9163     73.6625     30.2449   4.4704918346e+01   6.0191812369e+01    0.1233841   0.09603644  77.16 0.0002308547    1.556    0.357
       116  -9.7836     84.7757     15.6592   3.6178533916e+01   5.9335169514e+01    0.3534116    0.1066328  63.56  0.001330826    3.043    0.671
       117 -10.4573     46.9711    130.9814   8.4940608413e+01   4.4116104266e+01    0.2272439    0.2212205 -34.29 0.0003724506    1.029    0.028
       118 -10.4968     58.3480    128.9088   8.0328869719e+01   4.3164139271e+01     0.256399     0.203363  35.42 0.0003522419    1.280    0.219
       119 -10.8414    245.3859    121.7981   3.6236718897e+01   1.2194810132e+01    0.1700518   0.08690313 -37.03 0.0004554432    1.713    0.416
       120  -9.3128      6.0483    121.4513   9.9213966033e+01   5.0430629045e+01    0.1811527    0.1378587  12.64 6.182276e-05    1.406    0.289
       121 -10.1039    103.4995    120.4390   6.3247331682e+01   3.7660861308e+01    0.1516975    0.1493278  21.28 3.327572e-05    1.018    0.018
       122  -9.3951    116.1079     13.5141   2.9313695856e+01   5.2452562989e+01    0.1798849    0.1029964  70.97 0.0004319915    1.467    0.318
       123  -9.4177     34.9618     13.5095   5.2402879668e+01   6.9684867463e+01    0.1854627    0.1005749  42.40 0.0005138378    1.525    0.344
       124  -9.1508    162.5083     11.4964   2.3035814826e+01   4.2374633704e+01    0.1180874   0.09112635 -81.93 0.0001650553    1.048    0.046
       125 -10.0507     69.3515    118.9849   7.4125352898e+01   4.4048970420e+01    0.2176251    0.1961524 -49.67 0.0005177593    1.120    0.107
       126  -9.2742     27.5419     11.4523   5.5116157090e+01   7.1177768639e+01    0.1224685   0.09568263  24.06 0.0002195106    1.005    0.005
       127  -9.8985     91.4913    116.4968   6.5983765552e+01   4.0829001741e+01    0.1545239    0.1481732  -2.44 0.0008104113    1.032    0.031
       128  -8.7709     32.3230     10.3118   5.2080248417e+01   7.0498580599e+01    0.1269734   0.07738648  21.04 0.0007039054    1.655    0.396
       129  -9.8415    153.0688    114.0543   4.9149648326e+01   2.9220461292e+01    0.2263461    0.1723438 -84.41 0.0007324895    1.686    0.407
       130  -9.5137      2.5044    111.1415   9.9230806668e+01   5.3350777853e+01    0.1973679    0.1257556 -67.69 0.0003446922    1.430    0.301
       131 -10.2423    243.3087    109.9755   3.4394513641e+01   1.4315153661e+01     0.194789   0.06216567 -54.43 0.0007041845    4.216    0.763
       132  -9.0787     79.3354    110.7642   6.8580592044e+01   4.4368678074e+01    0.1505332    0.1164941  59.33 0.0003255589    1.539    0.350
       133  -9.4842     17.8282    108.4196   9.2322740289e+01   5.3043244183e+01    0.1952876    0.1285944  -9.35 0.0008338305    1.633    0.388
       134  -9.2511     12.8449    105.8628   9.4006020409e+01   5.4080080113e+01    0.1782306    0.1574224  56.78   0.00100577    1.315    0.239
       135  -9.5376     66.1245    102.9486   7.1313371115e+01   4.8455477117e+01     0.205129    0.1677195 -22.11  0.001021502    1.283    0.220
       136 -10.1476    232.0000    101.9653   3.4223451556e+01   1.7232188078e+01    0.1999349   0.05402647 -42.02 0.0008053894    2.963    0.662
       137 -10.8406    126.8335    100.8408   5.1901334621e+01   3.7194018936e+01    0.2151608    0.2026091   9.69 0.0005875993    1.168    0.144
       138  -9.8072    108.2235    101.3927   5.6986967738e+01   4.0928572166e+01     0.201537      0.13918  53.14 0.0002938859    1.513    0.339
       139  -8.9011     80.3290    101.3308   6.5755467435e+01   4.6366364076e+01    0.1590306    0.1177062  -9.41 0.0003255078    1.714    0.417
       140  -9.9886    103.0533     96.2195   5.7084453769e+01   4.3057922061e+01    0.2936519    0.2817574  31.70  0.001110274    1.025    0.025
       141 -10.1015      4.0906     96.3543   9.6239069995e+01   5.7060422982e+01    0.2650052    0.1633694 -38.42 0.0008839344    1.462    0.316
