#   1 NUMBER                 Running object number                                     
#   2 MAG_AUTO               Kron-like elliptical aperture magnitude                    [mag]
#   3 X_IMAGE                Object position along x                                    [pixel]
#   4 Y_IMAGE                Object position along y                                    [pixel]
#   5 X_WORLD                Barycenter position along world x axis                     [deg]
#   6 Y_WORLD                Barycenter position along world y axis                     [deg]
#   7 A_WORLD                Profile RMS along major axis (world units)                 [deg]
#   8 B_WORLD                Profile RMS along minor axis (world units)                 [deg]
#   9 THETA_WORLD            Position angle (CCW/world-x)                               [deg]
#  10 FWHM_WORLD             FWHM assuming a gaussian core                              [deg]
#  11 ELONGATION             A_IMAGE/B_IMAGE                                           
#  12 ELLIPTICITY            1 - B_IMAGE/A_IMAGE                                       
         1 -12.8270     72.1225     10.0721   4.5624377181e+00   6.5103533167e+01    0.4649951    0.2570665 -37.57 0.0005746111    1.949    0.487
         2 -11.2684     50.9134     13.4984   1.3934181512e+01   6.9520773673e+01    0.2120787    0.1847604 -37.75 0.0003005579    1.273    0.215
         3 -10.7751    116.5721     11.6903   3.5605512688e+02   5.4020961741e+01    0.2356499    0.1365365 -16.68  0.001132715    2.226    0.551
         4 -11.3371     83.0620      7.2368   3.8850374682e-01   6.2750270568e+01    0.2001884    0.1900323 -40.97 0.0003831447    1.178    0.151
         5 -10.4296    103.9678      3.7863   3.5494535007e+02   5.7900528166e+01    0.1786985     0.150346  85.73 0.0002098167    1.033    0.032
         6 -11.3462     72.5160      2.7660   7.3167659092e-01   6.5716068672e+01    0.2050215    0.1646271 -86.09  0.001219705    1.295    0.228
         7 -11.6616     67.8451    246.8021   6.1638155232e+01   1.3454387735e+01    0.3472403    0.2244174  41.63  0.001885127    1.302    0.232
         8 -11.6202    139.3414    248.7766   4.6290057935e+01   5.2150126459e+00    0.2979296    0.1816745 -36.76  0.001829522    1.765    0.434
         9 -13.4218     19.7235    242.3943   7.2339539602e+01   1.9073059557e+01    0.7995196     0.613328 -11.39  0.003228975    1.759    0.432
        10 -13.5042     14.9154    229.8948   7.2946731357e+01   2.2056964783e+01    0.7380664    0.4243294  75.88  0.003377941    1.723    0.419
        11 -13.7549      5.7992    247.1320   7.5599914333e+01   1.9338722180e+01    0.8829581    0.3922769  55.44   0.00416664    1.820    0.450
        12 -11.8703      1.4836    249.9904   7.6610128645e+01   1.9138929497e+01    0.1937342   0.09877735  82.22 0.0007959692    2.000    0.500
        13 -13.7361      6.2790    234.6486   7.5122199882e+01   2.1799933680e+01    0.6142074    0.5491287  41.46   0.00271379    1.178    0.151
        14 -12.9153      9.4154    241.6340   7.4633749122e+01   2.0120906306e+01    0.3270603    0.2758508  53.38 0.0008844511    1.104    0.094
        15 -11.8846     12.9724    236.9812   7.3668530019e+01   2.0756763455e+01     0.252663    0.2239364 -51.56  0.001305357    1.463    0.316
        16 -11.7437     37.2132    247.4309   6.8621182552e+01   1.6457791997e+01    0.4437654     0.149986  48.35  0.002024167    2.460    0.593
        17 -11.0826     30.4762    227.5597   6.9121130755e+01   2.1127792230e+01    0.2552518    0.1973441  51.99 0.0008842461    1.097    0.088
        18 -12.6121     36.1792    230.1140   6.7894012301e+01   2.0036373420e+01    0.4955976    0.2877004 -73.73  0.002193498    1.917    0.478
        19 -11.2123    226.3134    246.5481   3.0313139590e+01  -3.0676259438e+00    0.1660208    0.1216083 -14.05  0.000332596    1.133    0.118
        20 -12.2653     32.7166    240.3389   6.9274680670e+01   1.8281471687e+01    0.3708581    0.2334753 -88.13  0.001021545    1.772    0.436
        21 -10.2012     99.7823    246.4094   5.4444624180e+01   1.0015571473e+01    0.1753179     0.100688  15.78 0.0008590918    1.679    0.404
        22 -11.9234     29.2979    245.9364   7.0331556021e+01   1.7499450946e+01    0.2759796    0.1487067  27.01  0.001447515    1.553    0.356
        23 -10.4608    246.0532    245.2476   2.7174518771e+01  -4.5372632644e+00     0.132001   0.09108365  -8.69 0.0001893767    1.045    0.043
        24 -10.4106    132.8611    244.7526   4.7152927232e+01   6.5722307312e+00    0.1963189    0.1235157  11.54 0.0008337509    1.482    0.325
        25 -10.8868    186.6416    242.5394   3.6408510966e+01   1.1407400327e+00    0.2556314    0.1420057 -32.10  0.001612536    1.686    0.407
        26 -10.2848    181.2458    244.3937   3.7632484967e+01   1.4276938428e+00    0.1569401    0.1354063  42.81   0.00115137    1.767    0.434
        27 -10.6950    179.1873    241.1799   3.7580584630e+01   2.0923791369e+00     0.168097    0.1196365  -1.09  0.000331757    1.170    0.145
        28 -10.8013    142.9088    243.2992   4.4905879416e+01   5.6833956950e+00    0.1802969    0.1643951 -54.74  0.001309616    1.477    0.323
        29 -10.6493    205.4656    243.5180   3.3271679067e+01  -8.2107875337e-01    0.1080161   0.07958069  -5.32 0.0001831955    1.003    0.003
        30 -11.1183    116.7013    241.1140   5.0177874118e+01   9.0160322625e+00    0.2492394    0.1876643  73.68  0.001499003    2.022    0.505
        31 -10.7979     42.5295    243.0000   6.7163404095e+01   1.6798384978e+01    0.3604387   0.05808986  24.57  0.001077232    5.172    0.807
        32 -10.1578     38.0189    242.0000   6.8142768296e+01   1.7439267312e+01    0.1736184    0.1186244  10.79 0.0006071015    1.616    0.381
        33 -10.6710    211.6823    237.9770   3.1471060400e+01  -6.8531692094e-01    0.1473511     0.107144 -16.60 0.0003199092    1.113    0.102
        34 -10.3699     64.2828    237.8200   6.1759219753e+01   1.5554717134e+01    0.1864249    0.1357334  62.49 0.0007666643    1.448    0.309
        35 -10.4945     53.8526    236.8737   6.4133995815e+01   1.6854234623e+01     0.173523     0.160342 -10.94  0.001081833    1.289    0.224
        36 -11.2672    120.0979    235.6036   4.8805778927e+01   9.5807120248e+00    0.2378093    0.1426055 -34.21 0.0009541993    1.909    0.476
        37 -11.3282    158.6011    233.5802   4.0496430242e+01   5.4605207171e+00    0.2032439    0.1770676   9.57 0.0008083471    1.156    0.135
        38  -9.9980    250.5876    233.5217   2.4895621955e+01  -3.5495326949e+00    0.1001726   0.06838299 -14.73 9.081405e-06    1.020    0.020
        39 -10.5702     99.9402    232.9993   5.3028211878e+01   1.2428449998e+01    0.2054249    0.1331131  52.78  0.001130129    1.765    0.433
        40 -11.2393     72.9035    231.4986   5.9196420937e+01   1.5850206715e+01     0.396763    0.1846769 -44.82   0.00182347    2.753    0.637
        41 -11.8263    152.7420    230.5807   4.1269667419e+01   6.6103489120e+00    0.3186812    0.2133691 -41.74   0.00197491    1.578    0.366
        42 -12.1497    155.0085    224.7412   4.0010259842e+01   7.3029120010e+00    0.2614718    0.1923339 -37.66 0.0006973171    1.399    0.285
        43 -12.1965    160.0386    222.4014   3.8664976398e+01   7.0930599749e+00    0.4237808    0.2027643  40.04  0.002109337    2.328    0.570
        44 -10.4645    217.3087    231.3333   2.9611369662e+01  -3.4955432685e-01     0.113211   0.06396511 -11.35 0.0003954828    1.671    0.402
        45 -13.2949    138.3364    228.3910   4.3971917905e+01   8.6718074476e+00    0.2818019     0.237129  -6.09  0.000538329    1.106    0.096
        46 -10.8380     57.9211    228.6671   6.2550756255e+01   1.8085349671e+01     0.197076    0.1742758  67.94 0.0004548944    1.179    0.152
        47 -10.6999     61.7276    231.4005   6.1852717448e+01   1.7111959633e+01    0.2492381    0.1562646  24.23  0.001299392    1.424    0.298
        48 -11.3968     33.6745    223.8271   6.8129501348e+01   2.1616112153e+01    0.3002117    0.1453027 -73.88  0.001491646    2.243    0.554
        49 -10.3726    204.5207    227.9675   3.1241094472e+01   1.3550578708e+00    0.1628776   0.09235121 -34.87     0.001032    1.591    0.372
        50 -10.2270    194.4980    228.5393   3.3057479243e+01   2.3045469530e+00    0.1119734   0.08906116  -4.56 4.864694e-05    1.057    0.054
        51 -13.3716    115.1518    226.2049   4.8785368992e+01   1.1869391719e+01    0.5487549    0.3999068 -51.00  0.001221506    1.547    0.354
        52 -11.1690    230.5143    227.5124   2.6983797916e+01  -1.0853775680e+00    0.1063347   0.07654542 -12.18 7.372253e-05    1.003    0.003
        53 -11.4210    107.2005    225.6120   5.0530732936e+01   1.2951287794e+01    0.2954091    0.2186794 -16.83  0.001378571    1.539    0.350
        54 -12.6035    147.4536    224.6209   4.1548519777e+01   8.2235578088e+00    0.3022601    0.2436702 -37.87 0.0006006586    1.325    0.245
        55 -11.0224     91.9909    225.2174   5.4043191434e+01   1.4870943281e+01    0.1923077    0.1853762 -80.32 0.0005803508    1.209    0.173
        56  -9.7733     85.2781    226.6836   5.5791716231e+01   1.5379643174e+01    0.1283844   0.08702673  53.90 0.0005053437    1.571    0.364
        57 -12.7279    173.9809    222.9445   3.6013483520e+01   5.3838832681e+00    0.3332717    0.2319867   2.28  0.001117531    1.320    0.242
        58 -12.6919    170.4798    219.6844   3.6212311238e+01   6.3044667351e+00    0.3803043    0.2307647  13.07 0.0002640816    1.616    0.381
        59 -11.8646     23.6689    223.5218   7.0560627263e+01   2.2632501641e+01      0.56885    0.2256547  56.38  0.002566147    2.347    0.574
        60 -12.8749     13.0163    215.0458   7.2792047936e+01   2.5447013585e+01    0.6349998     0.389558 -78.16  0.003577913    1.709    0.415
        61 -11.4340     30.1992    215.9440   6.8524859535e+01   2.3681474445e+01    0.3003629    0.2500558   8.24   0.00161049    1.370    0.270
        62 -10.5507     33.3855    212.2295   6.7483307793e+01   2.4204951584e+01     0.220971    0.1915735  68.54   0.00081995    1.114    0.102
        63 -12.7799     23.9142    217.2684   7.0177972728e+01   2.3980472276e+01    0.4917991    0.2818376  44.02  0.002365441    1.424    0.298
        64 -12.0027     18.9303    215.3787   7.1329272151e+01   2.4855158493e+01    0.3396823    0.2299285  86.51 0.0007741331    1.488    0.328
        65 -13.0062     12.3015    190.8215   7.1842384104e+01   3.1189146149e+01    0.4935639    0.3151931 -84.60 0.0009342912    1.534    0.348
        66 -11.5691      4.0435    222.2644   7.5252808073e+01   2.4600208833e+01    0.4621732    0.1755969  28.97  0.001304234    2.099    0.524
        67 -13.3598      3.9430    215.0511   7.5039215090e+01   2.6195193185e+01     0.769214    0.4601686 -76.75  0.003758449    1.757    0.431
        68 -12.1667      1.5195    203.0345   7.5237207117e+01   2.9126460286e+01    0.5387973    0.1910244 -86.46  0.001864756    2.803    0.643
        69 -12.9769      6.2559    200.7061   7.3919925679e+01   2.9303869751e+01    0.6999689    0.2875076  57.93  0.003151831    2.158    0.537
        70 -12.4857    127.6224    214.5691   4.4466888974e+01   1.2484846763e+01    0.3467323    0.2547392  47.91  0.001996452    1.557    0.358
        71 -12.8071    126.2822    221.1993   4.5653616695e+01   1.1421332089e+01    0.6855409    0.2909281  26.59  0.002804033    2.150    0.535
        72 -10.8119    121.9924    217.4953   4.6132558838e+01   1.2650470215e+01    0.2175898      0.18168  66.41 0.0008745452    1.564    0.361
        73 -11.5643    120.5140    214.0071   4.6007778094e+01   1.3504637397e+01    0.2599967     0.170479  32.94 0.0009063664    1.379    0.275
        74 -12.1076     49.5614    221.3773   6.4038323122e+01   2.0520921116e+01    0.3766099    0.2262636  45.15   0.00124466    1.429    0.300
        75 -10.6862     48.1425    216.8241   6.4048050000e+01   2.1662289769e+01    0.2025605    0.1774867  46.76 0.0006612296    1.031    0.030
        76 -10.1262     67.2519    220.9999   5.9618630650e+01   1.8645093058e+01    0.1475378    0.1125234 -73.15 0.0004291419    1.490    0.329
        77 -11.6601     40.8384    220.7351   6.6162544727e+01   2.1569427159e+01    0.4682944    0.2293549   4.17  0.001880357    3.283    0.695
        78 -10.8671    190.4821    219.5397   3.2452681956e+01   4.0510360023e+00    0.1705549   0.09705211  13.14 8.173216e-05    1.771    0.435
        79 -11.4285    193.6371    215.5437   3.1286656940e+01   4.3002960111e+00    0.4640609     0.133613 -41.36  0.002005917    3.171    0.685
        80 -10.6289     76.7914    219.5663   5.7128321846e+01   1.7835017474e+01    0.1930317    0.1002002  38.28 0.0009366749    1.643    0.391
        81 -10.5696    216.9530    216.9840   2.7552583672e+01   1.6134754105e+00    0.1631677    0.1239878 -12.68            0    1.019    0.019
        82 -11.8302    142.3235    214.6915   4.1247343951e+01   1.0588820266e+01    0.2396047    0.2208634  -2.96 0.0009129474    1.113    0.101
        83 -10.9125     91.7520    216.9832   5.3191255260e+01   1.6556687603e+01    0.1726984    0.1644119  44.42 0.0003585905    1.111    0.100
        84 -10.0949     80.2694    225.6528   5.6887030417e+01   1.6175346045e+01    0.1303269   0.08711966  56.44 0.0003556653    1.618    0.382
        85 -12.3462    108.8940    214.7563   4.8813554246e+01   1.4848223962e+01    0.3078264    0.2683713  -9.92  0.000999607    1.179    0.152
        86 -11.3707     85.6108    214.9806   5.4471192899e+01   1.7729466307e+01    0.4574828    0.1864904  43.51   0.00192266    2.336    0.572
        87 -11.4026    156.0951    213.0110   3.8103526863e+01   9.1536148903e+00    0.3674664    0.3314187 -45.08  0.002080299    1.337    0.252
        88 -11.0525    172.3788    212.2829   3.4739794122e+01   7.2773666930e+00    0.2285257    0.1020188 -40.67  0.001044891    2.148    0.535
        89 -11.3837     40.4477    212.2831   6.5672990915e+01   2.3480345343e+01    0.2943023    0.2400478 -21.68  0.001359801    1.549    0.354
        90 -10.4691     74.2585    211.7325   5.6962992136e+01   1.9805339175e+01    0.3215752    0.1802949   5.48  0.001024189    2.487    0.598
        91 -10.8932     72.6797    208.8872   5.7069251143e+01   2.0617644380e+01    0.2163515    0.1875072  77.43 0.0004732103    1.243    0.196
        92 -12.7270    139.8773    207.2743   4.0703126134e+01   1.2260082860e+01      0.65609    0.3890944 -63.99     0.003057    2.430    0.589
        93 -10.8778     96.8945    208.1396   5.0881602392e+01   1.7741781866e+01    0.3011995    0.1644931 -58.84  0.001409086    2.013    0.503
        94 -11.7731     25.9877    208.3405   6.9151746796e+01   2.5806135157e+01    0.4054612    0.2305654  88.27   0.00207496    1.842    0.457
        95 -10.8874    242.2796    209.0037   2.2472113401e+01   2.0101310518e-01    0.1505578    0.1019321 -22.44 0.0002938737    1.094    0.086
        96 -11.6820    161.8832    208.6307   3.6262935312e+01   9.1830714451e+00    0.2884063    0.2144327  43.54  0.001606576    1.632    0.387
        97 -11.0118    180.5239    207.7965   3.2492504644e+01   7.0252617424e+00    0.2130626    0.1541892  20.69 0.0007826483    1.311    0.237
        98 -10.6639     34.3369    208.2975   6.6977323210e+01   2.5007040264e+01    0.2138033    0.1833952  15.24 0.0007159715    1.268    0.211
        99 -12.1289     36.6769    205.2407   6.6150326893e+01   2.5477920399e+01     0.506909    0.2255027  49.62  0.001900266    2.031    0.508
       100 -10.6129     46.9433    206.7077   6.3557613930e+01   2.4063388778e+01    0.2001132    0.1562203  36.54  0.001159667    1.128    0.113
       101 -10.7451    103.1226    206.0531   4.9084764654e+01   1.7366614003e+01    0.2474897    0.1840304   9.64  0.001356034    1.403    0.287
       102 -12.2435    145.9032    202.7308   3.8705604906e+01   1.2307589010e+01    0.4341088    0.2506858 -39.21   0.00225098    1.747    0.427
       103 -10.6881    150.4149    203.7586   3.7895661647e+01   1.1521550859e+01    0.2196885    0.1742268 -18.17  0.001341116    1.212    0.175
       104 -10.5626     16.7993    204.6145   7.1339856811e+01   2.7505434382e+01    0.2854483    0.1204303  62.46  0.001238626    2.328    0.570
       105 -10.7085    128.3878    204.2391   4.2836014113e+01   1.4364992812e+01    0.1694212    0.1286947 -65.95 0.0007007654    1.655    0.396
       106 -12.9112     84.7989    198.8869   5.2802297205e+01   2.1318847705e+01    0.6639304    0.4595478 -66.85  0.003494461    1.603    0.376
       107 -12.3973     91.8033    199.2507   5.1040602144e+01   2.0319116974e+01    0.5373949    0.2753341 -46.50  0.001715515    2.161    0.537
       108 -11.1943     92.4963    194.0077   5.0176367799e+01   2.1390151081e+01    0.2785214    0.2298855  49.57 0.0006396688    1.210    0.174
       109 -10.5911     21.0510    203.9914   7.0192300793e+01   2.7272210388e+01    0.1941541    0.1766647  62.91 0.0006532538    1.093    0.085
       110 -10.6366    172.4974    201.4854   3.3034709503e+01   9.0620939658e+00    0.1940053    0.1172023 -54.56 0.0007823697    2.115    0.527
       111 -11.7147    136.4196    199.9429   4.0371566680e+01   1.4113363195e+01    0.3736968    0.2427373 -77.84   0.00146243    2.848    0.649
       112 -12.1301    145.8750    215.2795   4.0572072581e+01   1.0036421579e+01    0.3458536     0.259647 -36.14  0.001406277    1.349    0.259
       113 -11.5835    120.9865    200.7436   4.4050406422e+01   1.6061659411e+01     0.191115    0.1647605  18.57 0.0005991727    1.061    0.058
       114 -12.5014    123.0903    196.1857   4.2879637275e+01   1.6698379548e+01    0.3737803    0.2896942  49.80   0.00189394    1.443    0.307
       115 -11.6402    176.0456    198.2483   3.1825315099e+01   9.1590151043e+00    0.3412974    0.2254807  45.52  0.001916066    1.963    0.491
       116 -11.9112    150.5993    197.9845   3.6954907558e+01   1.2557647018e+01    0.3055283     0.228865 -80.94  0.001601566    2.286    0.562
       117 -11.1150     17.1471    198.8754   7.0948958819e+01   2.8829242330e+01    0.2267996    0.1807177 -83.68 0.0006118454    1.282    0.220
       118 -11.4508     20.4067    197.7629   7.0011055007e+01   2.8805829239e+01     0.240386     0.213126 -87.94 0.0009005955    1.178    0.151
       119 -11.0496     24.0003    196.2405   6.8945183786e+01   2.8843253249e+01    0.2903585    0.1811346  14.52   0.00103173    1.757    0.431
       120 -11.7756     22.4843    193.0030   6.9158003383e+01   2.9767542073e+01    0.2643982     0.205528  71.78 0.0006422335    1.189    0.159
       121 -11.5286     36.7813    196.8207   6.5496629402e+01   2.7455315363e+01    0.3564905    0.1958155  55.27  0.001377631    1.732    0.423
       122 -12.0738    192.6414    193.8114   2.8012958911e+01   7.8042752559e+00    0.2319987    0.2149132 -16.57 0.0003256758    1.256    0.204
       123 -11.0138    160.8302    192.8880   3.3980936297e+01   1.2105545280e+01     0.201995    0.1577627 -11.17 0.0005943849    1.241    0.194
       124 -12.2102    132.8735    191.7311   3.9902970066e+01   1.6225061245e+01    0.3503364     0.256545 -19.57 0.0009213161    1.505    0.336
       125 -10.4666     52.5964    192.5099   6.0763881707e+01   2.6774992839e+01    0.2249921     0.191511  57.41 9.657065e-05    1.092    0.084
       126 -11.1822     50.2506    190.3685   6.1209148593e+01   2.7560952779e+01     0.220897    0.1963419  71.04 0.0004283557    1.093    0.085
       127 -10.4113     45.6647    191.0444   6.2555433954e+01   2.7908748222e+01    0.1892885    0.1705805  82.73 0.0005788839    1.116    0.104
       128 -12.3104    110.3719    188.4178   4.4810629436e+01   2.0134616413e+01    0.3909481    0.2424324 -70.59  0.001810935    2.099    0.524
       129 -10.1516    174.6611    188.6936   3.0508823933e+01   1.0984066565e+01    0.1323352   0.08834115  -9.53 0.0003258069    1.679    0.405
       130 -11.5077    153.1721    188.3221   3.4831169153e+01   1.4013089512e+01    0.1916825    0.1562264 -27.94  0.001142688    1.166    0.142
       131 -10.9651     20.3209    188.3900   6.9471935774e+01   3.1096288859e+01    0.2522828    0.1291026  15.29  0.001130476    2.161    0.537
       132 -10.6711    207.4575    186.9750   2.4310172689e+01   7.0719771748e+00    0.2189071    0.1454835   6.79 0.0009777213    1.627    0.385
       133 -12.4831    128.1285    186.0332   4.0100218028e+01   1.8071907151e+01    0.3116175    0.2489078  -6.29  0.001729608    1.342    0.255
       134 -12.1171      3.3428    184.6044   7.4037315443e+01   3.3427202603e+01    0.4059549    0.2861568  64.00   0.00160418    1.232    0.189
       135 -11.7129    164.2334    184.8406   3.1929082575e+01   1.3105570338e+01    0.3473323    0.2356366 -60.65  0.001818889    1.977    0.494
       136 -10.1571     33.6854    185.3223   6.5456289966e+01   3.0586601141e+01    0.1521513   0.08759011  56.24 0.0003843488    1.659    0.397
       137 -11.8857     26.1920    183.4892   6.7470154838e+01   3.1779062593e+01    0.3391707    0.2598863  71.45  0.001897023    1.219    0.180
       138  -9.9505    181.9638    184.0483   2.8317880543e+01   1.0809822013e+01    0.1497571    0.1257434 -21.14  0.000334254    1.039    0.037
       139 -11.9453    105.1228    183.2916   4.5368147547e+01   2.2024161114e+01    0.2603029    0.2066876 -65.82 0.0007555288    1.392    0.282
       140 -11.6437     94.8176    180.6750   4.7685868242e+01   2.4109950617e+01    0.4458656     0.240249 -56.55  0.001387371    1.916    0.478
       141 -10.9764    124.3637    182.2989   4.0393481953e+01   1.9410338482e+01    0.1454339    0.1038512 -10.13 0.0007033818    1.722    0.419
       142 -11.5237      5.9797    192.0099   7.3629191601e+01   3.1407570187e+01    0.3283765    0.2745416 -26.33  0.001183946    1.524    0.344
       143 -10.2784    222.5521    181.5174   2.0974640856e+01   6.1063642463e+00    0.1157386   0.09073084 -22.94  0.000116351    1.029    0.028
       144 -12.3024    136.7489    176.1314   3.6408211237e+01   1.8840378874e+01    0.4607753    0.3372642 -83.28  0.001389241    2.136    0.532
       145 -14.6352    121.4232    168.0658   3.8687130112e+01   2.2954578040e+01     1.610753    0.5093091  32.49  0.005319057    3.282    0.695
       146 -13.4480    127.2362    173.4850   3.8206194612e+01   2.0860270413e+01    0.4497713    0.3327934 -55.25 0.0004808812    1.424    0.298
       147 -12.4292    129.2759    169.6842   3.7040699229e+01   2.1360599464e+01     0.294127    0.2788522   0.73 0.0002406833    1.012    0.012
       148 -12.4083    117.2844    177.8404   4.1402863338e+01   2.1434036629e+01    0.3134704    0.2255248  39.57 0.0005383695    1.365    0.267
       149 -12.0967     62.7239    177.0137   5.6184477593e+01   2.9363660085e+01    0.2815694    0.2014406  22.42 0.0004214495    1.422    0.297
       150 -11.8178     31.5872    175.0868   6.5219745510e+01   3.3395748218e+01    0.4534199    0.2019688 -73.92  0.001722988    2.214    0.548
       151 -10.2968     20.2798    177.3440   6.8760295093e+01   3.3881195237e+01    0.1363104   0.09879969 -44.90 0.0007009612    1.632    0.387
       152 -12.4287    107.1149    175.5197   4.3625700598e+01   2.3488080187e+01     0.304516    0.2495648  39.63 0.0005630129    1.187    0.158
       153 -12.0164      1.8937    174.9676   7.4029694131e+01   3.5956768886e+01    0.3852673    0.1840651 -87.39  0.001359455    1.978    0.494
       154 -10.1961    153.6474    175.6847   3.2546583370e+01   1.6374304240e+01    0.1421516   0.09878039  -9.92  0.000434241    1.735    0.424
       155 -12.9385     86.5829    169.9998   4.8340846970e+01   2.7843779491e+01    0.5261312    0.3385969  56.76  0.002386333    1.766    0.434
       156 -11.7211     90.5090    174.5033   4.7931378435e+01   2.6185990619e+01    0.3478967     0.215763  55.96  0.001548254    1.871    0.465
       157 -12.6848     91.3724    169.7872   4.6960877520e+01   2.7191162406e+01    0.5469584    0.3057821 -68.64  0.002315429    2.079    0.519
       158 -11.7328    142.5554    172.5152   3.4433403277e+01   1.8694362632e+01    0.3290816     0.209446  48.66  0.001591902    1.838    0.456
       159 -13.2279     14.9918    170.9949   6.9915717355e+01   3.5974072953e+01    0.8185314    0.4978777 -64.80  0.004077116    1.662    0.398
       160 -12.6676     18.3301    168.6558   6.8737918375e+01   3.6302050257e+01    0.7704297    0.2427506  55.96  0.002553567    3.457    0.711
       161 -12.0025    156.7855    169.8073   3.0810475890e+01   1.7046716762e+01    0.3778477     0.269438 -82.13  0.001077126    2.567    0.610
       162 -11.8627    152.9580    170.5124   3.1761349959e+01   1.7495108016e+01    0.2474927    0.1989304  -1.75 0.0005576795    1.316    0.240
       163 -10.5432    199.6418    170.2973   2.2715053438e+01   1.0753467763e+01    0.1113508   0.09841094 -78.25 0.0007034256    1.704    0.413
       164 -10.7369    176.9896    169.6730   2.6700801139e+01   1.4046505350e+01    0.1717011    0.1566886  -0.57 0.0003959302    1.094    0.086
       165 -11.6745     98.9781    167.4763   4.4481136608e+01   2.6597751006e+01    0.2196325    0.1966716 -59.62 0.0003730284    1.154    0.133
       166 -11.3451    201.9911    166.6195   2.1651515069e+01   1.1044398449e+01    0.2167475    0.1554855 -49.88 0.0007937702    1.527    0.345
       167 -12.5946    169.9247    159.9479   2.6252267674e+01   1.6910653061e+01    0.5051646    0.2343517 -47.28  0.002235173    2.071    0.517
       168 -11.6345     77.6895    166.4400   5.0363175154e+01   3.0004360739e+01    0.2443475    0.1819389  18.55 0.0006450272    1.441    0.306
       169 -10.6237    208.4460    170.2632   2.1243263235e+01   9.5906199665e+00    0.1589044    0.1018485 -44.68 0.0003981869    1.507    0.336
       170 -12.0772    111.2728    164.9097   4.0736058663e+01   2.5279345640e+01    0.3439555    0.1939542  31.08  0.001501201    1.775    0.436
       171 -11.4069     79.8372    173.1646   5.0730352703e+01   2.8033574976e+01    0.3176343     0.224138  31.87   0.00108195    1.349    0.259
       172 -11.4264     25.0181    160.4829   6.5988744245e+01   3.7866961482e+01     0.404323    0.2417649 -50.84   0.00151592    1.828    0.453
       173 -11.6080     12.6841    160.8194   6.9952214806e+01   3.8837640285e+01    0.3618597    0.2439859 -80.19  0.001071946    1.404    0.288
       174  -9.8919    182.9437    160.9825   2.3956133513e+01   1.4733885484e+01    0.1517617     0.133756 -20.67 0.0003276486    1.022    0.022
       175 -11.4908     58.8433    161.1455   5.5310297931e+01   3.3922620120e+01    0.2035702    0.1720232 -41.26  0.000525863    1.311    0.237
       176 -11.2379     37.2263    160.8321   6.2111439084e+01   3.6555515457e+01    0.2203881    0.1816447  61.89 0.0006478445    1.142    0.124
       177 -11.8678      5.8659    159.8499   7.2051404094e+01   3.9607605730e+01    0.3860174    0.2857558  40.06  0.001462675    1.276    0.217
       178 -12.3514    104.7917    158.0693   4.1250976102e+01   2.7921103471e+01     0.508714    0.2768936  60.97  0.001835733    2.939    0.660
       179 -10.1925     49.4928    159.4810   5.8039199095e+01   3.5525047075e+01    0.1459972    0.1382283  66.86 8.813623e-06    1.022    0.021
       180 -10.5446    150.7872    158.5955   2.9990164053e+01   2.0230326648e+01    0.1912822    0.1290335  47.51  0.000946044    1.670    0.401
       181 -11.4097    111.9665    157.7240   3.9250404778e+01   2.6833219362e+01    0.3292733    0.1746788 -30.95  0.001199622    2.821    0.645
       182 -11.0705     86.4915    158.5304   4.6523988768e+01   3.0688426741e+01    0.1476713    0.1430502  52.15 -1.719315e-05    1.002    0.002
       183 -11.5638    132.4698    156.7491   3.3857816613e+01   2.3647915397e+01    0.2686598    0.2337145  23.53  0.001484973    1.167    0.143
       184 -11.7809    134.5540    153.5725   3.2734188203e+01   2.3988134281e+01    0.3230477     0.201821  40.91  0.001512733    1.638    0.389
       185 -11.6011    118.1275    157.1369   3.7523344210e+01   2.5951983198e+01    0.2336481    0.1977208 -10.57  0.001225628    1.320    0.243
       186 -10.4209     90.8156    157.1307   4.5025138306e+01   3.0370508118e+01    0.1996346     0.172754 -24.74 0.0002665497    1.289    0.224
       187 -11.7589    140.5271    154.3168   3.1471224126e+01   2.2819768040e+01    0.4601932    0.2551714 -63.47  0.001853731    2.511    0.602
       188 -10.7046    146.0000    155.0649   3.0365711355e+01   2.1745723727e+01    0.2162509    0.1944526 -67.94 0.0009749159    1.257    0.205
       189 -10.9474    143.7049    152.6857   3.0414865045e+01   2.2628402152e+01    0.1922113    0.1727662  85.18 0.0004364345    1.343    0.256
       190 -11.2302    124.4708    155.9325   3.5673652828e+01   2.5167097054e+01    0.2168939    0.1926363  29.08 0.0004390607    1.129    0.114
       191 -11.2889     77.0119    156.0040   4.8937385901e+01   3.2746568680e+01    0.2203612    0.2012782 -27.07            0    1.205    0.170
       192 -13.9036     75.1683    151.2836   4.8727176633e+01   3.4233320740e+01    0.7017468    0.4405699  47.04  0.003125292    1.597    0.374
       193 -12.1378     81.6234    152.7736   4.6998340029e+01   3.2881616560e+01    0.3185351    0.2894811 -81.91 0.0006996254    1.121    0.108
       194 -12.6429     84.2007    149.8325   4.5704554101e+01   3.3232803960e+01    0.3910185    0.2913071  26.53  0.001346116    1.389    0.280
       195 -10.1903     60.6488    155.7067   5.3982445203e+01   3.5114715909e+01    0.1523198    0.1136355 -25.30 0.0007030716    1.678    0.404
       196 -10.6437     13.8428    154.6954   6.9142077631e+01   4.0385186215e+01     0.266793    0.1573894  44.93 0.0008848972    1.571    0.363
       197 -10.6201      1.5582    154.9881   7.3154451058e+01   4.1194321053e+01     0.204964    0.1234386 -86.26 0.0003488853    1.526    0.345
       198 -11.4496     54.3888    153.8028   5.5719595178e+01   3.6431167193e+01    0.2105584    0.1298728 -56.50 0.0004414323    1.630    0.386
       199 -10.2926     88.6646    153.2788   4.4980404079e+01   3.1665509394e+01    0.1560317    0.1114704  62.23 0.0002645121    1.612    0.380
       200 -11.9587     64.6660    151.0016   5.1996556203e+01   3.5811634924e+01    0.2200018    0.1938795 -74.06  0.001159316    1.133    0.117
       201 -12.0494     43.8845    150.6781   5.8754584661e+01   3.8545469945e+01    0.2612629    0.1980411 -58.49 0.0009102502    1.337    0.252
       202  -9.6526     19.2141    150.9864   6.7062734039e+01   4.0946292396e+01     0.176647    0.1090917 -80.40 0.0003210587    1.538    0.350
       203 -11.4962    108.9340    149.0269   3.8411984202e+01   2.9386026049e+01    0.3083343    0.2570377 -63.63 0.0005892394    1.244    0.196
       204 -11.5784    172.8345    152.4607   2.4221129962e+01   1.7863577870e+01    0.2516145    0.1757748 -40.52 0.0006417931    1.301    0.231
       205 -11.0077     28.2307    149.8241   6.3915690512e+01   4.0441689952e+01    0.3358775    0.2135271 -22.46  0.001125594    2.132    0.531
       206 -12.0048      4.2338    149.6571   7.1972854232e+01   4.2447459435e+01    0.3191224    0.2486833  32.57 0.0008464257    1.292    0.226
       207 -11.6187     96.2440    149.0102   4.1984296479e+01   3.1509913396e+01    0.2502478    0.2150276  35.45 0.0004180156    1.154    0.134
       208 -12.0307     58.8867    147.1302   5.3276383933e+01   3.7627541867e+01    0.2385214    0.1927215  67.57 0.0007828921    1.266    0.210
       209 -10.2208    229.3172    145.7158   1.3631587655e+01   1.0691244772e+01    0.1081991   0.08425707 -57.64 0.0002215041    1.585    0.369
       210 -10.6359    157.2354    145.4281   2.5961395337e+01   2.1816219609e+01    0.2629252    0.1369975  37.03  0.001155079    2.080    0.519
       211 -10.6899    120.6042    145.5330   3.4599438929e+01   2.8188987058e+01     0.346216    0.1039086  49.93 0.0008069566    6.206    0.839
       212 -12.2448    103.2022    143.0087   3.8818959282e+01   3.1810296510e+01    0.5490934      0.35532  74.30  0.001350613    2.421    0.587
       213 -11.6189     85.3366    144.1947   4.4331299441e+01   3.4487977547e+01     0.281512    0.2300079 -13.27 0.0007608721    1.490    0.329
       214 -13.2429     49.2529    141.7646   5.5713978103e+01   4.0322205939e+01    0.6344333    0.3103074  34.25  0.002568497    1.931    0.482
       215 -11.5898     41.3527    143.0780   5.8625757295e+01   4.0905723013e+01    0.2076194    0.1802885 -86.53 0.0004072587    1.109    0.099
       216 -12.0806     12.4273    141.9865   6.8627709114e+01   4.3953187833e+01      0.36312    0.1994205  12.15   0.00161396    2.067    0.516
       217 -11.0864    164.7165    141.0590   2.3509025827e+01   2.1398843838e+01    0.2165272    0.1966829  35.37  0.001118514    1.192    0.161
       218 -10.5967     30.0000    140.9799   6.2336730960e+01   4.2694734988e+01    0.2508112   0.08007378 -73.34 7.733674e-05    3.012    0.668
       219 -12.3724     96.3990    138.5166   3.9885160007e+01   3.4080795508e+01    0.4411273    0.3104828  11.12  0.001930654    1.878    0.468
       220 -10.9136     59.9996    139.9691   5.1763453407e+01   3.9397486543e+01    0.2525548    0.1806411 -31.08  0.001141825    1.715    0.417
       221 -13.3180     67.6028    137.5306   4.8786804668e+01   3.8963353272e+01    0.9169111    0.2260059  36.56  0.002698978    3.487    0.713
       222 -13.4209     67.9828    130.8243   4.7419589125e+01   4.0689876691e+01    0.7610485    0.3741357 -78.45  0.002554863    2.977    0.664
       223 -10.9662     41.1372    137.7110   5.7969281377e+01   4.2403863510e+01    0.2585389    0.1722364  50.14  0.001194292    1.495    0.331
       224 -10.9491     20.0267    137.9788   6.5565529459e+01   4.4446130113e+01    0.2213397    0.2044643  77.94 0.0006306657    1.013    0.013
       225 -11.1796      1.5775    137.7119   7.2132946550e+01   4.5862143906e+01     0.269612    0.1181806 -75.13 0.0009353685    2.041    0.510
       226 -11.6375     13.8053    134.4731   6.7481409054e+01   4.5920172431e+01    0.3726378     0.231434 -71.65  0.001026162    1.491    0.329
       227 -12.6221     20.0567    131.5832   6.4887028456e+01   4.6217385238e+01     0.442336    0.3414156 -55.54 0.0005116272    1.307    0.235
       228 -11.6528     10.0201    132.2295   6.8670650697e+01   4.6819344734e+01    0.2968119    0.1466657  47.12 0.0007965253    1.975    0.494
       229 -11.2186      7.4473    135.0458   6.9842593212e+01   4.6219259425e+01    0.2584873    0.1703403  45.36 0.0005324976    1.467    0.318
       230  -9.9957    211.0409    134.0222   1.4009073999e+01   1.5137846869e+01    0.1470067    0.1225567 -34.09 0.0002994051    1.016    0.016
       231 -10.9777    115.0451    133.9295   3.3624286398e+01   3.1874779047e+01    0.2525819    0.1876934 -16.73  0.001141233    1.794    0.443
       232 -11.7169     46.0975    133.3278   5.5549833990e+01   4.3020503830e+01    0.3030009    0.2024392 -46.06   0.00137789    1.603    0.376
       233 -11.8881     50.4665    130.6185   5.3540970716e+01   4.3212534221e+01    0.3419023    0.2649212   3.03  0.001217775    1.547    0.354
       234 -10.5474    160.0986    132.6819   2.2662311426e+01   2.3862638192e+01    0.1856969    0.1739337 -17.17 0.0004381519    1.087    0.080
       235 -10.6433    103.6626    133.7398   3.6763165567e+01   3.3980819749e+01    0.1502803     0.120655  -7.49  0.000229498    1.581    0.368
       236 -12.3180     83.5383    132.0417   4.2518931665e+01   3.7892713418e+01    0.3502299    0.2498702  70.71  0.001096235    1.724    0.420
       237 -12.1749     82.6560    127.3903   4.1835432329e+01   3.9235344776e+01    0.3867477    0.2639219  37.41  0.001747686    1.460    0.315
       238 -13.2104     57.3598    126.7935   5.0388106816e+01   4.3324223275e+01    0.6004171    0.4459526  48.68  0.001754343    1.352    0.261
       239 -11.3641     49.3247    123.9739   5.2822339323e+01   4.5179950338e+01    0.2601213    0.2185052  19.13 0.0003793424    1.283    0.221
       240 -11.3550     51.6138    121.2983   5.1484354405e+01   4.5608083041e+01    0.4179202    0.2359208  53.22  0.001046135    1.978    0.494
       241 -12.2536     35.7543    126.9795   5.8405276838e+01   4.5974910261e+01    0.3674363    0.2338594 -67.76 0.0002531671    1.491    0.329
       242 -10.1968    130.2142    127.7764   2.8315526042e+01   3.0444600184e+01    0.2393115    0.1597394  85.05  0.000930072    2.640    0.621
       243 -10.9523    102.5270    128.5132   3.5951948995e+01   3.5455360080e+01    0.1524145    0.1482689 -87.28 -2.728456e-05    1.016    0.015
       244 -12.4138     75.1205    124.9766   4.3823757415e+01   4.1110433293e+01    0.4706421    0.1912329 -49.05  0.001628083    2.503    0.601
       245 -12.1535     25.4030    125.1931   6.2109789308e+01   4.7520208906e+01    0.5248753    0.2059748  30.90  0.001994122    2.380    0.580
       246 -13.3723     14.6887    120.6415   6.5753836844e+01   4.9697527954e+01    0.8216177    0.5064461 -43.03  0.003818012    1.752    0.429
       247 -12.3974      9.2889    117.4358   6.7571839748e+01   5.0976104147e+01    0.2720511    0.2149029  84.13 0.0007113044    1.195    0.163
       248 -10.6649    121.7830    124.0568   2.9603569322e+01   3.2889358039e+01    0.2011982    0.1202052 -50.98 0.0004482694    1.635    0.388
       249 -10.7227     41.8084    124.3854   5.5715841857e+01   4.6003201712e+01    0.2072284    0.1470364   7.37 0.0009462767    1.682    0.405
       250 -12.6566      5.2191    122.2947   6.9635039615e+01   4.9888620583e+01    0.4254513    0.1900415 -66.66  0.001763568    1.983    0.496
       251 -10.9563    194.2327    122.0060   1.4140896008e+01   1.9860058160e+01    0.1900688    0.1492765 -40.10 0.0004466127    1.089    0.082
       252 -10.7709    179.0409    121.9289   1.6683768860e+01   2.2517547280e+01    0.2018733    0.1777182 -39.24 0.0003454306    1.020    0.020
       253 -10.6295    105.9581    121.4604   3.3345353911e+01   3.6517665832e+01    0.2351929    0.1509347  41.06  0.000753606    1.577    0.366
       254 -11.6245     28.1060    120.8565   6.0476312832e+01   4.8470372730e+01    0.3698358    0.1732078  35.32 0.0008929588    2.050    0.512
       255 -12.2729     96.1740    118.1351   3.5477726774e+01   3.9159752007e+01    0.5650176    0.2543086 -44.49  0.002022704    2.371    0.578
       256 -12.2442     79.7020    119.6830   4.1135668835e+01   4.1718594129e+01    0.3345542    0.2856434  61.30 0.0009791037    1.210    0.173
       257 -12.7800     82.6409    116.9237   3.9526827605e+01   4.1914742692e+01    0.4902096    0.4384758 -63.20 0.0008691408    1.103    0.093
       258 -11.1933     38.1418    119.1561   5.6274092524e+01   4.7876998592e+01    0.2510031    0.2267389 -50.21   0.00108054    1.136    0.120
       259 -11.4064     71.4809    118.0214   4.3592026097e+01   4.3522692948e+01    0.2411662    0.1498698 -58.61 0.0007531759    1.578    0.366
       260 -11.8320     54.7610    116.5489   4.9387543597e+01   4.6463810996e+01    0.4200402    0.2626049 -47.17  0.001014724    1.658    0.397
       261 -12.5043     66.2918    105.6039   4.2636953538e+01   4.7609698332e+01     0.518772    0.2776027  58.05 0.0009791189    2.539    0.606
       262 -12.0415     60.5937    114.9222   4.6863742950e+01   4.6050096061e+01     0.358271    0.2885866  24.23 0.0004762028    1.323    0.244
       263 -12.9668     61.8961    109.1999   4.5126300068e+01   4.7370154639e+01    0.5519876    0.4839465 -78.90  0.001966902    1.149    0.129
       264 -11.4777    115.0584    112.5827   2.8636510507e+01   3.6821095766e+01    0.2577548     0.206577 -63.27 0.0004355311    1.280    0.219
       265 -13.3349      9.2106    110.6363   6.6889245659e+01   5.2869638587e+01    0.6959609    0.2959126  37.49  0.002816379    2.306    0.566
       266 -10.3366    165.6552    112.3112   1.6965090772e+01   2.6799662103e+01    0.1431348    0.1071091 -76.95 0.0007045805    1.705    0.413
       267 -10.9820     19.2767    110.8771   6.2686891343e+01   5.2051017621e+01    0.3076065     0.203578   8.22  0.001453599    1.723    0.420
       268 -11.2962     73.9875    114.4434   4.1913673904e+01   4.4039725978e+01    0.2337935    0.1513341  36.08 0.0003862359    1.552    0.356
       269 -11.8144      1.5926    108.6131   6.9897421249e+01   5.3880520106e+01    0.3449017    0.1271705 -60.85 0.0007927804    2.337    0.572
       270 -10.9359      1.4338    103.8676   6.9520313554e+01   5.5195880953e+01    0.2141976    0.1266504 -80.72 0.0006994444    1.545    0.353
       271 -10.5077     87.9059    108.3352   3.5716472700e+01   4.3111519624e+01    0.2111535    0.2023604  41.98 0.0005489173    1.073    0.068
       272 -10.7794    115.2214    105.5750   2.6807708318e+01   3.8372990653e+01    0.2343242    0.1972994 -63.80 0.0004177311    1.195    0.163
       273 -12.4197      5.7271     95.0049   6.6613299199e+01   5.7393120276e+01    0.7019527    0.5333357 -79.58  0.002736808    1.220    0.181
       274 -12.3258     12.1575    104.7752   6.4935119981e+01   5.4292500806e+01    0.5252157    0.4225395  47.33  0.002273953    1.277    0.217
       275 -12.7014      7.7097    101.3494   6.6478384114e+01   5.5533539315e+01     0.409496    0.2497476  59.21   0.00191301    1.756    0.431
       276 -11.5986    167.0262    104.8249   1.4943496963e+01   2.7943357207e+01    0.2267934    0.1814794 -45.46 0.0003192709    1.127    0.113
       277  -9.9259     30.2941    103.6958   5.6861734314e+01   5.3003627730e+01    0.1529937    0.1067818  62.64 0.0003738007    1.578    0.366
       278  -9.7995    104.3613    102.2953   2.9020296933e+01   4.1335721762e+01    0.1554538    0.1248128  -2.08 0.0007031742    1.707    0.414
       279 -10.8310     78.4845    102.0334   3.7313376747e+01   4.6409661002e+01    0.3017439    0.2077546  52.48  0.001008145    1.536    0.349
       280 -11.4338     56.0020    101.2022   4.5576176031e+01   5.0380355615e+01    0.2660672    0.2191141 -66.32 0.0003977759    1.198    0.165
       281 -10.6983     57.9767     97.5183   4.3893494814e+01   5.1038588735e+01    0.2421835    0.2116926 -28.97 0.0006690286    1.252    0.201
       282 -11.1423     94.0459     98.0690   3.1037083067e+01   4.4396208729e+01    0.2522414    0.1901755  84.59 0.0006616665    1.688    0.407
       283 -10.8664     73.6467     95.2971   3.7273657766e+01   4.8957052569e+01    0.1620486    0.1185726  71.17            0    1.692    0.409
       284 -10.1305     41.5648     95.0320   5.0202418097e+01   5.4036890951e+01    0.2110337    0.1426345 -64.29  0.000167327    1.433    0.302
       285 -11.6545    119.1529     93.8282   2.2605089559e+01   4.0113459275e+01    0.3326282    0.2345729 -28.73 0.0004297235    1.746    0.427
       286 -11.7121     90.3670     93.9498   3.1082078749e+01   4.6094897260e+01    0.3473513     0.220667  32.10   0.00146825    1.799    0.444
       287 -11.3324     26.4393     92.5775   5.6530604555e+01   5.6426751348e+01    0.2965427     0.241499 -38.70 0.0008613286    1.259    0.206
       288 -12.1173     73.8468     90.0426   3.5743172672e+01   5.0206034062e+01    0.3939466    0.2651421  59.30  0.001713674    1.731    0.422
       289 -10.6735     57.8631     91.7862   4.2475928333e+01   5.2529373439e+01    0.2157172     0.202821 -13.01 0.0003658705    1.145    0.127
       290 -10.5653     11.5171     91.0266   6.3330382611e+01   5.8109638096e+01    0.1944184    0.1908729   2.91 -3.173357e-05    1.094    0.086
       291  -9.8009    110.2643     90.6802   2.4119042211e+01   4.2695691843e+01    0.1525327    0.1175072 -81.63 0.0003475547    1.554    0.356
       292 -12.2318      7.0719     86.5297   6.4834671290e+01   5.9615110311e+01    0.3053553    0.2662818 -56.29 0.0004976344    1.075    0.069
       293 -12.4419      2.9089     87.0987   6.6970286342e+01   5.9694525835e+01    0.4723586    0.2840376 -88.96  0.001479239    1.663    0.399
       294 -10.7318    125.0363     87.7303   1.9412222047e+01   4.0101612238e+01    0.3172236    0.1847609 -44.25  0.001122165    1.672    0.402
       295 -11.8473     54.8075     85.4150   4.2035066272e+01   5.4625413439e+01    0.5005924    0.4662279 -25.04   0.00271328    1.132    0.117
       296 -10.4676    135.0112     84.4630   1.6163804876e+01   3.8548283000e+01    0.2768713    0.1450009 -37.38  0.001126438    2.001    0.500
       297 -10.0603    129.7992     85.3706   1.7606890177e+01   3.9524011346e+01    0.1860871    0.1393734  44.18 0.0002827127    1.451    0.311
       298 -10.2988    189.7677     83.0110   6.0826300921e+00   2.7274113593e+01    0.1753542   0.09649327 -40.46 0.0003292875    1.567    0.362
       299 -10.0584    178.9684     83.7841   7.8463430798e+00   2.9288682934e+01    0.1622043    0.1104264  59.97 0.0002460424    1.629    0.386
       300 -10.4847     79.3968     82.7724   3.1572013420e+01   5.0866167609e+01    0.2250007    0.1410713 -41.12 0.0006763016    1.711    0.415
       301 -11.6822     64.1900     81.5842   3.7021451357e+01   5.3992120874e+01    0.2713942    0.2552309 -59.11 0.0002868439    1.057    0.054
       302 -11.5769      9.3187     79.5258   6.2594009163e+01   6.1348677657e+01    0.5931233    0.2848724 -88.55  0.002370264    2.444    0.591
       303 -11.1440      5.0959     80.7158   6.4980877981e+01   6.1288981222e+01    0.2586105    0.2268744  81.49  0.001009641    1.163    0.140
       304 -11.9268    151.8839     79.6340   1.1378668312e+01   3.5724424894e+01    0.3224088    0.3025569  86.98 0.0009351342    1.091    0.083
       305 -12.2264     89.1629     78.3321   2.6821626811e+01   4.9872917985e+01    0.3861877    0.2564785 -41.31 0.0004230245    1.579    0.367
       306 -12.2340     70.2350     70.9646   3.1235541863e+01   5.5328220119e+01    0.5065007     0.345731 -24.79  0.001060302    1.993    0.498
       307 -10.2890    105.4383     73.1862   2.0205161663e+01   4.7400451709e+01    0.2210335    0.1381531 -56.10 0.0009528028    1.712    0.416
       308 -10.9114     70.2915     76.0493   3.2878641048e+01   5.4171152933e+01    0.2292448    0.2247698  72.20 0.0003576128    1.006    0.006
       309 -11.9401     53.7055     70.7690   3.8129737263e+01   5.8362767259e+01    0.3198056    0.2504291  71.74  0.001401949    1.565    0.361
       310 -12.4376     48.1996     64.2335   3.8515574458e+01   6.0782893222e+01    0.5858685    0.3969718  88.30  0.001100587    2.367    0.578
       311 -10.7164     80.7105     68.5947   2.6520978807e+01   5.3730196804e+01    0.2845313    0.2263163   0.09 0.0005514179    1.724    0.420
       312 -12.0206     61.6636     67.5028   3.3556717367e+01   5.7716897547e+01    0.4176295    0.2497567  55.19  0.001619463    1.973    0.493
       313 -11.2832      7.7921     67.2069   6.1167067022e+01   6.4667069165e+01    0.2019111    0.1452657 -37.18  0.000763596    1.352    0.260
       314  -9.8688     13.5002     66.4634   5.7723652894e+01   6.4449420798e+01    0.1355186    0.1303328 -58.11 0.0008091026    1.047    0.045
       315 -11.8629     18.3204     60.0229   5.3288198958e+01   6.5645267727e+01    0.3392168    0.2875022 -35.12  0.001560075    1.130    0.115
       316 -12.2736     12.5750     59.7674   5.6667886820e+01   6.6205839756e+01    0.2682523    0.2525955  13.10 0.0003620029    1.112    0.101
       317 -11.9509     23.0768     56.5856   4.9453834985e+01   6.5995868840e+01    0.5274672    0.3355337 -50.86  0.002632422    1.478    0.323
       318 -11.3258     42.0555     59.5106   3.9924255748e+01   6.2826176949e+01     0.217923    0.1972847 -47.78   0.00110624    1.101    0.092
       319 -11.4657     34.2433     58.8336   4.3822934436e+01   6.4104002301e+01    0.3217843    0.2438479 -68.50 0.0008973537    1.451    0.311
       320 -10.5077     28.2801     60.1102   4.7546975313e+01   6.4560475558e+01    0.2417867    0.1883028   1.13  0.001276948    1.390    0.281
       321 -10.4691    126.0270     54.9849   9.2864335800e+00   4.5919530133e+01    0.1723514    0.1576072 -75.61            0    1.017    0.017
       322 -11.6903    110.4108     54.0079   1.2528011430e+01   4.9799563424e+01    0.4233479     0.218806 -39.39  0.001435315    1.965    0.491
       323 -10.5095    115.7724     54.3953   1.1368797153e+01   4.8459519663e+01    0.1946102    0.1309011  50.27 0.0002863352    1.523    0.344
       324 -11.9745     37.4002     53.9715   4.0387080018e+01   6.4770257055e+01    0.2473244     0.192397  43.46  0.001208491    1.340    0.254
       325 -10.5996    151.5203     52.9987   3.9993512894e+00   4.0234844265e+01    0.2115507   0.09343672 -55.19 0.0008096575    2.534    0.605
       326 -10.5307    106.0283     51.0250   1.2591235612e+01   5.1343214994e+01    0.1736767    0.1622869  86.77            0    1.003    0.003
       327 -12.3423     30.3925     50.1228   4.2918860565e+01   6.6608322955e+01    0.3384937    0.2484601  16.37  0.001780248    1.418    0.295
       328 -12.1937     98.4879     47.9521   1.3475755434e+01   5.3642368367e+01    0.5580999    0.3151466 -68.93  0.002079284    2.929    0.659
       329 -11.5702     37.3441     50.0622   3.8938167837e+01   6.5639409985e+01    0.2882815     0.170622  48.50  0.001036916    1.937    0.484
       330 -11.7942     16.1690     49.8700   5.1616090656e+01   6.8288235374e+01    0.2224388    0.2135598 -40.08 0.0003389274    1.065    0.061
       331 -10.6553    127.3499     49.3506   7.1994918650e+00   4.6504981587e+01    0.2157121    0.1701765  25.06 0.0007195788    1.756    0.431
       332  -9.8870    129.0000     45.9613   5.7789637255e+00   4.6627731283e+01    0.3218577   0.07859422 -34.60 0.0009602525    4.143    0.759
       333 -10.9540     42.5320     46.7212   3.4787301817e+01   6.5531244247e+01    0.3821074    0.2566343  44.08  0.001524665    1.515    0.340
       334 -10.2545    142.4699     45.5777   3.2702355657e+00   4.3462668713e+01    0.1381055    0.1245029 -79.93 -1.31144e-05    1.034    0.033
       335  -9.7203     78.0000     47.0104   1.9465793201e+01   5.8509431972e+01    0.2275848   0.08272821 -40.51 0.0007921694    2.872    0.652
       336 -10.0549     50.0121     44.0143   2.9827724737e+01   6.4773185165e+01    0.1691553    0.1494423  35.50 0.0007082222    1.092    0.084
       337 -12.6624     32.8194     40.0650   3.7414743033e+01   6.8420671686e+01    0.3687601    0.2183491  32.42  0.001106256    1.650    0.394
       338 -11.5777     22.7484     41.6009   4.4372979996e+01   6.9453914752e+01    0.1901144    0.1186493  36.18 0.0009491598    1.633    0.387
       339 -10.9951     80.3927     36.8640   1.4464907705e+01   5.9658220134e+01    0.4182083    0.1915992 -44.36  0.001707418    2.327    0.570
       340 -12.6919     20.0612     34.9362   4.3412272296e+01   7.1196351153e+01    0.4459743    0.1786136  31.63  0.001881482    2.386    0.581
       341 -11.6404     42.0598     32.2483   2.8467897865e+01   6.8403306699e+01    0.3468284    0.1934901 -50.11 0.0006725924    2.016    0.504
       342 -12.6169     30.0173     31.5266   3.5179283637e+01   7.0527684159e+01     0.475495    0.2421571  26.73  0.001628896    2.122    0.529
       343 -11.6961      3.1759     30.2197   5.4334101700e+01   7.3826250946e+01    0.4227408    0.2488333  22.20  0.002258467    1.691    0.409
       344 -12.0880     77.5900     30.4947   1.2600666566e+01   6.1264329078e+01    0.2896106    0.2405919  67.32  0.001624049    1.165    0.142
       345 -11.4321     89.8108     29.4343   8.5457726188e+00   5.8525664513e+01    0.2106219    0.1686549 -26.58 0.0005581427    1.412    0.292
       346 -10.6650     61.6163     28.1439   1.7247280776e+01   6.5193490214e+01    0.2034722    0.1665476 -56.96 0.0005652235    1.399    0.285
       347 -10.8790     67.6273     27.2369   1.4508877392e+01   6.4005469092e+01    0.1781838     0.133077 -20.61 0.0004206517    1.569    0.363
       348 -12.0380     44.4031     25.5396   2.3771759439e+01   6.9110419934e+01    0.3729624    0.2665277  52.27  0.002015532    1.431    0.301
       349 -10.9351     36.9381     26.5516   2.8410537355e+01   7.0304149491e+01    0.1975464    0.1090979  20.63 0.0008082626    2.649    0.623
       350 -12.6653     85.3500     23.7350   7.3074415168e+00   6.0352393110e+01    0.3098315    0.2540726  81.73 0.0003604237    1.215    0.177
       351 -10.5325     81.5472     19.5320   6.4635815790e+00   6.1787528390e+01    0.2041899    0.1568558 -73.05 0.0005950884    1.476    0.322
       352  -9.7676      1.2639     25.3119   5.4078121137e+01   7.5022441037e+01    0.1310898    0.0797921 -33.22 0.0002338278    1.538    0.350
       353 -11.5436     19.1155     23.7342   3.8707308506e+01   7.3545663868e+01    0.1969486    0.1841185  -2.43 0.0003681279    1.078    0.073
       354 -11.8058     70.2847     21.3031   1.0714987427e+01   6.4216171133e+01    0.2684059    0.2490475  -8.30 0.0007401113    1.197    0.165
       355 -10.2698     58.5997     20.1889   1.4421445189e+01   6.6987621516e+01    0.1713541    0.1296806 -13.72 0.0005622787    1.565    0.361
       356  -9.6954      2.3184     20.2998   5.0993535838e+01   7.5995435060e+01    0.1327106   0.08091861 -26.31 0.0007021811    1.619    0.382
       357  -9.8354    115.2993     19.3055   3.5905531004e+02   5.3520528072e+01     0.132374   0.09879322  40.67 0.0002852369    1.591    0.371
       358 -10.7076    132.6814     17.0886   3.5566879219e+02   4.9482430871e+01    0.1755275    0.1619142 -61.81 0.0005202267    1.140    0.123
       359  -9.9678     65.2654     15.9746   9.7411022702e+00   6.6037241910e+01    0.1570291    0.1178417 -30.50  0.000483204    1.464    0.317
       360 -10.6204    190.2541    248.9740   3.6623461042e+01  -8.9058266341e-02     0.146847    0.1081032  -9.74 -0.000430966    1.096    0.088
       361 -10.2826    125.4445    249.4737   4.9241944754e+01   6.6325859164e+00    0.1407533    0.1176696 -66.47 0.0001037827    1.641    0.391
       362 -10.1589    125.0261    246.0243   4.8944288305e+01   7.2426328760e+00    0.1401965    0.1178326  12.18 0.0003304063    1.042    0.040
       363 -11.1718    114.2435    248.4925   5.1511038545e+01   8.0390694611e+00    0.2697266    0.1592648 -45.62  0.001223698    1.932    0.482
       364  -9.7381     54.3527    249.2543   6.4863073914e+01   1.4405549498e+01    0.1134824   0.08552845  -2.37 0.0005693937    1.602    0.376
