#   1 NUMBER                 Running object number                                     
#   2 MAG_AUTO               Kron-like elliptical aperture magnitude                    [mag]
#   3 X_IMAGE                Object position along x                                    [pixel]
#   4 Y_IMAGE                Object position along y                                    [pixel]
#   5 X_WORLD                Barycenter position along world x axis                     [deg]
#   6 Y_WORLD                Barycenter position along world y axis                     [deg]
#   7 A_WORLD                Profile RMS along major axis (world units)                 [deg]
#   8 B_WORLD                Profile RMS along minor axis (world units)                 [deg]
#   9 THETA_WORLD            Position angle (CCW/world-x)                               [deg]
#  10 FWHM_WORLD             FWHM assuming a gaussian core                              [deg]
#  11 ELONGATION             A_IMAGE/B_IMAGE                                           
#  12 ELLIPTICITY            1 - B_IMAGE/A_IMAGE                                       
         1 -12.7716     91.2230     26.5803   3.1853324525e+01   5.8794972616e+01    0.3626422    0.2636986 -29.99 0.0004831946    1.354    0.261
         2 -11.7103     36.0177      9.7140   4.4342616535e+01   7.1889817418e+01    0.6257461    0.2718014 -42.92  0.001280315    2.451    0.592
         3 -11.0413     43.8075     10.7047   4.1056054640e+01   7.0486084233e+01    0.5885829    0.3232139   1.11  0.002441952    3.107    0.678
         4 -11.7193     40.0294      3.1622   3.8073643148e+01   7.2118574653e+01    0.4899966    0.2732691  47.11  0.001558479    1.904    0.475
         5 -11.6738     33.2046     23.1082   5.3507657946e+01   7.0122324599e+01     0.442927    0.2947029 -56.53 0.0007102145    1.854    0.461
         6 -11.6785     33.8634     16.8197   4.9733189108e+01   7.1109017474e+01    0.4841135    0.3031286  54.80  0.002445244    2.558    0.609
         7 -10.6705     48.4285      4.7536   3.5244360484e+01   7.0439105766e+01    0.2763792    0.2294992   9.38 0.0009568803    1.070    0.065
         8 -11.0325     49.2550      1.3709   3.2723200927e+01   7.0671579389e+01    0.2199384    0.1198639  50.99  0.000367581    1.872    0.466
         9 -10.9032     95.7256     10.9611   2.3292328298e+01   5.9630111163e+01    0.3688198     0.312361  76.27  0.002017174    1.285    0.222
        10 -11.5180     91.0225     10.1659   2.4073595815e+01   6.0829988215e+01    0.2640971    0.2111532 -26.72            0    1.275    0.216
        11 -10.6346     24.7259     12.5632   5.2440625997e+01   7.3044186290e+01    0.2386882    0.2039217  22.00 0.0005513087    1.293    0.227
        12 -11.6199    126.0326     10.9273   1.7131440166e+01   5.2041386456e+01    0.2519378    0.2302037 -59.13 0.0002820343    1.132    0.116
        13 -12.4809     55.2028      9.6961   3.5421512796e+01   6.8571287898e+01    0.4142415    0.2590688  26.64  0.002160448    1.702    0.412
        14 -10.4172    225.8986     11.1330   6.4250344611e+00   2.6794354715e+01    0.2041091     0.143247 -55.15 0.0003647632    1.216    0.177
        15  -9.8268    100.9811     11.1958   2.2170209293e+01   5.8334846887e+01    0.1902839    0.1686656  50.18 0.0003207441    1.077    0.071
        16  -9.4978    176.9688      9.9536   1.0131261868e+01   3.8833692016e+01    0.1616336    0.1457031 -50.50            0    1.074    0.069
        17 -10.6011     80.4284     10.0147   2.6881207276e+01   6.3284245211e+01    0.2446377    0.1894911  51.12 0.0002455522    1.254    0.203
        18 -10.5209     19.7554      9.4262   5.3605642225e+01   7.4176326813e+01    0.3550619    0.1807517  26.34  0.001331363    2.183    0.542
        19  -9.0159    168.3073      9.2942   1.0820006722e+01   4.1137811939e+01    0.1393487    0.1011932  40.12 0.0002114799    1.584    0.369
        20 -10.7962    116.6829      8.7790   1.7886486563e+01   5.4649467199e+01    0.2697046    0.2315885  84.26  0.001202432    1.199    0.166
        21 -12.9223     29.6518      4.9197   4.4718244131e+01   7.3539753704e+01    0.3898043    0.2731508 -25.52 0.0004794362    1.253    0.202
        22 -10.3272      7.8212      8.4423   6.1089285302e+01   7.5609006547e+01    0.2294264    0.1443199 -62.53  0.001284016    2.133    0.531
        23  -9.3419    140.9994      7.0089   1.3330965333e+01   4.8506225844e+01    0.1633382    0.1589456 -72.35 0.0004216307    1.044    0.042
        24 -10.3183     61.6019      6.6016   3.1126815062e+01   6.7682697973e+01    0.2338977    0.1882274  27.45 0.0005566353    1.156    0.135
        25 -10.2893    222.0236      6.3042   5.4555208020e+00   2.8173606634e+01    0.1789486    0.1478045 -66.79 0.0002635233    1.070    0.065
        26  -9.3034    150.6087      6.6911   1.1970765290e+01   4.6012801846e+01    0.1537067   0.09412143  41.34 0.0007011021    1.825    0.452
        27 -10.2376    124.0141      5.6491   1.5318631946e+01   5.3054403809e+01    0.3152994    0.1829748  39.10  0.001073107    1.847    0.459
        28  -9.4660    111.7689      6.3525   1.7748416469e+01   5.6120378589e+01    0.1954329    0.1161335  57.40  0.000513523    1.542    0.351
        29 -11.1491     80.8202      4.8972   2.4079321751e+01   6.3717978191e+01    0.2979338    0.2074441 -24.28 0.0004036922    1.445    0.308
        30 -10.5680     66.4879      5.8619   2.8981602364e+01   6.6757054150e+01     0.215692    0.1988695  35.01 0.0003382003    1.118    0.106
        31 -10.7836     70.7907      4.9855   2.7078286681e+01   6.5933010299e+01    0.2305138    0.1783263  45.67 0.0002366999    1.229    0.186
        32 -11.3731    193.6510      4.7278   7.0716827070e+00   3.5121003280e+01    0.3166408    0.2173791 -86.91 0.0002330914    1.403    0.287
        33 -11.9927     20.0192      2.4879   4.8889931058e+01   7.5228775276e+01    0.3286611    0.2062043  -5.53  0.001275917    1.784    0.439
        34  -9.4189    247.2995      5.7288   3.8258924866e+00   2.2680143540e+01    0.1287662   0.07092005 -55.88 0.0001919929    1.527    0.345
        35 -10.1340    224.8179      2.9208   4.4241299061e+00   2.7870951765e+01    0.1709485    0.1688146 -21.76 0.0005447451    1.260    0.207
        36 -10.6858    204.8395      2.5960   5.6374312089e+00   3.2584378225e+01    0.2368702    0.1731381 -50.95 0.0001086007    1.195    0.163
        37 -10.9846    148.5751      2.3806   1.0681982603e+01   4.6926900994e+01     0.255596    0.2274442 -80.81 0.0004217264    1.071    0.066
        38 -10.1537    210.6921      1.9768   5.0719105748e+00   3.1243155120e+01    0.1795089    0.1457355 -49.45 0.0002457383    1.084    0.078
        39  -9.5855    138.0310      1.7137   1.1738882578e+01   4.9743998088e+01    0.1944432     0.168559  73.65 0.0003752137    1.082    0.076
        40  -9.0124    120.2700      2.6836   1.4694958781e+01   5.4273172903e+01    0.1389646   0.09878705 -56.45 0.0002349281    1.557    0.358
        41  -9.1035    109.2879      2.3170   1.6421207572e+01   5.7095758959e+01     0.143739   0.09406465  34.22 0.0007001662    1.592    0.372
        42  -9.6980     11.6799      1.9286   5.4180256639e+01   7.6316846733e+01    0.1747672    0.1310002  72.96 0.0008996955    3.483    0.713
        43  -9.2192      1.3551      2.3085   6.2239952391e+01   7.7251677718e+01    0.1236673   0.06961444 -23.79 0.0007042745    1.724    0.420
        44 -10.6036    245.2963      1.3903   2.9265611099e+00   2.3535533406e+01    0.1739874    0.1096928  81.31 0.0003257396    1.656    0.396
        45  -9.6317    128.1380    112.2962   5.1375242962e+01   3.4097024156e+01    0.2050356    0.1371064  54.21 0.0003759522    1.585    0.369
        46  -9.6525    110.0265    250.7881   7.7715837123e+01   1.0418295283e+01    0.1500969    0.0696283  39.24 0.0004617332    1.644    0.392
        47 -11.7542     24.3048    249.1451   9.2834106768e+01   2.1085918299e+01    0.3191697    0.1510063  48.46  0.002139553    1.467    0.318
        48 -11.9790     16.5437    248.8980   9.4144810012e+01   2.1918971665e+01    0.4645219    0.2450547  20.53  0.002626316    3.321    0.699
        49 -12.2832     10.0202    244.5425   9.5098876021e+01   2.3293713707e+01    0.3272907    0.2031223 -69.07  0.002420384    1.976    0.494
        50 -11.4872      3.0964    248.5396   9.6384199679e+01   2.3283301800e+01    0.4428832    0.2118253  45.05  0.003120088    1.508    0.337
        51 -12.3058      5.1511    243.2285   9.5882738109e+01   2.3983424559e+01    0.4850729    0.1985387  67.25  0.002992304    1.890    0.471
        52 -10.6101     89.3880    105.3076   6.0328676750e+01   4.3388494247e+01    0.2730806    0.2629976 -74.04 0.0005158457    1.041    0.040
        53 -10.1421    249.5536    105.5067   2.7129130497e+01   9.5923087468e+00    0.1324921    0.1092566 -26.74 6.404184e-05    1.006    0.006
        54  -9.4382     38.7477    104.9585   7.6594468603e+01   5.0876751218e+01    0.1768592    0.1029729 -66.48  0.000323361    1.478    0.324
        55 -10.6473    109.0525    103.5009   5.4139252207e+01   4.0031917451e+01    0.2780082    0.2176477 -49.29  0.001352698    1.233    0.189
        56 -10.3530    112.7856    102.1185   5.2730478352e+01   3.9578228697e+01    0.2578019    0.2156537  47.47 0.0003114615    1.235    0.190
        57  -9.7492     44.4678    103.5134   7.4398652792e+01   5.0585742681e+01    0.1400379    0.1214906 -71.69 5.428112e-06    1.019    0.019
        58 -11.5553     21.0721     98.9717   8.1654023661e+01   5.4103062794e+01    0.5253893    0.3746438  50.04  0.003038923    1.521    0.342
        59 -10.9656     18.4876     93.7928   8.1760343545e+01   5.5610698502e+01    0.4897291    0.2859094  42.13  0.002593531    1.890    0.471
        60  -9.9886    217.9741     98.3322   2.9783742912e+01   1.6838222503e+01    0.1846367    0.1801207  15.74 0.0004994718    1.127    0.113
        61  -9.7428    139.7401     98.0196   4.4647694201e+01   3.4566926243e+01    0.2184081    0.1954604 -48.53 0.0003096564    1.085    0.078
        62  -9.7004     45.8090     96.8590   7.2597807405e+01   5.2090435314e+01    0.1900172    0.1489733  86.25  0.001032026    1.327    0.246
        63 -10.0624     37.7124     97.0889   7.5485363656e+01   5.2965312839e+01    0.2420969    0.1750979  65.46  0.001073995    1.529    0.346
        64 -11.6736     66.6970     92.1703   6.4262248691e+01   5.0365749270e+01    0.4181951     0.221123 -56.63  0.001141357    1.724    0.420
        65  -9.1689    104.3181    101.2737   5.4880281628e+01   4.1492568567e+01    0.1478141    0.1227217  -5.51 0.0005061682    1.567    0.362
        66  -9.6451    125.3053     93.0452   4.6813594937e+01   3.8862511771e+01    0.2122785    0.1906594 -46.30 0.0002052227    1.078    0.073
        67  -9.5669    119.4693     93.5994   4.8513883282e+01   4.0031806238e+01    0.1520217    0.1491368 -62.90 -1.62627e-05    1.024    0.024
        68 -10.4194     92.6750     92.8621   5.6013048889e+01   4.5701907595e+01    0.3583106    0.2240546  33.94 0.0007692387    1.846    0.458
        69 -11.4334     74.6373     92.9945   6.1810835343e+01   4.8893729730e+01    0.2418726    0.2139919  46.07  0.000343051    1.213    0.175
        70 -12.0430     57.7974     91.3110   6.7124936671e+01   5.1891375014e+01    0.3404009    0.2871013 -42.72   0.00117092    1.212    0.175
        71 -10.1848    105.9903     91.7207   5.1715896474e+01   4.3311716349e+01    0.2128533    0.2073486 -81.97 0.0004815956    1.035    0.034
        72 -10.1063    145.6792     91.0094   4.1241431402e+01   3.4605455466e+01    0.2133188    0.1921835 -41.80 0.0005260436    1.075    0.070
        73  -9.8990      7.7580     91.1812   8.5253519793e+01   5.7040618041e+01    0.1695391    0.1220989 -54.75 0.0004438411    1.307    0.235
        74  -9.7809     24.5837     90.1932   7.8925835336e+01   5.5991119022e+01    0.1995201   0.09848385 -58.18 0.0006114049    1.681    0.405
        75 -10.0840      1.5155     89.8292   8.7341298540e+01   5.7753302859e+01     0.189576   0.09936578 -73.28 0.0007733935    1.494    0.331
        76 -13.8214     65.3121     82.0024   6.1991946949e+01   5.3018092606e+01    0.5626034    0.4977462  89.23 0.0008626257    1.222    0.182
        77 -11.8669     31.1039     87.2722   7.5935025698e+01   5.6102952678e+01    0.2250646     0.181384 -70.86 0.0002843227    1.069    0.065
        78  -9.3858    144.4697     86.5047   4.0187796487e+01   3.5774493791e+01    0.1556146    0.1501168 -48.18 6.259204e-05    1.007    0.007
        79 -10.2076     91.9838     85.2223   5.4000068412e+01   4.7580599652e+01    0.2423804    0.1974226 -50.35 0.0002386475    1.160    0.138
        80 -10.5188     54.7485     84.9547   6.6609091266e+01   5.3866712920e+01    0.2008308    0.1931557 -57.84 0.0003031021    1.087    0.080
        81 -10.1432      7.3292     83.9498   8.4374960687e+01   5.8853358129e+01    0.1899056    0.1355697 -70.37 0.0008263759    1.123    0.109
        82 -10.3021     47.4325     78.8856   6.7754121227e+01   5.6308418128e+01    0.4139477    0.2630107   2.09  0.001831275    2.507    0.601
        83 -10.0995    176.8965     76.7923   3.0704366931e+01   2.9710442355e+01    0.2687721    0.2131902  67.04  0.001331727    1.359    0.264
        84  -9.8586     23.3257     77.8064   7.6992294494e+01   5.9165977155e+01    0.3684509    0.1531297 -85.01  0.001194487    4.255    0.765
        85 -12.1872      4.9311     72.9424   8.3575259509e+01   6.1691565441e+01    0.4268025    0.2577828  54.10 0.0003566284    1.960    0.490
        86 -10.5085     14.8286     74.8406   7.9840325584e+01   6.0576839027e+01    0.2348898    0.2034631  14.20 0.0007463868    1.411    0.291
        87 -11.2501     10.8625     73.0680   8.1138997934e+01   6.1288856757e+01    0.4018945    0.1875437 -82.31  0.001723689    2.249    0.555
        88 -10.0759     34.3744     74.7304   7.1829241938e+01   5.8844356057e+01    0.2624274    0.1390161 -60.75 0.0007454026    1.602    0.376
        89 -12.2347     75.0014     76.6617   5.6978332672e+01   5.2656084575e+01    0.2654117    0.2399822 -57.37 0.0003303428    1.050    0.047
        90  -9.7537    105.8276     71.6831   4.5457419351e+01   4.7641472932e+01    0.2086455    0.1408609  59.23 0.0006761961    1.679    0.404
        91  -9.1228     89.7284     68.6787   4.9381702073e+01   5.1644295162e+01    0.1483841    0.1167035 -12.58 0.0004091164    1.569    0.363
        92 -12.3509     81.1624     66.8671   5.1611378508e+01   5.3698406041e+01      0.32827    0.2712154 -36.84 0.0003548464    1.168    0.144
        93  -9.2757    154.4261     67.4596   3.2140439576e+01   3.6855004645e+01    0.1544321    0.1455908 -54.14 0.0001274463    1.025    0.025
        94 -11.7501     16.2436     65.2001   7.7199880705e+01   6.2801626148e+01    0.3474225    0.3070128 -45.75 0.0002336183    1.138    0.121
        95 -10.9369      7.5432     62.9321   8.0576483322e+01   6.3946507217e+01    0.2464537    0.1378632 -55.13 0.0004221769    1.440    0.306
        96 -11.9016     11.7109     59.5364   7.7930287533e+01   6.4479380905e+01    0.2759909    0.2309539 -12.24  0.000264114    1.391    0.281
        97  -9.3262    105.3096     66.6502   4.3876508132e+01   4.8769554318e+01    0.1582837    0.1197458 -74.60 0.0007044528    1.714    0.416
        98  -9.2129    166.4946     64.4755   2.8886315517e+01   3.4333808446e+01    0.1516964    0.1459023 -47.01 0.0008100473    1.023    0.022
        99  -9.8154     52.0281     63.7572   6.1468663076e+01   5.9232355543e+01    0.1868416    0.1727108 -36.20 0.0003443586    1.064    0.060
       100  -9.4220    128.5013     63.5690   3.6608500783e+01   4.3955071709e+01    0.1523815    0.1491305 -56.65 8.231305e-05    1.010    0.010
       101  -9.4602     86.6738     62.6855   4.8264441319e+01   5.3500125781e+01    0.1510498    0.1169272  -3.46 0.0004035067    1.668    0.401
       102  -9.7402     97.5825     60.7919   4.4087497314e+01   5.1610906705e+01    0.2081797    0.1374764 -50.34 0.0003956758    1.553    0.356
       103  -9.4014     36.6846     60.6397   6.6944522886e+01   6.1920094248e+01    0.1456661   0.09045358 -33.35 0.0007042809    1.756    0.431
       104 -12.6721     20.9554     57.1597   7.3032372259e+01   6.4315471268e+01    0.4127892    0.2107494 -59.59  0.002056097    1.603    0.376
       105 -11.8483     77.8676     58.0501   4.9574464097e+01   5.6162314946e+01    0.2410609    0.2140389 -31.19 0.0002897189    1.077    0.072
       106 -11.2213     58.2111     58.8466   5.7291731571e+01   5.9399290322e+01    0.2780972    0.2277464  54.85 0.0005621393    1.442    0.307
       107 -10.1180     41.7477     58.6569   6.4105476498e+01   6.1762258794e+01    0.2136918    0.1796927  45.53   0.00125111    1.382    0.277
       108  -9.9077    216.9991     58.3431   1.9600343327e+01   2.3041614335e+01    0.1822054    0.1710905 -66.59 0.0004953845    1.096    0.087
       109  -9.5052     72.0000     57.9673   5.1663742628e+01   5.7264861256e+01    0.2330458   0.07756812 -45.80  0.000780499    2.792    0.642
       110  -9.5170    130.7637     57.3058   3.3888647474e+01   4.4507324480e+01    0.1509504    0.1138481 -60.91 0.0003016885    1.486    0.327
       111  -9.1185    120.9865     57.7811   3.6438835723e+01   4.6810943207e+01    0.1912113    0.1253692  54.19 0.0003074816    1.558    0.358
       112 -10.1570     30.3817     56.9141   6.8611966651e+01   6.3469046918e+01    0.1854408    0.1743035  36.84 0.0002970316    1.245    0.197
       113 -11.4827     78.3981     50.0803   4.6285285923e+01   5.7633661098e+01    0.3578393    0.2738213  75.09   0.00148094    1.826    0.452
       114 -10.6496     83.5220     50.5379   4.4693686856e+01   5.6525212085e+01    0.2545138     0.233853  57.27 0.0007162013    1.194    0.162
       115  -9.4577     62.3554     55.2359   5.4318519741e+01   5.9503013198e+01    0.2744001    0.1948619 -76.53 0.0006229021    2.093    0.522
       116 -12.5796     62.0252     49.7328   5.2315517388e+01   6.0689788140e+01    0.3187959     0.239199 -44.09   0.00043609    1.231    0.187
       117 -11.4534    115.1741     52.8143   3.6113651864e+01   4.9075543587e+01    0.3286242    0.2463179  47.92  0.000840679    1.360    0.264
       118 -11.5967    105.0265     51.9898   3.8570412906e+01   5.1595859822e+01    0.2486581    0.2165071 -42.71            0    1.129    0.114
       119 -10.9799    101.9712     48.1755   3.7957749803e+01   5.2963541477e+01    0.2944469    0.2120223 -31.26 0.0002743382    1.376    0.273
       120 -11.3611    103.5026     41.4382   3.4808997341e+01   5.3734050562e+01    0.6131698    0.3557156 -24.17  0.002609971    1.906    0.475
       121 -11.2722    109.5904     41.2809   3.3101958293e+01   5.2318800479e+01    0.4643997    0.2806315  62.32  0.002031602    1.800    0.445
       122 -10.4834      3.6176     52.1886   8.0071854055e+01   6.6709228723e+01    0.3308138    0.1196431 -46.96  0.001499149    2.303    0.566
       123  -9.9093    182.3172     54.1516   2.3097317590e+01   3.1969813091e+01    0.2077881    0.1749923 -43.88   0.00040827    1.107    0.096
       124 -10.6513    142.9233     49.1322   2.8367785620e+01   4.2782078919e+01    0.2510439    0.2079236 -41.02 0.0003378824    1.177    0.151
       125 -10.3133    138.4586     50.2098   2.9670465690e+01   4.3750611192e+01    0.2518324    0.2094775  59.57 0.0004326014    1.215    0.177
       126  -9.2319     92.7156     50.2633   4.1578761166e+01   5.4649260462e+01     0.139042    0.1158329 -76.09 0.0006884626    1.488    0.328
       127 -10.6099     86.6126     54.6512   4.5275166291e+01   5.5110630651e+01    0.3204618    0.3016414  44.85  0.001301158    1.123    0.109
       128 -10.7322     16.8088     46.2827   7.1846383806e+01   6.7151984354e+01    0.4009422    0.1804893 -48.67  0.001943706    1.798    0.444
       129  -9.8368    155.2656     47.4110   2.5420856855e+01   3.9870617561e+01    0.2084156    0.1451672  80.92 0.0009387036    1.633    0.388
       130 -11.1752      2.5490     45.8262   7.9073141772e+01   6.8234357494e+01    0.2037334    0.1723874 -45.63 2.038779e-05    1.118    0.105
       131 -12.2329     85.8285     42.5319   4.0617824206e+01   5.7494158340e+01    0.3404743    0.2488494 -30.99 0.0003132743    1.331    0.249
       132 -11.5300     38.3592     41.8327   5.9499598902e+01   6.5834667005e+01    0.2934992    0.2638337  40.87 0.0003309626    1.317    0.241
       133 -10.5860     27.1044     42.7650   6.5408022395e+01   6.6958380104e+01    0.2754345    0.1774065  23.41  0.001278498    1.782    0.439
       134 -11.9262    141.3895     41.0031   2.5795274742e+01   4.4394452579e+01     0.309011    0.2294519  75.08 0.0005441779    1.436    0.303
       135 -11.7040     91.6253     40.5260   3.7914374612e+01   5.6581245139e+01    0.3896886    0.2586424 -48.53  0.000663472    1.629    0.386
       136 -10.3789    184.2036     40.6539   1.8752054149e+01   3.3395864401e+01    0.5393977    0.2669749  82.16  0.002058054    2.623    0.619
       137 -10.3263    116.2886     39.6214   3.0745790608e+01   5.0948505497e+01    0.3729877    0.1865028 -48.94  0.001068741    2.326    0.570
       138 -10.8477     61.6325     41.0608   4.8848533701e+01   6.2445025713e+01    0.3018885    0.1929665  38.89 -0.000275831    1.671    0.402
       139  -9.7968     50.5131     40.3098   5.3243869874e+01   6.4416541666e+01    0.2649942    0.1240689 -49.71  0.001134474    2.098    0.523
       140 -10.8374     18.8982     39.8077   6.8582851287e+01   6.8398176740e+01    0.3884833     0.237181 -29.69    0.0021077    1.703    0.413
       141 -10.3834     22.9188     35.2226   6.4677329817e+01   6.8985345928e+01    0.2639039    0.1488497 -49.79 0.0005692304    1.478    0.323
       142  -9.8786      2.4762     39.7046   7.7469765948e+01   6.9620798773e+01     0.217391    0.1310421  36.04  0.001214986    2.055    0.513
       143 -10.5169     81.1326     38.7104   4.0536605001e+01   5.9131124876e+01     0.230277    0.1816082 -41.03 0.0002236549    1.256    0.204
       144 -10.0543     55.2555     38.7070   5.0469705787e+01   6.3967235414e+01     0.360662    0.1621525  30.13  0.001408368    2.945    0.660
       145 -11.4886    121.7167     37.2104   2.8516378304e+01   4.9957540513e+01    0.3661083    0.2601237 -26.82 0.0008953636    1.431    0.301
       146  -9.2245    118.2654     34.7179   2.8323306728e+01   5.1177427088e+01    0.1488094    0.1400147  21.78            0    1.087    0.080
       147  -9.8161     30.1820     37.4323   6.1753582100e+01   6.7740628308e+01    0.1650588    0.1260404  20.36 0.0008327708    1.461    0.316
       148 -11.1112    112.3989     34.3677   2.9580200350e+01   5.2677631042e+01    0.4158075    0.3026198 -41.19  0.001359856    1.388    0.279
       149 -11.2286     67.1797     35.7068   4.4244241756e+01   6.2405773726e+01    0.2581867    0.2447536  79.94 0.0002794002    1.287    0.223
       150 -10.0120     37.3356     35.9700   5.7523432478e+01   6.7152422235e+01     0.226467   0.07954887 -34.29 0.0007040044    4.266    0.766
       151  -9.0734    225.7296     35.6046   1.2706744897e+01   2.4047965130e+01    0.1307946    0.1020034  12.11 0.0004212298    1.731    0.422
       152  -9.3945    150.6333     35.7657   2.2249369366e+01   4.2722605760e+01    0.1513939    0.1064689  39.64 0.0004150815    1.597    0.374
       153  -9.1964     50.0025     33.4867   5.0391558560e+01   6.5784638057e+01    0.1768119    0.1316651  36.21 0.0003812441    1.449    0.310
       154 -11.9773     11.1031     29.8415   6.9212847461e+01   7.1175395568e+01      0.26105    0.2047277  36.27  0.001693579    1.585    0.369
       155  -9.7513    117.3020     29.5458   2.6452763024e+01   5.2128795558e+01    0.2511736    0.1320838 -27.13 0.0006980772    1.932    0.482
       156  -9.6694     99.2407     30.6090   3.1397679068e+01   5.6373908513e+01    0.1970886    0.1283827  45.17 0.0002500263    1.530    0.346
       157  -8.9486    161.6589    249.2955   6.8346587468e+01   3.5007054208e+00     0.107481   0.07430308  53.26 0.0004127465    1.660    0.397
       158 -10.3178    135.7328     29.0724   2.2486371832e+01   4.7480004781e+01    0.2106171    0.1869545 -51.96 0.0003256135    1.136    0.119
       159 -10.8618     80.6157     27.5236   3.5581804981e+01   6.1007764247e+01    0.3554096    0.2318901 -12.11  0.001681571    1.783    0.439
       160  -9.7029     40.0710     29.6919   5.3275330486e+01   6.7978257086e+01    0.2385589    0.1144191  42.50 0.0009293017    2.428    0.588
       161 -12.2945    216.9645     25.6210   1.0881656544e+01   2.7258390502e+01    0.2792791    0.2269339 -79.93 0.0003117594    1.206    0.171
       162 -11.9712    213.0226     23.9315   1.0778551499e+01   2.8381192579e+01    0.2798161    0.2086575 -57.19   0.00028999    1.205    0.170
       163 -10.8102    183.0083     25.5808   1.4308557343e+01   3.5593459177e+01    0.2428539    0.1974961 -32.57 0.0002664077    1.211    0.174
       164  -9.3615    131.6601     26.2517   2.2175881222e+01   4.8888782169e+01    0.2306934    0.1255551 -38.14 0.0002893783    1.810    0.447
       165 -11.1674    130.6830     21.9536   2.0690448534e+01   4.9656637067e+01    0.3915467    0.2533204  30.73   0.00145989    1.850    0.459
       166 -10.6780     59.8797     25.9753   4.2444475255e+01   6.5377981947e+01     0.205481    0.1871269  20.18 0.0002819354    1.113    0.102
       167 -10.6885     31.8437    248.0594   9.1488049943e+01   2.0469785530e+01    0.1694972    0.1512878  60.87 0.0005778321    1.377    0.274
       168  -9.8467    229.9538    247.4761   5.6746179175e+01  -5.3236634434e+00    0.1495593    0.1109038   5.76 0.0005302314    1.107    0.097
       169  -9.4339    131.3184    247.6758   7.3563633828e+01   7.9442011951e+00     0.112348   0.07301988  57.90 0.0005685143    1.673    0.402
       170  -9.8025    116.3747    247.1755   7.6222310666e+01   1.0085279525e+01    0.1386926    0.1023241 -86.83 0.0009517101    1.791    0.442
       171 -10.5633     52.1582    244.5734   8.7712383339e+01   1.8769873784e+01    0.1697358    0.1377738 -28.85  0.001208095    2.223    0.550
       172  -9.6784    243.3049    244.3718   5.4247519541e+01  -6.6364650844e+00    0.1103617   0.06083358   6.29 0.0007032366    1.758    0.431
       173 -10.5674     37.9462    241.9052   9.0112243836e+01   2.0840878853e+01     0.249017   0.08607639  59.75  0.001271495    2.540    0.606
       174  -9.8827     42.4925     25.0178   4.9748556468e+01   6.8457287775e+01    0.2017785   0.09989764 -23.53 0.0008096038    2.781    0.640
       175  -9.7976     52.2996     23.6258   4.4457609640e+01   6.7100539122e+01    0.1735816    0.1546643 -21.65 0.0007914258    1.073    0.068
       176 -10.7491     47.7796     23.3681   4.6369342971e+01   6.7901172827e+01    0.2276256      0.18101 -24.70  0.000343899    1.128    0.113
       177 -10.4660    106.8828     21.1216   2.5284092087e+01   5.5782704262e+01    0.2254733    0.1874313  40.77 0.0003221944    1.181    0.153
       178 -11.0138    100.8363     21.7294   2.7027080692e+01   5.7177730584e+01    0.4146114    0.3232208  71.20  0.002183514    1.398    0.285
       179  -9.9615    103.3224     17.5962   2.4554725894e+01   5.7068862373e+01    0.2364509    0.1573702  27.49  0.000443037    1.697    0.411
       180  -8.9017      4.0000     23.0162   7.0863334124e+01   7.3109940090e+01    0.2026979   0.05666759 -59.46 0.0008056419    2.965    0.663
       181 -10.0919     15.7905     21.3470   6.2657106205e+01   7.2469037739e+01    0.2108045    0.1493067 -53.38 0.0009778681    1.364    0.267
       182 -10.6226    163.4643     20.2067   1.4991832284e+01   4.1266393037e+01    0.2650595    0.2212695  45.81 0.0007576694    1.294    0.227
       183  -9.5969     64.5311     21.4560   3.8268490547e+01   6.5185696289e+01    0.1352879    0.1215196  -1.23 1.746053e-05    1.010    0.010
       184  -9.9456     26.5739     21.3300   5.6242481199e+01   7.1291594420e+01    0.1912212    0.1329456  -3.26 0.0005571853    1.615    0.381
       185  -9.4839    113.8398     20.6345   2.3505834011e+01   5.4112992681e+01    0.2024116    0.1351196  78.09 0.0009405016    1.710    0.415
       186 -10.2421     77.3652     19.0082   3.2460439308e+01   6.2886304499e+01    0.3109884    0.1757716 -43.55  0.001270614    1.981    0.495
       187 -10.6758     44.4801     18.2793   4.5160095462e+01   6.9255186715e+01    0.2860102    0.1862155  24.13 0.0005490209    1.678    0.404
       188 -10.2932    207.8895     17.9576   9.6031674467e+00   3.0277085286e+01    0.2056039    0.1758149 -56.19 0.0004477258    1.018    0.018
       189 -10.0261     70.7369     18.2397   3.4305076312e+01   6.4386599118e+01    0.1917048    0.1797042 -28.18  0.000671841    1.151    0.131
       190 -10.5008    214.6047     16.4722   8.6447730872e+00   2.8839646962e+01    0.2573003    0.1930839 -61.09 0.0009412313    1.193    0.161
       191 -10.4881    148.0018     16.7948   1.5929817213e+01   4.5698472286e+01    0.2246825    0.1923003 -38.92 0.0003089063    1.170    0.146
       192  -9.9145    142.9060     17.2470   1.6853408909e+01   4.6989420547e+01    0.2131802    0.1805961 -64.48  0.001156829    1.200    0.166
       193  -9.4353     24.9821     17.5885   5.5162417315e+01   7.2154228138e+01    0.1619418    0.1162184  22.43 0.0009810035    1.491    0.329
       194 -10.2601     15.2792     15.3984   5.9934991643e+01   7.3634672447e+01    0.3406352    0.1943831   3.32  0.001643397    2.296    0.564
       195  -9.8980    153.1913     12.7966   1.3795555762e+01   4.4747480403e+01    0.2080739    0.1769768 -63.05 0.0003749602    1.156    0.135
       196 -10.0975    136.5920     12.6901   1.6115409007e+01   4.9117799480e+01    0.1893899    0.1270986 -36.98 0.0005570944    1.494    0.331
       197  -9.5290    117.7008    238.6830   7.5120225166e+01   1.1177514321e+01    0.1057664   0.08398585  10.67  0.000261739    1.614    0.381
       198 -11.1023      1.5277    233.4476   9.6204776361e+01   2.6019473345e+01     0.292582   0.08010687 -79.80   0.00137574    3.378    0.704
       199 -11.4336     25.7843    232.8045   9.1855898701e+01   2.3742861499e+01    0.3972439    0.1364768  28.86  0.001843407    3.578    0.720
       200 -10.9820     55.5876    231.0781   8.6214193432e+01   2.0684203005e+01    0.2484143    0.1646775  31.13  0.001622453    1.650    0.394
       201  -9.5878     61.7574     12.5121   3.4470914554e+01   6.6946290354e+01     0.163197     0.129889  62.56 0.0003665173    1.530    0.346
       202 -12.0515      2.7198    221.2399   9.5596152536e+01   2.8123637781e+01     0.450685    0.1664727  76.93  0.002347788    2.395    0.583
       203  -9.4127    210.4412    215.5257   5.5140041021e+01   8.1643239773e-01    0.1177962   0.09221596  12.36 0.0001219187    1.041    0.039
       204  -9.2721    203.6711     11.3185   8.1250149265e+00   3.2003427714e+01    0.1492307   0.08399281 -57.86 0.0003624689    1.684    0.406
       205  -9.8473    237.6878    186.7638   4.5720824283e+01   4.5006887491e-01    0.1860216    0.1233006  -7.62 0.0007165993    1.416    0.294
       206  -9.8087      1.5716    170.2189   9.3702138304e+01   3.8614402887e+01    0.1621027   0.08854339 -73.46 0.0008055932    1.656    0.396
       207  -9.2353    229.5045    165.4981   4.2985611921e+01   4.5303602164e+00    0.1267737    0.1071837  -4.92 0.0001232288    1.021    0.020
       208 -10.1809     13.7084    164.6020   9.0543468138e+01   3.8832892960e+01    0.1604824   0.09366818  47.47 0.0005730399    1.546    0.353
       209  -9.4735    213.2016    155.2257   4.3620437802e+01   8.8008262759e+00    0.1694378    0.1540736 -44.63  0.001047534    1.318    0.241
       210 -10.5509      6.9577    153.8086   9.1468737046e+01   4.1888003758e+01     0.226026    0.1304434  55.80 0.0008760236    1.531    0.347
       211 -10.0380     23.0043    148.4785   8.6944323659e+01   4.1723061265e+01    0.2508551    0.1458364 -63.29  0.001051032    1.642    0.391
       212 -11.1859      4.2298    145.1102   9.1577841057e+01   4.4133735155e+01    0.3143453    0.2330727  39.07  0.002064613    1.473    0.321
       213  -9.4523    206.5338    145.4510   4.2704618625e+01   1.1549600910e+01     0.136182    0.1225893  -7.59 0.0001605127    1.005    0.005
       214  -9.3423     32.0456    140.9825   8.3752719506e+01   4.2626271600e+01    0.1542481    0.1261995  87.81 -0.001877172    1.014    0.014
       215  -9.8430     54.2177    140.0070   7.7473346248e+01   4.0289325291e+01    0.1811698    0.1584317  88.16 0.0003181226    1.018    0.017
       216  -9.1626    235.3269    137.6920   3.6296510393e+01   7.5151187710e+00     0.123578   0.09977438 -57.27 0.0004692192    1.655    0.396
       217  -9.5954     68.8805    136.1417   7.2765340517e+01   3.9223042474e+01    0.1831406    0.1564264 -52.06 0.0003786157    1.269    0.212
       218  -9.9752     70.3816    130.4980   7.1358200217e+01   4.0380342131e+01    0.2369516     0.152457 -46.69  0.001126232    1.704    0.413
       219 -10.2777     74.9792    126.7057   6.9328134086e+01   4.0610932823e+01      0.27547    0.1669206 -62.10  0.001169914    1.553    0.356
       220  -9.9484      2.4895    125.4725   9.0593281957e+01   4.8952610830e+01    0.2264377   0.09374242  86.52  0.001014478    2.264    0.558
       221 -11.3056     24.5430    121.6731   8.3657106641e+01   4.8119210064e+01    0.4362769    0.1889006  89.03  0.001752229    2.698    0.629
       222 -13.3550     83.1388    119.7653   6.5542542161e+01   4.0990406731e+01    0.3791806    0.3432329 -73.19 0.0006447162    1.030    0.029
       223 -10.1799     74.7864    121.9760   6.8458139118e+01   4.1799285141e+01    0.2296555    0.2002723  51.57 0.0002721947    1.183    0.154
       224 -10.6362     10.0999    121.1135   8.7963429463e+01   4.9469305056e+01    0.2115851    0.2000436   6.76 0.0006523383    1.393    0.282
       225 -11.0902     14.9861    118.1635   8.6169548567e+01   4.9816628500e+01    0.4012851    0.1818206 -42.33  0.001733648    2.976    0.664
       226  -9.5175     92.4885    117.5567   6.2341209732e+01   3.9908297316e+01    0.1499275    0.1385535 -86.50 8.251402e-05    1.039    0.038
       227 -10.6273     27.0544    116.9651   8.2272278065e+01   4.9057967342e+01    0.1959696    0.1648871 -82.30 0.0003326721    1.022    0.021
       228 -10.7718     69.6999    115.3733   6.8646551427e+01   4.4207433389e+01    0.3471772    0.2384721  40.65  0.001723923    1.534    0.348
       229 -12.1968      1.4856    104.8170   8.9028727316e+01   5.4066357750e+01    0.3621899    0.1164415 -75.50 0.0005332367    2.418    0.586
       230 -11.3406      5.8020    113.5881   8.8531540775e+01   5.1629415914e+01    0.3262166    0.1662838 -55.72   0.00168824    1.869    0.465
       231 -10.2281      2.5225    111.5761   8.9361189610e+01   5.2340947426e+01     0.214827    0.1495277 -89.50 4.454712e-05    1.171    0.146
       232 -10.8843     40.2883    112.3575   7.7365139875e+01   4.8845125824e+01    0.2290173    0.1862286 -55.69 0.0006376439    1.228    0.185
       233 -11.1748     24.3137    112.2554   8.2500877358e+01   5.0491099655e+01    0.3993221    0.2313333 -33.01  0.001371394    2.474    0.596
