#   1 NUMBER                 Running object number                                     
#   2 MAG_AUTO               Kron-like elliptical aperture magnitude                    [mag]
#   3 X_IMAGE                Object position along x                                    [pixel]
#   4 Y_IMAGE                Object position along y                                    [pixel]
#   5 X_WORLD                Barycenter position along world x axis                     [deg]
#   6 Y_WORLD                Barycenter position along world y axis                     [deg]
#   7 A_WORLD                Profile RMS along major axis (world units)                 [deg]
#   8 B_WORLD                Profile RMS along minor axis (world units)                 [deg]
#   9 THETA_WORLD            Position angle (CCW/world-x)                               [deg]
#  10 FWHM_WORLD             FWHM assuming a gaussian core                              [deg]
#  11 ELONGATION             A_IMAGE/B_IMAGE                                           
#  12 ELLIPTICITY            1 - B_IMAGE/A_IMAGE                                       
         1 -13.8089    231.8774     18.7861   4.6502089891e+01   2.4623251940e+01     1.234967    0.6031759 -13.30  0.004840628    2.813    0.645
         2 -14.6802    233.1420     85.1875   6.4039433871e+01   1.5138301585e+01     3.623131    0.9434773 -35.98   0.01113992    3.358    0.702
         3 -13.6806    234.0889     34.8893   5.0536388496e+01   2.2109044574e+01     1.165323    0.6636968 -21.21  0.005175876    1.918    0.479
         4 -14.9277    245.4942     35.4337   4.9349556444e+01   1.9235231073e+01      5.75083     1.323073 -25.55   0.01566648    5.082    0.803
         5 -13.4797    247.6376     89.7087   6.2972200209e+01   1.1095592795e+01     2.569377    0.6327186 -32.11   0.00777692    3.655    0.726
         6 -13.3023    249.1311     65.9760   5.6747422590e+01   1.4227922054e+01     3.889794    0.5812529 -28.05  0.007253681    9.943    0.899
         7  -9.9934      6.6541     11.8985   1.0289858894e+02   7.0577308675e+01    0.1661361    0.1143865 -25.44 0.0005028988    1.272    0.214
         8  -9.7896    116.5234      5.4798   6.0387962664e+01   5.5283800087e+01    0.1369512    0.1198556  22.90 3.227947e-05    1.012    0.012
         9 -10.4830    110.9642      4.9905   6.1503940524e+01   5.6560694450e+01    0.2036123    0.1714354  19.57            0    1.060    0.057
        10  -9.9313     50.9603      3.3265   7.9595332432e+01   6.7518098982e+01    0.1605823    0.1274191   0.81 0.0003420321    1.095    0.087
        11 -10.1486      1.3658      6.9804   1.0353837087e+02   7.1724171511e+01    0.2179448   0.07578845 -53.14 0.0008530894    2.182    0.542
        12  -9.4677    159.0056      1.9947   5.0892776440e+01   4.5320334727e+01    0.1699711    0.1595201  43.68 0.0008956844    1.030    0.029
        13  -9.0514     14.7079      1.7263   9.4847128721e+01   7.1672368502e+01    0.1085629   0.06249645 -22.96            0    1.518    0.341
        14 -10.0839    219.8449    239.6413   9.8049685522e+01  -4.0303383250e+00    0.1763853    0.1476222 -56.49  0.000984599    1.882    0.469
        15  -9.6443    236.9065    198.2041   8.8540249055e+01  -2.1714225847e+00    0.2134249    0.1666408 -15.89 0.0007028955    1.335    0.251
        16 -11.2364    233.3779    213.5408   9.1782657102e+01  -3.3776122988e+00    0.5351228    0.3503959 -48.54  0.003093652    2.355    0.575
        17 -10.7187    232.5063    174.0345   8.4741461291e+01   1.7612481989e+00    0.2652442    0.1903999 -27.39  0.001015264    1.450    0.310
        18 -11.1969    250.5397    244.8976   9.3967436249e+01  -9.2924516653e+00    0.4870056    0.2586148  -9.23  0.002912525    2.404    0.584
        19 -11.0886    230.1211    187.0092   8.7651019002e+01   4.6049319238e-01    0.5858348    0.2124857 -41.13  0.002382674    3.339    0.700
        20 -10.9683    248.4285    239.7493   9.3522217504e+01  -8.5035676975e+00    0.3698508    0.2060366 -18.35  0.002343009    2.083    0.520
        21 -10.9033    246.9752    233.0756   9.2724700991e+01  -7.6435926998e+00    0.4495417    0.3226258 -57.78  0.002657112    3.113    0.679
        22 -11.3012    240.3933    207.7798   8.9641272478e+01  -3.9006749486e+00    0.4500693    0.3170677 -53.90  0.002573075    2.472    0.596
        23 -11.5085    237.0526    186.7681   8.6415201165e+01  -7.6968585878e-01    0.5981796       0.2316 -35.46  0.002633672    2.786    0.641
        24 -11.1992    234.2305    180.1675   8.5641227973e+01   6.0860269664e-01     0.590717    0.3592144  60.56  0.002822412    2.406    0.584
        25 -11.7525    246.8984    225.8846   9.1598477349e+01  -6.9158228608e+00    0.4321637    0.3636546  59.96  0.003035546    1.802    0.445
        26 -11.4746    240.1093    220.5182   9.1825095899e+01  -5.2672295371e+00    0.5082037    0.2699223 -34.44  0.002936696    2.237    0.553
        27 -11.0137    235.0868    202.7898   8.9659326160e+01  -2.4087495865e+00    0.3480639    0.2290321 -38.63  0.001643348    1.861    0.463
        28 -11.3857    231.1722    196.6263   8.9230482559e+01  -9.6539653720e-01    0.6678021    0.1981005 -37.21  0.002634292    3.767    0.735
        29 -10.8087    232.8736    247.7010   9.7128291903e+01  -6.8855679871e+00    0.2744659    0.2132199 -33.06  0.001713457    1.737    0.424
        30 -10.2385    224.7510    248.6551   9.8540076716e+01  -5.7258341838e+00    0.2431723    0.2038833 -77.63  0.001731901    2.253    0.556
        31 -10.4607    224.5914    243.0190   9.7771682298e+01  -5.1355390134e+00    0.2024968    0.1558795  50.98  0.001029558    1.468    0.319
        32 -10.9269    209.9510    247.1358   1.0068251663e+02  -3.2453292586e+00    0.3600636    0.2965958 -43.97  0.002744662    1.707    0.414
        33 -11.4523    193.6604    247.9843   1.0340724591e+02  -7.3406444241e-01    0.3244391    0.3036718 -62.56  0.002417297    1.488    0.328
        34 -10.1823    150.6007    250.1930   1.1058818234e+02   5.8735440369e+00    0.1224483    0.1064394 -32.59 0.0009471207    1.673    0.402
        35  -9.5277    214.0121    240.5140   9.9116081134e+01  -3.1863325463e+00    0.1405403   0.08640459  59.04 0.0004059639    2.173    0.540
        36 -10.3171    148.4053    240.2247   1.0984532235e+02   7.5512073226e+00    0.1378333    0.1032568 -80.99 0.0008871736    1.703    0.413
        37 -11.2865    230.2418    236.4158   9.5903655455e+01  -5.3531001895e+00    0.3188297    0.2449495 -61.32  0.001573643    2.470    0.595
        38 -10.2174    225.6733    231.5672   9.5915175065e+01  -4.1077949950e+00    0.1770678    0.1522084 -55.35 0.0007377009    1.810    0.447
        39 -11.4704    191.5710    236.3252   1.0221253686e+02   9.6937553525e-01    0.4918388    0.3311485  80.87  0.002627007    3.038    0.671
        40 -10.1066    236.8278    235.0462   9.4642071694e+01  -6.2553416251e+00    0.1532418    0.1350708  65.86  0.001115888    1.759    0.432
        41 -11.2382    235.4427    229.0367   9.3940534806e+01  -5.4169549477e+00    0.3438284     0.203214 -34.87  0.001546654    2.091    0.522
        42 -11.3540    216.4540    233.1153   9.7653161184e+01  -2.7721166844e+00    0.3252904    0.3210475   8.92  0.002030466    1.388    0.279
        43 -10.2062    170.6735    235.0785   1.0552959671e+02   4.6022813340e+00    0.1656247    0.1367682  79.96  0.001170588    1.484    0.326
        44 -10.1723    201.8482    231.5725   9.9843494243e+01  -1.7324736229e-01    0.1883135    0.1541228 -65.06  0.001053926    1.844    0.458
        45 -10.9727    198.6939    226.2342   9.9602097997e+01   1.0076746608e+00    0.2757508    0.2144034 -57.75  0.001341861    1.843    0.457
        46 -10.2813    158.2249    231.2144   1.0713911689e+02   7.1945328088e+00    0.1568614   0.09276146 -65.48 0.0008806018    2.484    0.597
        47 -10.5775    229.6220    228.0770   9.4737315737e+01  -4.3733519001e+00    0.2406884    0.1854124 -45.90  0.001081048    1.897    0.473
        48 -10.7977    228.0867    221.6909   9.3987395979e+01  -3.4167531980e+00     0.326919    0.2113046  52.61  0.001936401    1.729    0.422
        49  -9.7641    228.2847    216.5249   9.3122591977e+01  -2.8616289760e+00    0.2296976    0.1361455 -33.64 0.0008266406    1.985    0.496
        50 -10.2992    211.8740    227.2971   9.7546934089e+01  -1.3488318505e+00     0.231292    0.1627464 -36.09   0.00151984    1.772    0.436
        51  -9.7340    184.5935    227.7680   1.0220970322e+02   3.2148044144e+00    0.1396451    0.1142615 -63.26 0.0009497188    1.663    0.398
        52 -10.0847    138.3504    228.6775   1.1020746213e+02   1.0825539452e+01    0.1219032   0.07544012  67.73 0.0007048495    1.748    0.428
        53 -10.3013    223.1562    226.2092   9.5509914823e+01  -3.1056003712e+00    0.1794917    0.1697339  14.50 0.0008611007    1.303    0.233
        54 -10.3052    190.6351    225.7607   1.0090005020e+02   2.4427683502e+00    0.2193331     0.143925 -44.49  0.001184781    1.943    0.485
        55 -10.5536    205.9507    225.1031   9.8211111782e+01  -8.7867275341e-02    0.2371437    0.1711057 -48.21  0.001527513    1.891    0.471
        56 -11.4631    217.1029    222.7421   9.5979670344e+01  -1.6959050493e+00    0.3737715    0.2554691 -44.03  0.001658651    1.962    0.490
        57 -11.4926    218.4997    214.3872   9.4421070583e+01  -9.3784518714e-01    0.5861527    0.3056694 -49.82  0.002878347    3.118    0.679
        58 -10.7657    206.6796    236.2501   9.9709443223e+01  -1.5194887140e+00    0.3098218    0.2543334 -58.12  0.002203476    1.817    0.450
        59 -10.0750    186.3386    221.4466   1.0101594358e+02   3.7458863963e+00    0.2492049     0.112715 -47.92  0.001238036    2.912    0.657
        60  -9.8583    201.7533    220.9046   9.8291896401e+01   1.1489372066e+00    0.1950231    0.1511295 -41.50  0.001295751    1.629    0.386
        61 -11.1700    250.1538    200.2395   8.6704102627e+01  -4.6827061863e+00    0.3890489    0.1689465 -31.36  0.001689142    2.468    0.595
        62 -11.6767    245.8803    191.7285   8.5854936336e+01  -2.9527283670e+00    0.6043177    0.3760877 -49.28  0.003127914    2.573    0.611
        63 -10.4177    241.4761    191.4703   8.6543954651e+01  -2.1495095780e+00    0.2353904    0.1774099 -41.73 0.0007453624    1.707    0.414
        64 -12.3672    247.8950    216.4252   8.9884469506e+01  -6.0927266513e+00    0.5670797    0.3071669 -28.34  0.002556136    2.047    0.511
        65 -11.2404    246.8947    206.2683   8.8307506075e+01  -4.8194361835e+00    0.3800787    0.2201061 -46.93   0.00190728    2.810    0.644
        66 -10.7914    243.2045    200.5384   8.7903854881e+01  -3.5391953341e+00       0.3871    0.2425598 -25.04  0.001799271    1.705    0.414
        67 -10.5879    193.4931    219.0180   9.9425433678e+01   2.8236105444e+00    0.2698402    0.2079714 -82.90  0.001629004    2.112    0.526
        68 -10.1275    210.9594    218.2653   9.6318585074e+01  -1.1075406343e-01    0.2267574    0.1679087 -43.48  0.001459308    1.748    0.428
        69  -9.5867    205.4780    217.0819   9.7069410298e+01   9.8576110518e-01    0.2098031    0.1202919 -29.94  0.001167571    2.172    0.540
        70  -9.7087    204.8323    212.5215   9.6464114808e+01   1.6823440916e+00     0.189371    0.1579749 -58.04 0.0007315753    1.661    0.398
        71  -9.9389    170.6682    216.5420   1.0304460601e+02   7.1539968044e+00    0.1863604    0.1162657 -46.95  0.001085704    1.975    0.494
        72  -9.7028    185.5329    215.0216   1.0021255991e+02   4.7567288919e+00    0.1574003    0.1234753 -45.66  0.000925247    1.578    0.366
        73  -9.6463    138.3710    215.1551   1.0857431850e+02   1.2904019567e+01    0.1501606    0.1084374 -77.44 0.0005743196    1.660    0.397
        74 -10.6482     36.5106    214.5039   1.2588675973e+02   2.7330368829e+01    0.1058567   0.07279268  74.07 0.0008104756    1.023    0.023
        75 -10.1452    177.1662    211.1825   1.0111744582e+02   6.7813452020e+00     0.167369    0.1367883  66.58 0.0007350247    1.345    0.256
        76 -10.3654    192.7078    209.4089   9.8091743673e+01   4.2544278163e+00    0.2603599    0.1841014 -70.95  0.001419637    2.397    0.583
        77 -10.6097    229.4423    206.7710   9.1300180634e+01  -1.9095181281e+00    0.3534212    0.1341008 -36.18  0.001619814    3.019    0.669
        78  -9.6082    227.5523    201.0565   9.0633549473e+01  -8.7801548149e-01    0.2067962    0.1523735 -42.81 0.0008109958    1.744    0.427
        79 -10.2299    224.7324    207.2970   9.2188248481e+01  -1.1545655849e+00    0.2509182    0.1374694 -39.25  0.001355511    2.208    0.547
        80 -10.1975    206.2123    207.5854   9.5429111566e+01   2.0828312044e+00    0.2090381    0.1785921 -28.39  0.001398716    1.373    0.272
        81  -9.6876    183.1219    207.1433   9.9441829999e+01   6.2975044597e+00    0.1612569    0.1403081  70.34 0.0006770584    1.320    0.242
        82 -10.1990    217.2518    204.6065   9.3015620817e+01   5.0082151212e-01    0.2050841    0.1680046 -24.05  0.000861257    1.383    0.277
        83 -10.1281    202.4351    204.3475   9.5560719651e+01   3.1957506289e+00    0.2155486    0.1243588 -38.73  0.001163688    2.046    0.511
        84 -10.2856    197.5309    203.7891   9.6337511740e+01   4.1618605394e+00    0.2597499    0.1254174 -41.80   0.00113556    2.469    0.595
        85  -9.8555    210.1670    200.2078   9.3503138348e+01   2.3528266656e+00    0.1946764    0.1555798 -60.51  0.001171815    1.806    0.446
        86 -10.4301    187.2890    203.2252   9.8077633872e+01   6.1076687326e+00    0.2668872    0.1885815 -73.37  0.001422405    2.344    0.573
        87 -10.1816    222.8209    200.6599   9.1376526551e+01   1.2483383539e-02    0.3305332    0.2069848  53.74  0.001800487    1.782    0.439
        88 -10.0266    215.4405    197.8190   9.2164482655e+01   1.7129973597e+00    0.2140181    0.1220071 -40.72   0.00112503    2.085    0.520
        89 -10.2151    202.0718    197.1971   9.4425728674e+01   4.2514929740e+00    0.2077684    0.1966877 -75.74  0.001274261    1.355    0.262
        90 -10.0426    176.4382    197.6983   9.9167416474e+01   8.9260977602e+00    0.2087809    0.1267959 -51.05 0.0009332346    2.008    0.502
        91 -10.1677    226.5953    196.7801   9.0042905613e+01  -1.6753937645e-01    0.2528661    0.2073494 -48.99   0.00135416    1.659    0.397
        92 -10.7694    224.2655    192.0217   8.9590646216e+01   8.7175765655e-01    0.3314832    0.2081481 -38.14  0.001503221    1.839    0.456
        93  -9.6382    170.0000    196.9762   1.0024200874e+02   1.0225934302e+01    0.1869656   0.07481387 -45.61 0.0008009928    2.932    0.659
        94 -10.1598    172.9669    203.5571   1.0072108454e+02   8.6652779238e+00     0.212729    0.1731813 -75.57 0.0007184731    1.580    0.367
        95  -9.7732    219.2178    194.2377   9.0870806488e+01   1.5007245473e+00    0.1630461    0.1457435  58.03 0.0007970066    1.363    0.266
        96  -9.8613    209.4714    194.0995   9.2567512169e+01   3.3146104002e+00    0.1792817    0.1267227 -31.08  0.001033831    1.601    0.375
        97  -9.7925    146.3651    193.2356   1.0410389728e+02   1.5142612037e+01    0.1655235    0.1184457 -68.71 0.0007577221    1.655    0.396
        98  -9.7119    198.6270    190.8062   9.3941839593e+01   5.8129527617e+00    0.1674365    0.1230356 -50.59 0.0009461982    1.702    0.413
        99 -10.0989    172.4536    190.7459   9.8778927033e+01   1.0762177703e+01    0.2214792     0.129539 -50.86  0.001126068    2.035    0.509
       100 -10.2190    185.4713    190.0120   9.6223417713e+01   8.4214862187e+00    0.1791039    0.1315248 -41.38 0.0008261657    1.570    0.363
       101 -10.4980    210.4187    187.8219   9.1276111490e+01   4.0180897191e+00    0.3163324    0.1205763 -43.03  0.001293987    3.151    0.683
       102 -10.7802    244.1427    237.2632   9.3817477489e+01  -7.6131712291e+00    0.3264425    0.1842716 -42.22   0.00194876    2.700    0.630
       103 -11.4705    241.4817    180.3055   8.4427645526e+01  -7.4182522751e-01    0.4736841    0.2574713 -41.60   0.00215317    2.242    0.554
       104 -12.0702    229.5440    143.9905   7.8950725368e+01   6.7198693723e+00     1.740185    0.3386065 -31.50  0.004092068    7.037    0.858
       105 -12.3794    247.5480    179.1833   8.3188301455e+01  -1.6956696628e+00     1.315519    0.5116674 -42.33  0.005319718    3.442    0.709
       106 -12.7278    236.6861    162.4223   8.1661770533e+01   2.5760156751e+00     1.446696    0.6617326 -41.74  0.006240533    2.523    0.604
       107 -10.1027    240.2911    231.7285   9.3578876668e+01  -6.4658064403e+00    0.2009385    0.1875347 -47.68  0.001017534    1.679    0.404
       108 -13.1428    240.8085    120.9958   7.1714257831e+01   7.8544779195e+00     2.639994    0.5295838 -30.89  0.006644906    5.629    0.822
       109 -12.6111    248.9221    132.6724   7.3094209337e+01   4.4149596477e+00      1.88165    0.3024783 -35.02  0.005043115    5.324    0.812
       110 -12.6661    248.4915    120.7898   7.0409244431e+01   6.2524295713e+00     1.447118    0.2949337 -36.78  0.004202009    4.320    0.769
       111  -9.9157    220.4655    187.0265   8.9341639959e+01   2.2440032394e+00    0.1815107    0.1260823 -29.65  0.001025473    1.575    0.365
       112  -9.9939    215.1731    186.9056   9.0258049897e+01   3.2518463757e+00    0.1800787    0.1741186  76.57 0.0005779064    1.319    0.242
       113 -10.6264    223.8966    183.6628   8.8109208074e+01   2.0629649754e+00    0.3546061    0.2015957 -43.21  0.001678354    2.139    0.532
       114 -10.4161    226.4168    177.5320   8.6493006544e+01   2.4330341596e+00    0.4448252    0.2510365  -6.84  0.001907114    2.805    0.643
       115 -10.5428    166.1780    186.2324   9.9221513500e+01   1.2682765654e+01    0.1811623    0.1485688  73.47  0.000828471    1.350    0.259
       116 -10.6934    197.8862    182.9750   9.2677886641e+01   7.1232667064e+00    0.3660591     0.182998 -48.24   0.00165206    2.524    0.604
       117 -10.2766    197.6257    176.6080   9.1547052174e+01   8.1536837505e+00     0.281067    0.1759145 -46.91 0.0009386218    1.883    0.469
       118 -10.2971    190.9579    179.5033   9.3335746234e+01   9.0069361412e+00    0.2805544    0.1861934 -50.95   0.00139025    1.832    0.454
       119  -9.6857    218.1082    183.1135   8.9030774784e+01   3.2293306761e+00     0.229999    0.1876606 -28.69  0.001397146    1.343    0.256
       120 -10.5940    219.0790    177.5986   8.7808541484e+01   3.8254934804e+00    0.3509036    0.1858212 -32.36  0.001668714    2.060    0.515
       121 -10.0867    189.8188    184.6270   9.4474298070e+01   8.4252247778e+00    0.2095367    0.1777214 -20.24 0.0008818513    1.343    0.256
       122 -10.3708    183.5219    182.3203   9.5247347090e+01   1.0004863671e+01    0.2258632     0.132084 -48.04  0.001046809    2.003    0.501
       123 -10.2432     77.6723    185.9070   1.1628283726e+02   2.7533074695e+01    0.1663474     0.130889  85.62 0.0005868938    1.077    0.072
       124 -10.1634    176.8537    181.4855   9.6367969696e+01   1.1430170752e+01    0.2490716    0.1762537 -65.56  0.001299825    1.910    0.477
       125 -10.6391    210.7690    176.0021   8.9002998802e+01   5.6682311283e+00     0.292076    0.1764772 -45.93  0.001045706    1.996    0.499
       126 -10.0231    182.5074    176.0559   9.4309448144e+01   1.1220958568e+01    0.1917589    0.1360584 -42.04 0.0009107513    1.576    0.366
       127 -12.7657    235.2757    133.2991   7.5529627885e+01   7.1534839924e+00     2.171565    0.4003243 -35.49  0.005916084    4.970    0.799
       128 -10.6003    223.5665    173.0730   8.6124756610e+01   3.6073302106e+00    0.2950861     0.201074 -47.68  0.001241174    1.862    0.463
       129 -10.4182    145.5086    174.5177   1.0131722285e+02   1.8628902303e+01    0.1349265    0.1192791  61.96 0.0002179732    1.019    0.019
       130 -10.5202    188.1785    172.0564   9.2475553098e+01   1.0753894134e+01    0.3044646    0.1971715 -40.49  0.001376049    1.708    0.415
       131 -10.4507    227.8647    171.0397   8.4959354121e+01   3.0662906464e+00    0.3259435    0.1755727 -41.00  0.001172173    2.110    0.526
       132 -10.2938    229.1737    165.7063   8.3650742588e+01   3.5723148675e+00     0.255922    0.1911065 -20.83  0.001430268    1.372    0.271
       133 -10.4765    205.3684    169.1260   8.8658532644e+01   7.7817906947e+00    0.3573696    0.2271566 -57.94  0.001656612    2.355    0.575
       134 -10.8989    218.7842    167.9610   8.5963874858e+01   5.2870149540e+00    0.3431987    0.2604277 -31.52  0.001418766    1.400    0.286
       135 -10.3415    179.5909    168.8085   9.3521985376e+01   1.3015670064e+01    0.1871694    0.1319163 -55.25 0.0008079737    1.689    0.408
       136 -10.6368    191.1395    166.0025   9.0737456713e+01   1.1155091871e+01    0.3265409    0.2108216 -33.79  0.001620556    1.726    0.421
       137  -9.5367    165.4574    167.5138   9.6077417605e+01   1.6061528904e+01    0.1378793    0.1255376  54.46 5.388055e-05    1.023    0.022
       138 -10.4088    199.4364    164.3704   8.8827011184e+01   9.7339856976e+00    0.3074251    0.1352741 -40.60  0.001101393    2.460    0.594
       139 -11.2305    212.7846    161.3070   8.5704498917e+01   7.5003933934e+00    0.6991735    0.2083689 -40.59  0.002397974    3.609    0.723
       140 -10.3577    216.0479    156.1207   8.4020471731e+01   7.6396791396e+00    0.3153825    0.2056225 -37.49   0.00113681    1.620    0.383
       141 -10.7331    205.2738    161.2870   8.7099222218e+01   9.0366850877e+00    0.3640934    0.2500778 -49.72  0.001836591    1.749    0.428
       142 -10.2665    221.4282    161.2704   8.4119345163e+01   5.7586938427e+00    0.2856436    0.1652152 -31.87   0.00112676    1.813    0.449
       143  -9.9349    222.3776    156.6474   8.2979580525e+01   6.2647968462e+00    0.2493904    0.1267632 -39.11 0.0007909975    2.087    0.521
       144 -10.1231    221.4859    151.9919   8.2146643672e+01   7.1599172567e+00    0.2348023     0.202537 -35.59  0.000854647    1.251    0.201
       145 -10.5068    226.6249    157.2818   8.2352007513e+01   5.3102916152e+00    0.3751998    0.2170343 -33.73   0.00180856    1.781    0.439
       146 -10.2446    176.6653    158.8759   9.2169081220e+01   1.5339051171e+01    0.2697131    0.1310053 -34.72  0.001088869    2.510    0.602
       147 -10.3655    205.7016    153.7568   8.5447779391e+01   1.0163062749e+01     0.252062    0.2492214  60.55 0.0009055594    1.146    0.127
       148  -9.7787    202.5141    151.0231   8.5470356860e+01   1.1283053383e+01    0.2656385    0.1874942 -38.76   0.00134134    1.497    0.332
       149  -9.8688    192.6953    153.5285   8.7899718470e+01   1.2932444816e+01    0.2450063    0.1303951 -38.99  0.001067916    2.000    0.500
       150 -10.3973    197.1914    156.5814   8.7665553072e+01   1.1475459738e+01    0.3435212    0.2153087 -33.76  0.001650384    1.727    0.421
       151 -10.2440    215.3183    148.6729   8.2555182010e+01   8.9648670636e+00    0.3037699    0.1862793 -40.12  0.001439348    1.727    0.421
       152 -10.2490    187.5707    155.2121   8.9256309143e+01   1.3718279492e+01    0.3128826    0.1409469 -37.86  0.001253085    2.428    0.588
       153 -10.7471    208.0432    145.6759   8.3256862079e+01   1.0992742840e+01    0.4871863    0.2046614 -38.18  0.001898428    2.458    0.593
       154 -10.3599    157.4775    152.9960   9.4932503416e+01   2.0343448880e+01    0.2102134    0.1403979 -49.69  0.001027898    1.592    0.372
       155 -10.9066    223.5525    146.3251   8.0537411468e+01   7.6085857277e+00     0.327494    0.2690599 -28.18  0.001610791    1.234    0.189
       156  -9.8701    200.4922    144.5822   8.4457806877e+01   1.2796128723e+01    0.2860153    0.1423223 -38.05  0.001021848    2.092    0.522
       157  -9.7003    218.9405    144.2611   8.0917765303e+01   8.9027539022e+00    0.1996477    0.1823828  28.48  0.001145247    1.047    0.045
       158 -10.1795    211.8540    151.0919   8.3722547907e+01   9.3052496924e+00    0.2756285    0.1803444 -38.14 0.0009560344    1.606    0.377
       159 -10.1186    214.2330    142.3407   8.1356667103e+01   1.0213809675e+01    0.2856137    0.1866615 -44.60 0.0009316403    1.687    0.407
       160 -10.2430    182.0143    141.8967   8.7528312551e+01   1.7263835291e+01    0.3390415    0.1955044 -58.17  0.001373236    2.398    0.583
       161 -10.4852    224.2903    140.0677   7.9008084029e+01   8.4312207856e+00     0.324174    0.1859988 -30.85  0.001170716    1.770    0.435
       162  -9.6870    197.7486    139.8789   8.3942566418e+01   1.4197465246e+01    0.2843736      0.19987  79.23  0.001238727    2.226    0.551
       163 -10.3761    187.6157    135.6799   8.5001106491e+01   1.7165024121e+01    0.3412428    0.1411343 -41.63  0.001117316    2.498    0.600
       164  -9.8966    166.3609    140.1776   9.0398652146e+01   2.0946706850e+01    0.2085916    0.1343786 -54.99 0.0007399175    1.755    0.430
       165 -10.3510    218.8373    137.8431   7.9491979901e+01   9.9516487458e+00    0.3003898    0.2325131 -19.60   0.00119182    1.329    0.248
       166 -10.5287    208.0323    136.6298   8.1226289372e+01   1.2500475730e+01    0.4341509    0.1899952 -44.67  0.001640209    2.548    0.608
       167 -10.3674    172.1274    137.2291   8.8535819473e+01   2.0268625331e+01    0.4256127    0.2783642  75.21  0.001755838    2.354    0.575
       168  -9.8642    192.8374    136.5577   8.4156994873e+01   1.5856434898e+01    0.2433781    0.1694652 -41.91  0.001166216    1.498    0.332
       169  -9.7386    198.5459    136.0189   8.2910530054e+01   1.4691611091e+01    0.2223727    0.1443249 -36.07 0.0008600303    1.588    0.370
       170 -10.1445    198.2405    131.7119   8.1974204937e+01   1.5510191185e+01    0.3040979     0.213008 -41.29 0.0008658488    1.478    0.323
       171 -10.5890    224.5904    133.2982   7.7406583029e+01   9.4372399123e+00    0.3964488    0.2966825  70.06  0.001946721    1.773    0.436
       172 -10.3252    220.8462    128.8795   7.7049357807e+01   1.0963525689e+01    0.2832147    0.2543074 -47.70  0.001120953    1.237    0.192
       173 -10.3668    179.5595    132.2628   8.5862317657e+01   1.9571231789e+01    0.2776375    0.1433342 -44.65  0.001127051    2.023    0.506
       174 -10.6060    142.7123    131.2046   9.3609740444e+01   2.7663643800e+01    0.2980774     0.125552 -53.56  0.001076724    2.661    0.624
       175  -9.8123    212.1253    128.9080   7.8659833443e+01   1.2890517406e+01    0.2408915    0.1639274 -60.10   0.00106045    2.044    0.511
       176  -9.7658    186.1889    128.6385   8.3657520443e+01   1.8760414569e+01    0.2017111    0.1879753 -54.46 0.0006590388    1.143    0.125
       177 -10.8376    227.8076    124.9091   7.4867727445e+01   1.0070750267e+01     0.346205     0.246664 -34.16  0.001100888    1.385    0.278
       178 -10.6099    199.9335    125.8392   8.0255193882e+01   1.6157187982e+01    0.2627645    0.2135371 -36.99 0.0007974466    1.252    0.201
       179 -10.3092    179.4846    124.2101   8.3984349034e+01   2.1089301261e+01     0.375615    0.2044059 -44.69  0.001234069    1.904    0.475
       180 -10.8099    220.9927    122.0009   7.5384167282e+01   1.2050997599e+01     0.556077    0.2235465 -49.37   0.00175451    3.731    0.732
       181  -9.6390    188.3645    123.1384   8.1902459636e+01   1.9271168829e+01    0.2181776    0.1361786 -48.79 0.0007629893    1.753    0.430
       182 -10.1586    212.6768    121.8567   7.6870121777e+01   1.3949581038e+01    0.3743631    0.1766867 -28.27  0.001410532    2.378    0.579
       183 -11.1821    212.7528    116.5479   7.5557367933e+01   1.4826117607e+01    0.4836159    0.1912016 -49.09  0.001513316    3.574    0.720
       184  -9.8775    202.9947    120.9965   7.8491790383e+01   1.6304471777e+01      0.23159    0.1853792 -70.53 0.0008300871    1.616    0.381
       185  -9.5928    194.2152    120.9423   8.0195033023e+01   1.8328590130e+01    0.2012233    0.1214707 -38.01 0.0006890385    1.675    0.403
       186 -11.7202    228.5016    104.0480   6.9635849849e+01   1.3250471357e+01    0.8069484    0.3996202 -20.60  0.002987954    2.558    0.609
       187 -10.3629    225.3313     99.5424   6.9031092426e+01   1.4710909971e+01    0.2889411    0.1629008 -41.59 0.0009826741    1.773    0.436
       188 -11.5382    230.4940    115.1264   7.2043731551e+01   1.1030712997e+01    0.6081778    0.2145619 -38.05  0.002139167    2.717    0.632
       189  -9.2427     95.3025    120.6379   1.0263658798e+02   3.8629088879e+01     0.143333    0.1009823  86.98 0.0007036933    1.727    0.421
       190 -11.0951    216.6191    116.4540   7.4824611264e+01   1.3955627881e+01    0.5269461    0.1212172 -38.14  0.001482201    4.079    0.755
       191 -10.5933    140.5000    118.5252   9.1236141889e+01   3.0729195268e+01    0.2795127    0.1361316 -56.63  0.001038186    2.458    0.593
       192 -10.0156    185.8204    114.4051   8.0266247894e+01   2.1455797290e+01    0.2911147    0.1116548 -40.74 0.0009916364    2.609    0.617
       193  -9.6036    191.4706    114.0365   7.9029754137e+01   2.0206057445e+01    0.2332452    0.1492852 -37.00  0.001013184    1.573    0.364
       194  -9.6091    173.5270    114.0362   8.2742676297e+01   2.4368579332e+01    0.2309103    0.1495632 -41.39 0.0009025187    1.558    0.358
       195  -9.3904    181.2998    114.3670   8.1188661199e+01   2.2512557908e+01    0.1588187    0.1201809   6.87 0.0007032923    1.733    0.423
       196 -10.0496    218.5124    109.0463   7.2637897083e+01   1.4748925287e+01    0.2286578    0.1446188 -31.89 0.0009260839    1.557    0.358
       197  -9.8317    183.1649    108.5779   7.9327973123e+01   2.3151358760e+01    0.2958215    0.1083586 -40.38 0.0009775623    2.709    0.631
       198 -10.3756    160.6135    108.0077   8.4030480027e+01   2.8484173203e+01    0.3395644    0.1457897 -41.41  0.001223878    2.331    0.571
       199 -10.2518    133.5247    109.0480   9.0602044805e+01   3.4136990441e+01    0.2159754    0.1265422 -67.93 0.0008096314    2.573    0.611
       200  -9.5358    189.5267    108.4915   7.8008483206e+01   2.1666456786e+01    0.1503829    0.1499598   2.28 0.0008098162    1.032    0.031
       201 -10.0391    205.5981    105.1691   7.4019842825e+01   1.8439210075e+01    0.2898319    0.1402382 -38.82  0.001112178    2.033    0.508
       202 -10.2003    222.4742    104.4890   7.0785332300e+01   1.4576310777e+01    0.3127249    0.1427929 -33.49   0.00119757    2.125    0.529
       203  -9.6140    200.6566    102.8364   7.4352294274e+01   2.0022439312e+01    0.2187062    0.1359543 -43.28 0.0007029522    1.642    0.391
       204  -9.5073    195.0000    102.9194   7.5470855181e+01   2.1363247229e+01    0.2464596   0.08691477 -35.89 0.0007088727    2.830    0.647
       205 -10.2743    141.0000    103.0512   8.7283990656e+01   3.3810029849e+01    0.2539704   0.08433931 -43.63  0.000805551    2.964    0.663
       206 -10.4669    167.0996    100.3836   8.0590518017e+01   2.8469387057e+01     0.353368    0.1957023 -44.17  0.001431023    1.820    0.451
       207 -10.0821    160.0000     99.9544   8.2052221032e+01   3.0199733697e+01    0.2568589   0.08697309 -40.12 0.0008025832    2.943    0.660
       208 -11.7438    211.8496     94.1064   6.9975192246e+01   1.8815794817e+01    0.9445318    0.3848561 -51.62  0.002789024    3.911    0.744
       209  -9.9737    194.9697     97.3129   7.3990982804e+01   2.2362183472e+01    0.2872944    0.2122153 -57.70  0.001309783    1.580    0.367
       210 -10.7557    242.6271    246.6113   9.5447341514e+01  -8.2653483554e+00    0.4430393    0.1866432 -23.82  0.002423636    3.066    0.674
       211  -9.4083    177.0000     93.0049   7.6456765259e+01   2.7497725223e+01    0.2595746    0.0880392 -36.91 0.0008022829    2.941    0.660
       212 -10.1493    157.6413     89.8272   7.9801654641e+01   3.2702483625e+01    0.2305001    0.1383484 -47.84 0.0009523783    1.730    0.422
       213  -9.3642    214.2168     87.9815   6.7923750187e+01   1.9253409858e+01    0.2019203     0.121033 -32.87  0.000501309    1.626    0.385
       214 -10.3196    150.8837     88.1103   8.0873239893e+01   3.4595568611e+01    0.2402924    0.2102822 -66.34 0.0008260693    1.248    0.198
       215  -9.9093    124.6791     88.3385   8.7368897640e+01   4.0234724097e+01    0.1521763    0.1170415 -81.61 0.0007050213    1.714    0.416
       216  -9.6179     98.1957     88.1899   9.4391535737e+01   4.5223526462e+01    0.1880579    0.1613916 -80.03 0.0004825107    1.291    0.225
       217  -9.9808    188.4627     86.9644   7.2440961565e+01   2.5778005080e+01    0.2405563    0.1513216 -35.43 0.0009561143    1.575    0.365
       218  -9.7761    163.6750     86.5221   7.7509691846e+01   3.1903269282e+01    0.2762332    0.1417708 -38.16  0.001066277    1.929    0.481
       219  -9.3946    197.4909     86.5038   7.0565963518e+01   2.3621905831e+01    0.1529129    0.1507587 -17.22 5.520072e-05    1.010    0.010
       220  -9.8916    202.6419     97.5183   7.2574566234e+01   2.0466634714e+01    0.2699607    0.1434616 -34.30  0.001073659    1.863    0.463
       221  -9.3577    170.6587     83.3315   7.5073983416e+01   3.0806248941e+01    0.1629622    0.1229888 -74.49  0.000705136    1.748    0.428
       222 -10.1157    159.1301     81.7053   7.7132612283e+01   3.3883811121e+01    0.2896454     0.202794 -46.53  0.001245267    1.458    0.314
       223  -9.9549    150.5116     79.0177   7.8317161714e+01   3.6414623767e+01    0.2447932    0.1495875 -37.80  0.001040389    1.613    0.380
       224  -9.1364    206.6711     78.3257   6.6617846456e+01   2.2700445535e+01    0.1606784    0.1183724 -67.33  0.000705036    1.702    0.412
       225  -9.8085    201.1379     77.9622   6.7509137614e+01   2.4148256979e+01     0.265524    0.1622401 -54.89 0.0009752637    1.988    0.497
       226  -9.5735    189.0000     77.9657   6.9789535217e+01   2.7200871997e+01    0.2585211   0.08789705 -33.76 0.0007994458    2.922    0.658
       227 -10.0940    174.4921     77.5295   7.2578190654e+01   3.0902325647e+01    0.3227434    0.1518762 -35.58   0.00119221    2.103    0.524
       228 -10.3819    166.5408     77.4818   7.4252861797e+01   3.2868043083e+01    0.3268083    0.1517097 -35.80  0.001200041    2.141    0.533
       229 -10.8167    130.4859     78.0161   8.2903853459e+01   4.1086415264e+01    0.2384727    0.1434845 -40.88  0.001037332    1.604    0.377
       230 -10.4806    240.1121    240.2200   9.4899322532e+01  -7.2781145127e+00    0.2076275    0.1799615 -83.44 0.0009212565    2.273    0.560
       231 -10.1330    211.2347     76.0003   6.5178521618e+01   2.1934105414e+01    0.2841513    0.2075507 -19.52 0.0008828071    1.465    0.318
       232 -11.2016    163.7130    247.1474   1.0813981381e+02   4.1830529714e+00    0.2343348    0.1592041  68.13   0.00123513    1.714    0.416
       233 -10.5729    163.5164     71.3204   7.3062596820e+01   3.4703620655e+01    0.4544114    0.1454151 -37.07  0.001412283    3.015    0.668
       234  -9.5225    183.5044     77.0205   7.0595575612e+01   2.8742666392e+01    0.2268875    0.1229321 -54.92 0.0008092404    2.450    0.592
       235  -9.5586    150.4656     71.9815   7.6202549812e+01   3.7725175574e+01    0.2215756    0.1246465 -57.27 0.0007010213    2.465    0.594
       236 -11.0659    222.1296     70.7477   6.1939571923e+01   2.0040741595e+01    0.2680135     0.187821 -41.03 0.0008424742    1.388    0.279
       237  -9.3190    210.6411     71.3041   6.3974684098e+01   2.2829796091e+01    0.1604351    0.1170305 -69.36 0.0007039092    1.723    0.419
       238  -9.7526    170.6467     70.4921   7.1288611050e+01   3.3085386601e+01    0.2740632     0.145284 -34.51  0.001073242    1.873    0.466
       239  -9.4189    214.2510     69.6165   6.2901828110e+01   2.2184887885e+01    0.1597874    0.1098548 -56.35  0.000438043    1.661    0.398
       240  -9.7462    187.3923     68.2414   6.7269169671e+01   2.9235878893e+01    0.2254898    0.1387784 -42.79 0.0008043929    1.642    0.391
       241  -9.9478    182.4552     68.0221   6.8156449742e+01   3.0528941009e+01    0.2411867    0.1505407 -34.38  0.001024828    1.585    0.369
       242  -9.3430    218.2721     67.6798   6.1712910350e+01   2.1473351213e+01    0.1539327    0.1121748 -59.95 0.0003532277    1.568    0.362
       243 -10.0501    140.3863    249.2299   1.1211756999e+02   7.5946620308e+00    0.1347361    0.0978376 -83.07 0.0008370897    1.736    0.424
       244  -9.8819    163.6096     64.7698   7.1029024984e+01   3.5814014701e+01     0.224239     0.139733 -43.24 0.0009494773    1.635    0.388
       245 -10.0142    111.6707     64.3337   8.3661748930e+01   4.7582516263e+01    0.1452701    0.1147996 -76.61 0.0007051984    1.723    0.419
       246 -10.7935    192.6776     62.3258   6.4539404034e+01   2.8833710479e+01    0.2619438    0.1537315 -36.08 0.0008100951    1.667    0.400
       247 -11.8223    192.4995     55.4067   6.2512193046e+01   2.9951073204e+01    0.6494401    0.2258416 -38.73  0.002153387    2.746    0.636
       248  -9.9326    182.4231     62.2126   6.6418146127e+01   3.1486804507e+01    0.2243412    0.1386414 -43.70 0.0008783772    1.657    0.397
       249 -10.5035    157.8884     61.6221   7.1284926602e+01   3.7757628799e+01    0.3103658    0.2187996 -40.30  0.001023181    1.418    0.295
       250 -11.0139    153.1880     59.4894   7.1649505846e+01   3.9263791429e+01    0.2937137    0.2090301 -33.58 0.0009129407    1.392    0.281
       251  -9.4437    221.2804     59.6429   5.9025010954e+01   2.1923991565e+01    0.1585818     0.108603 -58.55 0.0005001316    1.663    0.399
       252  -9.2890    197.2890     59.3320   6.2837333864e+01   2.8110809425e+01    0.1572934    0.1180667  19.64 0.0003068836    1.625    0.385
       253 -12.5788    226.6747     55.6584   5.7134228113e+01   2.1147547967e+01    0.4788446    0.3420613 -42.78  0.001943746    1.354    0.261
       254 -13.0219    225.2962     52.0389   5.6340656138e+01   2.2009079000e+01    0.6213619    0.4604382 -14.44  0.003034477    1.499    0.333
       255 -10.9063    153.0124     52.4593   6.9398501324e+01   4.0462911934e+01    0.2505411     0.199287 -29.97 0.0008623209    1.252    0.201
       256  -9.8196    187.0000     62.0323   6.5496732650e+01   3.0341034931e+01    0.2564336   0.08755106 -31.70  0.000799922    2.925    0.658
       257  -9.5133    178.6821     50.3409   6.3475563859e+01   3.4301799036e+01    0.1616619    0.1166322 -65.02 0.0007049154    1.712    0.416
       258 -10.8856    219.3256     46.4404   5.5639242534e+01   2.4308668633e+01    0.2996578     0.176775 -33.54 0.0007814606    1.628    0.386
       259  -9.7555     95.3058     46.3494   8.2298844394e+01   5.3943282298e+01    0.1439304    0.1023793  -4.46 0.0006160988    1.703    0.413
       260 -12.8435    244.5079    154.1368   7.8577683425e+01   2.2207116762e+00     1.680985    0.7395642 -38.75  0.007214555    2.400    0.583
       261  -9.8880    168.8962     44.3149   6.3425741054e+01   3.7720042406e+01    0.2773748    0.1979563 -40.23 0.0009715193    1.428    0.300
       262 -12.2980    243.0011    136.5553   7.4958932628e+01   5.0560317269e+00     1.177631    0.3178738 -40.84  0.003672044    4.092    0.756
       263 -11.7585    235.3370    146.8984   7.8578782318e+01   5.0909080915e+00    0.5262169    0.3676992 -45.80  0.001830256    1.683    0.406
       264  -9.4064    173.3014     39.6833   6.1089124111e+01   3.7245082657e+01    0.1547577    0.1149737 -64.32 0.0004010315    1.618    0.382
       265 -12.1621    223.6734     35.1247   5.1899571416e+01   2.4709223054e+01    0.4346142    0.2468801 -31.30  0.001882456    1.704    0.413
       266 -10.9387    201.2893     35.4698   5.5112224245e+01   3.0474520601e+01    0.2653868    0.1993345 -25.98 0.0005608875    1.368    0.269
       267  -9.1009    149.3192     34.3199   6.4035381063e+01   4.4084083006e+01    0.1571772    0.1088409  24.12 0.0006288022    1.664    0.399
       268  -9.4437    125.6017     29.8046   6.7805748053e+01   5.0335831937e+01    0.2058349    0.1267126 -37.77 0.0009543819    1.664    0.399
       269 -10.3062    168.5959     36.7980   6.1025927382e+01   3.8862551788e+01    0.2183989    0.1334085 -39.91 0.0009488018    1.678    0.404
       270  -9.3280    170.4548     29.4911   5.8276845013e+01   3.9347809877e+01    0.1483412    0.1408387  37.76 0.0001102626    1.031    0.030
       271 -11.0569    209.5982     27.1020   5.1482337534e+01   2.9357334944e+01    0.2833881    0.2038156  57.21 0.0007611563    1.362    0.266
       272  -9.8032    136.6640     25.1649   6.3489984199e+01   4.8376340937e+01    0.2020292    0.1316423 -11.41   0.00040576    1.697    0.411
       273  -9.9992    172.4319     24.4983   5.6287330420e+01   3.9452785564e+01    0.1450199    0.1405177  49.25 0.0001066959    1.010    0.010
       274  -9.7900    118.4747     24.5013   6.7548938573e+01   5.2641357244e+01    0.1415349      0.12758  11.02 0.0002075259    1.016    0.016
       275 -10.5440    209.0000     20.9390   4.9781733038e+01   3.0249688937e+01    0.2310451   0.08175088 -25.46 0.0007973469    2.907    0.656
       276  -9.6529    155.6302     16.1626   5.6412200271e+01   4.4756578961e+01    0.2050012    0.1361854  -5.15 0.0009527517    1.733    0.423
       277 -10.4424    140.5918     16.2417   5.9345079009e+01   4.8499410471e+01     0.197563    0.1343333  -4.79 0.0009483735    1.631    0.387
       278  -9.8137    161.9946     13.9854   5.4535143925e+01   4.3364138576e+01    0.2363233    0.1608208  26.32  0.001118939    1.648    0.393
       279  -9.1113     29.7072     12.7215   9.2833297091e+01   6.8626324586e+01    0.1139859   0.06984401 -20.53 0.0001965704    1.527    0.345
       280 -10.1929    218.3073    247.8307   9.9445738844e+01  -4.6376243463e+00    0.1843873    0.1579102  59.91  0.001402602    1.557    0.358
       281 -12.6297    241.0152     76.7899   6.0663427498e+01   1.4553788962e+01     1.280849    0.4235974 -39.46  0.004407816    2.770    0.639
       282 -11.3875    176.2139    245.6452   1.0593456610e+02   2.3556217694e+00    0.4316083    0.2552235 -38.78   0.00275027    2.310    0.567
       283  -9.9692    186.8981    247.1497   1.0439093517e+02   4.4967960884e-01    0.1679984    0.1293662  54.26  0.001057156    1.267    0.211
       284  -9.7973    237.8613    244.6009   9.5899456965e+01  -7.3531745611e+00     0.171005    0.1418298 -49.45  0.001262116    1.992    0.498
       285 -10.6110    202.3950    242.4684   1.0126913894e+02  -1.5229833324e+00    0.2347567    0.1993924 -82.36  0.001456697    1.845    0.458
       286 -10.0873    157.3056    248.6601   1.0934521868e+02   5.0125421063e+00    0.1104317   0.07267307  66.68 0.0007041288    1.680    0.405
