#   1 NUMBER                 Running object number                                     
#   2 MAG_AUTO               Kron-like elliptical aperture magnitude                    [mag]
#   3 X_IMAGE                Object position along x                                    [pixel]
#   4 Y_IMAGE                Object position along y                                    [pixel]
#   5 X_WORLD                Barycenter position along world x axis                     [deg]
#   6 Y_WORLD                Barycenter position along world y axis                     [deg]
#   7 A_WORLD                Profile RMS along major axis (world units)                 [deg]
#   8 B_WORLD                Profile RMS along minor axis (world units)                 [deg]
#   9 THETA_WORLD            Position angle (CCW/world-x)                               [deg]
#  10 FWHM_WORLD             FWHM assuming a gaussian core                              [deg]
#  11 ELONGATION             A_IMAGE/B_IMAGE                                           
#  12 ELLIPTICITY            1 - B_IMAGE/A_IMAGE                                       
         1 -14.6077    194.6584     30.9540   6.1381487862e+01   3.3055942988e+01     2.020679      1.53669  21.94   0.01139979    2.177    0.541
         2 -14.0315    210.2040     12.4709   5.5765646173e+01   3.1771560821e+01     1.177611    0.8330745  54.80  0.005228586    1.665    0.399
         3 -12.5634    188.7722     14.5327   5.8394792447e+01   3.6268973274e+01    0.3652128     0.241236 -83.09  0.001859298    1.413    0.292
         4 -11.7183    204.3560     19.8274   5.7865935279e+01   3.2219035253e+01    0.3606548    0.3147298  56.32  0.001143546    1.420    0.296
         5 -10.8686     16.7388      7.9995   9.8097746199e+01   6.9969311565e+01    0.1346904   0.07696138 -27.71 0.0009016343    1.586    0.369
         6 -12.5464    103.0295    199.8726   1.1995191310e+02   1.8533680096e+01     1.309474    0.8645418  35.08  0.006257503    1.588    0.370
         7 -11.8808    141.0960    249.5201   1.1900470781e+02   1.5070530096e+00    0.5893141    0.2149903  33.26  0.002224317    2.907    0.656
         8 -12.7732     56.9770    203.8512   1.3124926211e+02   2.4627038394e+01      1.09043    0.7948851 -74.17  0.004450428    1.245    0.197
         9 -12.7517     80.4749    232.3088   1.2950675856e+02   1.4740111483e+01    0.7710613    0.4695006  54.19   0.00272376    1.503    0.335
        10 -12.5810     64.7983    231.5184   1.3270432218e+02   1.7199110205e+01     1.022811    0.4394346  39.61  0.004681417    2.176    0.541
        11 -14.6831      5.9880    116.3999   1.3252156267e+02   5.1015947149e+01      4.80392     1.883856 -67.11   0.02236255    2.066    0.516
        12 -14.7894      4.2280     47.7798   1.1833951587e+02   6.5241139933e+01      7.41262     1.104271 -55.12   0.02303417    6.360    0.843
        13 -15.9147     49.0212    242.0950   1.3691727288e+02   1.7060609093e+01     3.385247     1.437966  42.42   0.01666504    2.087    0.521
        14 -16.1505      4.3432    228.7783   1.4434450655e+02   2.5067580055e+01     2.755109    0.6320053 -73.65   0.01108525    3.488    0.713
        15 -15.2658     13.3522    203.0893   1.4066400645e+02   2.9891347741e+01     1.429209     0.691228 -75.92  0.006759992    1.706    0.414
        16 -14.1622    129.2550    203.6017   1.1441650642e+02   1.3053991867e+01      2.63464     1.468247  39.41   0.01149658    1.746    0.427
        17 -14.5258    125.0753    226.1394   1.1899954454e+02   8.8463760084e+00     2.714836     1.431641  27.51   0.01128241    2.378    0.579
        18 -14.0058     72.0764    187.2615   1.2546308824e+02   2.6524589405e+01     2.107728     1.287479 -59.28   0.01017123    1.541    0.351
        19 -13.7003     56.3343    182.6110   1.2864594989e+02   2.9875920046e+01     2.007686    0.8350505 -69.46  0.008009155    2.343    0.573
        20 -13.3511    104.7008    217.1830   1.2220985652e+02   1.4253526317e+01     1.328648    0.9547724 -84.40  0.005829141    1.558    0.358
        21 -12.2862     89.3928    224.4330   1.2661329012e+02   1.5104801654e+01    0.8011255     0.528155  47.10  0.003209366    1.395    0.283
        22 -15.0672      3.4545    194.0694   1.4197142524e+02   3.2897285873e+01     1.369415    0.4731589 -72.15  0.006308909    2.260    0.557
        23  -9.7892     30.2129    217.1402   1.3842311244e+02   2.4869745532e+01    0.2401228    0.1895905 -29.29  0.001437914    2.039    0.510
        24 -12.1575     78.4655    221.9960   1.2869362875e+02   1.7330815722e+01    0.7252793    0.4058012  42.60  0.003118894    1.678    0.404
        25  -8.6587     87.3412    209.2734   1.2502648266e+02   1.8889308594e+01    0.1308274    0.1124798 -16.28 0.0006996032    1.613    0.380
        26 -12.9641     71.1124    164.7086   1.2211503290e+02   3.2292458479e+01    0.6361063    0.5221446  13.62  0.001303555    1.541    0.351
        27  -9.0142     32.8366    206.8542   1.3690228418e+02   2.6934073276e+01    0.1705325     0.118849  71.59 0.0009914899    1.293    0.226
        28 -12.9332     95.9358    189.9070   1.2004243329e+02   2.2120397426e+01     2.037338     1.287804   2.18  0.007284726    3.647    0.726
        29 -11.0258    199.3761    198.6151   9.8072192528e+01   1.2756491702e+00    0.2849214    0.2410381  -7.33  0.001517649    1.209    0.173
        30 -11.5266    116.0439    187.6132   1.1474127348e+02   1.9175080190e+01    0.9975352    0.3795034 -50.83  0.003522252    2.600    0.615
        31 -11.8368    110.8752    166.8435   1.1211639571e+02   2.5167865777e+01    0.9665304    0.5341359 -52.94  0.004002479    1.750    0.428
        32 -11.7116    114.5910    179.1604   1.1354842934e+02   2.1476711082e+01    0.8302396    0.3639573  34.86  0.003003691    2.513    0.602
        33 -11.4043    114.1069    174.3725   1.1276238477e+02   2.2730575072e+01     0.595776    0.5326154  -8.04  0.002128655    1.355    0.262
        34  -9.7706    208.4911    186.5018   9.3856262107e+01   2.0297793419e+00    0.1426309    0.1293922 -19.00 0.0003008375    1.035    0.033
        35  -9.5356     43.9896    180.0043   1.3130663771e+02   3.2077423384e+01    0.2198987    0.1432364  75.73 0.0006940279    1.635    0.388
        36  -9.8755     12.6834    177.3518   1.3841857947e+02   3.6005244734e+01    0.3894719    0.1607445 -61.33  0.001855502    2.003    0.501
        37 -11.3104    147.7932    164.3736   1.0243131177e+02   1.8587117595e+01    0.3913954    0.3144778  34.27  0.001564032    1.318    0.241
        38 -12.3940    135.8487    171.1765   1.0673867242e+02   1.9367923886e+01     1.006659     0.895104  -4.24   0.00513418    1.327    0.246
        39 -11.4075    144.7075    170.0285   1.0436244262e+02   1.7887510257e+01    0.6253883    0.4834341  87.21  0.002872284    1.650    0.394
        40 -11.0148     15.1400    163.8388   1.3637575677e+02   3.9036381414e+01    0.4833727    0.3088123 -87.56  0.001814667    1.428    0.300
        41 -13.8900     40.9821    220.1876   1.3649034110e+02   2.2892319586e+01     1.060953    0.9139536  -2.39  0.006652314    1.821    0.451
        42 -14.0264     91.1575    169.6093   1.1773406780e+02   2.7928120961e+01     2.120667     1.657316  64.21  0.005659811    1.356    0.263
        43 -12.4588    172.9610    145.4805   9.2454067433e+01   1.7633615937e+01    0.8318324    0.5559695 -21.90  0.003418606    2.098    0.523
        44 -11.1477    169.1775    155.7121   9.5592726250e+01   1.6163439724e+01    0.5019981    0.3896391 -27.78  0.002377024    1.447    0.309
        45 -12.9873    155.3857    136.1212   9.4250623300e+01   2.3486594381e+01    0.9551584    0.5517622 -42.83  0.003910683    1.720    0.418
        46 -12.6945    163.6637    123.9990   8.9451316267e+01   2.4335353637e+01      1.20727    0.6805145 -21.91  0.003894058    3.522    0.716
        47 -12.8220    164.7913    133.2974   9.1430263653e+01   2.2069877867e+01    0.9310843    0.6425086  -7.90  0.003617293    2.531    0.605
        48 -12.9635    150.3442    153.7784   9.9506767360e+01   2.0525094890e+01     1.535805    0.7477048  36.34  0.005598906    2.345    0.574
        49 -13.4242    163.1961    145.5553   9.4649383034e+01   1.9694388404e+01     1.148451    0.8453297  -2.28  0.004858924    2.084    0.520
        50 -12.8737     76.5054    136.8907   1.1533614042e+02   3.8426364115e+01     1.177358    0.7325125 -47.40  0.005439413    1.526    0.345
        51 -12.8677     68.4443    143.3647   1.1894987648e+02   3.8024053758e+01     1.233412    0.5404125  46.85  0.004734925    2.651    0.623
        52 -13.9142     57.4155    137.5942   1.2099376149e+02   4.0958305986e+01     1.461353     1.099188  -6.54  0.005323375    1.771    0.435
        53 -11.6780     41.0729    134.8506   1.2522871351e+02   4.3585638986e+01     1.112763    0.6096852 -77.98  0.004940147    2.131    0.531
        54 -11.1832     91.3102    144.0230   1.1266010421e+02   3.4276182125e+01    0.2896874    0.2443272 -31.58 0.0004386139    1.305    0.233
        55 -11.6567     98.3352    138.5567   1.0951871320e+02   3.4393462185e+01     1.298241    0.8261734  -3.33  0.004586992    3.280    0.695
        56 -12.7411    143.1318    139.8149   9.8053219898e+01   2.5265807297e+01    0.8478708    0.5948737 -85.75  0.003457763    2.101    0.524
        57 -10.7405    112.6041    132.8884   1.0429481570e+02   3.3102284032e+01    0.4319894    0.2868122  16.01  0.001490192    2.252    0.556
        58 -10.7605    130.4963    151.9908   1.0398225126e+02   2.5007777723e+01    0.3797689    0.2894662 -35.56  0.001759115    1.431    0.301
        59 -11.6585     41.7267    150.3279   1.2763580376e+02   3.9704004110e+01    0.9905129    0.6735581   0.21  0.004949067    2.187    0.543
        60 -10.0158     99.8968    129.2670   1.0695046382e+02   3.6346512120e+01    0.2978239    0.2372006 -21.08  0.001158777    1.497    0.332
        61 -11.8572     47.8285    117.5061   1.1983856208e+02   4.6982055080e+01    0.8252247    0.5911796  72.33  0.003654426    1.929    0.482
        62 -12.9891    162.9091    110.4196   8.6270213523e+01   2.7356509555e+01     1.081684    0.7420048  71.35  0.004745152    1.791    0.442
        63 -11.7808     56.2288    109.0516   1.1530965434e+02   4.7908527799e+01     0.778629    0.5455647  31.75  0.004002681    1.565    0.361
        64 -11.5789     64.1019    100.8763   1.1078369918e+02   4.8676534225e+01      0.92147    0.5165282 -36.91  0.004213464    1.823    0.451
        65 -10.1597     84.8824    101.6090   1.0443106589e+02   4.5287847317e+01    0.2934391    0.1850889  51.66  0.001328955    1.900    0.474
        66 -10.7287     15.6082     98.9091   1.2640804410e+02   5.4298906930e+01    0.4563297    0.2437592  13.73  0.002412903    2.288    0.563
        67 -12.1280     52.4812     95.0232   1.1311701727e+02   5.1496176220e+01     0.836525     0.445084 -43.96  0.003997487    1.681    0.405
        68 -11.9784     44.3993     78.7117   1.1157870927e+02   5.5850096331e+01    0.9667392    0.3563129 -51.96  0.004019425    2.536    0.606
        69 -11.2174     39.8026     71.1761   1.1111176248e+02   5.7841564356e+01    0.5441484    0.3743116 -12.81  0.003134608    1.517    0.341
        70  -9.9830    202.6602     82.6784   7.2080262866e+01   2.3553164041e+01    0.1351032    0.1135763  19.51 0.0007050447    1.718    0.418
        71 -12.4348     56.8555     75.0111   1.0611877571e+02   5.4996245816e+01    0.9848826    0.7243977 -44.51  0.005666218    1.310    0.236
        72 -11.6911    210.9361     71.7997   6.8381923431e+01   2.3534125775e+01    0.5711911    0.2924862 -59.51  0.002501237    2.138    0.532
        73 -12.3517     18.6409     63.9143   1.1708578667e+02   6.1261689732e+01    0.5663238    0.3537814  -4.00  0.003376004    1.724    0.420
        74 -11.7871     45.5131     47.0753   1.0130792135e+02   6.1346469627e+01    0.6919786    0.2391851 -40.57  0.003037137    2.726    0.633
        75 -11.2186    162.5302    248.8837   1.1448956017e+02  -1.8860387165e+00    0.2921381    0.1985219  11.85  0.001506669    1.846    0.458
        76  -9.0594    120.3054    249.3087   1.2328187811e+02   4.9442740248e+00    0.1231419    0.1028518  -0.49  0.000258768    1.610    0.379
        77 -13.6771      2.7776    171.9459   1.4016001272e+02   3.8131852329e+01     2.055701    0.2754375 -71.90  0.005897576    5.479    0.817
        78 -11.4621    164.4828    243.8574   1.1331190253e+02  -1.3085633041e+00    0.2262531    0.1768228  16.49    0.0012964    1.328    0.247
        79 -10.8823    193.2731    236.6088   1.0624135864e+02  -4.7037450756e+00    0.2309546    0.1612251 -52.88  0.001251346    1.748    0.428
