#   1 NUMBER                 Running object number                                     
#   2 MAG_AUTO               Kron-like elliptical aperture magnitude                    [mag]
#   3 X_IMAGE                Object position along x                                    [pixel]
#   4 Y_IMAGE                Object position along y                                    [pixel]
#   5 X_WORLD                Barycenter position along world x axis                     [deg]
#   6 Y_WORLD                Barycenter position along world y axis                     [deg]
#   7 A_WORLD                Profile RMS along major axis (world units)                 [deg]
#   8 B_WORLD                Profile RMS along minor axis (world units)                 [deg]
#   9 THETA_WORLD            Position angle (CCW/world-x)                               [deg]
#  10 FWHM_WORLD             FWHM assuming a gaussian core                              [deg]
#  11 ELONGATION             A_IMAGE/B_IMAGE                                           
#  12 ELLIPTICITY            1 - B_IMAGE/A_IMAGE                                       
         1 -12.3258      2.1422     70.8963   2.9231903134e+02   6.9474174852e+00    0.0976522   0.01308947 -50.97  0.005058003    6.132    0.837
         2 -12.1239     90.2514     59.1917   2.9115374579e+02   6.5821386479e+00   0.04071241   0.03501474  71.59  0.004720774    1.290    0.225
         3 -11.5632     25.5445     55.9440   2.9194528625e+02   6.9883648345e+00   0.05836689   0.04093049  11.85  0.006066459    1.464    0.317
         4 -12.4190     60.5968     45.9962   2.9145285689e+02   6.9045441703e+00   0.05509275   0.02743084 -63.58  0.004919723    2.109    0.526
         5 -11.3666    139.7805     41.5585   2.9043892873e+02   6.5038775098e+00   0.05986224   0.02816785 -67.36   0.00410434    2.349    0.574
         6 -11.9517    141.4765     21.1427   2.9030655149e+02   6.7312100769e+00    0.1605334   0.07752332  -7.94   0.01007634    4.612    0.783
         7 -12.9379    124.5469     25.8832   2.9054392232e+02   6.7730779042e+00   0.09373225   0.05687336 -85.56  0.005649716    2.192    0.544
         8 -11.8385    145.7078     47.9478   2.9039967980e+02   6.3957383903e+00   0.05210769   0.01876988 -59.38  0.003848762    2.718    0.632
         9 -11.7571    182.3705     25.2760   2.8981839254e+02   6.4487792569e+00   0.02602099   0.01771003   1.41 0.0009381848    1.679    0.404
        10 -11.5240    178.2146     21.1738   2.8984789983e+02   6.5202365679e+00    0.0284008   0.01695331 -27.74  0.002402231    2.146    0.534
        11 -12.3858    105.0050     12.9632   2.9071787446e+02   7.0348155061e+00   0.02673428   0.02222985 -56.10  0.003070115    1.264    0.209
        12 -12.7604    112.9783     24.8784   2.9068305079e+02   6.8509043992e+00   0.04775975   0.02422868  19.68  0.004194475    1.982    0.495
        13 -11.5916    163.6563     27.8019   2.9006579865e+02   6.5268130001e+00   0.02708512   0.01674809  18.13  0.001895642    1.609    0.379
        14 -10.5116     60.6089     25.1976   2.9133972396e+02   7.1460803472e+00   0.02813119   0.01443323 -70.58  0.002474138    2.243    0.554
        15 -12.0440    120.3754     57.7156   2.9076926939e+02   6.4272190557e+00   0.08921904   0.04519253  50.78   0.00757963    2.302    0.566
        16 -11.6380     26.1508     27.7155   2.9178458595e+02   7.3128980521e+00   0.03276209   0.02358391  46.15  0.002999044    1.402    0.287
        17 -10.5974     22.7259     11.1394   2.9173747762e+02   7.5248653337e+00   0.07310321    0.0315988   5.61  0.004635931    4.251    0.765
        18 -12.1140     16.8745     13.5986   2.9182408463e+02   7.5295460584e+00   0.03378296   0.02065077 -27.43 0.0003114698    2.052    0.513
        19 -11.0980     13.6718      9.3400   2.9184106792e+02   7.5971798950e+00   0.02783183   0.01731264   7.07  0.002642435    1.820    0.450
        20 -11.5912     19.9468     22.9381   2.9183631186e+02   7.4036350179e+00    0.0290537   0.01927862 -59.10  0.001947982    1.567    0.362
        21 -11.3627     14.9643     23.0603   2.9189934442e+02   7.4305100759e+00   0.03496406   0.02246976  57.84  0.002422491    1.833    0.455
        22 -11.2373    153.0782     25.9911   2.9018803704e+02   6.6084659107e+00   0.03918042   0.01451757 -52.82  0.002913169    2.667    0.625
        23 -10.3670     87.9578      7.5097   2.9090139303e+02   7.1954920668e+00    0.0247307   0.01583191  -4.18  0.001977634    1.941    0.485
        24  -9.6517     83.0199      5.9847   2.9095486581e+02   7.2413778839e+00   0.01212927  0.009543524  23.68  0.000583532    1.193    0.162
        25 -11.6761     90.7092     20.2552   2.9093633352e+02   7.0318109425e+00   0.02965724   0.02305722 -60.15   0.00249387    1.355    0.262
        26 -11.5072     86.0113     14.4028   2.9096325009e+02   7.1265781576e+00    0.0289616   0.01495145 -51.43  0.001906666    1.987    0.497
        27 -10.5844    206.4833     20.6936   2.8949251403e+02   6.3634756166e+00   0.02645344   0.01334063 -62.66  0.001586828    2.069    0.517
        28  -9.4727     31.9258     12.1305   2.9162768907e+02   7.4610702956e+00   0.01584225  0.007620148  37.60 0.0004180115    1.924    0.480
        29 -10.9349     47.1485     18.8359   2.9147358299e+02   7.2966101170e+00   0.02205779   0.01648764  28.70  0.001632102    1.242    0.195
        30 -12.3403     49.2587     13.1819   2.9141645327e+02   7.3502541957e+00   0.04329039   0.02059625  22.75  0.003730927    2.021    0.505
        31 -10.9959     65.9319     11.0850   2.9119640646e+02   7.2796253559e+00   0.03277947   0.01728735  10.80  0.002492366    2.233    0.552
        32 -10.4521     62.9990      6.4136   2.9120770440e+02   7.3505740091e+00   0.01878975   0.01206077 -44.87   0.00125389    1.658    0.397
        33 -11.9753     69.2828     17.9120   2.9119160366e+02   7.1812553893e+00    0.0460932   0.02047046  32.74  0.003945169    2.003    0.501
        34 -12.3816    239.3396     15.8384   2.8905633309e+02   6.2308335057e+00    0.0436643   0.02517639  13.62  0.003080745    1.871    0.466
        35 -11.1140    165.3037     17.2928   2.8998794066e+02   6.6393418647e+00   0.02014435   0.01356732 -18.99 0.0009850322    1.819    0.450
        36 -10.5378    186.4125     15.1466   2.8971269586e+02   6.5431205106e+00   0.01420094   0.01232695   3.89  0.000624092    1.161    0.138
        37 -11.5496    192.2254      7.8200   2.8960016971e+02   6.5947381245e+00   0.03238898     0.016894 -39.09  0.001802256    2.271    0.560
        38  -9.6605    193.9929      1.4570   2.8954338451e+02   6.6583912373e+00  0.009902269  0.008678402  25.59 0.0004946052    1.067    0.063
        39 -11.1603     38.6952     20.1435   2.9158647893e+02   7.3295239550e+00   0.02685072   0.01259832 -64.93  0.001564044    2.270    0.559
        40 -11.6749    211.4626      9.8800   2.8937138567e+02   6.4602947367e+00   0.02760898   0.01566397 -40.30  0.001849895    1.997    0.499
        41 -12.4028    131.0019     13.6849   2.9039681134e+02   6.8777501013e+00   0.08500992    0.0200582  34.69   0.00563278    3.347    0.701
        42  99.0000      4.5418      9.6034   2.9195681803e+02   7.6459357055e+00   0.03223787   0.01349708 -52.30  0.002062308    2.397    0.583
        43 -11.6301    239.4708      7.4767   2.8900903469e+02   6.3270371205e+00   0.02459506   0.01450732  56.58   0.00137938    2.051    0.512
        44 -11.6048    245.8753      7.8119   2.8893105004e+02   6.2862765194e+00   0.02517396   0.01491896 -56.16  0.001669243    1.734    0.423
        45 -11.4984    241.6452      4.1044   2.8896351502e+02   6.3536170245e+00   0.02189012   0.01312363  35.03  0.002142224    1.538    0.350
        46 -10.2807    169.2303      9.6336   2.8989714137e+02   6.7056983565e+00   0.01751928   0.01087177  -3.77  0.001598027    2.063    0.515
        47  -9.2643    162.8769     10.1682   2.8997940125e+02   6.7359378256e+00   0.01085753  0.009036573 -14.95 0.0007851346    1.291    0.225
        48 -10.0267    157.7645      2.5097   2.9000149642e+02   6.8541150662e+00   0.01811222   0.01277738   9.46  0.001708297    1.487    0.328
        49 -10.1298    162.8274      5.4288   2.8995417444e+02   6.7912127549e+00   0.01968605   0.01092546 -47.56  0.001832423    1.900    0.474
        50  -9.6945    162.6823      1.2990   2.8993346185e+02   6.8399585146e+00    0.0126509  0.005848346  31.40 0.0006151109    1.931    0.482
        51 -10.4541    151.1030      7.3942   2.9011135023e+02   6.8356266340e+00   0.02190752   0.01256856  20.33  0.001208752    1.708    0.414
        52 -10.3305      1.3141      7.2304   2.9198436020e+02   7.6917979416e+00   0.01066817  0.006210234 -62.10 0.0002544921    1.795    0.443
        53 -10.4054     71.7624      3.3277   2.9108125843e+02   7.3364409810e+00   0.02583522   0.01761018  29.97  0.002692262    1.354    0.262
        54 -10.5048     76.9906      6.5203   2.9103321131e+02   7.2695618626e+00   0.01597968   0.01185961  39.98  0.001293075    1.295    0.228
        55 -10.7545     77.1769      3.0114   2.9101178861e+02   7.3092300805e+00   0.01607906    0.0121429  -9.47  0.001237572    1.488    0.328
        56 -11.4422     40.8643     14.2592   2.9152736876e+02   7.3855169201e+00   0.03403047  0.008496144  27.09  0.002227484    3.416    0.707
        57 -10.7555    174.2009      4.5079   2.8980711239e+02   6.7366462199e+00   0.03744498    0.0109487  31.94  0.002686567    2.828    0.646
        58 -10.5646     42.6967      3.4740   2.9144582765e+02   7.5003120864e+00   0.02516406   0.01486948 -27.95  0.002263313    2.170    0.539
        59 -10.7695    218.5843      3.2213   2.8924620510e+02   6.4965659856e+00   0.01529629   0.01439179  24.51  0.001119368    1.006    0.005
        60 -11.3878    225.0304      2.2930   2.8916074720e+02   6.4702469519e+00   0.03743948   0.01324386  37.73  0.002684628    2.543    0.607
        61 -10.1343    122.2799      1.4160   2.9043898959e+02   7.0700586861e+00   0.03843653  0.009517261  20.79  0.002100214    5.081    0.803
        62 -10.8452    113.1041      1.8391   2.9055602151e+02   7.1176348837e+00   0.03470939   0.01138188  40.08  0.002170907    2.876    0.652
        63 -11.1245    105.8011      1.6071   2.9064608251e+02   7.1620789005e+00   0.03614006   0.01211392  30.25  0.002297168    2.554    0.609
        64 -10.6190    141.7343      3.5935   2.9020769162e+02   6.9334104253e+00   0.01913363   0.01235671  25.92  0.001574344    1.441    0.306
        65 -12.0595    133.8357      2.6583   2.9030130840e+02   6.9894997561e+00   0.01995613   0.01396951  25.41 0.0007082689    1.334    0.250
        66 -11.5111     35.5586     18.7850   2.9161835813e+02   7.3631394038e+00   0.02390019   0.01177908 -56.66  0.001398975    2.047    0.512
        67 -10.2911     23.2193      2.6417   2.9168515398e+02   7.6207235451e+00   0.01675776   0.01134809 -37.45  0.001700373    1.630    0.387
        68 -10.5431    205.7874      2.3395   2.8940102229e+02   6.5803760170e+00   0.02344199  0.009110355  37.02  0.001870008    2.316    0.568
        69 -11.1710      2.8917      1.8049   2.9193516095e+02   7.7458393009e+00   0.02442844   0.01208413  12.89  0.002013391    2.351    0.575
        70 -10.6814     47.6719    134.6435   2.9209488189e+02   5.9474254154e+00   0.01635773   0.01091593 -49.96  0.001153972    1.559    0.359
        71 -11.1313     72.5466    133.1676   2.9177621936e+02   5.8229908695e+00   0.02853907   0.01461997 -31.96  0.002310709    2.672    0.626
        72  -9.1719    106.9606    131.0412   2.9133499966e+02   5.6514745300e+00  0.007953631  0.007604924  24.55 0.0003747547    1.021    0.021
        73 -10.2570     78.5376    128.5076   2.9167616098e+02   5.8430564794e+00   0.01160765  0.005700372 -51.39 0.0006271771    2.083    0.520
        74 -10.7378    239.7366    122.9710   2.8963548488e+02   4.9850258685e+00   0.02354874  0.007730155 -59.37  0.001755947    2.935    0.659
        75 -11.1359     45.7001    120.4606   2.9204276997e+02   6.1236261577e+00   0.02602619   0.01455431  50.68  0.002357797    2.003    0.501
        76  -9.4576     53.3749    125.1447   2.9197224188e+02   6.0254749689e+00   0.01850294   0.01194834  74.83  0.001734521    2.093    0.522
        77 -10.6023     56.5063    122.4449   2.9191850738e+02   6.0390571137e+00    0.0236272   0.01324549  35.41  0.002238563    1.642    0.391
        78 -10.6673      2.7079    123.5977   2.9259693846e+02   6.3313279850e+00   0.02347627   0.01735988 -36.59  0.001566749    1.467    0.318
        79  -9.7145     62.5735    131.6728   2.9189267990e+02   5.8971783663e+00   0.01322917  0.006197663 -58.50  0.001143145    2.150    0.535
        80  -9.8222     18.8429    124.1983   2.9239856199e+02   6.2327789383e+00   0.01515403  0.008792285 -56.18  0.001384649    1.764    0.433
        81 -11.8271    104.9875    120.9199   2.9130474445e+02   5.7804421151e+00   0.02604632    0.0237367  28.51  0.002415679    1.032    0.031
        82 -10.8625     34.1796    119.7143   2.9218267566e+02   6.1978126335e+00    0.0211805   0.01411065  47.49  0.001804395    1.547    0.353
        83 -11.3859     44.6420     85.0087   2.9186399474e+02   6.5419291127e+00   0.05198402   0.02499863  56.47  0.004005753    2.941    0.660
        84 -12.1349      7.3888     88.7331   2.9234994155e+02   6.7102741153e+00    0.0286882   0.02818323 -21.70  0.001013865    1.065    0.061
        85 -11.9620     34.3485     91.6223   2.9202850722e+02   6.5235661692e+00     0.091971   0.05413208  82.57  0.007936725    2.557    0.609
        86 -11.5958     37.7106     86.0500   2.9195629256e+02   6.5692439046e+00   0.02415783   0.01565271  47.46  0.001942888    1.596    0.374
        87 -11.4155     17.5793    100.1002   2.9228403294e+02   6.5202469190e+00   0.04336654   0.01317778  31.50  0.002923563    2.746    0.636
        88 -11.7059     18.8629    106.1410   2.9230066760e+02   6.4427039218e+00   0.01358512   0.01209287   6.18 0.0002686076    1.113    0.101
        89 -12.0066     25.7412    113.4751   2.9225437293e+02   6.3183356928e+00   0.05623437   0.02190549  13.64  0.003787856    3.546    0.718
        90 -12.7374     25.8731    107.1358   2.9221842914e+02   6.3913182530e+00    0.0580357   0.03540261 -17.86  0.005079993    2.195    0.544
        91 -12.3067     18.4052     90.5002   2.9222175905e+02   6.6271962203e+00   0.03524116   0.02285603 -23.45 0.0006060032    1.903    0.475
        92  -9.7020    221.2128    120.2393   2.8985133211e+02   5.1230766682e+00  0.009604902  0.007661629  55.00 0.0007465366    1.330    0.248
        93  -9.5010    148.6770    119.6431   2.9075248813e+02   5.5456201856e+00   0.01108591  0.007669734 -23.87  0.001101789    1.709    0.415
        94 -10.1753    114.0162    115.9918   2.9116528087e+02   5.7861984243e+00    0.0101534  0.009535069  12.76 0.0003454579    1.031    0.030
        95  -9.8365     87.8588    114.7015   2.9148492244e+02   5.9504866931e+00   0.01520758  0.009321031  34.88  0.001495957    1.508    0.337
        96 -10.7077     66.9873    112.1352   2.9173173084e+02   6.0992891432e+00     0.022828   0.01611813 -81.23   0.00235823    1.670    0.401
        97 -12.1185     20.7590     95.4954   2.9221936572e+02   6.5557416889e+00   0.03872538   0.02610516  16.19  0.003958404    1.479    0.324
        98  -9.1873    126.8377    114.1496   2.9099521635e+02   5.7343663307e+00  0.009500413  0.007844404 -18.54 0.0007871306    1.308    0.235
        99 -10.4889    107.9960    112.5072   2.9122153978e+02   5.8610939080e+00   0.02121806   0.01337651  63.47  0.001990415    2.016    0.504
       100 -11.0419    104.1706    108.8213   2.9124930922e+02   5.9257919616e+00    0.0294036   0.02205289  -5.23  0.003124526    1.486    0.327
       101 -11.5786      2.5278    112.4733   2.9253908325e+02   6.4617518619e+00    0.0192586   0.01570735 -62.15 0.0009054905    1.298    0.230
       102 -10.5892      5.5379    108.5506   2.9248025594e+02   6.4903046935e+00   0.01442388   0.01112731  24.30 0.0006679874    1.216    0.178
       103  -9.9033     49.0178    112.2539   2.9195688944e+02   6.2002061190e+00   0.01154619   0.01037634 -68.31  0.001029621    1.194    0.162
       104 -11.3692    171.8095    109.5199   2.9040888421e+02   5.5308724894e+00   0.03368407   0.02127205  -6.16  0.003124705    2.022    0.506
       105  -9.6582      7.8716    114.1290   2.9248124038e+02   6.4121801679e+00    0.0147808  0.008537458  40.00  0.001404372    1.656    0.396
       106 -11.1763     79.9774    108.7730   2.9155122607e+02   6.0643673438e+00   0.03475023   0.01750011  41.18  0.003095233    1.924    0.480
       107 -11.3647     86.2469    105.4441   2.9145485625e+02   6.0673304632e+00   0.01993258   0.01595091  -9.38  0.001470941    1.358    0.264
       108 -10.0342     14.3427    108.6480   2.9237072661e+02   6.4392077822e+00   0.01084675  0.007326519  55.22 0.0006538237    1.655    0.396
       109  -9.5942    130.4991    107.9828   2.9091602468e+02   5.7851343516e+00   0.01042076  0.006832848 -64.80 0.0009346297    1.625    0.385
       110 -10.4885    157.9228    105.5940   2.9056078510e+02   5.6560196298e+00   0.01431465   0.01179526 -31.04  0.001119422    1.299    0.230
       111 -10.2793    143.4808    105.7245   2.9074171937e+02   5.7371484081e+00    0.0153861   0.01422011 -47.49  0.001664329    1.137    0.121
       112 -11.1702    145.9703    100.1274   2.9068023283e+02   5.7879655850e+00   0.02358973   0.01933699 -12.60  0.002651432    1.317    0.241
       113 -11.7245      3.3716    104.9048   2.9248762710e+02   6.5449969997e+00   0.02503886   0.01796704  17.82    0.0012336    1.358    0.264
       114 -10.5134     57.5170     97.4009   2.9177022147e+02   6.3245667324e+00    0.0205153   0.01390491 -76.19  0.001641484    1.701    0.412
       115 -10.1078     47.9999    103.0152   2.9191957860e+02   6.3134433026e+00   0.01171902  0.009433607  22.44 0.0003675633    1.171    0.146
       116 -10.2343     52.4157     97.5238   2.9183464176e+02   6.3521749651e+00   0.03498197  0.008205507 -51.14  0.002221304    4.051    0.753
       117 -11.3745     67.2307     97.6578   2.9165022360e+02   6.2662592486e+00   0.03344048   0.01815762 -46.96  0.002222436    1.951    0.487
       118  -9.3859    136.8807    100.1042   2.9079356500e+02   5.8402312253e+00   0.01339175  0.008362486  -8.12  0.001213759    2.087    0.521
       119 -10.1782     78.0031     97.0244   2.9151218340e+02   6.2122357938e+00    0.0139797   0.01019927 -77.17            0    1.561    0.359
       120 -11.0925     81.3422     92.9527   2.9144837682e+02   6.2405410828e+00   0.03407488   0.02559599  37.94  0.003720057    1.265    0.210
       121 -11.4354     89.6622     89.3823   2.9132504889e+02   6.2345974316e+00   0.03201601   0.01749672 -43.55  0.002554504    2.006    0.502
       122 -11.6630     80.1172     82.5123   2.9140703628e+02   6.3689023288e+00   0.04545433   0.02900067  73.38  0.004240829    2.134    0.531
       123 -11.4194     65.7910     81.8358   2.9158241913e+02   6.4584190866e+00   0.02382875   0.01557913  27.55  0.001617059    1.415    0.293
       124 -11.7172     71.6214     79.7717   2.9149834537e+02   6.4491925847e+00   0.03079053   0.01892587 -43.01  0.001429595    1.762    0.432
       125 -10.6007    211.3979     97.7549   2.8985124988e+02   5.4405991754e+00   0.01649538   0.01323788  -1.39 0.0004326927    1.323    0.244
       126  -8.9961    190.5156     96.5152   2.9010484335e+02   5.5747880536e+00  0.006854227  0.006382937  30.09   0.00081018    1.023    0.023
       127  -9.2740    140.4590     96.4903   2.9072925802e+02   5.8617707441e+00   0.01026821  0.006081051 -49.74 0.0009776495    1.755    0.430
       128  -9.9375    138.8756     92.9942   2.9073002371e+02   5.9114626788e+00   0.01619702    0.0106609  -5.28  0.001037945    1.858    0.462
       129 -10.3209     43.0456     94.8950   2.9193751611e+02   6.4360563155e+00   0.02138261   0.01304906  24.66  0.002096926    1.535    0.349
       130 -10.6414    118.1073     92.2072   2.9098506532e+02   6.0393483770e+00   0.02774438   0.01694582 -13.90   0.00248173    2.213    0.548
       131 -11.1654    120.9287     85.7977   2.9091501074e+02   6.0977268983e+00   0.03168219   0.01686966  48.45  0.002581294    2.048    0.512
       132 -10.7862    122.5096     94.0236   2.9093995769e+02   5.9930766213e+00   0.01597211   0.01203217 -80.18  0.001457924    1.523    0.343
       133 -10.3146    126.4949     93.2006   2.9088572251e+02   5.9798633553e+00   0.01662216   0.01359985  23.53 0.0009578389    1.148    0.129
       134 -10.4770    100.4765     90.8622   2.9119797605e+02   6.1556782612e+00   0.03131374   0.01374333  39.40  0.002622133    2.144    0.534
       135 -10.5110    104.8034     88.3889   2.9113049659e+02   6.1597268324e+00   0.01761614   0.01176521  20.37   0.00166164    1.443    0.307
       136  -9.5110    160.2516     93.4148   2.9046550797e+02   5.7842324102e+00    0.0104737  0.005642456  35.88  0.000957245    1.707    0.414
       137 -10.3116    153.0285     91.9263   2.9054755717e+02   5.8428853155e+00   0.01822056   0.01351508  -0.04  0.001885557    1.478    0.324
       138 -10.2092    183.8792     85.9653   2.9013019606e+02   5.7354069124e+00   0.02746212   0.01215383 -74.24  0.002119866    2.976    0.664
       139 -11.2037    113.3212     83.1508   2.9099564741e+02   6.1719638084e+00   0.02457661   0.01592989 -59.22  0.001937755    1.603    0.376
       140 -10.9778    108.7057     81.0080   2.9104166130e+02   6.2232350351e+00   0.01591779   0.01497097 -13.55  0.001238733    1.088    0.081
       141  -9.3017     67.6014     88.1826   2.9159421437e+02   6.3743170163e+00  0.009840854  0.005938487 -50.06 0.0009453208    1.720    0.419
       142 -10.0119    212.2742     87.0178   2.8978185972e+02   5.5602842097e+00   0.01121043   0.00936552  18.14 0.0004722078    1.146    0.127
       143 -11.5262    143.4883     83.3506   2.9062001403e+02   5.9971480418e+00   0.02115417   0.01538116 -46.97   0.00167005    1.443    0.307
       144 -10.6236    165.5891     82.8976   2.9034169374e+02   5.8758692983e+00   0.01771622   0.01547507  36.45  0.001401465    1.094    0.086
       145 -10.5240    127.1227     83.5157   2.9082525534e+02   6.0888413867e+00   0.01766438  0.009669278  39.57   0.00155625    1.736    0.424
       146 -11.6292     53.0668     76.8027   2.9171418565e+02   6.5893887207e+00   0.03736434   0.02187799 -66.28   0.00358908    1.841    0.457
       147 -10.9466     57.8873     78.1916   2.9166145290e+02   6.5457986692e+00   0.02352627   0.01526331  52.34  0.001360438    1.690    0.408
       148 -10.3412    120.8555     79.7917   2.9088328886e+02   6.1679494261e+00   0.02117734  0.007545989  30.65  0.001633793    2.423    0.587
       149 -10.1267    104.1400     76.5968   2.9107473964e+02   6.3005812426e+00   0.02641243   0.01188646 -49.09  0.002226068    2.313    0.568
       150 -12.0334     10.0190     97.9518   2.9236692662e+02   6.5881469988e+00   0.03348012   0.02926684  61.26  0.003926044    1.222    0.182
       151 -11.7841     13.8999     74.5700   2.9219185626e+02   6.8379933453e+00   0.04951325   0.03051802  18.05  0.004834563    1.612    0.380
       152 -10.1173    142.9158    249.5050   2.9152805239e+02   4.0682592068e+00   0.01100807  0.006408225  24.61  0.001039793    1.610    0.379
       153 -11.7349     13.3191     66.0500   2.9215298069e+02   6.9403330927e+00   0.01745301   0.01357445  38.41 0.0004477629    1.228    0.186
       154 -12.3105     12.4433     62.1903   2.9214302892e+02   6.9901684838e+00   0.04132742   0.03198563  34.09 0.0009080042    1.211    0.175
       155  -9.1727    213.3200    248.3403   2.9064524713e+02   3.6794855543e+00  0.007265273  0.004984761 -25.98 0.0007049945    1.716    0.417
       156 -10.2074     98.2210     62.3139   2.9107110159e+02   6.5003673243e+00   0.01605722   0.01140237  22.65  0.001498875    1.332    0.249
       157 -12.4921     74.8202     50.3186   2.9129846066e+02   6.7732638379e+00   0.05187886   0.04142164  86.40  0.005752158    1.460    0.315
       158 -10.4701     93.6818     76.2271   2.9120340596e+02   6.3645821607e+00   0.02490259   0.01873513  -5.54  0.001925281    1.480    0.324
       159 -11.9019     85.4897     73.6074   2.9129155703e+02   6.4417733905e+00   0.03582444   0.02960685  47.23  0.004090583    1.218    0.179
       160 -11.5166     78.6849     67.2196   2.9134192836e+02   6.5548265512e+00   0.03466495   0.02304966  53.19   0.00293752    1.653    0.395
       161  -9.5452      4.9858     77.9763   2.9232178506e+02   6.8489777581e+00    0.0104126   0.00984919  33.82 0.0006167648    1.037    0.035
       162  -8.9947    134.6286     77.2949   2.9069770867e+02   6.1182099549e+00  0.007438172  0.004732077  52.29 0.0007027115    1.731    0.422
       163 -10.6767    241.4926     75.7597   2.8935643163e+02   5.5231762122e+00   0.01574241  0.006531793  37.16  0.001284274    2.189    0.543
       164 -12.1245    186.4638     70.1802   2.9001201540e+02   5.9039445161e+00   0.03958912   0.03120979 -67.10  0.003436982    1.364    0.267
       165  -9.2606    230.8334     73.8151   2.8947862878e+02   5.6070104119e+00  0.009920682  0.007602109  51.54 0.0008162246    1.363    0.266
       166  -9.3884     66.4289     73.4462   2.9152893099e+02   6.5523109502e+00   0.01332803  0.006870229 -67.08  0.001181389    2.119    0.528
       167  -9.5098     46.5422     73.0234   2.9177526914e+02   6.6704552883e+00    0.0145437  0.007147341 -75.73  0.001046613    2.622    0.619
       168 -11.1201     32.7428     71.8417   2.9194142235e+02   6.7626713533e+00   0.03581522   0.01403486  25.26  0.002477304    2.363    0.577
       169 -10.5163     38.6953     73.6693   2.9187689047e+02   6.7075822175e+00   0.01088872   0.00940892 -13.93  0.001253163    1.217    0.179
       170 -11.1223     40.8501     70.8481   2.9183465154e+02   6.7281228460e+00    0.0193634   0.01638165 -88.30  0.002220975    1.331    0.249
       171  -9.2075     61.1465     72.7412   2.9159114379e+02   6.5905972553e+00   0.01115805  0.007318261  40.20 0.0005374047    1.464    0.317
       172 -11.9388    122.5711     68.1852   2.9079876950e+02   6.2930202410e+00   0.04206266   0.02260314  18.86  0.003593439    1.877    0.467
       173 -10.2693    162.1947     70.6574   2.9031744951e+02   6.0375214176e+00   0.01835718   0.01018444  38.99  0.001717615    1.703    0.413
       174 -10.4625    172.1806     67.7847   2.9017718346e+02   6.0136668675e+00   0.01717129   0.01497664  82.21  0.001414355    1.280    0.219
       175 -11.5776    219.5961     66.1999   2.8957716862e+02   5.7599818241e+00   0.03127843   0.01790065  22.79  0.002179942    1.668    0.401
       176  -9.6085    175.2142    246.5845   2.9111003218e+02   3.9177606395e+00  0.009910098  0.006417132  10.82 0.0005941974    1.648    0.393
       177 -10.9647     58.5040     62.4832   2.9156852503e+02   6.7248766495e+00   0.04244908   0.02617742  83.52  0.003842827    2.304    0.566
       178 -11.2231     27.6383     47.0953   2.9187111151e+02   7.0792955591e+00   0.02511606   0.01463261  -6.08  0.002155185    2.381    0.580
       179 -10.1697     20.7253     47.4410   2.9195948004e+02   7.1145543025e+00   0.01730886   0.01363913 -49.16  0.001928432    1.326    0.246
       180 -10.3145     51.4844     46.3535   2.9156877161e+02   6.9522833327e+00   0.03098347   0.01868395  61.39  0.001201995    2.126    0.530
       181 -11.6571     32.6420     42.3572   2.9178280607e+02   7.1059087992e+00   0.03913174   0.02543312  34.68  0.002101565    1.428    0.300
       182 -11.5287     40.5142     55.8040   2.9175727199e+02   6.9048901030e+00   0.03143569   0.02577371  61.02  0.002580647    1.330    0.248
       183  -9.7768    199.0134    244.4952   2.9080245292e+02   3.8060055334e+00   0.01097068  0.006364159  25.77  0.001036466    1.603    0.376
       184 -10.5944     60.8398     36.5217   2.9139836076e+02   7.0132320525e+00   0.01718733   0.01060452 -65.51  0.001079859    1.736    0.424
       185 -11.4762     51.6915     61.6051   2.9164895025e+02   6.7738696100e+00   0.02666564   0.01830719  82.33  0.001452477    1.880    0.468
       186 -11.2664     46.2878     58.3368   2.9169879905e+02   6.8426074630e+00   0.02961948   0.01977945 -70.73   0.00302096    1.660    0.397
       187 -11.6729     46.0692     48.9769   2.9165074760e+02   6.9526210102e+00   0.02331222   0.01877558 -17.45  0.001424215    1.355    0.262
       188 -12.6829     41.8182     45.4713   2.9168490085e+02   7.0175418211e+00   0.01897011     0.015372  34.32 0.0003190789    1.162    0.139
       189 -10.5882     21.0847     65.1792   2.9205112594e+02   6.9063611738e+00   0.01182467  0.009837768  29.91 0.0006182719    1.123    0.110
       190  -9.4120    204.7895     63.6868   2.8974807407e+02   5.8741912771e+00   0.01316446  0.007901105 -36.61 0.0009932084    1.932    0.482
       191 -10.9671    105.7212     62.5752   2.9097879360e+02   6.4544989035e+00   0.02440394   0.01026473  47.23  0.001875258    2.707    0.631
       192  -9.5625    198.0957     62.6702   2.8982601493e+02   5.9244202589e+00   0.01148807  0.009564678  82.81   0.00082579    1.372    0.271
       193  -9.6442    167.9505     63.0038   2.9020394668e+02   6.0934441371e+00   0.01064737  0.009226738  28.63  0.001233924    1.079    0.073
       194 -10.6253    159.4398     61.7545   2.9030337885e+02   6.1567236258e+00   0.02096388    0.0130804   5.53  0.001975152    1.855    0.461
       195 -10.7924    128.2808    242.1374   2.9167054108e+02   4.2374730477e+00    0.0206954    0.0172826 -51.16  0.002375226    1.254    0.202
       196 -10.1739    150.8102    237.0282   2.9136224097e+02   4.1683020193e+00   0.01188925  0.007035287 -35.52  0.001088615    1.992    0.498
       197  -9.5003     15.3003    233.4424   2.9303198470e+02   4.9816306689e+00   0.01270887  0.007810975 -50.57  0.001243747    1.686    0.407
       198 -10.6537    242.5110    231.5110   2.9019085374e+02   3.7079995379e+00   0.01650995  0.009939616  46.74  0.001579188    1.719    0.418
       199 -12.8298    117.3223     43.0509   2.9072765045e+02   6.6150280953e+00   0.04885982   0.02823526  45.37  0.004046148    1.767    0.434
       200 -12.9340    120.2919     38.8079   2.9066745274e+02   6.6473291020e+00   0.04103263   0.02412889  57.97 0.0009757589    2.109    0.526
       201  -9.9633    147.7115     60.5282   2.9044313463e+02   6.2381407930e+00   0.01889439  0.006316007  25.26  0.001369951    2.767    0.639
       202  -9.4621    228.9555     59.4569   2.8942375497e+02   5.7844821770e+00   0.01098282   0.00635335  25.52  0.001035942    1.612    0.380
       203 -11.5447    156.8033     53.7172   2.9029253825e+02   6.2651813583e+00   0.03654133   0.02341653 -86.83  0.003492381    2.020    0.505
       204  -9.8807    208.3459     68.0895   2.8972771923e+02   5.8026516429e+00   0.01519688  0.009511451   4.13  0.001170831    1.880    0.468
       205  -9.8231      2.1610     56.0902   2.9223862845e+02   7.1194094354e+00   0.01038402   0.00889992 -17.44 0.0006136658    1.235    0.190
       206  -9.6423    192.1343     65.6788   2.8991676139e+02   5.9236930593e+00   0.01321116  0.009675549  57.92   0.00102641    1.520    0.342
       207 -11.3521    136.6007     55.7371   2.9055582030e+02   6.3573958091e+00   0.02973319   0.02181218 -52.80  0.002404203    1.419    0.295
       208 -10.0512     67.2553     54.8150   2.9141747226e+02   6.7641367193e+00    0.0122059   0.01070921  15.82 0.0006935425    1.093    0.085
       209 -11.7994    241.0999     50.2188   2.8922204165e+02   5.8218759001e+00   0.03771995   0.01565045  30.67  0.001935038    2.129    0.530
       210 -11.2265    201.7775     47.2940   2.8969629062e+02   6.0818026401e+00   0.03399876   0.02479605  89.27  0.003550599    1.671    0.402
       211 -11.2724    173.8006     48.0773   2.9004963585e+02   6.2332520615e+00   0.03055119   0.01504083  27.62   0.00187568    1.853    0.460
       212 -10.2176    177.2699     43.5992   2.8998193602e+02   6.2653500415e+00   0.01949257   0.01439017  53.10  0.002077182    1.445    0.308
       213 -10.2328     90.4620     48.0920   2.9109079632e+02   6.7099046891e+00   0.01297554   0.01046827  37.22 0.0006484995    1.179    0.152
       214  -9.4742      3.7377     49.0504   2.9218076512e+02   7.1922785774e+00   0.01242178   0.00826268  33.49  0.001268438    1.392    0.282
       215  -9.8114     14.0017     46.5417   2.9203873399e+02   7.1631848758e+00   0.01577061  0.008398307 -46.77  0.001429239    1.993    0.498
       216  -9.8933     17.9896     41.9663   2.9196402600e+02   7.1937052890e+00   0.01810395   0.01027486  -1.38  0.001511193    2.403    0.584
       217  -9.6121    193.3308     45.8770   2.8979393431e+02   6.1467467482e+00   0.01402575  0.007518875  44.38  0.001075384    1.890    0.471
       218 -10.0760    232.9612     45.1746   2.8929593911e+02   5.9272122716e+00   0.01775488  0.009153655  18.77  0.001362234    1.982    0.496
       219  -9.4850    132.3514     45.1541   2.9055130848e+02   6.5046379015e+00   0.01161556  0.008829967   6.73 0.0005573591    1.369    0.270
       220 -10.2884    100.9396     43.8487   2.9093674863e+02   6.6993773191e+00   0.02424539   0.01324474  59.33  0.002047323    2.460    0.594
       221 -11.2939     93.9431     41.3667   2.9101071636e+02   6.7681607453e+00   0.02602732   0.01557096  19.51  0.001628991    1.643    0.391
       222  -9.7605      2.9805     44.4917   2.9216554105e+02   7.2495473315e+00   0.01396315  0.008093663  19.03 0.0006334495    1.710    0.415
       223 -10.0041    161.8100     43.4542   2.9017413559e+02   6.3556762382e+00   0.02089797  0.009718793  25.95  0.001793967    1.986    0.496
       224 -11.7738    156.2604     41.7677   2.9023424366e+02   6.4070617575e+00   0.01894259   0.01746655  -0.87 0.0007531388    1.089    0.082
       225 -11.2354    153.5471     36.3916   2.9023884475e+02   6.4850318077e+00   0.01681932    0.0147367  51.60 0.0007586472    1.170    0.146
       226 -11.2939     81.7024     39.4615   2.9115340972e+02   6.8601487971e+00   0.02651826   0.01406172  33.43  0.001698184    1.713    0.416
       227 -11.0766     78.1730     34.6873   2.9117159583e+02   6.9357380890e+00   0.02372028   0.01415843  33.90  0.001413344    1.539    0.350
       228 -11.0602     82.2544     31.6261   2.9110391244e+02   6.9480118003e+00    0.0232709   0.01665558  33.22  0.002030956    1.299    0.230
       229 -10.0166    231.3425     38.9806   2.8928232054e+02   6.0083940490e+00   0.01800927   0.01200355  85.15  0.001544055    1.975    0.494
       230  -9.4320    218.0410     38.7059   2.8944663926e+02   6.0880511559e+00   0.01013262  0.008627222  26.83  0.001023019    1.097    0.089
       231 -10.8142    176.8955     37.0485   2.8995090896e+02   6.3435484207e+00   0.01849439   0.01393666 -56.60  0.001657845    1.387    0.279
       232 -10.9342    172.0256     33.5635   2.8999270581e+02   6.4119380548e+00   0.02075808   0.01310908  19.61  0.002051366    1.547    0.354
       233 -10.5588    175.8061     29.5080   2.8992340546e+02   6.4373276255e+00   0.01815199   0.01522786 -22.71  0.001409496    1.279    0.218
       234 -10.3579    197.8080    231.7656   2.9074848477e+02   3.9608849646e+00   0.01215915  0.006457636 -25.75 0.0009546808    2.794    0.642
       235 -10.5459    247.5669    231.2345   2.9012647340e+02   3.6822590733e+00   0.01415456  0.008435797 -52.13  0.001343792    1.729    0.422
       236 -10.8911     22.1256     36.1358   2.9188064734e+02   7.2379528199e+00   0.03160666   0.01432449  42.98  0.002643081    2.217    0.549
       237 -10.1481    206.6977     36.9236   2.8957837574e+02   6.1739134771e+00   0.01358647   0.01187979  69.79 0.0008830145    1.253    0.202
       238 -10.1679    189.4704     37.9778   2.8979903992e+02   6.2606029478e+00  0.009875832  0.006760548 -62.49 0.0004123205    1.542    0.351
       239 -10.9861      5.5464     36.0285   2.9208755876e+02   7.3333224031e+00   0.02781552   0.02177313   0.25  0.003054087    1.357    0.263
       240  -8.6532      6.1892     30.8735   2.9205156471e+02   7.3895611959e+00   0.02069963   0.01180875  13.23  0.001889596    1.894    0.472
       241  -9.2143     23.4763    231.5317   2.9291975040e+02   4.9574605356e+00  0.006843325  0.006371052  29.89 0.0004451216    1.023    0.022
       242 -11.5675    105.6877     32.9456   2.9081809001e+02   6.7988928725e+00   0.02694633   0.01350151 -36.72  0.001423931    2.515    0.602
       243  -9.3377    190.0016    229.7507   2.9083475398e+02   4.0289568454e+00  0.009660814  0.008511007  19.17 0.0005939296    1.077    0.071
       244 -10.4127    189.9664     32.8222   2.8976474257e+02   6.3175973984e+00   0.01787969   0.01398103  45.34  0.001027528    1.273    0.215
       245 -10.2653    189.4554     27.5203   2.8974220794e+02   6.3820651347e+00   0.01819547   0.01258075 -38.30  0.001195245    1.585    0.369
       246 -10.4455    160.8460     33.1570   2.9013007364e+02   6.4807581401e+00   0.01894301   0.01578235  30.66  0.001287793    1.122    0.108
       247  -9.7537      9.0552    227.2866   2.9307673566e+02   5.0887068664e+00  0.009751403  0.008351409  25.14 0.0002898629    1.094    0.086
       248 -10.1277    234.2281    222.6098   2.9024558814e+02   3.8588660416e+00  0.009859514  0.006361267  11.55 0.0009520305    1.645    0.392
       249 -10.6843     57.1257     30.7681   2.9141356805e+02   7.1012216418e+00    0.0244545   0.01465013  12.35  0.001742504    1.797    0.443
       250 -11.8807     47.7630     30.5104   2.9152930740e+02   7.1575226454e+00    0.0373168   0.01734736  16.89  0.002620842    2.338    0.572
       251  -9.1414    182.4432     32.2134   2.8985531027e+02   6.3678437184e+00  0.008758031  0.006720657 -88.46 0.0004403495    1.535    0.348
       252 -10.9984    241.1197     30.6831   2.8911519256e+02   6.0484164865e+00   0.02593927   0.01421025 -43.12  0.002366167    2.015    0.504
       253 -10.8818    197.8534     28.8395   2.8964461254e+02   6.3185330177e+00   0.02049177   0.01688883 -20.75  0.001518583    1.313    0.238
       254 -10.1920    199.5246     24.9509   2.8960255188e+02   6.3540575397e+00   0.01349393   0.01152662  -4.79 0.0006411587    1.220    0.181
       255  -9.9850      9.9779    217.7484   2.9301389259e+02   5.1944833284e+00   0.01151213    0.0100307 -66.02 0.0006106896    1.226    0.184
       256 -10.0087    100.2549     30.0011   2.9086999128e+02   6.8641258065e+00   0.01540774   0.01262621  -5.49  0.001727765    1.297    0.229
       257  -9.6002    166.3889    213.1814   2.9103906637e+02   4.3566318283e+00   0.01832942  0.008017162  63.30  0.001029687    5.653    0.823
       258  -9.3299    152.5896    207.7852   2.9118177594e+02   4.4982522916e+00  0.009014116    0.0066956 -86.27 0.0004616315    1.596    0.373
       259 -10.1917    238.9826    204.7347   2.9008940725e+02   4.0393553334e+00   0.01229003  0.009123096  85.52  0.001282233    1.639    0.390
       260 -10.0275      4.4859    204.5686   2.9301144496e+02   5.3790286319e+00   0.01382663  0.006674214 -63.15  0.001203663    2.158    0.537
       261 -10.6550    245.3098    200.9963   2.8999038462e+02   4.0465382106e+00   0.00938445  0.009078082 -73.96 0.0005058636    1.108    0.097
       262 -10.3430    234.1967    197.0827   2.9010740687e+02   4.1557001832e+00   0.01855538   0.01391326 -39.62  0.001687282    1.428    0.300
       263  -9.1648    230.7850     30.4326   2.8924262496e+02   6.1107742910e+00   0.01049076  0.009433324  55.88 0.0004361557    1.156    0.135
       264  -9.9722    230.5670     26.7595   2.8922529546e+02   6.1546393480e+00   0.01044026  0.006902661 -64.32  0.001052772    1.609    0.379
       265  -9.8258    158.4833     20.4512   2.9009033702e+02   6.6417921758e+00   0.02279636  0.009460863  32.95  0.001885061    2.125    0.529
       266 -10.4073     16.9974    192.6161   2.9279093093e+02   5.4471490251e+00   0.01329495   0.01120404  25.01  0.000471359    1.112    0.100
       267 -10.3203    156.8220     25.1389   2.9013663417e+02   6.5969030431e+00   0.01364796    0.0124715  30.75 0.0006272707    1.035    0.034
       268 -10.3440    250.3414     25.2967   2.8897088990e+02   6.0578157785e+00   0.01202567  0.009250795 -59.94 0.0007105113    1.368    0.269
       269 -11.1244    214.7649     23.5112   2.8940459356e+02   6.2831877568e+00    0.0220993   0.01719343 -47.46  0.001766357    1.347    0.258
       270 -12.2851      5.2788    185.4896   2.9289877127e+02   5.5965787430e+00   0.04176124   0.03365601  74.79  0.004368781    1.429    0.300
       271  -9.8072    169.8748    191.1831   2.9087640613e+02   4.5925208491e+00   0.01864293  0.009245691   7.27   0.00114161    2.736    0.635
       272  -9.4734    250.3742    180.0298   2.8981345629e+02   4.2611148814e+00   0.01143056  0.006571997 -63.90  0.001076358    1.840    0.456
       273 -10.2855     81.3249     19.3766   2.9104892589e+02   7.0955708836e+00   0.01865494   0.01134564  18.93 0.0009122207    1.623    0.384
       274  -9.1282     57.4477    175.4214   2.9219329559e+02   5.4173607433e+00  0.006788138  0.006338257  18.14  0.000157115    1.018    0.018
       275  -9.7486     51.8464    174.1247   2.9225620039e+02   5.4643173564e+00   0.01099478  0.008951922  52.19 0.0009929556    1.276    0.216
       276 -11.6204     70.0027     32.6438   2.9126267697e+02   7.0060613558e+00   0.02602245   0.01533392  16.80  0.002460012    1.728    0.421
       277  -9.5027    247.7780    173.4405   2.8980994097e+02   4.3525611578e+00  0.009772329   0.00640996   7.83 0.0006936327    1.675    0.403
       278  -9.8162     39.6121    173.2442   2.9240415633e+02   5.5441318027e+00  0.009595713  0.006096618 -51.88 0.0005833386    1.627    0.385
       279 -10.5189     35.0965    170.5235   2.9244583428e+02   5.6014559882e+00   0.01233322    0.0101967 -64.71  0.001399616    1.289    0.224
       280  -9.5579    223.4678     22.4625   2.8929034741e+02   6.2453163049e+00   0.01343612  0.008211345  30.41 0.0008298861    1.499    0.333
       281 -10.2070    220.9081     19.0881   2.8930384631e+02   6.2991785412e+00   0.01227632    0.0117364 -20.44 0.0005193379    1.081    0.075
       282  -9.6036      9.0068    156.0017   2.9269320508e+02   5.9185859539e+00    0.0128118  0.009676472  21.75 0.0008730217    1.255    0.203
       283 -11.2597      9.4082    166.6662   2.9274573173e+02   5.7922104557e+00   0.02653442   0.02217866 -52.10  0.002285802    1.252    0.201
       284  -9.9008     66.3371     22.2603   2.9125209465e+02   7.1475517206e+00   0.01238982  0.006319742  21.41 0.0005187306    1.914    0.477
       285 -11.4819     13.6949    158.5073   2.9264818204e+02   5.8628266420e+00   0.02828141   0.01423469 -64.13  0.002529852    2.094    0.522
       286  -9.6869    198.1373    167.8023   2.9039738498e+02   4.7026085975e+00    0.0103186  0.008957629  46.65 0.0005841073    1.154    0.133
       287  -9.3545      1.7621     20.4543   2.9205048502e+02   7.5356959805e+00  0.009799514  0.006400053   6.89  0.000945242    1.693    0.409
       288  -9.9706     18.6345    165.3168   2.9262325268e+02   5.7555487967e+00   0.01341472   0.01200176 -15.19   0.00138767    1.161    0.139
       289  -9.8882    191.7396     16.8750   2.8965563793e+02   6.4924768087e+00      0.01211   0.01129621   0.78  0.001459836    1.071    0.067
       290  -9.4944    225.0741     16.7224   2.8923898838e+02   6.3026596479e+00   0.01173956  0.007709844  40.95  0.001182957    1.468    0.319
       291  -8.8213     55.2721     17.3400   2.9136379707e+02   7.2677300208e+00  0.007013987  0.004959946 -29.50 0.0006992692    1.608    0.378
       292 -10.3938    205.6778    162.7772   2.9027615258e+02   4.7178246819e+00   0.02046879   0.01254153 -19.15  0.001541885    2.176    0.540
       293  -9.4674    188.8363    163.8984   2.9049207318e+02   4.8012559529e+00   0.01069459  0.009032511 -25.68 0.0008294887    1.264    0.209
       294 -10.0143     28.2948    162.9450   2.9248983142e+02   5.7282893425e+00   0.01840107  0.009598915 -57.84  0.001683761    1.948    0.487
       295 -10.2945     80.8927    160.1719   2.9181820492e+02   5.4612904102e+00   0.02063637   0.01231156  19.01  0.001972952    1.658    0.397
       296  -9.8065    219.2276     12.6382   2.8928959493e+02   6.3836556748e+00   0.01618731  0.008186622  15.95  0.001302212    2.146    0.534
       297  -9.4048    224.3123    156.6919   2.9001099268e+02   4.6817418171e+00  0.007152267  0.004896627  55.11 0.0006455967    1.623    0.384
       298 -10.7821    104.5185    153.0413   2.9148472317e+02   5.4095244254e+00   0.02504743   0.01487961 -75.47  0.002352844    2.001    0.500
       299  -9.4993     26.4565    127.4981   2.9232127071e+02   6.1511511066e+00   0.01510879  0.009876812 -84.95 0.0005596019    1.920    0.479
       300 -10.3536     31.4930    154.2304   2.9240283077e+02   5.8115217316e+00   0.02146725   0.01287863  48.03  0.002048702    1.758    0.431
       301 -10.6830     30.4274    148.8357   2.9238699385e+02   5.8803456111e+00   0.01659795   0.01417381  51.65 0.0005977386    1.204    0.170
       302 -10.8119     33.2271    144.3714   2.9232790279e+02   5.9163794668e+00   0.01745442   0.01447926  89.81  0.001627658    1.372    0.271
       303 -12.1214     23.2596    136.2300   2.9240840927e+02   6.0677269727e+00   0.05002836   0.02370959  37.93   0.00437676    1.958    0.489
       304 -11.5894     29.8557    132.9331   2.9230818664e+02   6.0686116408e+00   0.02238489   0.01775961 -64.36 0.0004155016    1.342    0.255
       305  -9.4554     22.8288    154.9430   2.9251487679e+02   5.8524470663e+00   0.01471832  0.008237356  -8.24  0.001188718    2.666    0.625
       306 -10.3808     71.4810    151.4897   2.9188870898e+02   5.6159179441e+00   0.01781688   0.01133314  32.70  0.001789186    1.448    0.309
       307 -10.7826     10.6303    127.0969   2.9251684527e+02   6.2456763275e+00   0.02997825   0.01161998 -47.24  0.001615225    2.779    0.640
       308 -10.8203    105.9989     20.9762   2.9074906603e+02   6.9361062180e+00   0.01838549   0.01106214 -66.09  0.001783307    1.790    0.441
       309 -11.5017     13.0339    139.3007   2.9255274022e+02   6.0900565186e+00   0.04016513   0.02269778  73.20  0.003304034    2.787    0.641
       310 -10.5653     14.1513    132.6608   2.9250291391e+02   6.1609643907e+00   0.01465088   0.01129932  79.76  0.001574241    1.543    0.352
       311 -11.7481     22.6306    149.4872   2.9248788837e+02   5.9170544677e+00   0.03104566   0.01759546 -16.46  0.002574144    2.607    0.616
       312 -10.3189     16.0774    147.8546   2.9256091867e+02   5.9732561917e+00     0.021631   0.01139656  36.57   0.00138674    1.752    0.429
       313 -12.0036      5.6120    147.2640   2.9268844700e+02   6.0395147472e+00   0.03685436   0.02565404 -41.88  0.003552675    1.539    0.350
       314 -11.0910      3.4518    141.0565   2.9268192446e+02   6.1239929589e+00   0.02572057   0.01334991  28.27  0.001487847    1.756    0.431
       315 -11.9130      3.8536    136.4234   2.9265189110e+02   6.1756184695e+00   0.01401248   0.01271594   2.19 0.0003352009    1.100    0.091
       316  -9.8810    214.5880    151.7894   2.9010545321e+02   4.7944652164e+00  0.009211242  0.006694911 -86.20 0.0005649186    1.649    0.394
       317 -11.1420     62.4300    149.7999   2.9199257092e+02   5.6871157852e+00   0.02385612   0.02052458  43.39  0.002157604    1.145    0.127
       318  -9.4288     42.9593    148.2228   2.9222717464e+02   5.8162449209e+00    0.0159955  0.008367805  33.03  0.001462058    1.733    0.423
       319 -10.5894     48.1883    147.8366   2.9215978720e+02   5.7910000936e+00   0.01526381   0.01122114  11.84  0.001004989    1.380    0.275
       320 -10.1341     46.3850    144.7915   2.9216584140e+02   5.8366846234e+00   0.01598118  0.009682101 -39.81 0.0008383923    1.843    0.457
       321  -9.6301     47.7093    151.6601   2.9218644164e+02   5.7492398761e+00   0.01804425   0.01132663  32.27  0.001276689    1.465    0.317
       322 -10.6112    249.6388    142.8024   2.8962014470e+02   4.6978199012e+00   0.02979455   0.01289244 -65.11  0.002458967    2.471    0.595
       323  -9.3702    239.8038    146.6290   2.8976338771e+02   4.7098092175e+00   0.01003041  0.005684648  34.68 0.0007703499    1.619    0.382
       324 -10.2335    133.6697    139.8428   2.9104939781e+02   5.3965640193e+00   0.01693309   0.01300313 -38.00  0.001710392    1.396    0.284
       325 -10.7909     81.4860    135.4223   2.9167680007e+02   5.7458230717e+00   0.02987451   0.01766973 -16.00  0.002226131    2.365    0.577
       326 -11.3589     92.9227    130.1243   2.9150529158e+02   5.7422368555e+00   0.03092224   0.01563297 -71.09  0.002687715    2.300    0.565
