#   1 NUMBER                 Running object number                                     
#   2 MAG_AUTO               Kron-like elliptical aperture magnitude                    [mag]
#   3 X_IMAGE                Object position along x                                    [pixel]
#   4 Y_IMAGE                Object position along y                                    [pixel]
#   5 X_WORLD                Barycenter position along world x axis                     [deg]
#   6 Y_WORLD                Barycenter position along world y axis                     [deg]
#   7 A_WORLD                Profile RMS along major axis (world units)                 [deg]
#   8 B_WORLD                Profile RMS along minor axis (world units)                 [deg]
#   9 THETA_WORLD            Position angle (CCW/world-x)                               [deg]
#  10 FWHM_WORLD             FWHM assuming a gaussian core                              [deg]
#  11 ELONGATION             A_IMAGE/B_IMAGE                                           
#  12 ELLIPTICITY            1 - B_IMAGE/A_IMAGE                                       
         1 -13.1370    214.2957     47.6965   2.7972357398e+00   2.6946891383e+01    0.7053484     0.624706 -24.57  0.001569579    1.245    0.197
         2 -13.0163    242.0662     25.3736   3.5544311523e+02   2.4223939154e+01    0.8499753    0.6159638 -46.14  0.004489035    1.049    0.046
         3 -11.3815      3.9008     24.8916   6.1101741125e+01   7.4265658306e+01    0.5550603    0.3591229  39.58  0.003096742    1.871    0.465
         4 -11.0725      2.2230      8.4871   5.4720389326e+01   7.7814943826e+01    0.4872649    0.2073214 -52.26  0.002399008    2.034    0.508
         5  -8.7805     70.0000    241.4175   6.9553159833e+01   1.5670271193e+01    0.1934173   0.06654128 -68.65 0.0006503606    3.529    0.717
         6  -9.3426    101.0950    250.1282   6.3816357378e+01   1.0666725705e+01    0.1659441    0.1518196 -45.78  0.000976495    1.365    0.267
         7  -9.5285     75.0000    250.0673   6.9153756821e+01   1.3631812528e+01    0.1861054    0.1359718 -81.43  0.001075593    1.697    0.411
         8  -8.9478     76.0000    245.4893   6.8601410553e+01   1.4294617611e+01    0.3959769    0.1153683 -64.11  0.001315885    3.968    0.748
         9 -10.3399     52.6710    250.2564   7.3746341625e+01   1.5988666560e+01    0.3616452    0.1327269  27.89   0.00179912    2.278    0.561
        10  -9.5777     58.0982    247.9847   7.2493865103e+01   1.5813806595e+01    0.2749765    0.1486983  14.99 0.0008514678    2.260    0.557
        11 -13.9301     71.1307    189.9713   6.4606670894e+01   2.5771040195e+01     2.509259     1.774499 -79.81  0.008648239    1.547    0.353
        12 -14.5724     68.7869    149.3194   5.9963250311e+01   3.5745317844e+01      8.58306     2.868314 -72.69   0.02448859    4.575    0.781
        13 -10.2008    192.8022    194.6544   3.8074337351e+01   7.7260340340e+00    0.5737718    0.2936211 -59.48  0.001675416    8.561    0.883
        14 -10.3758    175.0091    222.8772   4.5815501238e+01   5.8280031572e+00    0.1973245    0.1561976 -19.53 0.0009267103    1.231    0.188
        15 -15.6571      6.8040    141.6355   7.8460123449e+01   4.4185193184e+01     7.670058     1.541888 -80.69   0.02291389    4.538    0.780
        16 -10.8909    128.8455    184.5230   4.9654127117e+01   1.8784127715e+01    0.2183426    0.1972023  78.68  0.001311652    1.350    0.259
        17 -10.2040    172.0223    219.5035   4.5895776416e+01   6.6990881697e+00    0.1790733    0.1009579  29.25 0.0006010025    1.557    0.358
        18 -11.8450     63.3567    182.1926   6.5767815102e+01   2.8501031870e+01    0.4225608    0.2700033  58.42  0.001435693    1.576    0.365
        19  -9.7035    165.5243    215.4927   4.6571123764e+01   8.1439009584e+00    0.1221658    0.1000277   7.68 -6.707672e-05    1.023    0.022
        20  -9.3969    174.8678    179.8036   3.8910396752e+01   1.2663177275e+01    0.2020416    0.1594265  -5.25 0.0006230534    1.213    0.176
        21 -11.0451    171.9579    175.0344   3.8628630218e+01   1.3926904225e+01    0.3977988    0.3136799  -7.37  0.000950509    1.242    0.195
        22 -11.1379    173.9277    171.4409   3.7569506116e+01   1.4250829834e+01    0.4254394     0.344898  61.31   0.00169513    1.761    0.432
        23 -10.7152    104.1720    171.1872   5.3554033107e+01   2.5345401290e+01    0.3841419    0.2955051 -82.45  0.001550467    1.577    0.366
        24 -10.8060    180.6097    167.7746   3.5561495817e+01   1.3847289818e+01    0.3755702    0.2353093 -45.07  0.001858423    1.654    0.396
        25 -10.2438    178.4880    164.5351   3.5355115964e+01   1.4742389375e+01    0.3078696     0.249218  -6.39  0.001494146    1.191    0.161
        26  -9.8566    111.0010    167.5352   5.1205434113e+01   2.5093014775e+01    0.2968656    0.2086422 -78.67 0.0009271468    1.883    0.469
        27 -10.9165     91.1003    167.7514   5.6453278709e+01   2.8086587971e+01    0.5298071    0.3245127  16.93  0.002346591    2.024    0.506
        28 -10.8640    230.6483    165.7971   2.6540064828e+01   6.8822783635e+00    0.1979706    0.1662555   7.67  0.001108291    1.204    0.169
        29  -8.9754    194.7672    226.9617   4.2787232456e+01   2.8761791330e+00    0.1531041    0.1205783  -5.63 0.0004577056    1.092    0.084
        30 -10.6490    238.2857    160.8572   2.4482175102e+01   6.5633004560e+00    0.1894696    0.1311611 -39.48  0.001209603    1.458    0.314
        31  -9.5178    127.2478    157.3106   4.5283926400e+01   2.4661269747e+01    0.3634111    0.2268362 -72.49  0.001512209    2.495    0.599
        32 -10.2451    134.3277    148.8249   4.1876690433e+01   2.5250907825e+01    0.3846304    0.2372862 -58.37  0.001630026    1.867    0.465
        33 -10.7978    133.4315    143.1429   4.0916977301e+01   2.6624564514e+01    0.7678034    0.2543429 -55.10  0.002282731    4.037    0.752
        34  -9.1380    123.9686    150.5236   4.4786755176e+01   2.6694782567e+01    0.2101568    0.1396122  38.78 4.079868e-05    1.484    0.326
        35 -11.4659     86.0660    144.7243   5.4057652989e+01   3.4349919818e+01     0.636192    0.4540443 -18.27  0.001901004    1.961    0.490
        36 -10.6428    108.9573    145.3055   4.7691959650e+01   3.0458556982e+01    0.2871092    0.2702386  52.51 0.0006896448    1.068    0.064
        37 -10.5760     36.9112    142.1656   6.8917822264e+01   4.1464512583e+01    0.4184877    0.2260894 -64.79  0.001878429    1.728    0.421
        38 -10.3065     28.5025    143.0389   7.1700887112e+01   4.2066958885e+01      0.34017    0.3057133  -1.98  0.002021185    1.335    0.251
        39 -11.3746    103.6605    131.4523   4.6317478081e+01   3.4639961693e+01    0.7342411    0.5398798   7.03  0.002392769    1.830    0.454
        40  -9.7097     40.9454    132.6834   6.6399164851e+01   4.3531527227e+01    0.2909777    0.2252733  44.20 0.0006943871    1.281    0.219
        41 -10.9900     44.1440    130.0006   6.4940852978e+01   4.3885225664e+01    0.6363875     0.427876  89.00  0.003061242    1.555    0.357
        42  -9.2885    136.0000    129.4325   3.7263028352e+01   2.9092222147e+01    0.3234534   0.08274469 -46.83 0.0008408602    3.817    0.738
        43 -17.6720      5.0413    218.5092   8.2392137983e+01   2.6461108135e+01     3.329426     1.659103  75.33   0.01912862    1.830    0.454
        44  -9.7024    110.5462    126.3204   4.3229034095e+01   3.4604192284e+01    0.2861386    0.2564162  -3.10 0.0008952415    1.250    0.200
        45  -8.3125    219.3000    126.2609   2.0386434753e+01   1.4466982995e+01    0.1218237   0.09055072  -3.13 0.0001866634    1.511    0.338
        46  -9.4894    134.6249    123.7732   3.6277119046e+01   3.0574048671e+01    0.2148231    0.1385267 -55.37 0.0007284458    1.658    0.397
        47 -11.6349     88.0404    131.9364   5.1033220015e+01   3.7195671132e+01    0.2845854    0.2728403 -61.19 0.0003734811    1.043    0.041
        48 -10.1666     97.5009    121.3420   4.5882909271e+01   3.8171488799e+01    0.2857587    0.2489889  -3.66 0.0007672651    1.344    0.256
        49  -9.8318    116.7582    121.4275   4.0368050278e+01   3.4564635556e+01    0.2122957    0.1475084  27.59 0.0009460732    1.645    0.392
        50 -15.4359     44.3231    235.2117   7.4617185371e+01   1.9548367531e+01     3.251431     1.780395 -76.18   0.01614288    2.063    0.515
        51 -10.1848     27.5499    118.3891   6.9179310163e+01   4.8704789152e+01    0.3631617    0.2296708  47.38  0.001773177    1.604    0.376
        52  -9.5243    107.0036    116.0414   4.1816766056e+01   3.7679745463e+01    0.2221932    0.2160111 -75.70 -0.002661949    1.026    0.025
        53 -15.1364     10.2029    206.2327   8.0802590664e+01   2.8581166867e+01     1.063949    0.5167316   6.76  0.004909819    3.235    0.691
        54 -10.2783    244.2726    114.4314   1.4518122578e+01   1.2274213991e+01    0.2660915    0.1468058 -55.08  0.001330035    2.493    0.599
        55  -9.5820    135.0000    112.5172   3.3414359808e+01   3.2909115857e+01    0.3447492   0.08387411 -44.97 0.0009388515    3.968    0.748
        56 -11.4990     29.9547    108.2494   6.6829098720e+01   5.1212379396e+01    0.5435368     0.248191  42.78  0.001220062    2.254    0.556
        57 -11.5536     24.0219    105.0751   6.8680553243e+01   5.2606813845e+01    0.4913454     0.395651 -84.91  0.001747051    1.151    0.131
        58  -8.4010     94.7002    108.2754   4.3601675230e+01   4.1849825953e+01    0.1519624    0.1200585  77.29 0.0001657707    1.535    0.349
        59 -10.7289    117.9997    108.9925   3.6932008595e+01   3.7141555603e+01    0.2396846     0.214513  88.94 0.0004920766    1.238    0.192
        60 -10.6463    112.2877    102.6504   3.6848119682e+01   3.9729602274e+01    0.3885198    0.2422651 -55.02  0.001207489    1.657    0.397
        61 -16.1544     37.0519    177.3216   7.2342954067e+01   3.2630950850e+01     7.507301     3.743948  41.94   0.02413355    1.748    0.428
        62 -11.4936    161.6490    223.2615   4.8445094919e+01   7.4507793642e+00    0.3554328    0.2069303   5.82  0.001890353    2.054    0.513
        63  -8.3530     86.3476     99.7066   4.4087478979e+01   4.5470927519e+01    0.1588874    0.1200865  74.99 0.0007030475    1.670    0.401
        64 -11.1302     31.0304     95.5935   6.4262538728e+01   5.4509341325e+01    0.8437046    0.1883689  42.94  0.002306828    5.157    0.806
        65 -10.4446     57.3350     87.2287   5.1445271071e+01   5.3439907708e+01    0.3341231    0.2641904  47.46  0.000916217    1.341    0.254
        66  -8.9700     39.2492     85.3664   5.8609655332e+01   5.6330090679e+01    0.1958433     0.130325  38.63 0.0005152644    1.586    0.369
        67  -8.2986    206.2908    210.2772   3.8230112953e+01   3.7552058637e+00    0.1152874    0.0733385  -2.69 0.0001891345    1.522    0.343
        68 -10.8932     17.1054     80.7881   6.7736976004e+01   5.9658012726e+01     0.243168    0.2353522  13.18 0.0004220509    1.154    0.134
        69 -10.0150    211.0990    198.8005   3.5540763336e+01   4.7483177458e+00    0.1935556    0.1540192  -5.13 0.0004782602    1.022    0.022
        70  -8.8466     71.8339     79.5751   4.3514081975e+01   5.2949812665e+01    0.2106534    0.1400539  51.23 0.0007432469    1.663    0.399
        71  -9.9702     29.9861     80.5027   6.1667508918e+01   5.8606786475e+01    0.1991847    0.1424184  22.87 0.0004523066    1.525    0.344
        72  -9.8148     81.4315     70.6642   3.7030117527e+01   5.3185216902e+01    0.4658821    0.2889228 -75.51  0.001697408    2.881    0.653
        73  -8.9556    198.4825    240.5691   4.4061849694e+01   7.1019977459e-01    0.1094889   0.08197498   6.50 7.554248e-05    1.023    0.022
        74  -8.2791    132.6717     68.3600   2.1288797099e+01   4.2260704909e+01     0.162184    0.1143113 -71.10 0.0002709808    1.791    0.442
        75 -12.4401    192.1626     63.4507   9.3487635890e+00   2.9410146969e+01     1.061319    0.6641718  34.31  0.001276162    2.334    0.572
        76 -12.9661    206.3038     53.6032   5.0938628299e+00   2.7808100505e+01    0.9192277    0.7205604 -41.23  0.003341456    1.096    0.087
        77  -9.0666     93.7972    248.7988   6.5188979337e+01   1.1721634450e+01    0.1581301    0.1129414  48.88  0.001061749    1.329    0.248
        78 -10.1592    102.8943    239.1460   6.2405326751e+01   1.2244948931e+01    0.2177728     0.161439 -53.55 0.0006720241    1.635    0.388
        79  -8.4088     84.6504     61.2800   3.2539384677e+01   5.4521987752e+01    0.1509214     0.119643  86.36 0.0007012035    1.645    0.392
        80  -8.4085     55.5323     57.5129   4.2831355309e+01   6.0846572951e+01     0.142879    0.1387413 -60.24 0.0001014165    1.083    0.076
        81  -9.7014    125.4384    238.5083   5.7660966320e+01   9.6124731766e+00    0.1749742    0.1019211 -38.34 0.0005601715    2.060    0.515
        82  -8.8207     71.5401    232.2749   6.8511224353e+01   1.7141277714e+01    0.1404245    0.1106773 -50.96 0.0006976525    1.560    0.359
        83 -11.4382     23.2455     45.2501   5.5320736453e+01   6.8032122803e+01    0.4253423    0.2725991  39.21  0.002178616    1.753    0.429
        84 -11.2948    148.7069    228.4465   5.1715104556e+01   8.2943903989e+00    0.3951104     0.205678 -52.78  0.002132406    2.440    0.590
        85  -8.2381     42.6710     41.3472   4.2618533017e+01   6.6385954044e+01    0.1378701    0.1118718  81.21 0.0007049702    1.757    0.431
        86 -10.3667      6.2576     40.9236   6.4772245069e+01   7.0441138265e+01    0.2100089    0.1820072  -6.05 0.0004601147    1.211    0.174
        87  -8.9064     74.7883     64.8227   3.7459426383e+01   5.5763872567e+01    0.1971038    0.1743093 -84.86 0.0002977847    1.297    0.229
        88  -9.0298     41.0940     36.2955   4.1176983636e+01   6.7659309295e+01    0.1809688    0.1708751  17.18 0.0003590788    1.099    0.090
        89 -11.0505     28.9764     35.8914   4.8068751586e+01   6.9455792209e+01    0.3616567    0.1924059  35.48  0.001708996    1.971    0.493
        90  -9.9271     68.1831    246.2723   7.0288321522e+01   1.5025098590e+01    0.2974717    0.1908401  88.11  0.001881335    1.948    0.487
        91  -9.7751    125.0790    244.1261   5.8353300431e+01   8.7785332210e+00    0.2054866       0.1605 -57.53 0.0008793463    1.654    0.396
        92  -8.7467     17.9718     26.0250   5.0849840506e+01   7.2809652125e+01     0.153946    0.1360736 -16.55 0.0003240102    1.043    0.041
        93  -9.4394     60.7248     21.1452   2.3742616153e+01   6.6664912076e+01    0.2269592     0.182675  58.84 0.0006954823    1.337    0.252
        94  -8.5228    189.5072     15.4399   3.5668839675e+02   3.6133597896e+01    0.1308131    0.1070662 -60.63 0.0001969304    1.033    0.032
