#   1 NUMBER                 Running object number                                     
#   2 MAG_AUTO               Kron-like elliptical aperture magnitude                    [mag]
#   3 X_IMAGE                Object position along x                                    [pixel]
#   4 Y_IMAGE                Object position along y                                    [pixel]
#   5 X_WORLD                Barycenter position along world x axis                     [deg]
#   6 Y_WORLD                Barycenter position along world y axis                     [deg]
#   7 A_WORLD                Profile RMS along major axis (world units)                 [deg]
#   8 B_WORLD                Profile RMS along minor axis (world units)                 [deg]
#   9 THETA_WORLD            Position angle (CCW/world-x)                               [deg]
#  10 FWHM_WORLD             FWHM assuming a gaussian core                              [deg]
#  11 ELONGATION             A_IMAGE/B_IMAGE                                           
#  12 ELLIPTICITY            1 - B_IMAGE/A_IMAGE                                       
         1 -15.6195     16.9487    109.3415   1.3630498605e+02   4.9966421526e+01     1.636282     1.036386  84.23   0.00619824    1.415    0.293
         2 -15.6782     54.8213     71.9282   1.1860169118e+02   5.4960383857e+01     1.882961     1.504344  40.44  0.003634908    1.446    0.308
         3 -15.4530    119.3223     54.6196   9.2808222521e+01   4.7776015863e+01     1.718264     1.060418  25.74  0.001950105    2.063    0.515
         4 -15.2555    122.7543     36.6488   8.5166736844e+01   5.0011920037e+01     1.540092     0.779892  36.87  0.004280421    2.207    0.547
         5 -15.7243      7.0670     69.9690   1.3451562204e+02   5.9364959979e+01     1.478857    0.7006615 -72.73  0.004315741    1.621    0.383
         6 -14.2389    112.0287     41.0127   8.9807433699e+01   5.1702244951e+01     1.069147     0.619876  -9.49  0.001690998    2.504    0.601
         7 -15.5174     84.9837     66.2964   1.0704335880e+02   5.1999881688e+01     3.916089     2.057904 -17.87  0.008231378    6.304    0.841
         8 -13.2474    186.6887     13.7490   6.4394964215e+01   3.6528963703e+01    0.7979649    0.6779342  -4.80  0.002648415    1.191    0.160
         9 -14.2210    189.6702     26.7246   6.8261615433e+01   3.4371499773e+01     2.166508    0.7822329 -50.33  0.006096689    4.546    0.780
        10 -12.7358    195.0871     23.4995   6.6454877034e+01   3.3314661884e+01    0.8470024    0.3257305 -26.92  0.002434379    2.389    0.581
        11 -14.8765    166.2231     30.1661   7.3231289194e+01   4.0102904967e+01     1.174884    0.9114575  50.62  0.003078692    1.263    0.208
        12 -15.2186    146.3847     30.5503   7.7237436515e+01   4.5155676974e+01     1.631484    0.8694775  57.07  0.005424982    1.873    0.466
        13 -13.6768      8.2043      3.0898   1.1666266259e+02   7.3587275552e+01    0.9376751    0.6397747  46.07  0.005075271    2.334    0.571
        14 -15.3669     42.0820      6.9954   1.0013523961e+02   6.9560536953e+01     2.089255     1.332114 -11.12   0.01163163    1.671    0.402
        15 -14.2847     25.1577     31.6220   1.1882385629e+02   6.6655122049e+01    0.9210006    0.6848053  71.16  0.005515633    2.073    0.517
        16 -15.1712      8.1974     29.2603   1.2598798913e+02   6.8290825875e+01    0.9136919    0.7625397  50.99  0.006597558    1.603    0.376
        17 -15.5539     13.5461     20.7219   1.2072819416e+02   6.9760044741e+01     1.434577     0.638936 -33.28  0.007247787    2.265    0.558
        18 -13.5385    223.0464      6.6764   5.8183749407e+01   2.7838386255e+01     1.886901    0.5803438 -11.56  0.005583337    4.619    0.784
        19 -13.0955    214.8092      9.5121   5.9804616686e+01   2.9640891494e+01    0.6026778    0.4275442  77.34  0.001244423    1.478    0.323
        20 -14.1826    215.3682     20.8038   6.3100373640e+01   2.8394634572e+01     1.291947    0.5036411 -18.01  0.004735173    2.661    0.624
        21 -13.4095    219.0245     15.3076   6.1079099799e+01   2.8028058653e+01    0.6713656    0.5078745  65.06  0.003033523    1.356    0.262
        22 -15.8478     99.6296     12.8014   8.1265744938e+01   5.8551642397e+01      1.54847    0.8801383  48.28  0.003252579    1.741    0.426
        23 -11.2683    244.8355     14.8232   5.8490456548e+01   2.1848654912e+01    0.3539682   0.07424951 -24.74  0.001126123    3.726    0.732
        24 -11.2534    202.1220     11.5304   6.1782526165e+01   3.2701589920e+01    0.2313394    0.1881437  26.15 0.0005620799    1.297    0.229
        25 -11.3497    162.1453      8.8188   6.6179755626e+01   4.3518824054e+01    0.3106932    0.2149805 -63.46  0.001431975    1.797    0.444
        26 -11.6378    125.9145      8.8884   7.2874144987e+01   5.2860974117e+01    0.2415505    0.1835811  25.13  0.001233901    1.270    0.213
        27 -11.1260    153.5001      8.0353   6.7272161769e+01   4.5877233884e+01    0.2309697    0.1903646  57.22  0.000504966    1.180    0.153
        28 -12.0669    121.2909      4.2714   7.1854558498e+01   5.4467173367e+01    0.3665729    0.2327055  80.84  0.001521451    2.155    0.536
        29 -12.0946    232.4499      2.2148   5.6120032415e+01   2.5935216389e+01    0.4636419    0.2225138  48.27  0.001989848    2.271    0.560
        30 -11.2303     67.8078      3.5588   8.7105575036e+01   6.6072898399e+01    0.2747618      0.18423   1.12  0.001470413    1.506    0.336
        31 -11.7897     26.6060      3.8420   1.0643105853e+02   7.1895762521e+01    0.2275663    0.1754083 -13.22 0.0006926975    1.191    0.160
        32 -12.1862     81.0543      1.8359   8.1478996074e+01   6.3767488468e+01    0.5712538    0.1571483  48.75  0.002050332    3.335    0.700
        33 -10.6710     62.4781      1.5074   8.8041928537e+01   6.7278276769e+01    0.1900182    0.1121797  31.55  0.000628314    1.732    0.423
        34 -11.1252     59.4909      1.5284   8.9267195089e+01   6.7782524528e+01    0.2295389    0.1735769  16.51  0.001281636    1.260    0.206
        35 -11.1178    198.7866    183.3878   1.0663654062e+02   9.6345787973e+00    0.1865509   0.09713177  33.86 0.0009543992    1.686    0.407
        36 -14.5574     95.8308    236.6191   1.3151319266e+02   1.7799942919e+01     1.197649    0.5222046  57.65  0.007049285    2.244    0.554
        37 -13.0205     57.4448    246.7821   1.3824830959e+02   2.0855815579e+01    0.4926972    0.3411646  30.02  0.003977477    1.847    0.459
        38 -12.4911     51.6551    246.6875   1.3912125946e+02   2.1485448237e+01    0.3937472    0.3295307 -30.18   0.00337176    2.368    0.578
        39 -11.7068     41.4828    249.9688   1.4079240461e+02   2.2076190980e+01    0.1535427    0.1134207  76.95  0.001434398    1.247    0.198
        40 -13.9268     27.5467    246.3950   1.4268991129e+02   2.3938662941e+01    0.5242803    0.3345309  70.30  0.004710411    1.190    0.160
        41 -14.5974     23.8097    223.9415   1.4236664911e+02   2.7614192791e+01    0.9843004    0.4849311 -87.81  0.007257035    1.878    0.467
        42 -13.5805     10.4225    210.6900   1.4397360969e+02   3.0914980451e+01    0.5410516    0.4173722  42.29  0.004848615    1.474    0.321
        43 -14.0499     29.9066    169.8055   1.3838980235e+02   3.6390040840e+01    0.7454635    0.6241853  69.94  0.003087651    1.137    0.121
        44 -13.0492     16.6788    196.1833   1.4232806731e+02   3.2800383452e+01     0.719777    0.2045767 -69.74  0.003912245    3.190    0.687
        45 -13.7295     22.3900    181.1221   1.4053727973e+02   3.4965200566e+01    0.5176154    0.3856389  54.24    0.0028241    1.224    0.183
        46 -15.0848      7.7830    184.0219   1.4334547697e+02   3.5682148009e+01     1.035919    0.6984047  76.05  0.008376202    1.097    0.088
        47 -15.4189     15.4594    175.4149   1.4152204938e+02   3.6614828854e+01     2.121748    0.8471218  73.30   0.01153121    2.400    0.583
        48 -11.8910      3.0907    249.8505   1.4627173543e+02   2.5646538575e+01    0.2341406   0.09919674  48.38  0.001883607    1.568    0.362
        49 -14.2655      9.0969    245.6465   1.4531844376e+02   2.5721223074e+01    0.6192775    0.2798691  55.76   0.00314273    1.449    0.310
        50 -13.6297    123.9933    166.8745   1.1850875299e+02   2.4926963777e+01    0.5947528    0.4104887 -76.55  0.003305697    1.882    0.469
        51 -11.0826    177.4642    167.5014   1.0779851085e+02   1.5602858636e+01    0.1307711    0.1128558  27.41 0.0001888502    1.005    0.005
        52 -11.6972     27.6147    158.8078   1.3807666627e+02   3.8731747977e+01    0.2594553    0.1974316 -87.91  0.001868778    1.123    0.109
        53 -12.7515     25.5276    155.6432   1.3828136914e+02   3.9544007482e+01    0.3876933    0.2980916 -18.74  0.002679375    2.213    0.548
        54 -12.6164     77.6058    157.2052   1.2716313018e+02   3.3563791033e+01    0.3565006    0.2654381  40.11  0.001258235    1.360    0.265
        55 -13.3539     74.3762    153.4375   1.2741185645e+02   3.4733318938e+01    0.6257629    0.4371477  35.17  0.003053697    1.532    0.347
        56 -12.7284    122.4013    155.4236   1.1703953271e+02   2.7279202346e+01    0.4378387     0.315264 -43.91  0.002502151    1.554    0.357
        57 -11.9230    113.0013    157.0000   1.1934414864e+02   2.8498030548e+01    0.2884535    0.1685107  45.95  0.001349117    1.581    0.367
        58 -11.8639    110.3118    154.6372   1.1956781101e+02   2.9371070279e+01    0.3222714    0.2144095 -76.63   0.00172437    1.847    0.459
        59 -11.7274     55.6439    156.1336   1.3186153450e+02   3.6437711410e+01     0.289134    0.2185893   2.56  0.001666065    2.182    0.542
        60 -12.2137     85.7155    153.2331   1.2484529904e+02   3.3268974364e+01    0.4624781    0.2671939 -48.28   0.00247395    1.997    0.499
        61 -12.8293    208.5127    155.1156   9.9574808901e+01   1.1686430086e+01    0.6451716    0.1880327  47.48  0.002277084    3.412    0.707
        62 -12.0482     41.8093    154.2236   1.3468743977e+02   3.8293200720e+01    0.3270595    0.1525579  74.96  0.001633975    2.517    0.603
        63 -12.1389    103.5177    149.9431   1.2035379169e+02   3.1335559919e+01    0.3259073    0.2646339 -30.63  0.001674806    1.576    0.365
        64 -12.6536      6.3827    148.0092   1.4180353529e+02   4.2600992929e+01    0.4026599    0.2341314  71.74  0.002763569    1.421    0.297
        65 -12.2395    244.8231    147.9981   9.1865127826e+01   5.9629085515e+00    0.3078413    0.1750819 -23.37  0.001624118    1.664    0.399
        66 -11.6140     63.4212    146.7713   1.2907509172e+02   3.7445321808e+01    0.1652224    0.1002677 -59.02  0.000949883    1.634    0.388
        67 -11.8954     44.6282    145.2881   1.3320349490e+02   3.9831954164e+01    0.1911273    0.1735414  71.34  0.000639563    1.170    0.145
        68 -11.6447     38.6014    145.8416   1.3462016972e+02   4.0319308683e+01    0.1666795    0.1559797  44.76 0.0006289551    1.325    0.245
        69 -11.7266    149.0449    140.7303   1.0852271721e+02   2.5289991277e+01    0.2780176    0.2370342 -78.68   0.00157433    1.456    0.313
        70 -11.6726     88.9508    141.0387   1.2233597789e+02   3.5288848059e+01    0.1955751    0.1563825 -24.23 0.0009098044    1.734    0.423
        71 -13.5694     44.5304    136.0871   1.3225061577e+02   4.1770274592e+01    0.8023391    0.3731288 -56.52  0.004228595    2.109    0.526
        72 -11.2936     62.3162    139.3276   1.2840879238e+02   3.9127955411e+01    0.1161173   0.08990727 -38.81 0.0004222131    1.676    0.403
        73 -11.0703     15.0225    139.0286   1.3934374621e+02   4.3777249955e+01    0.1609944    0.1264174  82.53  0.000383672    1.030    0.030
        74 -11.2092     56.6588    137.8209   1.2956523532e+02   4.0100592324e+01    0.1861797    0.1705126  29.29  0.001238609    1.347    0.257
        75 -12.6390    245.9608    134.9752   8.8873627085e+01   7.3263019274e+00     0.318835    0.2773375 -82.09  0.001860099    2.000    0.500
        76 -12.9563    230.8306    134.4510   9.1234303522e+01   1.0236906355e+01    0.3169553    0.1897551 -34.32  0.001598486    1.735    0.424
        77 -11.6483     60.9887    133.7771   1.2800426324e+02   4.0461519875e+01    0.2390054      0.16036  40.45 0.0007316623    1.539    0.350
        78 -13.1164    132.8814    129.3540   1.0983358208e+02   3.0435036001e+01    0.8128498     0.348418 -45.55  0.003303435    2.410    0.585
        79 -10.5189     11.2336    134.4196   1.3986430153e+02   4.5013968481e+01    0.1380074   0.08556522  50.94  0.000429683    1.548    0.354
        80 -12.2146    110.9403    131.6546   1.1548306064e+02   3.3822611033e+01    0.4750705    0.3337857  10.04  0.002303569    2.213    0.548
        81 -13.3363     85.1806    115.5743   1.1892710758e+02   4.1239043505e+01    0.9993606    0.5333071  20.85  0.004122457    3.120    0.679
        82 -14.1858     89.8775    109.2797   1.1643039799e+02   4.1911372054e+01     1.303679    0.8000899  18.72  0.005908994    2.477    0.596
        83 -14.8312    104.7680    122.8161   1.1529407441e+02   3.6663998579e+01     1.990556    0.8817101  36.61  0.008339234    2.409    0.585
        84 -15.3737    106.1033    108.7024   1.1198810140e+02   3.9416774023e+01     1.948582     1.284906 -50.84  0.009816522    1.470    0.320
        85 -11.8231     60.7635    124.8670   1.2682423415e+02   4.2410151143e+01    0.3151048    0.2457155 -11.18  0.001870796    1.927    0.481
        86 -12.5078    222.4618    127.8307   9.1165325644e+01   1.2760747639e+01    0.2526684     0.238399 -73.95  0.001512985    1.497    0.332
        87 -13.3160     62.3434    102.7445   1.2279126798e+02   4.7125836028e+01     1.198104    0.4479388 -65.09  0.004860024    2.613    0.617
        88 -14.5199     48.1834     95.9342   1.2568124237e+02   5.0256021112e+01     1.559291     0.868498  51.50      0.00811    2.073    0.518
        89 -14.9463     29.8785    119.3027   1.3400459285e+02   4.6764447965e+01     2.261563    0.2715001 -61.24  0.007786293    4.541    0.780
        90 -12.9455      4.0144    119.9019   1.4050318143e+02   4.8553282504e+01    0.4490833    0.3438141  23.95  0.002157434    1.703    0.413
        91 -14.2224      2.6627     96.8583   1.3895327905e+02   5.3615130185e+01     1.014238    0.3503617 -78.46  0.004099241    2.278    0.561
        92 -13.6018    170.7667    242.5316   1.1981831054e+02   6.8843679443e+00    0.6099767    0.3407052  28.63  0.003972457    1.670    0.401
        93 -15.5393     25.2329     94.7717   1.3227107918e+02   5.2595076860e+01     1.202284     1.140936 -64.48  0.009047133    1.224    0.183
        94 -11.9667    181.0679    121.1957   9.7411888895e+01   2.2300847700e+01    0.3767596    0.2220878  39.65   0.00145825    1.640    0.390
        95 -11.6239     51.5770    117.1206   1.2808743127e+02   4.5146241709e+01    0.4062105    0.1674597 -81.86   0.00153649    3.569    0.720
        96 -12.7532    176.4296    111.5649   9.6017637577e+01   2.4907941987e+01    0.4121056    0.3510461 -22.12  0.002219162    1.163    0.140
        97 -12.4742     45.7451    109.7597   1.2858657918e+02   4.7393039724e+01    0.5158204     0.289372 -48.16  0.002769597    1.882    0.469
        98 -12.5531    121.1048    111.6009   1.0879385557e+02   3.6152112224e+01     0.350733    0.2345106  59.62  0.001652474    1.780    0.438
        99 -13.0442    134.9857    103.1743   1.0329839184e+02   3.5175003443e+01    0.8898017    0.3427774  48.81  0.002742159    2.761    0.638
       100 -13.4986    122.7470    102.0569   1.0609013433e+02   3.7795228768e+01    0.5503408    0.4723306  41.08   0.00302384    1.185    0.156
       101 -13.1899    137.1923     96.3015   1.0096446649e+02   3.6072517131e+01    0.5185842    0.3740901 -50.31  0.001557617    1.458    0.314
       102 -12.5259    128.1597     95.9922   1.0314822977e+02   3.7966796795e+01    0.3299092    0.2235194  57.05  0.001532017    1.705    0.413
       103 -11.3369     76.0367     95.7486   1.1744208144e+02   4.6913995832e+01    0.2113492    0.1732581 -59.73 0.0002249459    1.107    0.097
       104 -13.9689    188.5557     84.4117   8.6298849533e+01   2.6645781788e+01     1.515078    0.6723599  53.77  0.001774266    2.339    0.572
       105 -15.2167    160.9319     80.5195   9.0897421093e+01   3.3766654766e+01      1.99892     1.251794  17.43  0.003684079    2.299    0.565
       106 -14.9446    170.9775     76.8635   8.7637949217e+01   3.2026210563e+01     1.123714    0.8952638  38.35  0.004708435    1.249    0.199
       107 -14.7438    134.8490     79.5257   9.6802099076e+01   3.9802895958e+01     1.524533     1.005216  15.68  0.005368188    2.184    0.542
       108 -12.4353    144.9129    231.6458   1.2287531619e+02   1.1857583345e+01    0.3064747    0.1793379 -42.27  0.001980022    2.320    0.569
       109 -14.5069    101.1332     49.9665   9.6431302047e+01   5.2359954896e+01     0.910139    0.7393244  57.37  0.003186527    1.479    0.324
       110 -12.5748    147.1534    238.7223   1.2325519855e+02   1.0661851620e+01    0.2443123    0.1958853  80.58 0.0009339232    1.670    0.401
       111 -12.1738    194.7562    177.6467   1.0636442752e+02   1.1089634611e+01    0.2299391    0.2079624   1.85  0.001245092    1.162    0.140
       112 -11.9229     89.6272     87.5279   1.1152606349e+02   4.6698694501e+01     0.427773    0.2485567  49.61  0.001985366    1.972    0.493
       113 -10.6031     78.9891     87.5042   1.1468342403e+02   4.8325324026e+01    0.1889195    0.1356667  38.30 0.0004119762    1.526    0.345
       114 -11.4919    185.0337    124.0545   9.7285117814e+01   2.1001531411e+01    0.2088482    0.1990156  70.41 0.0004568568    1.274    0.215
       115 -13.2712    238.9160     81.3771   7.7013692316e+01   1.5567065596e+01    0.7385915    0.5052091 -77.79  0.003277571    2.632    0.620
       116 -10.8495     98.2441     84.1778   1.0813200492e+02   4.5991773128e+01    0.1908315    0.1654652 -88.49 0.0004773005    1.354    0.262
       117 -13.3945     46.2770    209.5328   1.3793702541e+02   2.7696001967e+01    0.5398265    0.1875625  61.32    0.0027878    2.912    0.657
       118 -13.9892    198.6309     70.7275   8.0497096560e+01   2.6319961656e+01     1.115959    0.5676301  39.76   0.00340042    2.114    0.527
       119 -11.8737    219.4093     75.0342   7.8260766409e+01   2.0787784677e+01    0.2847475    0.2535933  -1.40 0.0006024309    1.032    0.031
       120 -12.2778    216.8749     80.0904   8.0057124282e+01   2.0675142091e+01    0.4806849    0.3517278  10.05  0.002071701    1.470    0.320
       121 -13.0442    210.6127     76.9231   8.0214602093e+01   2.2575563286e+01    0.6347622    0.4796858 -67.00  0.001987377    1.853    0.460
       122 -12.1866    113.7561     80.7003   1.0274994141e+02   4.3884526891e+01    0.4065037    0.3601537 -43.11  0.001495424    1.086    0.079
       123 -11.8679     90.8812     80.1318   1.0920852291e+02   4.8094696151e+01    0.3865937    0.3121525 -10.06   0.00207488    1.499    0.333
       124 -12.4670     41.8700     77.2803   1.2413210824e+02   5.5125766971e+01    0.3311161    0.2345212 -61.02 0.0007991377    1.170    0.145
       125 -12.2805      5.7876     50.7723   1.3187626390e+02   6.3719518454e+01    0.3139719    0.1963227 -58.26   0.00152265    1.217    0.179
       126 -13.4733     57.3643    202.4462   1.3551856962e+02   2.7677104535e+01    0.6874033     0.256489 -74.34  0.003728438    2.860    0.650
       127 -11.9618    158.0457     63.7248   8.6334866715e+01   3.7295821067e+01    0.4404289    0.1988887 -42.71  0.001594003    2.347    0.574
       128 -11.7783    100.1758     64.5016   1.0173105943e+02   4.9729980983e+01      0.31605    0.3034017  32.19  0.001332084    1.128    0.113
       129 -13.5624     78.8173     61.0601   1.0743626559e+02   5.4078695658e+01    0.5468013    0.4621691 -24.72  0.002176746    1.178    0.151
       130 -14.1484    177.8342     57.3340   8.0215626596e+01   3.3415514932e+01    0.8687353    0.6633607 -50.43  0.002397487    1.483    0.326
       131 -12.7350     39.1287     60.4718   1.2130974752e+02   5.9175192366e+01    0.3106027    0.2515553  71.39  0.001944383    1.521    0.343
       132 -12.4752     24.5531     60.1573   1.2661352695e+02   6.0474539450e+01    0.3079436    0.1896561 -60.38 0.0007467837    1.267    0.211
       133 -13.2930    249.2392     50.2463   6.7468815157e+01   1.7092314011e+01    0.6727913     0.380943  -4.07  0.001280905    2.081    0.519
       134 -12.0261    230.4037     55.1164   7.1125906500e+01   2.0810149163e+01    0.3944626    0.2205939  78.54  0.001606147    2.646    0.622
       135 -13.0068     53.0662    214.3268   1.3707318432e+02   2.6191799548e+01    0.2940679    0.1801198  78.41  0.001804868    1.492    0.330
       136 -13.2366     69.0285     48.8318   1.0679609133e+02   5.8085998963e+01    0.7290004    0.4885671 -79.60  0.003171826    2.866    0.651
       137 -12.7111     65.2775     50.5707   1.0875468833e+02   5.8265546148e+01    0.3810498     0.348876  77.56  0.002347283    1.382    0.277
       138 -14.2042    131.6358     66.7595   9.3639487574e+01   4.2889534685e+01     1.354369    0.9906493  45.19  0.006544572    1.403    0.287
       139 -11.7511     86.3137     49.4886   1.0100807529e+02   5.5184653415e+01    0.2512645    0.2054111 -31.61 0.0005777579    1.103    0.093
       140 -13.8037     68.1780    222.6520   1.3506800813e+02   2.3188185021e+01    0.4900899    0.4158897 -50.10  0.004084669    1.751    0.429
       141 -14.4671     62.8592    214.9167   1.3543628929e+02   2.5009665460e+01      0.74494    0.5293996 -85.34  0.005003388    1.415    0.293
       142 -10.8108    163.3382    225.3278   1.1903050981e+02   9.9661331088e+00    0.1109429    0.0746177  18.34 0.0007051776    1.730    0.422
       143 -14.2673    218.1431     41.8056   6.8964697742e+01   2.5367948067e+01     1.238174    0.6466859  62.87   0.00508943    2.018    0.504
       144 -14.2487    159.4316     44.4407   7.9558980069e+01   3.9935852870e+01     1.543051    0.4750227  48.83  0.004870494    3.067    0.674
       145 -14.1994     97.2539    217.3212   1.2964794107e+02   2.0424979895e+01    0.5542637    0.4320113  22.07  0.004052571    1.695    0.410
       146 -13.1724     78.4953    219.9369   1.3311914634e+02   2.2385664959e+01    0.3441856    0.1608253  49.11  0.002174233    1.651    0.394
       147 -13.1482    139.4019     21.6340   7.5260036426e+01   4.8048153919e+01    0.6455284    0.3182265  57.99  0.001463704    1.999    0.500
       148 -13.9121      9.0043     42.8234   1.2897273405e+02   6.5312166226e+01    0.9963541    0.6413037  67.03  0.005922797    2.127    0.530
       149 -13.0534     34.3063     33.0145   1.1518257805e+02   6.5556814636e+01    0.5257742    0.3288746  51.25   0.00280594    2.443    0.591
       150 -11.9354     85.2936    215.9798   1.3162524572e+02   2.2161391707e+01    0.2491011    0.1277392  42.80  0.001586751    1.571    0.364
       151 -11.7632    185.4906    213.5247   1.1368761247e+02   8.0339226509e+00    0.1714318    0.1103202 -52.81  0.001037534    2.397    0.583
       152 -10.6775    157.5053    213.4960   1.1856494416e+02   1.2359711116e+01    0.1152155   0.09091463  40.13 3.828912e-05    1.021    0.021
       153 -11.4840    136.8287    211.1163   1.2195589053e+02   1.5806825583e+01    0.1715715    0.1338728  56.34 0.0008434452    1.215    0.177
       154 -11.4287    248.6618    225.3246   1.0516632544e+02  -2.5702102406e+00    0.0920562   0.07970343  39.27 0.0007051249    1.722    0.419
       155 -11.8687     25.7869     42.9163   1.2195319251e+02   6.4195902845e+01    0.1971299    0.1329395 -45.29 0.0005335261    1.233    0.189
       156 -12.6233    242.9102     36.3518   6.4461355374e+01   2.0080835587e+01    0.7792746    0.3423196  77.52  0.002952158    3.259    0.693
       157 -12.5950    105.3585     35.1920   8.9429982913e+01   5.4078802335e+01    0.5981744    0.3031347 -25.25  0.002431149    2.068    0.516
       158 -12.9054     75.9118     37.5185   1.0007519275e+02   5.9223395933e+01    0.3429953    0.2774191  31.08 0.0009258388    1.344    0.256
       159 -12.1696     70.5265     36.3801   1.0159927965e+02   6.0302785916e+01    0.3056782    0.2345441 -21.14  0.001021117    1.243    0.195
       160 -13.1031     56.0785     27.6957   1.0370855138e+02   6.4059159353e+01    0.4667794      0.32328  32.43    0.0017281    1.634    0.388
       161 -12.6559     47.3539     32.1847   1.0920371029e+02   6.4319156920e+01    0.4399495    0.2688584 -18.66  0.001765903    2.016    0.504
       162 -11.4263     51.2793     36.4799   1.0919356701e+02   6.2985608063e+01    0.3338608    0.1321917  30.67  0.001417911    3.019    0.669
       163 -10.7304     96.3222     35.3061   9.2247575813e+01   5.5905543093e+01    0.1486584    0.1063148   5.15  0.000703285    1.640    0.390
       164 -11.9967    211.4243     33.4223   6.7362260069e+01   2.8018642031e+01    0.2922084    0.2392397 -51.70 0.0002187234    1.296    0.228
       165 -13.3411    205.6038     40.1918   7.0212601148e+01   2.8689241457e+01    0.6880139    0.4344005 -85.07  0.002778073    2.331    0.571
       166 -11.2641     39.6729    210.9774   1.3914849869e+02   2.8139697891e+01    0.2381201   0.09145998  44.94   0.00147471    1.965    0.491
       167 -12.1926     80.2602    208.5599   1.3189244978e+02   2.3965611072e+01    0.2688053    0.1318895  59.52  0.001584864    1.941    0.485
       168 -12.1986    222.6509     21.5281   6.2504781295e+01   2.6502596609e+01    0.3789871    0.3412937  72.63 0.0009571434    1.171    0.146
       169 -10.6674    149.9352    206.5369   1.1902227302e+02   1.4474833725e+01    0.1834888   0.09414515  39.89   0.00102466    1.585    0.369
       170 -12.4871     45.2596    197.7746   1.3737099009e+02   2.9783458632e+01    0.3296317    0.2103205 -83.92  0.002413721    1.473    0.321
       171 -10.7086     89.2965     30.3272   9.2436136579e+01   5.8104355784e+01    0.1463322     0.103325   0.58 0.0002304519    1.631    0.387
       172 -12.5671     96.7308     27.3910   8.8771012621e+01   5.7106234229e+01     0.363467    0.2865571 -12.90  0.001952685    1.191    0.160
       173 -12.4284     41.5162    201.0231   1.3824523306e+02   2.9613747741e+01    0.2104511    0.1418792 -86.10  0.001434603    1.377    0.274
       174 -11.4751     70.7943     16.9847   9.2915092408e+01   6.3615535971e+01    0.2095888     0.181881  11.71 0.0004058661    1.143    0.125
       175 -13.2813     39.3782    195.3626   1.3827498918e+02   3.0805819187e+01    0.4038495    0.2787466  83.06  0.002140139    1.233    0.189
       176 -11.0089    212.4804    200.5042   1.0710221105e+02   5.2932603747e+00    0.1211165   0.09194357  23.03 6.270405e-05    1.034    0.033
       177 -12.4870    164.1832    194.4054   1.1473012359e+02   1.3933061441e+01    0.5022993    0.3044897 -58.28  0.002758346    2.449    0.592
       178 -12.6506    201.4479    191.6190   1.0755442413e+02   8.1431724805e+00     0.351298    0.2449028  21.81  0.001849092    1.287    0.223
       179 -10.6389    107.5851    193.2302   1.2529739611e+02   2.2852050974e+01    0.1434552    0.1068665 -48.83 0.0009483327    1.656    0.396
       180 -11.6609     45.4523     36.5046   1.1161906241e+02   6.3672269873e+01    0.2234988    0.1803355 -41.52 0.0007176186    1.029    0.028
       181 -10.3631     81.5212    193.4714   1.3030399761e+02   2.6328044760e+01    0.1113728   0.08992166  62.09 0.0001162181    1.004    0.004
       182 -11.1621    100.6464    185.6787   1.2577632263e+02   2.5118419180e+01    0.1085918   0.09120362  -0.87 0.0003883022    1.754    0.430
       183 -12.6147     48.7051    180.7828   1.3550792642e+02   3.2450025346e+01    0.4529564    0.2437892 -67.19  0.002877428    1.843    0.458
       184 -11.6694    122.4217    181.6979   1.2095569514e+02   2.2592100469e+01    0.3974926    0.2230608  72.93  0.001746087    3.302    0.697
       185 -11.4395    109.4559    183.5106   1.2377175945e+02   2.4230287406e+01    0.2137185     0.107105  30.42  0.001039531    2.383    0.580
       186 -13.0832     85.1529    180.0071   1.2822172495e+02   2.8239786680e+01    0.4081572    0.2478289  66.64  0.002413289    1.712    0.416
