#   1 NUMBER                 Running object number                                     
#   2 MAG_AUTO               Kron-like elliptical aperture magnitude                    [mag]
#   3 X_IMAGE                Object position along x                                    [pixel]
#   4 Y_IMAGE                Object position along y                                    [pixel]
#   5 X_WORLD                Barycenter position along world x axis                     [deg]
#   6 Y_WORLD                Barycenter position along world y axis                     [deg]
#   7 A_WORLD                Profile RMS along major axis (world units)                 [deg]
#   8 B_WORLD                Profile RMS along minor axis (world units)                 [deg]
#   9 THETA_WORLD            Position angle (CCW/world-x)                               [deg]
#  10 FWHM_WORLD             FWHM assuming a gaussian core                              [deg]
#  11 ELONGATION             A_IMAGE/B_IMAGE                                           
#  12 ELLIPTICITY            1 - B_IMAGE/A_IMAGE                                       
         1 -14.4436    192.4239     33.5520   5.6639609600e+01   3.3065577014e+01     1.982358      1.42453   6.12  0.006641179    1.743    0.426
         2 -14.8691    202.1051     21.5952   5.1590672966e+01   3.1984846825e+01     2.409643     1.585885  22.76  0.002456682    1.986    0.497
         3 -11.4477     45.3316      2.8808   8.2370107840e+01   6.8314020510e+01    0.2269503    0.1621826  33.74  0.001510507    1.608    0.378
         4 -10.2545    178.0170    238.0249   1.0534658094e+02   3.1562310305e+00    0.1396574    0.1085217  44.74 0.0004679112    1.018    0.017
         5 -16.2604     73.3209    152.6909   1.1368288200e+02   3.4880301604e+01     15.55715      7.18039  82.74   0.01120849    4.888    0.795
         6 -12.3460     79.1261    174.3551   1.1523449708e+02   2.9631349381e+01    0.3254541    0.2749526 -86.49  0.001304738    1.131    0.116
         7 -10.4360     99.4589    180.7082   1.1203407033e+02   2.5390996963e+01     0.212278     0.186496  64.78 0.0005464747    1.151    0.131
         8 -10.9154    144.9303    179.2467   1.0289053401e+02   1.7929697912e+01     0.314798    0.2257925  34.89  0.001737962    1.513    0.339
         9  -9.4535    164.5191    206.0495   1.0331086868e+02   9.9083961077e+00    0.1621268    0.1254539 -48.81  0.000897143    1.551    0.355
        10 -12.4028    193.8221    194.8799   9.6259848390e+01   6.2131525864e+00    0.9732494    0.5793417 -60.93  0.004589369    2.851    0.649
        11 -10.0444    196.4106    175.2162   9.2279068998e+01   8.6803891711e+00    0.2802742    0.2054798 -86.64  0.001052404    2.324    0.570
        12 -10.8036    195.7188    170.1590   9.1445757768e+01   9.6153702776e+00     0.362936    0.3339958 -45.03  0.001112557    1.234    0.190
        13 -10.4255    193.2242    164.6917   9.0851765887e+01   1.1002726391e+01    0.3465183    0.3337217 -76.24  0.002105591    1.195    0.163
        14  -9.6633    100.7963    234.5630   1.1760319174e+02   1.5819770539e+01    0.1706774    0.1136662  70.74 0.0005952559    1.292    0.226
        15 -10.1748    230.5947    167.9809   8.4672776553e+01   3.0270998637e+00    0.3532405   0.09378741 -44.31 0.0009578077    6.459    0.845
        16 -11.4724    203.7706    199.3789   9.5242992360e+01   3.7366404331e+00    0.3865637    0.2052919  35.60  0.001937628    1.741    0.425
        17 -10.6829    145.9940    168.0772   1.0081702454e+02   1.9779631895e+01    0.2547019    0.2026362 -44.50  0.001188575    1.423    0.297
        18  -9.0100    224.2964    164.6784   8.5112909964e+01   4.7337436109e+00     0.124862    0.1096631 -81.93 0.0002679958    1.618    0.382
        19 -12.0188    182.9579    233.7306   1.0397404539e+02   2.8725062098e+00    0.4765545    0.2851921  65.58  0.002600886    2.355    0.575
        20  -8.9097    144.4738    161.5326   9.9974399789e+01   2.1304331145e+01    0.1387898    0.1230475  69.77 0.0008083057    1.067    0.063
        21 -10.3055    140.9520    157.8917   1.0004919480e+02   2.2677961412e+01    0.2207927    0.1865752 -89.69 0.0003923285    1.240    0.194
        22 -10.5572    189.6468    154.4496   8.9470269420e+01   1.3456936313e+01    0.3603945      0.29791  27.67  0.001654582    1.222    0.182
        23 -11.2061    133.5827    144.1577   9.9047702818e+01   2.6819418639e+01     1.041766    0.2523811 -55.47  0.002603694    6.323    0.842
        24 -10.9261    174.5809    148.2556   9.1184126970e+01   1.7722469155e+01     0.364583    0.2786549 -51.26  0.001108025    1.421    0.296
        25 -11.1489    143.9195    145.8447   9.7128949627e+01   2.4472147576e+01    0.4127337    0.2589049 -68.14  0.001856267    2.050    0.512
        26 -11.1345    105.6020    141.5490   1.0480613525e+02   3.2382979120e+01     0.515285     0.322299 -33.82   0.00235307    2.479    0.597
        27 -12.2453     93.3376    142.0288   1.0766277202e+02   3.4254969992e+01    0.2539127    0.2223152 -64.34 0.0004562215    1.169    0.144
        28 -18.8751      9.2261    168.6738   1.2795778360e+02   3.8560038922e+01     15.39925     2.762098 -78.57   0.05472713    5.430    0.816
        29  -9.5065    128.0624    139.4576   9.9351678806e+01   2.8830951720e+01    0.2135042    0.1335739  46.54  0.001023493    1.573    0.364
        30 -10.6419    113.8160    131.4969   1.0103245034e+02   3.3114119037e+01     0.326578    0.2743381  26.50 0.0007895965    1.467    0.319
        31 -11.8556    119.2998    126.0981   9.8644335871e+01   3.3275741693e+01    0.8504501    0.3966418 -42.87  0.003418277    2.383    0.580
        32 -10.4664    105.9639    130.7764   1.0272915341e+02   3.4631149356e+01    0.3228077    0.2619325 -88.33  0.001127766    1.247    0.198
        33 -11.0779    101.1229    127.8275   1.0330535730e+02   3.6079890048e+01    0.2702257    0.2275017 -31.34 0.0006083701    1.491    0.329
        34 -11.4156    135.3784    122.2553   9.4039724370e+01   3.0989121963e+01    0.6687232    0.1974539 -53.60  0.001899271    4.332    0.769
        35 -10.3428    164.1681    216.1601   1.0480353422e+02   8.4602207725e+00    0.2669542    0.1755254 -57.50  0.001525461    1.931    0.482
        36  -8.8825    144.7347    129.3163   9.3484929961e+01   2.7635480224e+01    0.1439559    0.1123735 -85.69 0.0001951219    1.549    0.354
        37  -9.9371    160.8469    127.7362   8.9569217228e+01   2.4550675482e+01     0.292482    0.1970638 -71.40  0.001249094    2.108    0.526
        38 -10.0854    125.3392    126.9128   9.7401170356e+01   3.1972856887e+01    0.2342583    0.1744488 -75.77  0.001172047    1.519    0.342
        39  -9.9788    109.2624    120.0337   9.9765418863e+01   3.6386398707e+01    0.2124378    0.1907642  57.46 0.0003307093    1.145    0.127
        40  -9.5386    154.2268    196.2988   1.0375391796e+02   1.3299715166e+01    0.1747797    0.1362954  72.32 0.0004621199    1.361    0.265
        41 -10.1142    167.8312    112.5930   8.4402323463e+01   2.5948647920e+01    0.3793191    0.2655957 -77.43  0.001480705    2.143    0.533
        42 -10.4188    134.5331    103.6491   8.9762954110e+01   3.5031775091e+01    0.6104707     0.168028 -44.98  0.001830169    3.547    0.718
        43 -11.6732    120.1642    111.1011   9.5099742434e+01   3.6318094002e+01    0.4128377    0.2979734  70.69  0.001693501    1.684    0.406
        44 -10.1864    205.4945    110.1318   7.6128228565e+01   1.7609522695e+01    0.3233369    0.2123208  41.45 0.0008202831    1.545    0.353
        45  -9.7419    180.1223    192.5807   9.8372969499e+01   9.1222710339e+00    0.1973352    0.1778811 -72.34 0.0005980096    1.334    0.250
        46 -16.2502     56.3978    203.6577   1.2229443792e+02   2.7018003238e+01     3.758913     2.149561  70.17   0.02461582    1.474    0.322
        47  -9.7473    168.1376    189.7066   1.0012899287e+02   1.1822585951e+01     0.237113    0.1530524 -63.79  0.001220523    2.094    0.523
        48 -10.5269     80.8518    196.6258   1.1736179134e+02   2.5112405244e+01    0.4097904    0.2901595 -32.28  0.002263758    3.079    0.675
        49  -9.1167    121.5221     98.5459   9.1670605884e+01   3.8718372828e+01    0.1456258    0.1377185 -67.40 0.0001026033    1.033    0.032
        50 -11.3320    207.1941    182.4089   9.1638043005e+01   5.4930077394e+00     0.413024     0.252088 -51.72  0.002049488    2.232    0.552
        51  -9.4475    155.5020     79.4837   7.8104611327e+01   3.5148386652e+01    0.1524633    0.1502595 -28.61 0.0001568891    1.008    0.008
        52  -9.5905    183.0300     77.5285   7.1645743323e+01   2.8770500762e+01    0.3787715    0.1325268  48.48  0.001211215    2.825    0.646
        53  -9.7467     65.4861     70.4987   9.9931660236e+01   5.3808373443e+01     0.219621    0.1304595  35.56 0.0007132068    1.965    0.491
        54 -11.3907    161.7457     63.0352   7.1689819971e+01   3.6569070802e+01    0.3770991    0.2909371 -80.80 0.0005056483    1.704    0.413
        55 -11.0133    170.9782     58.7008   6.8393441205e+01   3.4975165365e+01    0.2254995    0.2073331  57.27 0.0009381406    1.098    0.089
        56 -10.3574    162.7172     55.7565   6.9169299356e+01   3.7533134128e+01    0.2528595    0.2231849  18.77 0.0003316131    1.191    0.161
        57 -13.6891    182.6426     41.3569   6.0707456014e+01   3.4585158750e+01     1.114759    0.7838745  35.31   0.00105727    1.561    0.359
        58 -10.7043    211.1629    179.3495   9.0350610368e+01   5.1726014328e+00    0.3683779    0.2699605  -4.67  0.001376666    1.622    0.383
        59  -9.8512    196.6328    245.7297   1.0332005291e+02  -7.9545150024e-01    0.1780517      0.11275  23.04  0.001115345    1.795    0.443
        60 -10.5109    170.8409     19.8515   5.5752729103e+01   4.0442291430e+01    0.2033573    0.1714049 -63.91 0.0004674562    1.315    0.239
        61 -12.3587     75.2358    179.6945   1.1660432642e+02   2.9111697050e+01    0.4212014    0.3839313  48.33  0.001975034    1.415    0.293
        62 -10.9465    189.7476     15.0096   5.1289242882e+01   3.6001478877e+01    0.2560736    0.2057628  67.17 0.0006051176    1.186    0.157
