#   1 NUMBER                 Running object number                                     
#   2 MAG_AUTO               Kron-like elliptical aperture magnitude                    [mag]
#   3 X_IMAGE                Object position along x                                    [pixel]
#   4 Y_IMAGE                Object position along y                                    [pixel]
#   5 X_WORLD                Barycenter position along world x axis                     [deg]
#   6 Y_WORLD                Barycenter position along world y axis                     [deg]
#   7 A_WORLD                Profile RMS along major axis (world units)                 [deg]
#   8 B_WORLD                Profile RMS along minor axis (world units)                 [deg]
#   9 THETA_WORLD            Position angle (CCW/world-x)                               [deg]
#  10 FWHM_WORLD             FWHM assuming a gaussian core                              [deg]
#  11 ELONGATION             A_IMAGE/B_IMAGE                                           
#  12 ELLIPTICITY            1 - B_IMAGE/A_IMAGE                                       
         1  -7.6285    114.9730     12.0026   4.8851157083e+01   5.4881378203e+01    0.1753672     0.162455  65.73 0.0003888534    1.013    0.013
         2  -8.5262    249.6149    248.9237   8.1168160270e+01  -5.5504890126e+00    0.2241563    0.1349745  -4.58  0.001738787    1.372    0.271
         3  -7.5527    183.9161    250.4777   9.1928618750e+01   1.9371424535e+00    0.1584453   0.08005698  32.55 0.0004101363    1.482    0.325
         4  -8.8161    242.5181    245.9919   8.1825522897e+01  -4.5288366813e+00    0.1741846     0.106111 -15.26  0.001327792    1.510    0.338
         5  -7.8194     72.2594    244.9284   1.1229001270e+02   1.6953400768e+01    0.1478369    0.1208873 -23.31  0.001068244    1.898    0.473
         6  -8.0158     63.6550    244.1613   1.1391296796e+02   1.8084229390e+01    0.1912629    0.1093355  44.66 0.0006071271    1.261    0.207
         7  -7.7447     30.3824    243.2742   1.2026778558e+02   2.1839011519e+01    0.1814363    0.1107954  28.84 0.0009199545    1.604    0.377
         8  -8.2752     31.3903    236.2404   1.1978219112e+02   2.2921034784e+01     0.216904    0.1867575  10.70  0.001693251    1.640    0.390
         9  -8.1236     62.6668    234.7764   1.1350525193e+02   1.9741674701e+01    0.2245938      0.14407  43.55   0.00125867    1.156    0.135
        10  -8.7429     48.0707    231.1143   1.1621873819e+02   2.2032114712e+01    0.2823367    0.1657935  16.97  0.001614781    2.331    0.571
        11  -7.3039     24.3141    230.3113   1.2092502553e+02   2.4657550354e+01    0.0889819   0.08319415 -16.32 0.0007031227    1.634    0.388
        12  -8.4653     86.1955    228.3671   1.0822683570e+02   1.7926580224e+01    0.2270881    0.1336825  21.89  0.001276853    1.932    0.482
        13  -7.8162     73.9712    230.4936   1.1090908894e+02   1.9106671136e+01    0.1766256   0.09005308  35.82 0.0006367913    1.534    0.348
        14  -8.7748     21.0770    223.4596   1.2130168668e+02   2.6195483164e+01    0.3293214   0.08597706  46.11  0.001628056    2.377    0.579
        15  -9.1890     69.8576    222.1678   1.1112143458e+02   2.1053107782e+01     0.355471    0.1448564  42.91  0.001847084    1.826    0.452
        16  -7.4718    118.5022    222.5093   1.0098675013e+02   1.4532977011e+01    0.1219693   0.09559838  39.15 0.0008104204    1.031    0.030
        17  -8.7677     13.0360    219.7354   1.2278944859e+02   2.7630974160e+01     0.241861    0.1155721  49.71  0.001275182    1.489    0.329
        18  -8.4836     46.1517    221.6988   1.1606483747e+02   2.3915217076e+01    0.2676727    0.1933254  12.75  0.001727747    1.882    0.469
        19  -8.9077      7.4688    218.3262   1.2386770563e+02   2.8390677246e+01    0.2338497    0.1955667  -6.46   0.00175921    1.877    0.467
        20  -7.5799     78.2244    219.5566   1.0913714129e+02   2.0464886235e+01    0.1600336    0.1007089  25.65 0.0007683652    1.632    0.387
        21  -7.6951    231.4290    216.8362   7.9305416494e+01  -3.5370611121e-01    0.1445337   0.08543636 -12.76 0.0004186812    1.608    0.378
        22  -8.2212     36.6758    215.4972   1.1770477230e+02   2.6085287483e+01    0.2737083    0.1983087  10.97  0.001762953    1.926    0.481
        23  -8.0887     47.8460    214.3898   1.1525452185e+02   2.5072279851e+01     0.188701    0.1355523  82.65 0.0009614043    1.393    0.282
        24  -8.6415     43.9928    212.7125   1.1597848117e+02   2.5817493417e+01    0.3316334    0.2166725  11.07   0.00191679    2.244    0.554
        25  -8.1092     31.9679    215.5275   1.1870165894e+02   2.6571102665e+01    0.1981359    0.1459979 -62.66  0.001372627    1.719    0.418
        26  -8.5907     68.0214    214.7225   1.1092369304e+02   2.2621240007e+01    0.4016534    0.1582554  41.61  0.002011878    1.901    0.474
        27  -8.0636    100.6147    212.8380   1.0369149701e+02   1.8654719693e+01    0.1526788    0.1138455 -88.99 0.0009466132    1.679    0.404
        28  -9.1531     21.2250    209.9867   1.2071697289e+02   2.8690913880e+01    0.3241247     0.279211 -16.58   0.00236819    1.783    0.439
        29  -9.4795     25.4859    211.3873   1.1987370604e+02   2.8007756247e+01    0.3823302    0.2470512 -25.46  0.002088037    3.194    0.687
        30  -8.0545     15.6875    212.4259   1.2198313980e+02   2.8749415664e+01    0.1875203    0.1364768  53.56 0.0008713155    1.042    0.040
        31  -7.8416      2.7207    212.8520   1.2467415059e+02   2.9819441329e+01    0.2235316    0.1040653  43.12  0.001178833    1.558    0.358
        32  -9.0126     58.5304    209.9994   1.1262490742e+02   2.4658134618e+01     0.325107    0.2299521 -77.17  0.002119862    1.569    0.363
        33  -8.9904     52.5411    207.6493   1.1377285249e+02   2.5812893574e+01    0.3397516    0.2008923  71.27  0.001889464    1.693    0.409
        34  -9.1665     81.3992    208.9418   1.0748997338e+02   2.1970819733e+01    0.3384792    0.2132417  76.94  0.001876337    1.915    0.478
        35  -8.1107     77.4386    210.3037   1.0848949292e+02   2.2238914857e+01    0.2310494    0.1429637  39.31 0.0008610365    1.303    0.233
        36  -9.6694     37.8617    204.6404   1.1682651485e+02   2.8037562363e+01    0.3935832     0.204352 -70.72  0.002258566    2.074    0.518
        37  -8.4266      6.6850    205.2656   1.2362563675e+02   3.0927810666e+01    0.2406875     0.122568  25.20  0.001185609    2.049    0.512
        38  -7.0394    123.6827    205.7478   9.7896592281e+01   1.6546471647e+01    0.1193876   0.08886856  13.05 0.0006916252    1.529    0.346
        39  -8.6949     60.6950    202.1783   1.1152502208e+02   2.5900410632e+01    0.4290252    0.1606217  37.65   0.00203255    2.070    0.517
        40  -8.1670     89.4779    206.4737   1.0545666379e+02   2.1337324796e+01    0.1255708     0.101506  46.34 0.0008096769    1.007    0.007
        41  -7.6055    106.3393    200.7181   1.0105940688e+02   1.9999871424e+01    0.1313382   0.08328604  56.16 0.0007010761    1.626    0.385
        42  -9.0962     29.2963    202.0625   1.1857992436e+02   2.9437786155e+01    0.2958442    0.2131675  28.74  0.001817281    1.459    0.315
        43  -8.7346     82.0000    198.9769   1.0636769355e+02   2.3771034998e+01    0.2927479    0.1867224  57.42  0.001662741    1.487    0.327
        44  -8.0681     51.7723    198.8707   1.1329730193e+02   2.7621148046e+01    0.2836825    0.1718201  42.92  0.001676943    1.333    0.250
        45  -8.5935     13.2589    190.5589   1.2163302107e+02   3.3289448067e+01    0.4713227    0.1781816  29.40  0.002373358    2.379    0.580
        46  -8.8870     18.3247    193.6477   1.2061952995e+02   3.2196229471e+01    0.5263177     0.131526  54.29  0.002175404    3.184    0.686
        47  -8.4596      3.7340    195.0145   1.2393227774e+02   3.3200479273e+01    0.2248933    0.1493262  26.07  0.001310198    1.627    0.385
        48  -7.6717     93.4026    193.2532   1.0310976164e+02   2.3282209419e+01    0.2134185    0.1212509 -57.74 0.0007850764    2.014    0.504
        49  -8.8902     12.1161    204.7962   1.2245250919e+02   3.0540977084e+01    0.5565354    0.0369168  39.43  0.002227509    3.579    0.721
        50  -7.4599     33.0378    194.2909   1.1729040342e+02   3.0616898040e+01    0.1716226    0.1301494  51.58 0.0006649927    1.073    0.068
        51  -7.8050     55.7307    193.4303   1.1194584070e+02   2.8247407164e+01    0.2178511     0.147986  28.05  0.001283356    1.510    0.338
        52  -9.1617    246.9951    191.5167   7.2793862352e+01   4.4113871379e-01    0.2662537    0.1683414  25.75  0.001790168    1.420    0.296
        53  -7.5940    224.7680    190.9930   7.6194101734e+01   3.4936311704e+00     0.143122   0.08644947 -26.98 0.0008658387    1.590    0.371
        54  -8.5691     68.8747    189.0247   1.0842989150e+02   2.7498712317e+01    0.3990955    0.1953659  37.25  0.001802241    1.717    0.418
        55  -8.4089     46.4973    189.5179   1.1381249282e+02   3.0134390168e+01    0.3342468    0.1766459  50.63  0.001816179    1.571    0.363
        56  -8.0459     50.0078    188.5075   1.1289625210e+02   2.9939262047e+01    0.3278972      0.13491  50.32  0.001546664    2.078    0.519
        57  -8.3317     80.9267    188.1953   1.0546477155e+02   2.6046095118e+01    0.2643712    0.1941305  31.60  0.001158136    1.313    0.238
        58  -8.6418     23.6119    187.1707   1.1907186920e+02   3.3033981402e+01    0.3914725    0.1736352  35.34  0.002076752    1.886    0.470
        59  -8.3221     21.3309    197.6758   1.2013279558e+02   3.1097225789e+01    0.2726071   0.07794734  40.65  0.001281628    2.374    0.579
        60  -7.0508     29.6745    183.7209   1.1742894190e+02   3.3163349878e+01    0.1055257   0.09278356 -32.67 0.0003412027    1.592    0.372
        61  -8.4794     13.9763    181.8515   1.2107648904e+02   3.5044779129e+01    0.4580177    0.1317529  31.44  0.002065614    2.775    0.640
        62  -7.5950     72.1990    179.7998   1.0665581086e+02   2.8975351839e+01    0.2959386    0.1501701 -41.65  0.001265725    3.097    0.677
        63  -7.8313     57.2093    181.1819   1.1050647519e+02   3.0618372638e+01    0.1867693    0.1239768  58.76   0.00106144    1.344    0.256
        64  -8.3869     16.8273    170.9676   1.1982869869e+02   3.7146482696e+01    0.2983508    0.1857673  32.65  0.001783476    1.551    0.355
        65  -7.8215     39.5079    170.4671   1.1402549806e+02   3.5016200745e+01    0.2624201    0.1122385  30.43  0.001117547    2.200    0.545
        66  -7.3221      2.9660    169.4833   1.2320313320e+02   3.8618491573e+01    0.1804311    0.0520062  47.12 0.0008097892    2.518    0.603
        67  -8.2138     28.7859    168.4106   1.1662910685e+02   3.6591338078e+01    0.1591722    0.1175022  17.26 0.0007815919    1.650    0.394
        68  -7.7510     36.3732    156.6902   1.1367705326e+02   3.8487769451e+01    0.1454342   0.07698853  58.47 0.0007032431    1.776    0.437
        69  -7.4268    192.0581    117.2508   6.7086608870e+01   1.9754676795e+01    0.1777907    0.1178852  45.35 0.0008056687    1.548    0.354
        70  -7.8449     81.0918     85.5064   8.6945488208e+01   4.9612749930e+01    0.2274256    0.1477418  39.99 0.0009326866    1.564    0.361
