#   1 NUMBER                 Running object number                                     
#   2 MAG_AUTO               Kron-like elliptical aperture magnitude                    [mag]
#   3 X_IMAGE                Object position along x                                    [pixel]
#   4 Y_IMAGE                Object position along y                                    [pixel]
#   5 X_WORLD                Barycenter position along world x axis                     [deg]
#   6 Y_WORLD                Barycenter position along world y axis                     [deg]
#   7 A_WORLD                Profile RMS along major axis (world units)                 [deg]
#   8 B_WORLD                Profile RMS along minor axis (world units)                 [deg]
#   9 THETA_WORLD            Position angle (CCW/world-x)                               [deg]
#  10 FWHM_WORLD             FWHM assuming a gaussian core                              [deg]
#  11 ELONGATION             A_IMAGE/B_IMAGE                                           
#  12 ELLIPTICITY            1 - B_IMAGE/A_IMAGE                                       
         1 -15.1332      6.6362     71.8015   1.0369824997e+02   6.1302427014e+01     1.145678    0.7020814 -52.03  0.004571321    1.312    0.238
         2 -14.6224    146.8330     29.2833   4.4155443677e+01   4.4107068872e+01     1.282943    0.8414286  60.36   0.00575666    1.349    0.259
         3 -13.2464    132.1329     33.0118   4.7934053364e+01   4.7161061184e+01    0.5675753    0.5327372  31.41  0.002255332    1.156    0.135
         4 -13.9630    122.0761     37.1792   5.1343771030e+01   4.9002175059e+01    0.9348993    0.4510412  39.25  0.002673939    2.377    0.579
         5 -13.2909      2.8633     10.4987   8.5747328268e+01   7.2874457611e+01    0.4308177    0.2900841 -34.34  0.002230165    1.345    0.256
         6 -16.2345     13.9971     22.4485   8.4706610937e+01   7.0083914366e+01      2.02035     1.104834 -16.69    0.0114529    1.867    0.464
         7 -13.2820      8.4521      2.8049   7.8650445089e+01   7.3403614097e+01        0.428    0.2848908  26.21  0.003010092    1.510    0.338
         8 -13.0254     44.4171     32.3860   7.4145303871e+01   6.4899003332e+01    0.5971146    0.5013149  19.15  0.003968527    1.150    0.130
         9 -14.2401    165.6370     30.8181   4.1661889411e+01   3.9444816083e+01    0.9089786    0.7151374 -70.06  0.003600431    1.261    0.207
        10 -13.6068    188.1059     24.9410   3.7302445386e+01   3.4883800407e+01     1.062549    0.4500154 -61.35  0.004326985    3.006    0.667
        11 -12.9486    120.3693     25.6471   4.7971406737e+01   5.0765516125e+01    0.6761987    0.4083417  31.95  0.003317849    1.986    0.496
        12 -15.1866     99.1373     11.6345   4.7789131723e+01   5.6985691061e+01      1.32857    0.7035834  59.63  0.004578206    1.636    0.389
        13 -11.9417     59.8064     16.8255   6.1366060340e+01   6.4415854040e+01    0.2847677    0.2374461 -77.61  0.001659467    2.086    0.521
        14 -12.2604    187.6344      9.6374   3.3745348716e+01   3.6652860245e+01    0.3382589    0.2419528 -76.73  0.001850469    1.241    0.194
        15 -11.6461     46.5918     12.7726   6.4659570821e+01   6.7123411274e+01    0.2308571    0.2030615  51.41  0.001592597    1.539    0.350
        16 -12.3432    214.6450     10.1689   3.1463761630e+01   3.0649230308e+01    0.2980111    0.2543442  89.51  0.001243518    1.172    0.147
        17 -13.9432     41.8691      4.3328   6.2615197017e+01   6.8782007661e+01    0.6275436    0.4413068  18.56  0.003322972    1.198    0.165
        18 -11.3836    153.0841      8.6669   3.7422813818e+01   4.4766436867e+01    0.1843693    0.1405372  73.13 0.0007299641    1.106    0.096
        19 -12.0919    224.2857      5.0428   2.9700149388e+01   2.9171463679e+01    0.2123521    0.1624452  71.96  0.000534672    1.375    0.273
        20 -12.6476     85.2957     14.5027   5.2343444832e+01   5.9691076404e+01    0.3653325    0.3109532 -20.43  0.001881294    1.322    0.244
        21 -10.9162    117.2555      1.5645   4.0684227289e+01   5.3742331034e+01    0.1836824    0.0929728  56.51 0.0009473792    1.588    0.370
        22 -11.4496     81.9078      1.4103   4.8066568605e+01   6.1546753783e+01     0.341591   0.09916899  58.92  0.001375311    2.870    0.652
        23 -11.4872     61.2916      1.4974   5.4067918702e+01   6.5640725604e+01    0.3095572    0.0999115  53.37  0.001348243    2.670    0.625
        24 -12.3029     70.1431     16.2519   5.7568406486e+01   6.2558420319e+01    0.3408463    0.2722251  72.78  0.001477577    1.722    0.419
        25 -11.8555     49.0810    182.1786   1.0775149221e+02   3.0615823338e+01    0.3450068    0.1908025 -64.82  0.001655374    1.686    0.407
        26 -13.0735     57.6669    246.5587   1.1227330432e+02   1.5121403132e+01    0.5163009    0.3546857  24.91  0.003055037    1.715    0.417
        27 -12.7578      2.8804    248.6404   1.2301225935e+02   2.0877982700e+01    0.4525868    0.2696359  83.67  0.003011142    1.412    0.292
        28 -13.7607      9.4753    245.9940   1.2167277355e+02   2.0747068846e+01    0.7341586    0.3646688  63.20  0.003673386    1.658    0.397
        29 -11.9246    198.8194    181.8217   7.1567076144e+01   5.6578420601e+00    0.1829168    0.1734111 -83.53  0.001000296    1.348    0.258
        30 -12.7557    124.1375    167.0108   8.5576059021e+01   2.2563143175e+01    0.6309382    0.4208066 -74.10  0.002674279    2.013    0.503
        31 -11.2975    177.3280    167.6612   7.3142553420e+01   1.2296320256e+01    0.1462358    0.1189132 -89.75 0.0007051739    1.732    0.423
        32 -13.6151     22.2480    181.2651   1.1441440334e+02   3.3782937038e+01    0.8777713    0.3619269 -57.11  0.003940318    2.327    0.570
        33 -11.4117      1.7935    159.0846   1.1757682697e+02   4.0885762202e+01    0.3137587    0.1480569 -80.33  0.001298802    1.817    0.450
        34 -11.9478     76.8661    156.8573   9.6458665105e+01   3.3136809274e+01    0.3519054    0.2847135  19.55  0.001208426    1.412    0.292
        35 -13.0786     73.1793    153.1360   9.6852113779e+01   3.4626449551e+01    0.6226189    0.4732605  18.44  0.001797251    1.544    0.352
        36 -11.5626    109.9808    154.2876   8.6741051204e+01   2.8204478662e+01    0.3202362    0.2002653 -83.97  0.001175143    2.696    0.629
        37 -11.0654     86.0000    152.9622   9.3149304323e+01   3.2678687158e+01    0.2554457   0.08344283 -57.64 0.0008091666    2.989    0.665
        38 -11.3686    103.0130    150.5066   8.7876104885e+01   3.0383155204e+01    0.3124281    0.2057464 -38.18  0.001360036    1.701    0.412
        39 -11.9991     12.5907    149.1274   1.1369732280e+02   4.2512757027e+01    0.2566015    0.1117958 -77.45  0.001136587    2.078    0.519
        40 -12.5726      7.3047    146.2048   1.1486199329e+02   4.3633424309e+01    0.5995662    0.3214229 -55.24  0.003121039    1.694    0.410
        41 -11.9775    245.1291    148.6843   5.6777249670e+01   3.8474717794e+00     0.242471    0.1582664 -44.93  0.001345636    1.376    0.273
        42 -11.5099     59.4922    148.5170   1.0003618842e+02   3.7722182148e+01    0.1439381    0.1334019 -79.98 0.0001780842    1.016    0.016
        43 -10.4737     62.7386    138.6539   9.7306597295e+01   3.9777245855e+01    0.1493949    0.1043939 -36.50 0.0004323769    1.601    0.375
        44 -12.3289     45.3899    134.2634   1.0187597899e+02   4.3083246659e+01    0.3781278    0.2795587  89.51  0.001958356    1.489    0.328
        45 -10.3582     10.6874    134.2856   1.1253744487e+02   4.6324641698e+01    0.1282159    0.0883512  67.55 0.0003491754    1.578    0.366
        46 -14.0759    108.6524    121.4384   7.9708942558e+01   3.6301531523e+01     1.429952      1.10554  25.72  0.006802038    1.427    0.299
        47 -13.4636     85.0528    114.3484   8.5062892861e+01   4.2308106951e+01     1.199495    0.8908408  32.47  0.004529764    1.399    0.285
        48 -14.7033    106.3869    106.3881   7.6505306478e+01   4.0171479272e+01     1.532525     1.186253 -35.70  0.007267177    1.334    0.250
        49 -13.3870     28.9075    122.1465   1.0508882730e+02   4.7831719323e+01    0.4937018    0.3432524 -50.76  0.002697727    1.301    0.231
        50 -12.1590      4.0765    119.9257   1.1278133235e+02   5.0281867037e+01    0.4674691    0.1933518  15.25  0.002128304    2.965    0.663
        51 -11.8195     34.4962     86.8692   9.5973996212e+01   5.5702711256e+01    0.3932117    0.2429678 -27.21  0.001144644    1.753    0.430
        52 -14.7664     18.1106    110.7795   1.0681003052e+02   5.1534808320e+01     1.247506    0.8580163 -23.90  0.005526247    1.652    0.395
        53 -14.4990     10.7600    103.1195   1.0809482344e+02   5.3900422831e+01    0.8587812    0.7450085 -31.54  0.005538695    1.186    0.157
        54 -13.9138      2.2728     97.1676   1.1015367770e+02   5.5815253552e+01     1.050514    0.3150677 -71.45   0.00402852    3.081    0.675
        55 -15.0595     22.3957     95.5604   1.0249465781e+02   5.4821083939e+01     1.599926    0.9831515  20.77  0.008576686    1.821    0.451
        56 -11.7558     62.7364    111.2181   9.1590909907e+01   4.6560168940e+01     0.315357    0.1962488  46.62  0.001445049    1.821    0.451
        57 -13.5148     29.6102     89.6092   9.8496049507e+01   5.5561117383e+01     1.015616    0.5341288  58.38  0.003979267    3.640    0.725
        58 -10.7765     46.3238    110.3231   9.6988084401e+01   4.8906348801e+01    0.1485961   0.09794526 -31.00 0.0007047303    1.683    0.406
        59 -12.1512    120.8259    112.4833   7.4022391381e+01   3.5874546913e+01    0.3414564    0.2491711  74.22   0.00142315    1.867    0.464
        60 -12.0721    136.8920    103.4403   6.7429915167e+01   3.4345232442e+01    0.4027694    0.2756841  63.64  0.001690061    1.717    0.418
        61 -12.9105    120.2290    102.3895   7.1503133022e+01   3.8188903434e+01    0.4213467    0.2886791  38.40  0.001289491    1.496    0.332
        62 -12.5616     42.5612     91.0220   9.3923613752e+01   5.3884231957e+01     0.527853    0.3306439 -78.21 0.0006120949    2.300    0.565
        63 -11.7766     47.4498    100.1100   9.4313059006e+01   5.1207066047e+01      0.46086     0.329298  66.39  0.002275038    1.955    0.488
        64 -12.0622     52.5067     97.9963   9.1991643488e+01   5.1067720018e+01    0.4295882    0.2380348 -24.06  0.001733333    2.591    0.614
        65 -12.8077     49.3766     94.3170   9.2216338563e+01   5.2313618535e+01    0.4605001    0.4015937  85.59  0.002636649    1.410    0.291
        66 -11.7073    163.6560     98.5296   5.9996643400e+01   2.9282131168e+01    0.2481151    0.2400424 -71.50 0.0001540292    1.007    0.007
        67 -12.1605     61.1749     97.9031   8.8887694545e+01   4.9910584894e+01    0.3794598    0.2967373  81.73  0.001016502    1.768    0.434
        68 -12.2284    136.1310     95.1279   6.5372217861e+01   3.6200083267e+01    0.3972248    0.2557379  51.66  0.001412431    1.556    0.358
        69 -13.4064     95.8019    111.1065   8.0910867012e+01   4.1142218405e+01     1.070664    0.6036105 -61.31  0.004239902    2.146    0.534
        70 -11.4426     90.4612     87.7555   7.6176657073e+01   4.7274344648e+01    0.4287061    0.1884366  52.98  0.001447882    3.191    0.687
        71 -12.3853    187.7579     84.7484   5.1954874982e+01   2.6308768807e+01    0.3456619    0.1756146  43.11  0.001406351    2.413    0.586
        72 -12.2672    159.2630     66.2875   5.2323600065e+01   3.6006360959e+01    0.5768716    0.2102725 -47.97  0.001991112    3.098    0.677
        73 -13.2894    163.7399     71.8954   5.2984378221e+01   3.4034231942e+01     1.187342    0.4527422  51.38  0.004395557    2.550    0.608
        74 -13.3067    161.9629     79.9149   5.5469733129e+01   3.3086002062e+01    0.7850354    0.4867577  23.22   0.00299614    2.957    0.662
        75 -14.2132    169.4205     77.2265   5.3322306525e+01   3.1807413345e+01     1.025854    0.5161269  50.37   0.00396126    2.000    0.500
        76 -13.5499     66.0690     49.1651   7.1976388495e+01   5.8864682828e+01     1.349757    0.6857464 -23.01  0.005648341    2.671    0.626
        77 -13.6679     87.0600     65.3798   7.0321145053e+01   5.2266480208e+01    0.9869592    0.5907539  12.13   0.00386417    2.846    0.649
        78 -13.5598     91.6342     58.0584   6.6421972812e+01   5.2628497416e+01     0.522949    0.4520043 -20.60   0.00266526    1.183    0.155
        79 -13.0306     54.3338     81.9043   8.7076245438e+01   5.4424717496e+01    0.5670236    0.3946598 -44.98  0.002521686    1.335    0.251
        80 -14.2076     61.0392     75.8185   8.2779352919e+01   5.4741056289e+01     1.214805    0.6121162 -52.81  0.005295475    2.095    0.523
        81 -12.8546     70.8607     75.4345   7.9080781279e+01   5.3267549195e+01    0.5663882    0.3403086  21.24  0.001892885    1.979    0.495
        82 -12.3154     47.2715     81.7576   8.9721411825e+01   5.5381344568e+01    0.4044057    0.3000373 -44.63  0.001683296    1.230    0.187
        83 -12.0656     42.1185     77.7454   9.0621232039e+01   5.6872597080e+01    0.5453131    0.2471597 -58.36  0.002315648    2.336    0.572
        84 -12.6781    135.4373     79.9622   6.1288830810e+01   3.9250409500e+01    0.6708018    0.3527886  52.39  0.002296061    1.863    0.463
        85 -11.8289    114.2700     80.0376   6.6769783019e+01   4.3971378634e+01    0.3858741    0.2713769 -57.48  0.001514232    1.675    0.403
        86 -12.6524     17.5993     40.6068   8.9848354636e+01   6.6719042145e+01    0.2264718     0.182037 -14.73 0.0003163521    1.046    0.044
        87 -13.2071     11.5577     43.8760   9.3928026736e+01   6.6627935178e+01    0.9105726    0.2945953 -35.58  0.003766758    3.078    0.675
        88 -13.2908      3.9172     43.2574   9.7526526203e+01   6.7280703211e+01    0.7678785    0.4507555 -57.33  0.004573063    1.657    0.397
        89 -13.3819     28.3148    245.8830   1.1808214133e+02   1.8773220539e+01      0.44487    0.2915099  57.54  0.002888978    1.218    0.179
        90 -14.2834      4.7419     63.5401   1.0261454349e+02   6.3177052795e+01    0.6458324    0.5320981 -12.90   0.00356492    1.216    0.177
        91 -12.3812     77.1233     73.3679   7.6236190757e+01   5.2606048061e+01    0.6013418    0.3139571 -26.55  0.002335539    2.668    0.625
        92 -11.9785     27.0449     75.5056   9.6094612962e+01   5.8942227174e+01    0.5027946    0.2738333 -75.33  0.002163065    2.887    0.654
        93 -12.9151    133.5662     67.3189   5.8048028057e+01   4.1890822875e+01    0.7315348    0.4666938  29.66  0.003131192    2.054    0.513
        94 -13.0802    199.5770     69.8155   4.6499637777e+01   2.6117110302e+01    0.5238849    0.2729312  58.50  0.002345396    1.939    0.484
        95 -12.7488     39.8725     68.2382   8.8787056962e+01   5.9125347128e+01    0.6617765    0.2489407  31.43  0.002765941    2.715    0.632
        96 -12.4892     31.3496     63.1770   9.0851372458e+01   6.1095459663e+01    0.5593209     0.286977 -58.34  0.002674705    2.121    0.528
        97 -13.4477     52.0767     69.6632   8.4316978875e+01   5.7279479710e+01    0.7414672    0.5964719 -50.61  0.004285187    1.310    0.237
        98 -13.0978     78.2968     59.7400   7.1352706511e+01   5.4912794879e+01    0.6610772    0.5080773 -40.25  0.003630232    1.354    0.262
        99 -12.9417     82.1920     54.4674   6.8219243062e+01   5.5075848790e+01     0.450182    0.3912571 -20.43  0.001997711    1.155    0.134
       100 -13.5171    177.8342     57.9292   4.6876837599e+01   3.2915263963e+01    0.7445161    0.5104401 -57.08  0.002761809    1.478    0.323
       101 -11.0819     38.8192     60.3008   8.6768479824e+01   6.0830170841e+01    0.2322457    0.1801773 -75.79  0.001282862    1.959    0.490
       102 -12.2988     24.5158     59.4727   9.2724460742e+01   6.2514326486e+01    0.4544309    0.2229432 -43.88  0.001678728    1.734    0.423
       103 -14.5918    120.1068     54.5995   5.7376046858e+01   4.7024578513e+01    0.7980312    0.5687875  41.41  0.002907226    1.372    0.271
       104 -11.6450     17.8092     55.4314   9.4543498280e+01   6.3909866925e+01     0.328776    0.1620249 -58.37  0.001643347    2.061    0.515
       105 -14.0275    101.3774     50.3476   6.0915935452e+01   5.1821943738e+01    0.8010982    0.6013198  66.40  0.001818611    1.550    0.355
       106 -12.2373     99.8569     44.1296   5.9210283337e+01   5.3057146056e+01    0.3700202    0.2281445  58.89  0.001086456    1.705    0.413
       107 -11.7148     37.4022     52.8284   8.4906454171e+01   6.2415035532e+01    0.3200638    0.1687488 -25.09  0.001495695    2.191    0.544
       108 -11.7765    136.1762     49.8195   5.2236689483e+01   4.3990851441e+01     0.323074    0.2347319  36.03  0.001195087    1.522    0.343
       109 -13.6272    217.4137     42.2882   3.8028038673e+01   2.6201292318e+01     1.087668    0.3921798  66.12   0.00457281    2.689    0.628
       110 -13.0552    205.4625     40.4807   3.8937721542e+01   2.9040998021e+01     1.143982    0.4510846  88.44  0.003180772    6.552    0.847
       111 -12.9393    158.1234     44.2190   4.6466859642e+01   3.9535606854e+01    0.7689145    0.2954311  48.39  0.002933349    2.752    0.637
       112 -10.7365     50.5489     44.0023   7.6125319620e+01   6.2187179209e+01    0.1744726    0.1182355 -35.58 0.0001155243    1.444    0.307
       113 -12.4420    109.6260     42.1844   5.5944712540e+01   5.1184303894e+01    0.4531584    0.1804175  55.67  0.001431133    2.365    0.577
       114 -13.5623    170.7487    242.4860   8.7952265519e+01  -6.3308497129e-01     0.351481    0.2931616 -47.01  0.002236118    1.450    0.311
       115 -12.9386    138.1215     21.9070   4.3459874661e+01   4.6998562387e+01    0.7584138    0.2764238  65.43  0.002324724    2.460    0.594
       116 -14.2618     97.8043    239.2201   1.0305372262e+02   1.1039506487e+01    0.8108073    0.5029657  40.47  0.004404438    1.380    0.275
       117 -12.7953     24.6368    217.5561   1.1688805133e+02   2.5134745567e+01     0.606295    0.3231345  53.35  0.003323615    1.641    0.391
       118 -13.0916    113.8502     38.2502   5.3586628867e+01   5.0754312832e+01     0.359762    0.3334394 -22.52  0.001281719    1.183    0.155
       119 -12.5488     75.6280     37.2817   6.4143802163e+01   5.8935934172e+01    0.3663948    0.2196689  44.10  0.000941296    1.540    0.351
       120 -11.6026     70.7110     36.5648   6.5555841794e+01   5.9955031803e+01    0.2588023    0.1967546  49.66 0.0007820754    1.413    0.293
       121 -12.4575    242.3145     36.3760   3.4454138104e+01   2.1867047569e+01    0.4514103    0.1967342  75.75  0.002271377    2.404    0.584
       122 -11.7542    104.4860     36.5167   5.5326855450e+01   5.3075766809e+01    0.2581681    0.1347162 -30.49 0.0009352724    2.110    0.526
       123 -12.8891     14.1523    221.9476   1.1938814961e+02   2.5254846984e+01    0.4416958    0.3461977  47.96  0.001703608    1.251    0.201
       124 -13.9766     26.0244    226.9484   1.1727334019e+02   2.2944934074e+01    0.7887361    0.3501087 -57.01  0.003884879    2.576    0.612
       125 -13.2589     20.7302    224.8151   1.1822110999e+02   2.3966120645e+01    0.4953282    0.3919683 -36.58  0.002728354    1.880    0.468
       126 -14.1214     65.4502    223.2898   1.0843531635e+02   1.8943715867e+01    0.9711034    0.6436414  45.56  0.005442396    1.331    0.249
       127 -14.1964     64.0985    214.7093   1.0783213064e+02   2.1019533614e+01    0.7845809    0.4596629  41.11  0.004052927    1.547    0.353
       128 -12.4430    171.3094     28.0312   4.0145027401e+01   3.8432419940e+01    0.4428165    0.2387102 -42.85  0.001774923    1.872    0.466
       129 -12.7477     94.3147    218.4418   1.0129013808e+02   1.5855970765e+01    0.2986286    0.2124488  43.38  0.001404146    1.262    0.208
       130 -11.8966    156.6715    214.8438   8.6547080568e+01   6.5101543419e+00    0.2701627    0.1171928 -40.98  0.001091211    2.556    0.609
       131 -13.0900     55.3808     27.1694   6.7455203910e+01   6.3919778870e+01    0.5554034    0.2906702  46.31  0.002353826    1.970    0.492
       132 -11.9492     63.5205     25.0676   6.3512435074e+01   6.2779709294e+01    0.3671949    0.2009659  25.40  0.001255953    2.011    0.503
       133 -11.7358     30.6250     25.8000   7.7668630915e+01   6.7737093838e+01    0.2749203    0.1526397  19.53  0.001517299    1.782    0.439
       134 -11.1333     36.1395     23.2992   7.3988473345e+01   6.7370449391e+01    0.2162325    0.1433268 -16.78  0.001311084    1.435    0.303
       135 -11.8106     47.8534     20.5904   6.7664042541e+01   6.5991691787e+01    0.4970422    0.1999912  38.95  0.002351706    2.245    0.555
       136 -11.0303    136.6880    211.3338   9.0452192197e+01   1.0541244785e+01    0.1415749    0.1073772  68.34  0.000585253    1.680    0.405
       137 -12.0297     72.4618    207.3871   1.0503300889e+02   2.1526120511e+01    0.3687007    0.2777194 -80.59  0.002053328    1.345    0.256
       138 -12.1605     41.1597    206.6838   1.1230449493e+02   2.5739492948e+01    0.2315779    0.1594363  85.59  0.001182699    1.370    0.270
       139 -12.5057     57.4971    203.2607   1.0811987102e+02   2.4509645857e+01    0.4995331    0.2519199  89.69  0.002080287    2.613    0.617
       140 -13.2502     15.5779    196.5166   1.1729725082e+02   3.0814547363e+01    0.5031632    0.4052995 -84.16  0.002585851    1.116    0.104
       141 -13.8401     30.0800    169.2328   1.1118054213e+02   3.5944101303e+01     1.355502    0.9496599  50.66  0.007601226    1.428    0.300
       142 -15.3082      7.9647    183.7975   1.1807783736e+02   3.4479884849e+01     1.315629      1.03535 -88.18  0.008584876    1.058    0.055
       143 -15.2841     15.7311    175.4439   1.1549161744e+02   3.5797632940e+01     2.139032    0.9797927  62.25   0.00961546    2.426    0.588
       144 -12.9047     40.1484    195.2356   1.1142122993e+02   2.8530670648e+01    0.3501741    0.1780501 -75.15  0.001670058    1.877    0.467
       145 -12.1958    164.4264    196.2787   8.1580466547e+01   8.8354164866e+00    0.3020801    0.2096092  88.42  0.001234989    2.947    0.661
       146 -11.5405    248.3256    194.6669   6.5059781243e+01  -4.1283692579e+00    0.1111502   0.09610347 -59.68 0.0007051191    1.712    0.416
       147 -12.0991    200.8737    191.8748   7.3108084226e+01   3.4635610647e+00    0.2622228    0.2142105  -0.15  0.001446013    1.197    0.165
