#   1 NUMBER                 Running object number                                     
#   2 MAG_AUTO               Kron-like elliptical aperture magnitude                    [mag]
#   3 X_IMAGE                Object position along x                                    [pixel]
#   4 Y_IMAGE                Object position along y                                    [pixel]
#   5 X_WORLD                Barycenter position along world x axis                     [deg]
#   6 Y_WORLD                Barycenter position along world y axis                     [deg]
#   7 A_WORLD                Profile RMS along major axis (world units)                 [deg]
#   8 B_WORLD                Profile RMS along minor axis (world units)                 [deg]
#   9 THETA_WORLD            Position angle (CCW/world-x)                               [deg]
#  10 FWHM_WORLD             FWHM assuming a gaussian core                              [deg]
#  11 ELONGATION             A_IMAGE/B_IMAGE                                           
#  12 ELLIPTICITY            1 - B_IMAGE/A_IMAGE                                       
         1 -14.6150     24.1640     92.4422   8.0168173835e+01   5.5200777045e+01     1.446806     1.182161  -3.96  0.008805002    1.473    0.321
         2 -14.0496     56.3790     64.8116   6.0642288176e+01   5.8259261991e+01      1.67327    0.9112424 -28.61  0.006792146    2.501    0.600
         3 -14.9597      6.3831     70.9421   8.3799124924e+01   6.1616255937e+01      1.08243    0.6928003 -59.98  0.005927193    1.279    0.218
         4 -13.8885    188.3658     22.8826   1.1884156356e+01   3.4318701101e+01     1.672236    0.8435387 -46.68  0.007408176    1.926    0.481
         5 -13.0963    187.7695     11.1416   8.5440947181e+00   3.5708794581e+01    0.6547667    0.5027546 -25.11   0.00358276    1.388    0.280
         6 -13.2579    119.5734     26.6756   2.4461838484e+01   5.1874192246e+01     1.073449    0.6574274  31.23  0.004693043    1.915    0.478
         7 -14.1334    122.2632     36.7607   2.7773906575e+01   4.9835457068e+01     1.161419    0.5886823  34.38  0.003035549    2.571    0.611
         8 -12.9217      7.9344      2.5413   6.1303494866e+01   7.6271818052e+01     0.523667    0.3017116  32.42  0.003089503    2.044    0.511
         9 -15.9077     11.2318     23.5044   6.9099490025e+01   7.2036187607e+01     1.984113    0.9251984 -36.69   0.01008898    1.919    0.479
        10 -14.4933    166.6376     28.5485   1.6435352794e+01   3.9290036407e+01      1.10279    0.8888128  67.79  0.004596252    1.188    0.158
        11 -14.6397    147.4421     29.5258   1.9872042405e+01   4.4241589874e+01     1.405849    0.7753165  66.17  0.004831146    1.750    0.429
        12 -14.7100    217.6616     13.6485   6.5660763209e+00   2.8156451029e+01     1.473443     1.143278 -28.51  0.008137848    1.317    0.240
        13 -13.6804     58.0316     26.6431   4.4685957647e+01   6.5551042921e+01     1.123645    0.3982878  39.72  0.004042643    2.863    0.651
        14 -13.6585    140.9095     21.5544   1.8189772820e+01   4.6913982510e+01     1.127437    0.3783974  64.87  0.003548564    2.738    0.635
        15 -15.5381     99.1055     11.2311   2.2811699347e+01   5.8785737211e+01     1.648803     1.019346  54.29  0.004185386    1.455    0.313
        16 -13.4515     86.0487     14.3497   2.7956260975e+01   6.1543505113e+01    0.7921638    0.4589394 -53.01  0.003411298    2.544    0.607
        17 -11.8866     70.9644     16.2881   3.4086433091e+01   6.4605349347e+01    0.3006613    0.2202489 -20.10  0.000794818    1.362    0.266
        18 -12.6096     74.8746      9.7249   2.9247844237e+01   6.4579358933e+01    0.4821182    0.3268752   7.82  0.002482624    1.633    0.388
        19 -12.5449     60.0743     15.3191   3.7959949961e+01   6.6902114149e+01    0.5696464     0.330987  24.22  0.002692081    1.979    0.495
        20 -12.2807     46.8683     12.8372   4.2717676151e+01   6.9618905032e+01    0.2968557    0.2546591  35.60  0.001257075    1.280    0.219
        21 -14.0501     41.9101      4.3197   4.0172609114e+01   7.1635782232e+01    0.6948206    0.5229169   6.85  0.003318177    1.224    0.183
        22 -12.0397    123.0463     10.6725   1.7297777467e+01   5.2764161253e+01    0.3070902    0.2316864 -64.38  0.001415835    1.534    0.348
        23 -12.2742    152.6984      8.5064   1.1754372598e+01   4.5120769901e+01    0.3083959    0.2269809  37.42  0.001598859    1.493    0.330
        24 -11.5980     80.2227      7.1450   2.6145032171e+01   6.3671760528e+01    0.2340871    0.1821155 -23.77 0.0009506129    1.345    0.257
        25 -14.6051     27.0039     11.7544   5.3286697727e+01   7.2693743668e+01    0.9131829    0.5702438 -19.58  0.005097671    1.607    0.378
        26 -12.8225    118.7495      2.4925   1.4752705385e+01   5.4624067528e+01     0.583886    0.2822917  87.54  0.002201934    2.860    0.650
        27 -12.6465     78.7148      2.1506   2.3989257615e+01   6.4511412911e+01    0.9129549          nan  53.01  0.002363087    5.711    0.825
        28 -11.6043     67.6599      2.7170   2.7949880340e+01   6.6893976011e+01    0.3018695     0.182179  26.31  0.001513521    1.704    0.413
        29 -11.4995    232.5876      1.7360   2.6192101787e+00   2.5952773125e+01    0.2292567    0.1575852  85.46   0.00110543    1.420    0.296
        30 -11.5816     61.2021      1.4694   2.9639909241e+01   6.8371675267e+01    0.3508293    0.1188038  53.94  0.001380581    2.807    0.644
        31 -12.2180    133.8496    126.1882   5.2373424508e+01   3.0106269950e+01    0.5339014    0.2796986 -30.34  0.001923225    2.717    0.632
        32 -12.7455     50.9281    248.2869   8.7859921359e+01   1.8569225182e+01      0.33415    0.3055157  57.95  0.002803699    1.328    0.247
        33 -12.2514      2.9162    249.5446   9.6442556196e+01   2.3267268008e+01     0.307418    0.1873775  51.29  0.001675224    1.138    0.121
        34 -13.9810      9.5049    245.7163   9.5200251838e+01   2.3294447960e+01    0.7797421    0.2866229  50.19  0.003816792    1.780    0.438
        35 -14.0522    104.7140    121.4586   5.9183245545e+01   3.6930267744e+01     1.279895       1.0283  61.43  0.006425633    1.333    0.250
        36 -13.6683    111.9308    116.4294   5.5944270497e+01   3.6687657106e+01    0.7364042    0.4224557  42.39  0.003109175    1.714    0.417
        37 -14.4907    106.1882    105.1639   5.4793219721e+01   4.0370019498e+01     1.298163     1.169549  85.57  0.006110406    1.215    0.177
        38 -11.7644      8.3188    114.4349   8.8416313558e+01   5.0939116770e+01    0.2167773    0.1552134 -17.34  0.001160439    1.854    0.461
        39 -12.1835     78.9951    110.2216   6.4463565835e+01   4.4095447210e+01    0.3169658    0.2248388 -58.41  0.001346018    1.375    0.273
        40 -11.7358     86.5542    114.9289   6.3131154794e+01   4.1713250212e+01    0.3062633    0.2549962 -11.08   0.00100715    1.496    0.332
        41 -12.2372     82.1699    115.1690   6.4548990928e+01   4.2388204818e+01    0.4075521    0.2913955  58.66  0.001959445    1.546    0.353
        42 -12.4910     42.4053     90.4315   7.2915847841e+01   5.3953626309e+01    0.3127128    0.2373893 -68.21 0.0001159688    1.220    0.181
        43 -13.5680     28.6175    246.0616   9.1822575328e+01   2.1359168515e+01    0.4139736     0.237666  61.76  0.002903164    1.345    0.257
        44 -11.8172    121.9755    112.0453   5.2057990695e+01   3.5623159347e+01    0.2422717    0.1914368  -0.62 0.0006842007    1.645    0.392
        45 -11.9421    177.0801    109.9956   3.8355543928e+01   2.3875510817e+01    0.3632899    0.2770478  -0.01  0.001727029    1.597    0.374
        46 -14.0932     10.9345    103.2790   8.6400346607e+01   5.3490515444e+01    0.6757045    0.6627961  23.96  0.004000168    1.223    0.183
        47 -11.3764     88.3082    109.4743   6.1332881757e+01   4.2707248579e+01    0.2691495    0.1876152 -79.46   0.00119748    1.832    0.454
        48 -12.2007     36.7009     92.8554   7.5545626635e+01   5.3959135507e+01    0.3824909    0.2459157  13.00  0.001416213    1.919    0.479
        49 -10.6481     46.3223    110.3099   7.5305434036e+01   4.8596933988e+01    0.1399745   0.09910896 -36.06 0.0007036777    1.649    0.394
        50 -10.7475     42.6625    106.6984   7.5926220400e+01   4.9903141891e+01    0.1396599   0.09767441 -35.55 0.0004465712    1.665    0.399
        51 -12.2885    136.4771    102.8998   4.5799594970e+01   3.4427760999e+01    0.5071334     0.254692  49.34  0.001938678    2.009    0.502
        52 -12.8745     28.7967    121.9239   8.2745746862e+01   4.7519147885e+01    0.3676111    0.2694761 -66.17  0.002141368    1.244    0.196
        53 -11.9284     61.3987     97.5372   6.7525761057e+01   4.9833373518e+01    0.4435063    0.2734287  84.90  0.001809761    2.544    0.607
        54 -11.7889     52.8884     97.4277   7.0533674129e+01   5.0992831443e+01     0.395501    0.2534067 -21.70  0.001773507    2.251    0.556
        55 -11.2875     48.6666    100.6889   7.2710420013e+01   5.0706877012e+01    0.2619689    0.1889895 -43.89  0.001373117    1.422    0.297
        56 -11.4954     46.4891     98.5245   7.3059522130e+01   5.1497558706e+01    0.2469043    0.2180702  32.62  0.001318091    1.233    0.189
        57 -11.8850    163.5158     97.4028   3.7891701637e+01   2.9283148374e+01    0.3744652    0.2681401 -56.53  0.000893379    1.620    0.383
        58 -13.4122    136.7099     94.4715   4.3393345660e+01   3.6092748013e+01    0.5685837    0.4789947 -76.13  0.002319659    1.415    0.293
        59 -12.2786      4.6654    119.4288   8.9995702108e+01   4.9963386834e+01     0.441812    0.2572703   7.76  0.002420003    2.277    0.561
        60 -12.1448     49.0640     93.1492   7.1007353307e+01   5.2516202023e+01    0.3635371    0.2643284  69.80  0.001859991    1.645    0.392
        61 -13.6376      2.2395     96.9245   8.8732471961e+01   5.5541318723e+01    0.9148899    0.3016808 -81.84  0.003711967    2.769    0.639
        62 -12.9434    188.6016     83.8752   2.9243233960e+01   2.5726502094e+01    0.6160815     0.345413  43.09  0.002289638    1.934    0.483
        63 -13.0515    187.1453     79.1436   2.8205342410e+01   2.6838997554e+01    0.2872398    0.2611071  75.55  0.001140142    1.172    0.147
        64 -12.1360    158.6812     64.6066   2.9318468654e+01   3.6233706522e+01    0.7517272    0.2586873 -44.44  0.002336398    3.145    0.682
        65 -13.5373    163.8857     71.4846   3.0367725204e+01   3.3787503167e+01     1.590264    0.5282961  45.82  0.004921674    3.281    0.695
        66 -13.2793    161.1092     80.6410   3.3659135782e+01   3.2897037188e+01    0.9104225     0.554158  20.89  0.003141358    2.735    0.634
        67 -14.5552    169.3834     77.0870   3.0927608353e+01   3.1484003327e+01     1.329815     0.674926  48.38  0.004000062    1.983    0.496
        68 -13.6154     67.0567     49.8009   5.0904064091e+01   5.9748654111e+01    0.7888526    0.6491315 -83.80  0.002421835    1.730    0.422
        69 -14.2241     97.3632    239.4720   7.8330332165e+01   1.4206268507e+01    0.6712656    0.4444382  46.31  0.004432461    1.172    0.147
        70 -13.6701     91.9817     57.3455   4.4484072977e+01   5.3478357846e+01     0.545985    0.5126569 -11.19  0.001515389    1.042    0.040
        71 -12.8379     54.9741     81.2184   6.5931864080e+01   5.4651894949e+01    0.6293076    0.3887608 -41.17  0.002045689    1.640    0.390
        72 -13.9415     61.2870     75.5299   6.1914017360e+01   5.5099078278e+01    0.7622629    0.4852297 -40.93  0.001481205    1.558    0.358
        73 -12.4562    237.2379     80.2047   2.1038077771e+01   1.5552997028e+01    0.3678461    0.2145405  86.38  0.001584104    3.001    0.667
        74 -12.8763    211.2854     77.4060   2.3864654927e+01   2.1504634553e+01    0.7799343    0.4775893 -88.64  0.003220025    2.720    0.632
        75 -12.6610    135.1885     79.2724   3.9262728685e+01   3.9438209785e+01    0.7626776    0.3816942  55.21  0.002868136    2.110    0.526
        76 -12.1042    114.0409     79.8500   4.5207136372e+01   4.4211884137e+01    0.4352268    0.3404406 -44.49  0.001853517    1.286    0.223
        77 -13.8439     73.7156     73.9933   5.6718728407e+01   5.3472407578e+01      1.38271    0.7423064  13.84  0.004470909    4.009    0.751
        78 -11.0518     41.6310     75.7626   6.9872593115e+01   5.7598484630e+01    0.2143035    0.1781301 -41.85  0.000686296    1.143    0.125
        79 -12.7043     23.5094    216.2945   9.1436514673e+01   2.7168784302e+01    0.6621623    0.2344982  51.39  0.003501285    2.104    0.525
        80 -14.1846      5.3606     63.2454   8.2959091569e+01   6.3501447381e+01    0.6932154    0.6067553 -36.87  0.004350136    1.182    0.154
        81 -14.3022     18.2450    110.3207   8.4750660277e+01   5.1252143039e+01    0.9127805    0.6832647 -66.46  0.005298896    1.187    0.158
        82 -12.7326    216.0903     72.4332   2.1903091776e+01   2.1156601015e+01    0.5252755    0.3152784 -75.73  0.002177108    2.703    0.630
        83 -13.6745    199.5445     69.4911   2.3532234055e+01   2.5391259966e+01    0.7610643    0.4455837  50.90  0.002681158    1.780    0.438
        84 -13.2098    133.2517     66.1945   3.5565248272e+01   4.2328319653e+01    0.9630509     0.738903   5.72  0.004406002    1.669    0.401
        85 -11.2296    117.6839     72.1429   4.1681059535e+01   4.4929113273e+01    0.2631308    0.2117308  59.29 0.0006906922    1.314    0.239
        86 -12.1859     39.1892     67.9568   6.8883921835e+01   5.9717971875e+01    0.4421127    0.1875187  32.84    0.0018885    2.489    0.598
        87 -11.4985    100.0109     65.0622   4.4608851184e+01   5.0267063880e+01    0.2359996     0.231953   2.07 0.0009408568    1.020    0.019
        88 -12.1263    199.8643     61.5015   2.1310884665e+01   2.6487004502e+01    0.3183165    0.2735052  -8.39  0.001387206    1.286    0.222
        89 -13.0705     78.9582     60.0657   5.0102806641e+01   5.5527089605e+01    0.5511698    0.4669957 -43.86  0.002961442    1.167    0.143
        90 -12.2794     36.8149     53.9970   6.5874316870e+01   6.3178388266e+01    0.3958515    0.1926553 -40.11  0.001776852    2.005    0.501
        91 -11.2851     34.3067     61.0260   6.9146671743e+01   6.1849736656e+01    0.1980497     0.157497 -51.17 0.0007111254    1.106    0.096
        92 -11.5905     38.8228     59.9934   6.6790778862e+01   6.1601294737e+01    0.2219507    0.1566557  86.39  0.001090818    2.074    0.518
        93 -11.7618     24.8644     59.2123   7.3031540557e+01   6.3156051524e+01    0.3986241    0.1941671 -55.30  0.001926256    1.694    0.410
        94 -11.7808    111.1178     58.6868   3.8950407068e+01   4.8988076189e+01      0.24265    0.2367177  28.56 0.0003894602    1.015    0.015
        95 -14.6362    119.9723     54.8235   3.5082696026e+01   4.7566086582e+01     1.087064    0.7584249  48.00  0.005053471    1.395    0.283
        96 -12.4797    135.7082     50.0976   2.9492886721e+01   4.4417563500e+01    0.5633755    0.3636368  30.91  0.001900939    1.895    0.472
        97 -11.4388     17.7124     55.2387   7.5441775752e+01   6.4638447131e+01    0.3162992     0.151494 -65.66  0.001516223    1.856    0.461
        98 -12.2483    247.7847     54.0443   1.3703961963e+01   1.6866611290e+01    0.5264913    0.1484346 -40.07  0.002047759    2.760    0.638
        99 -13.8208    103.2473     50.4031   3.8235780533e+01   5.2280304760e+01     1.071816    0.5932104 -49.65  0.001744574    2.124    0.529
       100 -13.3594     97.6169     49.8092   3.9770462360e+01   5.3654230805e+01    0.7895406    0.3635041 -42.54  0.002441886    2.233    0.552
       101 -13.1943     87.4633     65.1889   4.8849704473e+01   5.2836263863e+01    0.5738507    0.4561867  -9.25  0.001494899    1.473    0.321
       102 -13.8176    177.7543     56.5898   2.3353212748e+01   3.2648170431e+01     1.006719    0.5712769 -43.49  0.003678086    1.743    0.426
       103 -10.4989     23.6572     49.7415   7.0997872780e+01   6.5426066412e+01    0.1322659   0.08480875 -29.59  0.000327259    1.589    0.371
       104 -11.6981    151.9955     47.0000   2.4985023198e+01   4.0684869797e+01    0.3147366    0.1836256  55.99 0.0008958012    1.641    0.390
       105 -12.9283    158.1300     43.2008   2.2580649719e+01   3.9627807129e+01    0.6822238    0.5365567  32.05   0.00312006    1.430    0.301
       106 -10.9136     29.5007     46.9775   6.7181217081e+01   6.5500996705e+01     0.195948    0.1143266 -54.35 0.0004947215    1.508    0.337
       107 -10.8653     38.8386     45.8346   6.2122743701e+01   6.4725690635e+01    0.1701372    0.1577819 -74.49 0.0005614836    1.287    0.223
       108 -12.1216     11.6440     43.5031   7.5472866037e+01   6.7720158403e+01    0.4158389    0.2384323  -8.30  0.001868472    2.074    0.518
       109 -12.7826      3.6508     42.8120   7.9609512842e+01   6.8314532509e+01    0.4686853    0.3465956 -24.75  0.003020898    1.363    0.266
       110 -14.1909    212.3799     40.9529   1.4165530995e+01   2.6274490574e+01     2.004681    0.7015345  75.82  0.006650924    3.991    0.749
       111 -13.9851     26.2245    226.5446   9.1394104823e+01   2.4999036751e+01    0.6057886    0.3497055 -56.63  0.003819705    2.372    0.578
       112 -14.0408     20.7904    223.9979   9.2326468493e+01   2.6006591056e+01    0.5918188     0.408866  43.81  0.003844553    1.249    0.199
       113 -14.1861     66.0846    223.2521   8.3232448915e+01   2.1073640858e+01    0.9343416    0.5678235  52.45  0.005828782    1.325    0.245
       114 -11.9974    134.8654     39.2919   2.5833634429e+01   4.6246386823e+01    0.4989448     0.309681  74.26  0.001551309    1.875    0.467
       115 -12.6344    109.9779     42.0048   3.3007828732e+01   5.2091070210e+01    0.4566589    0.2102438  53.17 0.0006695488    2.087    0.521
       116 -13.2419    113.7851     37.8486   3.0337450667e+01   5.1796827480e+01    0.4185223    0.3892859  28.10  0.001506839    1.050    0.048
       117 -14.0078     64.5943    214.1647   8.2810250094e+01   2.2941138269e+01    0.5057769    0.2816081  42.97  0.002684887    1.435    0.303
       118 -13.1801    131.4498     33.4446   2.4424247939e+01   4.7935781987e+01    0.5965307    0.4495727  -0.90  0.001833351    1.586    0.370
       119 -12.2208     40.5034     40.3493   5.9218577522e+01   6.5664023508e+01    0.4703979     0.266317  26.91  0.002335457    1.896    0.473
       120 -12.8719     32.9284     40.0518   6.2976033554e+01   6.6627518576e+01    0.3356955    0.2623528  -5.58 0.0007007743    1.324    0.245
       121 -12.6158     75.9671     37.0140   4.2064203424e+01   6.0448189778e+01    0.4958586    0.3383055  36.79  0.001303355    1.453    0.312
       122 -11.8396     70.9557     36.2174   4.3667658207e+01   6.1562852592e+01    0.2927267    0.2570978  46.31  0.001072955    1.245    0.197
       123 -13.0364    242.5512     35.9227   9.9466648405e+00   2.0145044177e+01    0.6080284    0.3141372  81.63  0.002477574    2.297    0.565
       124 -12.2348    105.3115     34.6085   3.1344954573e+01   5.4335758603e+01    0.6757311    0.3662321  -6.84  0.002380258    3.206    0.688
       125 -13.2448     59.6249    212.6743   8.3743913369e+01   2.3841513479e+01     0.449874    0.3272423 -20.98  0.002214456    2.483    0.597
       126 -12.5585     94.1991    217.9955   7.6892204856e+01   1.8280910893e+01    0.2325892    0.1512912  40.08   0.00135617    1.253    0.202
       127 -12.8887     45.7691     33.5353   5.3729442061e+01   6.6291449399e+01    0.7389212    0.4905223  32.99  0.003980612    1.571    0.364
       128 -12.6766     42.5998     29.2202   5.3373998843e+01   6.7550132804e+01    0.2995325    0.1952059 -27.96 0.0009637817    1.489    0.329
       129 -12.8604     72.1885    206.7548   8.0519548634e+01   2.3380747852e+01    0.3059089    0.2244615  56.33  0.001944402    1.149    0.130
       130 -12.5140     57.3978    202.6330   8.3405416395e+01   2.6071375113e+01    0.4660547      0.22218 -90.00  0.002228831    2.633    0.620
       131 -13.1532     17.1242    195.6411   9.1728456499e+01   3.1836018646e+01     0.666494    0.1816597 -64.30  0.002905244    3.649    0.726
       132 -13.0580     40.0212    195.0113   8.6667137849e+01   2.9639381883e+01    0.4103089    0.2676077  79.71  0.002478068    1.423    0.297
       133 -13.5148     29.9495    169.3061   8.7088127244e+01   3.6222688571e+01     0.808575    0.7052749   3.52  0.005315172    1.550    0.355
       134 -12.2734     30.7340     25.5430   5.8108846287e+01   6.9775885912e+01    0.3212865    0.2050058   9.30  0.001733989    1.761    0.432
       135 -12.3523     35.4499     23.4451   5.4448351991e+01   6.9578573064e+01    0.3011972    0.2254665  -9.39  0.001023837    1.311    0.237
       136 -13.5262     22.2208    180.7291   8.9743048806e+01   3.4472741952e+01    0.6642512    0.3258789 -66.37  0.003624297    2.033    0.508
       137 -15.1751      8.7158    183.1552   9.2946150068e+01   3.5166871251e+01     1.093056    0.9362295  46.68  0.008186068    1.261    0.207
       138 -11.5875     51.2412     20.4104   4.4695186345e+01   6.7727951083e+01    0.3064568    0.1251903  44.16  0.001280438    2.576    0.612
       139 -12.2940     46.9856     19.6710   4.6399658164e+01   6.8545272643e+01    0.3358783    0.1842078  19.85  0.001515135    2.341    0.573
       140 -15.2114     15.1235    174.7882   9.1034257105e+01   3.6403529092e+01      1.78355     0.606521  46.79  0.008577155    2.358    0.576
       141 -11.8213     48.9982    181.2161   8.3465924452e+01   3.1529708452e+01    0.2726138    0.1735655 -62.24  0.001555479    1.678    0.404
       142 -11.9766    198.8674    181.3197   4.9602841842e+01   7.5785833251e+00    0.2027078    0.1591502  45.09  0.001195737    1.441    0.306
       143 -13.7396    216.6012     27.9635   1.0330406039e+01   2.6842071858e+01    0.5877321      0.34883 -49.58  0.002431467    1.550    0.355
       144 -10.8304    175.9590     13.7442   1.0575730161e+01   3.8482579436e+01    0.1894284    0.1651835 -85.79 0.0002011567    1.065    0.061
       145 -12.0661     84.3940    179.1984   7.4663478317e+01   2.7287878398e+01    0.1843512    0.1230681 -82.92 0.0009591641    1.720    0.419
       146 -12.9594    124.2419    166.3274   6.2968414002e+01   2.3512551419e+01    0.6095739    0.4066616 -65.04  0.002969292    1.834    0.455
       147 -11.9822    164.4987    195.9974   5.9009822505e+01   1.1078338909e+01    0.1665405    0.1192148 -76.03  0.000810663    2.648    0.622
       148 -11.9905    111.1679    155.4561   6.4297201593e+01   2.8111732856e+01    0.5343062     0.311943 -89.51  0.001851492    3.759    0.734
       149 -11.9484     77.0754    156.7628   7.3470108096e+01   3.3320904176e+01    0.3244975    0.2648478  26.07  0.001134581    1.353    0.261
       150 -13.1078     73.4840    153.1690   7.3913855512e+01   3.4669017515e+01    0.5839911    0.4429604  29.81  0.002132618    1.402    0.287
       151 -11.5348    103.4332    149.8509   6.5303116948e+01   3.0691874034e+01    0.3466835    0.2432492 -32.74  0.001347204    1.822    0.451
       152 -12.5883      8.7005    148.9222   9.1019640092e+01   4.2727761700e+01    0.4888963    0.3157522  42.13  0.003010866    1.497    0.332
       153 -11.9413     60.7614    147.3006   7.6590322146e+01   3.7789137975e+01    0.3470173     0.241041  -2.20  0.001667897    2.284    0.562
       154 -12.2737    136.1692    131.9680   5.3122292643e+01   2.8410341167e+01    0.6162336    0.2489641  40.30  0.002188484    2.441    0.590
