#   1 NUMBER                 Running object number                                     
#   2 MAG_AUTO               Kron-like elliptical aperture magnitude                    [mag]
#   3 X_IMAGE                Object position along x                                    [pixel]
#   4 Y_IMAGE                Object position along y                                    [pixel]
#   5 X_WORLD                Barycenter position along world x axis                     [deg]
#   6 Y_WORLD                Barycenter position along world y axis                     [deg]
#   7 A_WORLD                Profile RMS along major axis (world units)                 [deg]
#   8 B_WORLD                Profile RMS along minor axis (world units)                 [deg]
#   9 THETA_WORLD            Position angle (CCW/world-x)                               [deg]
#  10 FWHM_WORLD             FWHM assuming a gaussian core                              [deg]
#  11 ELONGATION             A_IMAGE/B_IMAGE                                           
#  12 ELLIPTICITY            1 - B_IMAGE/A_IMAGE                                       
         1 -10.7116     32.7900     57.9320   1.0842319191e+02   6.0497773758e+01    0.7234955   0.09897637 -58.95  0.001865009    6.879    0.855
         2 -12.1710    195.8171     31.3444   5.5615648138e+01   3.2096738183e+01     1.100206    0.8531901  30.07  0.004334806    1.479    0.324
         3 -12.1531    207.0038     17.6196   5.0113973420e+01   3.0802133750e+01     1.065125    0.7514312  24.32  0.005187138    1.820    0.450
         4 -10.0881     93.8562    225.4985   1.1933012605e+02   1.7591366566e+01    0.1894965    0.1841993 -61.75  0.001481846    1.527    0.345
         5 -13.2409    123.2061    247.3167   1.1646773800e+02   9.8253905423e+00     1.872813    0.7906318  33.98  0.008640821    3.217    0.689
         6 -12.0422    144.1043    244.4974   1.1268597732e+02   6.9932489099e+00    0.8289176    0.2862342  36.63  0.003515988    3.253    0.693
         7  -9.2525     93.6333    244.5966   1.2107020399e+02   1.4553142634e+01     0.226282     0.157607  81.14  0.001649434    1.380    0.275
         8 -14.4050     53.6429    206.0126   1.2469087010e+02   2.6452864956e+01     3.298264     2.246158 -81.29   0.02320566    1.341    0.254
         9 -11.2947    100.6149    228.3429   1.1843130949e+02   1.6131584773e+01    0.4707208    0.3009094  48.83  0.003087685    1.281    0.220
        10 -10.3674    196.3922    196.4795   9.6542330382e+01   4.8979463718e+00    0.5067705    0.3453503  53.58  0.002094055    1.540    0.351
        11 -10.1791     71.7482    182.4630   1.1905259605e+02   2.8691932435e+01    0.3621129    0.2346588 -46.19  0.002044337    2.190    0.543
        12 -10.0812     76.0707    176.7127   1.1751805950e+02   2.9267215861e+01    0.2544568    0.2289685 -57.54 0.0007396317    1.410    0.291
        13  -8.2620    198.4823    177.0242   9.2602722549e+01   7.4580765078e+00    0.1856849    0.1157403  -8.46  0.000809552    2.476    0.596
        14  -8.2342    196.3144    172.3436   9.2109851998e+01   8.6291078925e+00    0.1430965    0.1022781  11.17 0.0007047532    1.710    0.415
        15 -16.5028      8.4835    238.6945   1.3383230231e+02   2.5673672402e+01     17.65538      1.79152 -77.63   0.02984152    8.504    0.882
        16 -10.6134     84.4054    165.6443   1.1434696736e+02   3.0377784398e+01    0.4984421    0.2697442 -67.75  0.001794271    1.804    0.446
        17 -10.3456     90.5821    159.3369   1.1208987519e+02   3.0789426888e+01    0.4772059    0.3356076 -26.59  0.001437861    2.546    0.607
        18 -11.6752     72.4606    162.2108   1.1648326749e+02   3.2806652499e+01     0.645608    0.2886721 -54.65  0.001551028    2.305    0.566
        19  -9.7346     85.2219    236.9061   1.2180704878e+02   1.6936111359e+01    0.2276415    0.1427045  63.08 0.0008749453    1.260    0.207
        20 -11.2854    115.0918    228.5824   1.1593672030e+02   1.3908808156e+01    0.5314256    0.3611223 -88.43  0.003422811    1.702    0.412
        21 -11.4938     68.1561    144.1745   1.1497805568e+02   3.7325855982e+01    0.6896033     0.431694  72.56   0.00329887    1.761    0.432
        22  -9.1183    103.3936    143.3571   1.0651890954e+02   3.2191115783e+01    0.4177122    0.2564436 -32.82  0.001811642    2.582    0.613
        23 -10.4516     91.5648    143.3218   1.0931276798e+02   3.4125108867e+01    0.2459408    0.2298264 -64.41 0.0004150555    1.173    0.148
        24 -10.4110     58.6932    130.2100   1.1517486904e+02   4.1668037006e+01    0.3960173    0.2017895 -62.96  0.001993838    1.690    0.408
        25  -9.3137    100.0045    128.8735   1.0459659881e+02   3.5970730841e+01    0.2851639     0.221994 -33.24 0.0007470628    1.590    0.371
        26  -9.7690     43.9742    126.9337   1.1835446009e+02   4.4086675058e+01    0.2044227    0.1286287  75.72  0.001131883    1.714    0.416
        27  -8.6765    112.3357    132.3605   1.0226023802e+02   3.3045456310e+01    0.2106239    0.1722389 -16.15  0.001082928    1.687    0.407
        28 -10.9077    109.4412    229.0719   1.1697270569e+02   1.4693357061e+01    0.3049873    0.2169122  51.01  0.001785915    1.146    0.128
        29  -8.2515    108.5195    120.4962   1.0069841000e+02   3.6357130086e+01    0.1432324    0.1346568 -74.14  5.90639e-06    1.013    0.012
        30  -8.0884    167.6458    112.3190   8.4535122070e+01   2.5735101656e+01    0.1602873    0.1237594 -84.31 0.0007046496    1.749    0.428
        31 -11.7187     32.7928    104.9270   1.1802271891e+02   5.0156510274e+01     1.109802    0.1376001 -66.53  0.002845743    6.929    0.856
        32 -11.0523    126.1364    230.2130   1.1418198862e+02   1.1928418522e+01    0.2990182    0.2436035  60.57  0.002146561    1.063    0.060
        33 -13.4028     10.3748    206.6722   1.3210460362e+02   3.0997999875e+01    0.7372667    0.6508485  41.23   0.00334852    1.703    0.413
        34  -9.3275    145.5182    227.4940   1.1044891221e+02   9.2131018788e+00    0.1208589   0.09549883  51.33 3.241954e-05    1.014    0.014
        35  -7.9937    160.5511     54.4628   6.9155548305e+01   3.8025178764e+01     0.151202    0.1498336 -55.66 0.0002136553    1.041    0.040
        36 -11.0806    186.7809     37.6800   5.8931740132e+01   3.3654553877e+01    0.4199411    0.3621686  40.04  0.001190449    1.199    0.166
        37 -11.4994     98.8496    249.0230   1.2059865084e+02   1.3145834618e+01    0.7301207    0.2614653  41.39  0.002689323    2.410    0.585
        38  -9.4131     97.3867    238.5804   1.1993270328e+02   1.4955872785e+01    0.2914813    0.1543986  80.13  0.001611083    2.461    0.594
