#   1 NUMBER                 Running object number                                     
#   2 MAG_AUTO               Kron-like elliptical aperture magnitude                    [mag]
#   3 X_IMAGE                Object position along x                                    [pixel]
#   4 Y_IMAGE                Object position along y                                    [pixel]
#   5 X_WORLD                Barycenter position along world x axis                     [deg]
#   6 Y_WORLD                Barycenter position along world y axis                     [deg]
#   7 A_WORLD                Profile RMS along major axis (world units)                 [deg]
#   8 B_WORLD                Profile RMS along minor axis (world units)                 [deg]
#   9 THETA_WORLD            Position angle (CCW/world-x)                               [deg]
#  10 FWHM_WORLD             FWHM assuming a gaussian core                              [deg]
#  11 ELONGATION             A_IMAGE/B_IMAGE                                           
#  12 ELLIPTICITY            1 - B_IMAGE/A_IMAGE                                       
         1 -12.5603     38.9416     50.2893   6.1563030799e+01   6.2991170292e+01    0.8233328     0.601852  13.52  0.003972948    1.384    0.277
         2 -11.1367    123.0666     26.3612   2.9487860228e+01   4.9121059336e+01     0.195424    0.1648234 -61.27 0.0003724756    1.238    0.193
         3 -11.9821    128.6998     23.9242   2.7990047938e+01   4.8167799486e+01    0.3257709    0.2029985 -48.09 0.0004339716    1.669    0.401
         4 -11.1854     11.7177     12.9941   6.0438019541e+01   7.2582456745e+01    0.3053797    0.1874207 -18.77 0.0006739539    1.839    0.456
         5 -11.3900     10.2081      9.4031   5.9584402613e+01   7.3245184555e+01     0.344759    0.2177196  38.82  0.001791228    1.501    0.334
         6 -11.8098      4.0167     18.0501   6.7799738563e+01   7.2854980562e+01    0.5480294    0.3147703 -20.81  0.003136406    1.895    0.472
         7 -12.2631      3.1358     13.4125   6.6212902275e+01   7.3618992322e+01    0.3783544    0.2728107 -11.92 0.0008446829    1.303    0.233
         8 -10.6273     20.3192     17.4515   5.7563241216e+01   7.0769240743e+01    0.3036691     0.275315  28.61    0.0018976    1.284    0.221
         9 -12.0670    238.0651     18.0179   1.7030173876e+01   2.8132932649e+01    0.2122476    0.1925701  72.70 0.0003914012    1.748    0.428
        10 -10.6627     71.4500     15.4286   3.6661143848e+01   6.1450285512e+01    0.3420407    0.2235172  73.17  0.001987793    1.581    0.368
        11 -11.1770     75.1024     10.7947   3.4059482494e+01   6.1115945386e+01      0.55498    0.1798054  56.05  0.002494431    2.302    0.566
        12 -11.3196     74.2868      3.0740   3.1480927919e+01   6.1953246517e+01    0.3759158    0.2357815 -36.41  0.001745681    1.939    0.484
        13 -11.3301    101.8441      9.9604   2.8324799275e+01   5.5401991791e+01     0.424029    0.2632779  -9.28  0.002295274    2.585    0.613
        14 -10.5973    144.9910     11.4853   2.2856655901e+01   4.5980174892e+01    0.1876591    0.1545142  87.74 0.0006921091    1.094    0.086
        15 -11.1287    145.3719      8.1747   2.2039150698e+01   4.6218753689e+01    0.2731848    0.2029875 -54.34  0.001219801    1.351    0.260
        16 -10.9450    119.4649     11.4057   2.5997067439e+01   5.1432403893e+01    0.2236713    0.2074903  41.01  0.001087464    1.391    0.281
        17 -10.0205     27.1440     11.3601   5.1127050504e+01   7.0414593543e+01    0.2438885    0.1295305 -15.12  0.001234564    2.760    0.638
        18 -10.6790    176.0124     10.8221   1.9817255081e+01   3.9787028127e+01    0.2499295    0.1322714 -64.87  0.001563126    1.644    0.392
        19 -11.2307    234.1979      9.4282   1.5877620009e+01   2.9660609075e+01    0.2073469    0.0951995 -67.95  0.001170143    1.704    0.413
        20 -10.6478    159.8987      8.8237   2.0775333355e+01   4.3175379697e+01    0.2098026    0.1188326 -83.26 0.0004410668    1.557    0.358
        21 -10.8612    154.1481      8.3010   2.1195209387e+01   4.4394753633e+01    0.2765243     0.159304  83.44  0.001645515    1.439    0.305
        22 -10.7724     82.0884      7.0753   3.1169122970e+01   5.9947589728e+01     0.172455    0.1511642  55.93 0.0003634799    1.143    0.125
        23 -10.0793     36.5180      7.6724   4.5137278176e+01   6.9153387120e+01    0.2411108     0.167631  65.85   0.00146507    1.788    0.441
        24 -10.8607     26.7827      2.2516   4.6845419548e+01   7.1422813006e+01    0.2911159    0.1712521  47.58  0.001295666    1.410    0.291
        25 -10.8393    223.0186      5.5116   1.5816202115e+01   3.1877225360e+01    0.1822623    0.1200663 -47.21  0.001069343    1.460    0.315
        26 -11.2337    164.7881      5.0173   1.9535345408e+01   4.2561900773e+01    0.2186209    0.1393587 -65.14 0.0004627561    1.333    0.250
        27 -11.6713    168.1763      2.0151   1.8636878702e+01   4.2174407042e+01    0.1941477    0.1320946 -87.82 0.0002785055    1.136    0.120
        28 -10.7076     16.6041      3.1790   5.2561506188e+01   7.3017906413e+01     0.345893    0.1570035 -31.36  0.001893476    2.598    0.615
        29 -11.0045     11.1895      2.2607   5.5234084028e+01   7.3941796854e+01    0.3223518    0.1598884  32.02  0.001826186    1.645    0.392
        30 -10.8706    229.8951      2.5528   1.4999592814e+01   3.1053727368e+01    0.2673611    0.1144001 -37.21  0.001103905    2.445    0.591
        31 -10.6666    125.8535      3.6482   2.3105210541e+01   5.0755583977e+01    0.2522994    0.1950493 -15.93  0.001748552    1.863    0.463
        32  -9.5930     68.5512      5.4845   3.3740562266e+01   6.2970284473e+01    0.1195423   0.09474274  57.51 0.0002119319    1.014    0.014
        33 -10.8626    178.9827      3.8829   1.8207685482e+01   3.9901104259e+01    0.1614095    0.1214075 -69.42 0.0002687677    1.110    0.099
        34 -11.4593    242.5630      3.0638   1.4503869821e+01   2.9008491241e+01    0.2208498    0.1110041  77.37  0.001017281    1.942    0.485
        35  -9.7030    113.8885      3.1645   2.4511727205e+01   5.3373302362e+01    0.1570983    0.1102264  61.10  0.000525734    1.295    0.228
        36  -9.5497     98.0075      3.3444   2.6960470893e+01   5.6807613081e+01    0.1610738    0.1208078  71.08 0.0003888951    1.053    0.051
        37  -9.7887     91.0004      2.2470   2.7825201822e+01   5.8418912592e+01    0.1553631    0.1237216  72.69 0.0001905431    1.023    0.023
        38 -10.3745    141.0439      1.7581   2.0967854021e+01   4.7706784256e+01    0.1675607    0.1154669 -86.14 0.0003149385    1.173    0.148
        39 -10.2255     22.5792      2.2720   4.8908369407e+01   7.2139904636e+01    0.2110096    0.1740192 -38.58  0.001518875    1.649    0.394
        40 -10.0083    244.6557    188.2864   4.3983355284e+01   2.4990700558e+00   0.09834951   0.07917011 -62.33 0.0002742128    1.647    0.393
        41  -9.4836    109.9693    250.2476   7.9637701671e+01   6.0240083646e+00    0.1740164    0.1010415  23.54 0.0005128287    1.532    0.347
        42 -12.3112     21.1010    248.3048   1.0141802869e+02   1.6003119315e+01    0.7081376    0.2137517  38.01  0.002855457    2.543    0.607
        43 -11.1655      5.4938    244.3517   1.0498089670e+02   1.8280919324e+01    0.3286683    0.2408712  49.64  0.001041107    1.192    0.161
        44 -10.9470      7.1383    248.8731   1.0482598342e+02   1.7116771885e+01    0.2926548    0.2131707 -73.56 0.0009614057    1.455    0.313
        45 -11.5416     10.4459    248.5009   1.0401378047e+02   1.6915354784e+01    0.4813914    0.1989476  43.37  0.001861893    2.025    0.506
        46 -10.1376     61.8400    184.3471   8.3664633402e+01   2.7618252613e+01    0.2637551    0.2078918 -79.53  0.001290411    1.381    0.276
        47 -11.9149     16.1857    181.9498   9.7534269402e+01   3.3153592577e+01    0.4390129    0.2939298  55.12  0.001867364    1.546    0.353
        48  -9.8494    244.0000    179.9426   4.2770048405e+01   3.9041423537e+00     0.192081   0.04823789 -45.38 0.0008052202    2.962    0.662
        49  -9.8996      1.4766    180.4799   1.0194290106e+02   3.4687943839e+01    0.1392699    0.1295565 -70.68 0.0008092264    1.057    0.054
        50  -9.8305     96.6577    177.6639   7.2323807514e+01   2.4489072531e+01    0.1644427    0.1132492 -21.65 0.0007050317    1.763    0.433
        51 -11.0116     23.2775    180.2884   9.5148735938e+01   3.2978663895e+01    0.4388542    0.2058173  50.89  0.001608229    2.371    0.578
        52  -9.7019     54.3853    175.8243   8.4730465934e+01   3.0834427008e+01    0.2163163    0.1324365 -52.71 0.0006715356    1.596    0.374
        53 -10.1208    172.3084    175.6530   5.3780120845e+01   1.3491717575e+01     0.129365    0.1054172 -82.25 0.0004590244    1.704    0.413
        54 -10.8523     18.2636    173.0280   9.5971496989e+01   3.5413041334e+01     0.273286    0.1693064  39.89  0.001245704    1.615    0.381
        55  -9.9944    248.3096    168.6901   4.0439707535e+01   5.2599926102e+00    0.1031756   0.07450902 -61.16 0.0003479944    1.621    0.383
        56 -10.3121     67.8028    165.9448   7.8926406900e+01   3.1726407302e+01    0.2540032    0.1768111  78.95 0.0007827559    1.920    0.479
        57  -9.6781    186.4994    165.5071   4.9265289142e+01   1.3476162935e+01    0.1312409    0.1115381 -38.82 0.0008106529    1.004    0.004
        58  -9.8743     36.5265    165.5283   8.9058265447e+01   3.5711441713e+01     0.148042    0.1452167 -61.83 0.0001223334    1.000    0.000
        59 -10.8171     50.9811    161.9384   8.3719444555e+01   3.5021312018e+01    0.4915499    0.2261667 -64.40   0.00163332    2.153    0.536
        60 -11.1319      7.4810    163.8078   9.8551786859e+01   3.8806899289e+01     0.292319    0.2122092 -19.07  0.001106656    1.551    0.355
        61  -9.7712    132.5044    161.5361   5.9842905668e+01   2.2678604835e+01     0.147092    0.1363691 -28.20 6.101661e-05    1.043    0.041
        62 -10.1760     67.0597    157.7556   7.7742271237e+01   3.4008873230e+01    0.2229947    0.1993486  49.07 0.0003403097    1.164    0.141
        63 -10.4104     20.4102    157.5575   9.3478044530e+01   3.9489837048e+01    0.3421626    0.2447864  -9.19  0.001543263    1.586    0.369
        64 -11.3747     24.8605    154.8872   9.1592478371e+01   3.9821300438e+01    0.6221499    0.2786648  19.53  0.002397589    2.305    0.566
        65 -10.2989    247.0000    156.9743   3.8749690559e+01   7.2775968115e+00    0.1943387   0.04771946 -45.29 0.0008096348    2.993    0.666
        66 -10.2818    216.4585    154.4677   4.2436683523e+01   1.1410245398e+01    0.1214485   0.09662779 -45.71 0.0001039129    1.037    0.036
        67  -9.9228     40.8608    152.9399   8.5734915167e+01   3.8686604716e+01    0.2311941    0.1889468 -45.21 0.0005958731    1.205    0.170
        68 -10.0296     11.1606    153.1180   9.6158676200e+01   4.1475528743e+01    0.3955695    0.1183237  29.20  0.001353413    3.023    0.669
        69 -10.3532    158.5233    153.9504   5.2494457169e+01   2.0068754170e+01    0.2621212    0.1984907  14.49  0.001373536    1.650    0.394
        70  -9.8146    143.7417    148.3514   5.4578659770e+01   2.3730328610e+01    0.1413059    0.1107521 -80.35 0.0006968418    1.606    0.377
        71 -11.1805     13.8813    147.9183   9.4575986784e+01   4.2695156930e+01    0.2312608    0.2223971  47.52 0.0002613901    1.092    0.084
        72  -9.9876    234.0000    146.9626   3.8756939142e+01   1.0445840614e+01      0.19595   0.05106631 -45.39 0.0007990429    2.919    0.657
        73 -10.2991      7.6229    145.8060   9.6570045058e+01   4.3745200180e+01    0.2104396    0.1304105  89.99 0.0009446681    1.746    0.427
        74 -10.4328    216.9752    145.2091   4.0756759696e+01   1.2957240267e+01    0.1774907    0.1314554  -7.57 0.0008283551    1.965    0.491
        75  -9.5970     14.1594    140.1528   9.3475023206e+01   4.4802082608e+01    0.2014586    0.1647001  53.91 0.0002576892    1.325    0.245
        76 -10.1694     65.3116    139.0322   7.4786179649e+01   3.9194704983e+01    0.2172415    0.1910294 -54.56 0.0004487334    1.132    0.116
        77 -10.2088    236.2633    138.0063   3.6984620816e+01   1.1632298060e+01    0.1628191    0.1188188 -47.20 0.0007818734    1.037    0.036
        78  -9.6549    144.3690    136.8315   5.2061869738e+01   2.6098495032e+01     0.204889    0.1235544 -39.13  0.000436797    1.699    0.411
        79 -13.3655     37.4378    134.8172   8.3949978451e+01   4.3994636212e+01    0.6970719    0.3710524 -63.64  0.001051944    1.837    0.456
        80 -10.5114      2.8805    135.9393   9.7155551793e+01   4.6754264789e+01    0.3850592    0.1875253 -66.88  0.001537955    1.826    0.452
        81  -9.7486     20.6414    134.7550   9.0272282973e+01   4.5724022395e+01    0.2080051    0.1370261 -82.11 0.0006975455    1.661    0.398
        82 -11.8225    241.8022    133.3575   3.5555561972e+01   1.1680561018e+01    0.2678657    0.1456974 -32.26   0.00152903    2.082    0.520
        83 -10.2144     59.0259    131.3164   7.5402126037e+01   4.2116073246e+01    0.2121299    0.1980818  13.27 0.0002811571    1.066    0.062
        84 -11.1971      4.3738    130.4487   9.5911588642e+01   4.8143489698e+01    0.2924334    0.2202791 -36.08 0.0008440954    1.295    0.228
        85 -10.7725     73.4025    129.0056   6.9948130251e+01   4.0500070236e+01    0.3020534     0.225995  36.55 0.0007175477    1.326    0.246
        86 -10.6641     53.4144    132.1614   7.7580417235e+01   4.2686930918e+01    0.3072223    0.1899035  45.40  0.001312722    1.749    0.428
        87 -10.8307     56.2607    126.9228   7.5479568430e+01   4.3644983021e+01    0.3073978    0.2156452  18.11 0.0006212126    1.503    0.335
        88 -10.9077     23.5330    126.4776   8.7835801141e+01   4.7683365412e+01    0.3182288     0.141589  20.98  0.001234555    2.267    0.559
        89 -11.7541      4.2960    123.4222   9.5014709849e+01   5.0030855599e+01    0.4488109    0.2336972 -63.83  0.001942441    1.711    0.416
        90 -12.1072      9.9250    121.2165   9.2431527759e+01   5.0229302279e+01    0.5799477    0.3461233  83.72  0.001651758    2.157    0.536
        91 -10.9042     15.9843    125.4936   9.0658179034e+01   4.8617554070e+01    0.3937898    0.1814012  25.26  0.001295263    2.147    0.534
        92 -11.1694     19.9772    122.2183   8.8533133897e+01   4.9143052431e+01    0.3560156     0.199262 -61.80 0.0009563307    1.665    0.400
        93 -10.0861     30.5178    124.5241   8.4750233953e+01   4.7498316312e+01    0.1467176    0.1413599 -32.27 4.217143e-05    1.020    0.020
        94 -10.3004     69.2916    121.6951   6.9716666618e+01   4.2976307416e+01    0.3783267    0.2226281  17.65  0.001511939    2.091    0.522
        95  -9.8893     56.4771    120.9820   7.4126110149e+01   4.5124107452e+01    0.2096901    0.1357262  87.34 0.0008094644    2.482    0.597
        96 -10.8017      1.4203    118.5426   9.5509991243e+01   5.1501730543e+01    0.2591764     0.127588 -69.81 0.0001050985    1.889    0.471
        97 -11.2984    249.7331    117.4133   3.2095231367e+01   1.3162852231e+01     0.210156   0.09717795 -51.34 0.0007703977    1.662    0.398
        98  -9.7840     72.3443    116.3417   6.7425270460e+01   4.3776161070e+01    0.3083605    0.1933099 -81.34  0.001036481    2.623    0.619
        99 -12.1185     24.9956    106.8864   8.3613498390e+01   5.2626326483e+01    0.8096181    0.3357957   2.53    0.0024991    4.051    0.753
       100 -12.2709     16.2260    115.2348   8.8877481970e+01   5.1303928872e+01    0.6070334    0.2687342  34.37  0.002438945    2.306    0.566
       101 -12.9229     14.6844    110.5235   8.8702513235e+01   5.2652649613e+01    0.6326253    0.5356602  28.41  0.002483007    1.245    0.197
       102 -10.4743    182.5188    114.4596   4.0219005693e+01   2.3743718055e+01    0.2214814     0.192146 -68.05 0.0005692878    1.077    0.072
       103 -10.1472     52.0684    114.2999   7.4284441629e+01   4.7431336633e+01    0.4279663    0.1728392 -67.07  0.001342681    3.524    0.716
       104  -9.9425    105.5186    114.5401   5.6689556849e+01   3.8186453619e+01    0.1452183    0.1437934  75.26 9.274144e-05    1.009    0.009
       105 -11.7514    248.2187    112.1610   3.1403700075e+01   1.4157073021e+01    0.2795201    0.1810111  39.16  0.001870391    2.484    0.597
       106 -11.2394     31.3132    108.9071   8.1372475625e+01   5.1440550404e+01    0.3772452    0.2591935  89.73  0.001711266    1.983    0.496
       107 -10.7603      3.6435    107.9381   9.3011933900e+01   5.4125695880e+01    0.2597473    0.1935608  22.20 0.0006657054    1.406    0.289
       108 -10.8420     55.2435    109.7313   7.2022722246e+01   4.8085987833e+01    0.2695326    0.2415728 -20.08 0.0006286861    1.122    0.109
       109  -9.6887    111.8187    105.8615   5.2880434809e+01   3.8817764809e+01    0.1865358    0.1597269  73.33            0    1.251    0.201
       110  -9.9654     53.6313    105.3045   7.1576301687e+01   4.9389803038e+01    0.1549874    0.1126967  60.89 0.0007034394    1.749    0.428
       111 -11.6038     22.9382    100.0759   8.3085926624e+01   5.4529283738e+01    0.6699633    0.2353145  41.64  0.002255145    3.449    0.710
       112 -11.1033     61.8168     98.3189   6.6715272081e+01   4.9725162845e+01    0.4567638    0.2676302 -52.51  0.001894804    1.761    0.432
       113 -11.1379     32.9740     97.5987   7.8154875080e+01   5.4025082802e+01     0.518589    0.3154144  73.64  0.001986238    3.111    0.679
       114  -9.8818      9.5740     99.0530   8.8852887133e+01   5.5960815232e+01    0.1927566    0.1315164 -65.48 0.0002840981    1.456    0.313
       115 -11.4336     15.3974     96.9283   8.5797802665e+01   5.6010992443e+01    0.3598076    0.2108185 -35.53  0.001121496    1.678    0.404
       116  -9.8064     67.1458     97.6475   6.4590252724e+01   4.8980694543e+01    0.2052561    0.1346222  24.35 0.0003641103    1.636    0.389
       117 -10.2046      1.4994     93.4793   9.1545222723e+01   5.7892472207e+01    0.2393662   0.09962949 -54.41 0.0007252356    2.014    0.504
       118 -10.6795    249.6086     91.2467   2.7901057332e+01   1.7062352937e+01    0.1466476   0.07971765 -41.52 0.0005710865    1.605    0.377
       119 -10.2571    231.5213     91.4922   2.9667529969e+01   1.9609525463e+01    0.1127941   0.08433763 -58.20 3.669659e-06    1.011    0.011
       120 -10.0794     56.4009     90.5721   6.6713404559e+01   5.2330726556e+01    0.2627535    0.1693982 -46.18 0.0006831145    1.588    0.370
       121 -11.3714     10.4717     90.8406   8.6821183933e+01   5.7901798732e+01    0.2725668    0.2111469  -2.95 0.0003564411    1.254    0.202
       122 -10.5388    159.4875     89.7521   3.8852761279e+01   3.2361036079e+01    0.2704453    0.2202941  36.71  0.001586753    1.583    0.368
       123  -9.7365     49.1430     90.1333   6.9477758625e+01   5.3560409499e+01    0.1849231    0.1635075  50.51 0.0002766976    1.247    0.198
       124 -10.7854     22.3293     87.6502   8.0554784573e+01   5.7568216255e+01    0.5036618    0.2645187 -76.84  0.001976674    2.945    0.660
       125 -10.6019     21.6776     83.3474   7.9811542728e+01   5.8628274305e+01    0.2140267    0.1695716  80.53 0.0006453702    1.743    0.426
       126 -10.1540     83.3517     88.7350   5.6672954121e+01   4.7918615052e+01    0.2319711    0.1764705  16.56 0.0009331146    1.595    0.373
       127  -9.0001     94.3207     88.6600   5.3302140556e+01   4.5784684672e+01    0.1475904    0.1125328  85.13 0.0004266522    1.717    0.417
       128 -10.9901    107.3679     84.8226   4.8679096784e+01   4.3870119624e+01    0.2725217    0.2173028  71.05 0.0003845099    1.334    0.250
       129  -9.8300     65.2826     86.1657   6.2140897948e+01   5.1776165269e+01    0.2307364    0.1796003 -26.12  0.001182967    1.438    0.304
       130 -11.4417     30.5355     82.2471   7.5400676292e+01   5.7867678187e+01    0.4939153    0.2541436 -50.97  0.001736032    1.902    0.474
       131 -10.2277    247.3015     84.6491   2.7044205336e+01   1.8324335986e+01    0.1121451    0.0607782 -63.63 0.0007038793    1.696    0.411
       132  -9.3105      9.2380     85.6599   8.6316841726e+01   5.9234178050e+01    0.1263251     0.104245  67.64 0.0002630214    1.551    0.355
       133 -10.3868     76.8548     82.1896   5.6958768821e+01   5.0465369072e+01    0.3389603    0.1810344  50.62  0.001183945    1.956    0.489
       134 -10.3561     42.1874     81.1883   6.9928060397e+01   5.6541248697e+01    0.3174451    0.1899687 -85.16  0.001082878    4.251    0.765
       135 -10.9061      7.2853     81.4549   8.6356972113e+01   6.0369410114e+01    0.3347269    0.2156216 -32.71  0.001736342    1.450    0.310
       136  -9.4816    138.3275     78.5057   4.0105367741e+01   3.8544847465e+01    0.1297389    0.1167327 -69.60 -0.0001933046    1.067    0.063
       137 -10.3042     18.5369     77.9400   7.9960110843e+01   6.0171905379e+01    0.2820951    0.1455512 -43.37  0.001293731    1.839    0.456
       138 -11.4663     21.9717     74.8000   7.7452330404e+01   6.0501156330e+01    0.2733744    0.2075243 -27.74  0.001246541    1.262    0.207
       139  -9.6604      2.9730     78.0387   8.7775551068e+01   6.1470818223e+01     0.163583    0.1336796 -47.66  0.000383231    1.157    0.135
       140 -10.5459     99.8212     76.1905   4.8333723101e+01   4.7004152815e+01    0.2631178    0.1866329 -59.23   0.00133929    1.591    0.371
       141 -10.7389     37.9923     76.0688   7.0305270243e+01   5.8223696688e+01    0.3991338    0.2232843 -19.90  0.001608429    2.655    0.623
       142 -11.9669    167.7495     73.4482   3.3972975220e+01   3.3413091017e+01    0.2259931    0.1823457 -69.66 0.0002902854    1.091    0.083
       143 -10.3441     44.4083     74.3474   6.6987111789e+01   5.7642279037e+01    0.2505244    0.1551811  36.02 0.0002892003    1.525    0.344
       144 -14.1498     16.7323     67.2850   7.8004074313e+01   6.2666531606e+01    0.5429891    0.4133057 -26.05  0.001171837    1.231    0.188
       145  -9.8468      1.6178     73.1823   8.7397337003e+01   6.2667946325e+01    0.2334447    0.1555679 -33.02  0.001270665    1.348    0.258
       146 -11.1018      6.8563     73.4534   8.4731173898e+01   6.2224635874e+01     0.377551    0.1944998  11.32  0.001149018    1.919    0.479
       147 -10.0222     69.0408     70.9373   5.6312665864e+01   5.4087461582e+01    0.2262883    0.1684441   8.44 0.0006399984    1.713    0.416
       148 -11.3683     50.2599     68.2074   6.2637164169e+01   5.7925420450e+01    0.2628325    0.2168444 -17.18 0.0005288825    1.289    0.224
       149 -10.5750      6.7086     68.6034   8.3610450749e+01   6.3305484250e+01    0.2553587    0.2280745  70.29  0.001092776    1.472    0.321
       150 -11.7358      3.0795     63.6664   8.4308509952e+01   6.4651604773e+01     0.380523    0.3342856 -75.52  0.001596338    1.423    0.297
       151 -11.4581    122.7073     67.3667   4.0462809533e+01   4.3660399135e+01    0.2355642     0.207397 -82.82 0.0002672004    1.096    0.088
       152 -12.4555    146.9541     65.5747   3.5452725519e+01   3.8825842512e+01    0.2471162    0.2079615 -74.94 0.0003412954    1.083    0.077
       153 -12.0965     30.4598     63.8059   7.0100686659e+01   6.1748001039e+01    0.5741342    0.3558361  31.08  0.001342658    1.499    0.333
       154 -11.2965     28.9520     61.0000   6.9943398793e+01   6.2496450412e+01    0.5119113    0.2100103  23.52  0.001204615    2.561    0.609
       155  -9.3235     93.5913     66.5154   4.7281560016e+01   4.9971572302e+01    0.1350175    0.1253788  62.64 9.426208e-05    1.023    0.023
       156 -12.7788    231.9790     58.6972   2.4066880031e+01   2.4173051862e+01    0.5807539    0.1976883 -57.28  0.002873329    2.740    0.635
       157  -9.9356    110.2061     64.5108   4.2474600404e+01   4.6786121909e+01    0.2547951    0.1635247 -78.31  0.001162589    2.294    0.564
       158 -10.0601     81.3176     64.9166   5.0403830113e+01   5.2759483761e+01    0.2861927    0.1706029  54.40 0.0009879896    1.655    0.396
       159 -10.0709     61.9507     64.0592   5.6727640835e+01   5.6650136422e+01    0.2029528    0.1555935   7.82 0.0002959873    1.550    0.355
       160  -9.4111    209.9742     63.2620   2.6837961366e+01   2.7153362981e+01    0.1220291    0.0878473  81.54 0.0002627777    1.389    0.280
       161 -10.5300    202.0432     62.4335   2.7487104492e+01   2.8645130676e+01    0.1759077     0.132659 -50.72  0.001220022    1.240    0.194
       162 -10.1885    155.7607     62.7694   3.3393597083e+01   3.7434447106e+01    0.2167298    0.1473363 -43.68  0.001232446    1.496    0.332
       163 -10.6301     52.3123     62.2102   5.9874248638e+01   5.8693812421e+01    0.3137837    0.2181475  -0.23  0.001545756    1.909    0.476
       164 -11.5200     46.4428     60.6632   6.1807659640e+01   5.9958719178e+01    0.3361663    0.2429731  -7.63 1.192378e-05    1.672    0.402
       165 -12.1221     11.7987     58.5278   7.8080851046e+01   6.4966311690e+01    0.6009246    0.5349302 -18.47  0.002010576    1.092    0.084
       166 -13.3953     12.5974     47.7037   7.4186594426e+01   6.6981430559e+01    0.5458165    0.4340514 -16.48 0.0005838844    1.138    0.122
       167 -12.4266      3.5097     49.7812   8.0141233498e+01   6.7456816791e+01    0.9025351    0.4483012 -51.63  0.004599633    1.951    0.488
       168  -9.7565      7.0501     41.2165   7.5194384752e+01   6.8741337054e+01    0.2305115    0.1922041  -2.30  0.001093722    1.030    0.029
       169 -10.2193    150.5613     60.9602   3.3781658785e+01   3.8769755446e+01    0.1827179    0.1525396  84.16 7.933962e-05    1.077    0.072
       170  -9.8985     90.0403     61.0283   4.6647257252e+01   5.1612374203e+01    0.2020533    0.1565543  85.07 0.0003713251    1.574    0.365
       171  -9.6222    109.3921     60.3804   4.1518157898e+01   4.7608425766e+01    0.1302204     0.117157  66.82 6.887431e-05    1.025    0.024
       172 -10.7884    135.7668     58.4359   3.5647873189e+01   4.2244889824e+01    0.3423647    0.1998517  76.81  0.001694395    1.910    0.476
       173 -10.1741    127.1691     58.8547   3.7346748926e+01   4.4018744813e+01     0.186087    0.1559427 -88.67 0.0002484548    1.130    0.115
       174 -10.4478     58.2824     58.7235   5.6373434380e+01   5.8252160352e+01    0.3015382    0.2234685  22.58 0.0009362202    1.398    0.285
       175 -10.8895     79.8909     56.8938   4.8353826061e+01   5.4366510863e+01     0.357692    0.2544726  11.69  0.001604701    2.065    0.516
       176 -10.0169    177.1822     56.0179   2.9005210850e+01   3.4139662317e+01    0.1613998    0.1484828 -75.26 0.0004267145    1.235    0.190
       177 -10.5113    247.2598    249.5957   5.2675735277e+01  -7.0183215986e+00    0.1315568   0.07958072  -2.66  0.000683494    1.567    0.362
       178 -11.7059     45.1371     38.1176   5.4326622121e+01   6.3875903213e+01    0.2612894    0.2574041 -15.72            0    1.237    0.192
       179  -9.3806    145.9426     54.0560   3.2877790149e+01   4.0725122265e+01    0.1480978    0.1246602  87.90 0.0003072589    1.034    0.033
       180 -12.5035    105.0442     52.5592   4.0307840726e+01   4.9714751463e+01    0.2523463     0.228637  69.81 0.0003453089    1.026    0.026
       181 -10.1628     27.5738     53.7863   6.8244747817e+01   6.4041780785e+01    0.2460364    0.1641495  24.04 0.0008671518    1.353    0.261
       182 -11.4093    129.0668     49.9201   3.4680209774e+01   4.4890983593e+01    0.3660555    0.2134281  51.46  0.001335601    1.723    0.420
       183  -9.6526     89.9492     50.4800   4.3455561972e+01   5.3248794332e+01    0.2051367    0.1179796  54.25  0.001001638    1.548    0.354
       184 -10.5515     52.4960     49.0233   5.5313712931e+01   6.0903149120e+01    0.2588344    0.2155118   8.27 0.0007641664    1.257    0.204
       185 -10.3357     50.8149     44.2832   5.4286441745e+01   6.1944813870e+01    0.3405896    0.1907965 -53.31  0.001619073    2.495    0.599
       186  -9.9050    164.0341     48.2923   2.8987152985e+01   3.7789702474e+01     0.166391    0.1333088 -86.54 0.0003671104    1.061    0.058
       187  -9.6681     62.0376     47.4609   5.1151844922e+01   5.9370590321e+01    0.1921134    0.1159949  44.69  0.000358204    1.454    0.312
       188 -10.9549    121.8790     43.8771   3.4394664972e+01   4.7259566940e+01    0.3049159    0.1872226 -33.64  0.001528262    1.937    0.484
       189 -11.3813    112.3598     45.4051   3.6670533475e+01   4.9126859310e+01    0.2240361    0.1982457  63.63 0.0003223507    1.092    0.085
       190  -9.3514    104.4996     46.4690   3.8666940966e+01   5.0690776939e+01    0.1304121    0.1139183  68.49 3.147846e-05    1.002    0.002
       191 -10.1071    153.2424     45.1532   2.9710510598e+01   4.0411243352e+01    0.1965427    0.1390448  66.91 0.0005121301    1.327    0.246
       192 -10.1005    142.4086     45.3724   3.1331714433e+01   4.2652653965e+01    0.2911711    0.1107367  69.04  0.001119738    2.745    0.636
       193 -10.4813     23.9268     42.2090   6.5986021585e+01   6.6571919552e+01    0.4804751    0.1725025 -48.67  0.001251812    3.151    0.683
       194 -12.8127     27.6312     37.6770   6.2320238188e+01   6.6784647989e+01    0.2618492    0.2247949  17.00  0.000406614    1.054    0.051
       195 -11.4036     24.4759     34.5766   6.2730566175e+01   6.7727706835e+01    0.2470548    0.1843626   8.66 0.0006248174    1.256    0.204
       196 -10.8252     97.3916     41.5595   3.8842232976e+01   5.2889431971e+01    0.3409113    0.2149786  30.04 0.0008477668    2.267    0.559
       197 -10.0820     55.7756     43.1979   5.1953180881e+01   6.1196510824e+01    0.2529389    0.2087131  70.91  0.001503765    1.521    0.342
       198 -12.0211     57.1523     34.8335   4.8367940265e+01   6.2112334330e+01    0.4534465    0.2994245  15.88  0.002369001    2.034    0.508
       199  -9.5786     34.4713     43.4800   6.1165141837e+01   6.4822632144e+01    0.1308887     0.109904  15.96 0.0002222231    1.038    0.037
       200 -10.6676    161.1149     41.8558   2.7930828102e+01   3.9220319784e+01    0.4511829    0.1545423  68.90  0.001955341    2.888    0.654
       201 -10.1246    131.0861     41.8260   3.2244828442e+01   4.5533681530e+01    0.1902304    0.1469498 -84.54 0.0004909827    1.222    0.182
       202 -10.6754     89.2279     41.4000   4.0804875272e+01   5.4666842977e+01    0.2600654    0.2055276  81.93  0.001116531    1.369    0.270
       203 -11.0780     83.5329     36.4636   4.0707607608e+01   5.6521605322e+01    0.3758661    0.2693441 -35.33  0.001728756    1.630    0.386
       204  -9.5555    186.7344     41.3189   2.4961165690e+01   3.4259576703e+01    0.1173179   0.06832974 -67.30 0.0001610829    1.554    0.357
       205 -10.2788     78.2766     41.1052   4.3711375552e+01   5.7019311589e+01     0.169065    0.1592174  71.31 0.0003688975    1.119    0.106
       206 -10.4171    236.0308     40.0068   2.0673959476e+01   2.5913690896e+01    0.1263847    0.1194314 -64.63 0.0004828264    1.601    0.376
       207 -10.8740    226.3213     39.6923   2.1300928336e+01   2.7501694890e+01    0.2183742    0.1105365 -40.52  0.001387828    1.904    0.475
       208 -10.8808    109.6658     38.2658   3.5192635115e+01   5.0641644060e+01    0.2487457    0.1877261 -45.77 0.0009945785    1.459    0.315
       209 -12.2012    111.3111     34.7908   3.3875323250e+01   5.0710393438e+01    0.2705054    0.1959756  60.60 0.0003766933    1.213    0.175
       210 -10.9060     44.9370     44.1706   5.6685946233e+01   6.2997644014e+01    0.3707498     0.231874 -65.85  0.001660377    3.154    0.683
       211  -9.5373    156.3183     37.6841   2.7593349780e+01   4.0725992054e+01    0.2406492    0.1134928  50.15  0.001170021    2.631    0.620
       212 -10.2354      1.3582     37.1340   7.7282413981e+01   7.0010561601e+01    0.2293334     0.108276 -51.88 0.0009456978    2.188    0.543
       213 -11.5072    248.0322     36.4386   1.9340243209e+01   2.4509375604e+01    0.1816965    0.1246934 -66.42 0.0002446859    1.040    0.038
       214 -11.1071     65.0006     36.7743   4.6349561130e+01   6.0311977967e+01    0.1866075    0.1750121  35.29 0.0002633096    1.103    0.093
       215 -12.1316    241.1740     34.6479   1.9478944943e+01   2.5759007115e+01    0.3133961    0.1782213  60.64  0.001303625    2.333    0.571
       216  -9.9456     97.3130     36.1210   3.7201333981e+01   5.3600948366e+01    0.1666342    0.1501096 -89.29 0.0004538913    1.133    0.117
       217 -11.1653     75.0666     35.3032   4.2686118604e+01   5.8449471642e+01    0.3885705    0.2460047  38.08  0.001360953    1.598    0.374
       218 -10.2189     73.2240     31.7834   4.2006554911e+01   5.9272491143e+01    0.2171041    0.1890312  49.39 0.0006672058    1.037    0.036
       219  -9.9718    193.3532     33.7300   2.2859403843e+01   3.3957396497e+01    0.2629912   0.09197332 -51.77  0.001327872    2.414    0.586
       220 -10.5524      9.4949     34.4690   7.1215986480e+01   6.9659395781e+01    0.2583248    0.1852336  16.14  0.001611018    1.190    0.159
       221 -10.9548      7.4038     30.5545   7.0965019522e+01   7.0538687333e+01    0.3519019    0.2786479  59.15  0.001514452    2.076    0.518
       222 -10.6071     15.5567     31.9632   6.6615395507e+01   6.9345627297e+01    0.3720397    0.1935121 -15.79  0.001649085    2.942    0.660
       223 -10.8332     19.1835     30.9001   6.4111564663e+01   6.9033959151e+01    0.2757351    0.2003581  13.31 0.0008018675    1.212    0.175
       224 -10.1400    231.1678     33.8580   1.9992853816e+01   2.7421730854e+01    0.1238867    0.1045213 -71.07 0.0004939912    1.309    0.236
       225  -9.9504    146.2117     33.8163   2.8004607342e+01   4.3301245807e+01    0.1405612    0.1326072  68.88 0.0002846304    1.311    0.237
       226 -10.4606    122.9443     33.3152   3.1371114105e+01   4.8349300290e+01    0.2585142    0.1565233  58.16  0.001459994    1.493    0.330
       227  -9.3985    221.4976     31.5560   2.0262706559e+01   2.9272862920e+01    0.1068571   0.07374872 -68.26 4.020141e-05    1.054    0.052
       228  -9.7089      1.4794     31.4153   7.5098134056e+01   7.0998878993e+01    0.1225339   0.09664901  -1.52 4.446795e-05    1.017    0.017
       229 -10.9947    156.8698     28.1126   2.5360477510e+01   4.1751508376e+01    0.2150984    0.1571913 -84.55 0.0003396699    1.151    0.131
       230 -10.9684    160.1782     24.7668   2.4245534937e+01   4.1453079171e+01    0.2342098    0.1726803 -52.84  0.001052685    1.326    0.246
       231 -10.1444    101.3519     28.3393   3.3962927103e+01   5.3643259909e+01    0.2238758    0.1445525 -75.08 0.0009143829    1.953    0.488
       232  -9.9122     12.0036     29.2890   6.7619311904e+01   7.0209465204e+01    0.1665281    0.1257513  14.28 0.0003046555    1.094    0.086
       233 -11.4794    248.0046     26.3936   1.7792397676e+01   2.5677910772e+01    0.2221571    0.1048686 -56.60 0.0007994872    1.483    0.326
       234 -10.6999    198.6461     28.3900   2.1404128608e+01   3.3618909812e+01    0.2026434   0.08951978  80.40  0.001136186    2.221    0.550
       235 -10.9967    224.5537    248.2152   5.6037700688e+01  -5.1051056760e+00     0.276041   0.08026845 -42.91  0.001320274    2.680    0.627
       236 -11.2871    112.3769     26.8997   3.1433119048e+01   5.1392951070e+01    0.2795703    0.2239886  -1.52  0.001524296    1.843    0.458
       237  -9.8586    176.7934     26.8048   2.3000263859e+01   3.7912423808e+01    0.1552855    0.1015631 -70.83 0.0003178355    1.292    0.226
       238  -9.4387    144.7019     27.2893   2.6644060240e+01   4.4378417823e+01    0.1207359   0.07624724 -74.97 0.0003286329    1.557    0.358
       239  -9.9061     61.4524     26.9209   4.3907758267e+01   6.2264397883e+01    0.1696282    0.1255119 -28.27  0.001032834    1.610    0.379
       240 -11.3629    216.5098     25.3373   1.9538167176e+01   3.0832348956e+01    0.2002969    0.1499903  84.16 0.0002406052    1.332    0.249
       241  -9.9964     90.9213    249.1525   8.4117242681e+01   8.4286878142e+00     0.202165    0.1685286  43.73 0.0004267914    1.271    0.213
       242 -12.3064    133.0103     18.9119   2.6106796474e+01   4.7771292782e+01    0.2371718    0.1910855  77.65 0.0003590288    1.085    0.078
       243 -10.1238     79.9998     26.1984   3.8203620750e+01   5.8502706796e+01    0.2453289    0.1679642  34.80  0.001248583    1.621    0.383
       244 -10.1838     82.8738     22.0169   3.6064234923e+01   5.8345663941e+01    0.2300158    0.1570696  52.21 0.0009024162    1.251    0.201
       245  -9.5188    226.7261     25.7104   1.8933321387e+01   2.9087406575e+01   0.08097456   0.07414895 -75.92            0    1.514    0.339
       246 -10.5448     54.2315     23.4745   4.5056361367e+01   6.4098453601e+01     0.243121    0.1892647 -58.06 0.0009367986    1.751    0.429
       247  -9.3212     15.4347     13.4246   5.8419699286e+01   7.2003372645e+01    0.1807545    0.1293873  32.99 0.0002025493    1.210    0.174
       248 -10.1872     10.7837     24.7888   6.6456457773e+01   7.1051639101e+01    0.2357229    0.1440196 -21.39 0.0009380982    1.769    0.435
       249 -10.7708      6.9465     25.0005   6.8956367133e+01   7.1474287492e+01    0.5077661      0.21386  34.39  0.002516557    2.194    0.544
       250  -9.9026     83.5407    248.4866   8.5863881588e+01   9.4116117404e+00    0.2459074    0.0982476  35.10 0.0007619263    2.185    0.542
       251 -10.6220     72.8347    244.8591   8.8147661831e+01   1.1414331038e+01    0.2874745    0.1923259  21.62  0.001505731    1.357    0.263
       252 -11.8248     75.2566    239.0172   8.6891430104e+01   1.2441057763e+01    0.6278341    0.4391912 -47.14  0.003332353    1.520    0.342
       253 -10.6639     35.4815    238.0197   9.7058499912e+01   1.6989274991e+01    0.1948909    0.1324091 -75.88  0.001028539    1.579    0.367
       254 -11.9777     34.3578     22.5682   5.2771767521e+01   6.7859266091e+01    0.2513698    0.1826262  26.08 8.147187e-05    1.216    0.178
       255 -10.7267     22.2276     24.0094   5.9489373145e+01   6.9607216063e+01    0.2334679    0.1850311  25.47   0.00082088    1.071    0.066
       256 -10.5812     32.3393     15.2506   5.0459119883e+01   6.9088684236e+01    0.3984236    0.1758268  39.28    0.0020126    1.880    0.468
       257 -12.3487     28.9399     19.5991   5.4051425467e+01   6.9139405700e+01    0.3393309    0.1928609  35.60 0.0007922923    1.458    0.314
       258 -10.3970     24.3785     20.1906   5.6638420966e+01   6.9793437782e+01    0.1954464    0.1538581  29.67 0.0006277373    1.083    0.077
       259 -10.1683    195.3515    238.4583   5.9694548566e+01  -9.8089319329e-01    0.2232347    0.1291522 -44.12  0.001000807    1.594    0.373
       260 -10.4214     59.0922     21.0657   4.2449530844e+01   6.3409201409e+01    0.2297885    0.1535493  57.16 0.0004469522    1.330    0.248
       261 -10.0523     63.3221     22.3233   4.1572943842e+01   6.2414875935e+01    0.1935358    0.1560299  35.84 0.0006119878    1.190    0.159
       262 -10.7579     64.7291     19.5401   4.0091162485e+01   6.2429214496e+01     0.217677    0.1647509  61.14 0.0004718656    1.195    0.163
       263 -11.0051    249.0728     20.9949   1.6912453105e+01   2.6122125946e+01    0.1458615   0.09740974 -65.29 0.0003473507    1.010    0.010
       264 -10.7546    160.3322    235.2774   6.6146421315e+01   3.2255428845e+00    0.2326458    0.1420291   7.36 0.0009412909    1.684    0.406
       265 -11.1573    243.4032     14.0689   1.6141800789e+01   2.7733716276e+01    0.1677953    0.1097485 -82.91 0.0003579506    1.274    0.215
       266 -10.0688    193.2686     20.9743   2.0436274521e+01   3.5443266298e+01    0.1455597    0.1122322 -69.15 0.0002423255    1.094    0.086
       267 -10.8611    161.5900     20.2350   2.3101324408e+01   4.1663169363e+01    0.2329384    0.1469591 -19.41  0.001341039    2.658    0.624
       268 -10.4836    118.8818     27.5680   3.0495414707e+01   4.9897588958e+01    0.2690885    0.1343071  60.93  0.001408608    1.701    0.412
       269 -10.3811     87.0848     20.0321   3.4415925386e+01   5.7645661195e+01     0.181041      0.14713  59.48  0.001194878    1.050    0.047
       270  -9.9154     41.2052     19.1885   4.8307111857e+01   6.7058523036e+01    0.1480384    0.1376115  59.56 0.0007189691    1.302    0.232
       271 -10.5760    193.9023     16.5020   1.9545801032e+01   3.5813689815e+01    0.2318852    0.1292984 -83.98  0.001521534    1.549    0.354
       272 -10.5140    142.8885     16.8275   2.4362182693e+01   4.5887076456e+01    0.1632785    0.1312894  72.04 0.0003019761    1.203    0.169
       273  -9.5005    108.3300     17.3329   2.9394534209e+01   5.3285719120e+01    0.1214688   0.08083303  43.19 0.0007052023    1.722    0.419
       274  -9.1895     94.5080     17.4696   3.2003332545e+01   5.6292297610e+01    0.1229516   0.09964575  63.27 7.620854e-05    1.057    0.054
       275 -11.2236    233.3124     15.4096   1.6872387879e+01   2.9166466131e+01    0.1926279    0.1326837 -63.73 0.0009908251    1.072    0.067
       276 -11.0343    137.0912     15.0617   2.4626568402e+01   4.7292001825e+01    0.1919199    0.1407497 -69.17 0.0003841704    1.266    0.210
       277  -9.9471     76.5296     15.6084   3.5416213950e+01   6.0356628571e+01    0.1731657   0.09129805  54.93 0.0001058613    1.519    0.342
       278 -10.8668     30.9586    234.5750   9.7949247999e+01   1.8250554972e+01    0.3018805    0.1995608 -74.96 0.0009999557    1.597    0.374
       279 -10.3189     32.0374    230.4489   9.7333675927e+01   1.9133127615e+01    0.2063927    0.1270665  21.65 0.0007916741    1.563    0.360
       280  -9.4706      6.3379    235.2523   1.0427211202e+02   2.0325492699e+01    0.1226635   0.09612361 -26.41 0.0003504764    1.569    0.363
       281 -10.7687    249.6841     15.0800   1.5989543188e+01   2.6675211565e+01    0.1360023   0.08653443 -59.40 0.0005624872    1.107    0.097
       282  -9.9650    215.9713     16.0000   1.7968965633e+01   3.1959964703e+01    0.1552898   0.04885767  75.25 0.0008115394    3.006    0.667
       283 -10.9208    182.9724    234.0446   6.1372212626e+01   1.0161107537e+00    0.1955847    0.1590575 -16.29 0.0009292496    1.034    0.033
       284 -10.5808     60.2182     13.9146   3.9303668927e+01   6.3929266810e+01    0.1626451    0.1411054  43.78 0.0007693265    1.094    0.086
       285 -10.2968     54.0035     14.0383   4.1350379167e+01   6.5168797068e+01    0.1801934     0.144664  48.87 0.0004277718    1.027    0.027
       286  -9.8206    131.2664     13.3566   2.4925572797e+01   4.8702654936e+01    0.2663818    0.1280469  78.84  0.001408023    1.879    0.468
       287  -9.5724     24.2900    232.3063   9.9503991380e+01   1.9432935840e+01    0.1310585    0.0986926 -33.59 0.0002665753    1.574    0.365
       288 -11.5642    185.1701    228.0162   6.0026150425e+01   1.8557374120e+00    0.3752427    0.1719254 -32.62  0.001816518    2.064    0.515
       289  -9.2814     59.3293    229.3190   8.9987538296e+01   1.6510727971e+01      0.14558    0.1021056 -24.49 0.0007047536    1.686    0.407
       290 -10.5742     39.6456    229.4352   9.5235384145e+01   1.8610505016e+01    0.2731362    0.1731905  44.62  0.001364971    1.483    0.326
       291 -10.0452      3.5042    226.0241   1.0445755163e+02   2.2772220816e+01     0.194533    0.1236141 -80.16 0.0007282515    1.560    0.359
       292  -9.6502    211.6243    218.7658   5.3803819092e+01   7.4826364621e-01    0.1596776   0.09612549 -48.47 0.0008093796    1.631    0.387
       293  -9.5895    138.2997     10.6406   2.3399781745e+01   4.7468434532e+01    0.1218654   0.07051587 -69.92 0.0005179415    1.713    0.416
       294  -9.3364    107.6922     10.3187   2.7463600715e+01   5.4093593042e+01    0.1198627   0.07841405 -76.51 0.0007031747    1.636    0.389
       295 -10.9130     48.2855    218.9168   9.1878536923e+01   2.0274167563e+01    0.4422905    0.2211668  -0.61  0.001596288    3.123    0.680
       296  -9.7080    135.5433    216.5158   6.8784252885e+01   9.9544152188e+00    0.1392326    0.1227228 -12.61 0.0003412628    1.012    0.011
       297 -10.3859     29.3361    215.6335   9.6796662284e+01   2.3063909194e+01    0.2906557    0.1760008  10.56  0.001117286    1.828    0.453
       298 -10.3907     23.8417    215.8762   9.8332302252e+01   2.3527532400e+01    0.1966082    0.1486399  62.20 0.0004586742    1.311    0.237
       299 -12.5862      4.8908    208.0865   1.0296469219e+02   2.7149423025e+01    0.7104296     0.408924  87.99  0.003398568    1.767    0.434
       300 -10.8046     14.5225    215.4640   1.0084921282e+02   2.4472781049e+01    0.2255152    0.1980749  26.80 0.0006738352    1.144    0.126
       301 -12.0902     12.2413    211.0759   1.0115042122e+02   2.5784087689e+01    0.5505435    0.2678399  85.53   0.00196071    2.333    0.571
       302  -9.7548    110.3735    211.8424   7.4222995612e+01   1.4292806797e+01     0.205587    0.1222685 -43.49 0.0009371495    1.670    0.401
       303 -10.2080     20.3009    211.6366   9.8962222001e+01   2.4933320029e+01    0.1536531   0.09176886  58.30 0.0007035343    1.726    0.421
       304  -9.8753    147.4925    206.4798   6.4419767035e+01   1.0521456408e+01    0.1396504    0.1210999 -18.02 0.0008100962    1.032    0.031
       305  -9.4291     27.7141    205.3150   9.6315499208e+01   2.5872186466e+01    0.1494548   0.09797767  58.09 0.0002062544    1.583    0.368
       306 -11.0228    175.3395    202.3796   5.7829480798e+01   7.7729721681e+00    0.2464208     0.203096 -22.21 0.0004970403    1.058    0.055
       307 -10.2771     67.0928    202.7271   8.4668301623e+01   2.2167850113e+01    0.2422536    0.2045476 -85.51 0.0005305065    1.309    0.236
       308 -11.2516     20.2386    200.4988   9.8032831660e+01   2.7831149675e+01    0.5401688    0.1794484 -58.22  0.001966065    2.758    0.637
       309  -9.2897     56.3592    197.3134   8.7074292514e+01   2.4875119639e+01    0.1595203      0.10836 -26.36 0.0007043012    1.748    0.428
       310  -9.6614    134.5766    196.4945   6.5737870310e+01   1.4444419078e+01    0.1421632    0.1293519 -21.62 7.500684e-05    1.012    0.012
       311 -11.9210     15.6832    192.0665   9.8624388417e+01   3.0468658880e+01    0.4570007    0.3758571 -21.84  0.001996391    1.368    0.269
       312 -10.1994    186.5060    193.0657   5.4103514821e+01   8.1725320521e+00    0.1998686    0.1100058 -45.24 0.0009740627    1.569    0.363
       313  -9.7356    144.9051    190.2142   6.2236198922e+01   1.4359295782e+01    0.1958455     0.152468 -17.59 0.0005614011    1.320    0.242
