#   1 NUMBER                 Running object number                                     
#   2 MAG_AUTO               Kron-like elliptical aperture magnitude                    [mag]
#   3 X_IMAGE                Object position along x                                    [pixel]
#   4 Y_IMAGE                Object position along y                                    [pixel]
#   5 X_WORLD                Barycenter position along world x axis                     [deg]
#   6 Y_WORLD                Barycenter position along world y axis                     [deg]
#   7 A_WORLD                Profile RMS along major axis (world units)                 [deg]
#   8 B_WORLD                Profile RMS along minor axis (world units)                 [deg]
#   9 THETA_WORLD            Position angle (CCW/world-x)                               [deg]
#  10 FWHM_WORLD             FWHM assuming a gaussian core                              [deg]
#  11 ELONGATION             A_IMAGE/B_IMAGE                                           
#  12 ELLIPTICITY            1 - B_IMAGE/A_IMAGE                                       
         1 -14.2987     15.7724     20.4499   3.8730289922e+01   7.4584445816e+01     1.864758    0.9464294  13.99  0.008266736    2.499    0.600
         2 -14.5788      6.9874      5.0357   3.6811377129e+01   7.8379029971e+01     1.572439     1.239708  -6.73    0.0102845    1.165    0.141
         3 -13.9711     21.0626      5.4678   2.4894809966e+01   7.6273303478e+01    0.9862618    0.6535701  14.34  0.005479836    1.704    0.413
         4 -12.0582    175.9629     15.6819   3.5001746791e+02   3.9559851800e+01    0.3419938    0.2265173 -69.58  0.001089665    1.303    0.233
         5 -12.7338    167.9294     15.7581   3.5071417695e+02   4.1334482277e+01    0.3592775    0.2371583  78.85   0.00109291    1.434    0.303
         6 -12.7129     36.5744      8.2510   1.6861181090e+01   7.3079600573e+01    0.4849785    0.3191116   3.05  0.002514897    2.030    0.507
         7 -13.0648     63.1771      5.9558   4.2859580098e+00   6.7560447087e+01    0.8035526    0.3108919  65.19  0.001601832    2.435    0.589
         8 -11.4318    142.6755      7.3179   3.5063422899e+02   4.8052544177e+01    0.1394799   0.07873856 -63.49 0.0004046927    1.672    0.402
         9 -12.6577    153.5991      3.4530   3.4848571581e+02   4.5847159337e+01    0.2911891    0.2213384 -78.81  0.001321287    1.100    0.091
        10 -10.9006     82.3122    202.6533   5.3215799818e+01   2.0916863483e+01    0.1448357   0.09559518  57.63 0.0005319957    1.712    0.416
        11 -10.9689    231.4933    194.0053   2.0826690680e+01   3.6068445075e+00    0.1427475   0.08776308 -53.08  0.000810287    2.540    0.606
        12 -10.9012    186.2570    193.6706   2.8301988499e+01   8.8793738114e+00    0.2201294     0.140863 -48.24   0.00125322    1.721    0.419
        13 -11.4909     67.8719    175.5648   5.3826780703e+01   2.9170218368e+01    0.2954838    0.2466303  43.54  0.000799019    1.128    0.113
        14 -11.9997    218.8783    174.3929   1.9452053856e+01   7.9150629667e+00    0.3151274    0.2409637  24.43  0.002174462    1.460    0.315
        15 -12.3182     16.6907    163.4761   6.8326169136e+01   3.7838725010e+01    0.4704711    0.1831815  35.65  0.001905198    2.223    0.550
        16 -10.9480     19.4771    151.5471   6.6458133960e+01   4.0813650967e+01    0.1429928    0.1303799  71.65 7.198757e-05    1.005    0.005
        17 -11.1288    160.3657    149.1633   2.5214307258e+01   2.0757540689e+01    0.3258247    0.1911994 -67.26   0.00127745    3.056    0.673
        18 -12.4461     24.0725    147.2396   6.4486425789e+01   4.1589907571e+01    0.3855872    0.2075283  88.88  0.001483266    1.958    0.489
        19 -11.8148      1.9836    145.4774   7.1957672337e+01   4.3737838730e+01    0.3620917    0.1757278  81.68  0.001545108    2.023    0.506
        20 -13.0415      7.6588    142.1109   6.9765549776e+01   4.4290268893e+01    0.6134413    0.3229345  26.60  0.001340675    1.871    0.466
        21 -10.8306    174.1718    140.1503   2.0608941249e+01   2.0192386466e+01    0.1824836     0.160063 -66.00  0.001077495    1.320    0.242
        22 -11.3855    216.0000    134.9929   1.2614034032e+01   1.4515374417e+01    0.2087212     0.058098 -40.16 0.0007995954    2.923    0.658
        23 -10.7713     26.8426    134.8288   6.2146664831e+01   4.4761459838e+01    0.2110085    0.1614233  62.89 0.0006325594    1.301    0.232
        24 -10.2583     34.3007    132.7002   5.9117697705e+01   4.4612227120e+01     0.156589    0.1042337  59.99 0.0002484781    1.582    0.368
        25 -10.6857     67.7614    129.1320   4.6430943471e+01   4.1277820541e+01    0.2141077    0.1826927 -24.97  0.000578933    1.329    0.248
        26 -10.6163    165.5079    127.9964   1.9688178635e+01   2.4012055510e+01    0.2195574    0.1268213 -44.27  0.001027974    1.578    0.366
        27 -10.3025    132.3541    126.6895   2.6693028793e+01   3.0441118782e+01    0.1518463    0.1176251  84.80 0.0007044025    1.727    0.421
        28 -10.2901     39.2921    125.7090   5.6218959042e+01   4.6004923995e+01    0.1551186     0.107605  61.33 0.0002339498    1.549    0.354
        29 -10.8937     19.6745    125.3372   6.3743555177e+01   4.8037263171e+01    0.1607702   0.09797254  58.73 0.0007051451    1.722    0.419
        30 -10.3045     60.4637    122.5152   4.7726916706e+01   4.4128301283e+01    0.1545573    0.1463207  76.11 0.0001637396    1.044    0.043
        31 -11.8796     67.9094    120.3411   4.4595145917e+01   4.3582810697e+01    0.2751446    0.2436072 -72.55 0.0003390151    1.128    0.114
        32 -11.5700    246.8486    116.8591   5.2313691410e+00   1.2915086244e+01    0.2916078   0.09512524 -44.77  0.001347931    2.508    0.601
        33 -12.7885    207.9629    114.5616   9.6513088087e+00   1.9069194328e+01    0.6278656    0.2162843 -34.68  0.002464045    2.880    0.653
        34 -10.3940     80.3968    117.8299   3.9698559345e+01   4.2181562779e+01     0.212215     0.141174 -46.66  0.000423707    1.534    0.348
        35 -11.1283     53.5683    117.7683   4.9362309720e+01   4.6386354103e+01    0.2644643    0.2080126  29.88 0.0003659023    1.295    0.228
        36 -12.3069     23.8425    115.6481   6.0837262403e+01   5.0378761672e+01    0.2867154    0.2624063  44.42 0.0003704433    1.116    0.104
        37 -11.4339    222.5766    113.1193   7.3921448510e+00   1.6979871754e+01    0.3524076    0.1996614 -23.45  0.001809977    2.143    0.533
        38 -12.4437     38.9472    105.7407   5.2870296113e+01   5.1540610254e+01    0.5584969    0.3957101  82.08  0.002013675    1.631    0.387
        39 -10.9016    188.4377    110.0132   1.1611102861e+01   2.3178877832e+01    0.2139867    0.1146169 -40.90  0.001032391    1.613    0.380
        40 -12.2406    136.5840    108.5734   2.1328750987e+01   3.3481408404e+01    0.2623501    0.2523699 -27.99 0.0003587565    1.094    0.086
        41 -10.8978    154.3154    108.3219   1.7390825103e+01   2.9962764382e+01    0.1418042    0.1133343  -5.21 0.0005536497    1.661    0.398
        42 -11.2395     38.6615    112.3565   5.4227200527e+01   4.9763418173e+01     0.291318    0.2502187  59.33 0.0007194666    1.190    0.160
        43 -11.0529    116.2853    106.9482   2.6026842748e+01   3.7969841247e+01    0.2203275     0.193453 -49.06 0.0007956647    1.115    0.103
        44 -11.0019     86.4637    101.9798   3.3742729512e+01   4.5032340233e+01    0.2908577    0.2097985  57.58 0.0006183902    1.524    0.344
        45 -11.2531    159.9986     96.9749   1.3485650269e+01   3.0977792837e+01    0.1803079    0.1545796 -48.76  0.001010046    1.065    0.061
        46 -11.5603    240.5928     93.1573   1.3766976152e+00   1.7191380358e+01    0.4019611    0.1173962 -42.75  0.001796267    2.514    0.602
        47 -11.5837     25.0677     92.2435   5.6448674618e+01   5.6702207471e+01    0.3299253    0.2085068 -76.91  0.001370799    1.617    0.382
        48 -11.9999    145.0194     90.3623   1.4758281655e+01   3.5352309562e+01    0.2946873    0.2044944 -50.98  0.001237873    1.370    0.270
        49 -11.0818     47.3002     90.0036   4.5750167109e+01   5.4644372921e+01    0.2207974    0.1961639 -58.52  0.001163593    1.102    0.093
        50 -11.0977      2.9661     86.9503   6.6350970947e+01   5.9758454195e+01    0.2105657     0.193847 -63.75 0.0004062878    1.010    0.010
        51 -10.2450    200.0000     81.8860   3.6278133754e+00   2.5689545538e+01    0.2184765   0.06263888 -37.83 0.0008040004    2.953    0.661
        52 -11.8638    138.4808     79.7728   1.3243243864e+01   3.8767192408e+01    0.2812988     0.249643 -55.20 0.0006139446    1.065    0.061
        53 -10.6952    107.3220     80.0469   2.0956618069e+01   4.5656075572e+01    0.2125546    0.1873373 -53.72 0.0004406936    1.121    0.108
        54 -12.4087     10.8573     76.3968   6.0604732735e+01   6.2105121840e+01    0.2827671    0.2523127 -53.51 0.0004088585    1.039    0.038
        55 -11.4823    225.1256     75.6096   3.5940642951e+02   2.2153821841e+01    0.2843445    0.1733366 -38.69   0.00171131    1.334    0.250
        56 -11.3877     34.4400     76.1725   4.8193574526e+01   5.9893036036e+01    0.2915279    0.2188819 -24.28  0.000905898    1.480    0.324
        57 -11.1124     55.8138     76.1782   3.8109063689e+01   5.6777122356e+01     0.212796    0.1801881 -13.35  0.001082521    1.343    0.256
        58 -11.1303    205.2714     73.8739   1.1808371975e+00   2.5925943338e+01    0.2886446     0.151613  44.33  0.001399483    2.754    0.637
        59 -10.2704    158.5158     74.5155   7.9676884491e+00   3.5284386172e+01    0.1407191    0.1257983 -62.78 1.803908e-05    1.001    0.001
        60 -11.2189      2.5881     69.0647   6.3894782731e+01   6.4511848423e+01    0.2756011    0.1897676 -44.37  0.001457302    1.347    0.258
        61 -11.0316     26.0057     68.4624   5.0527511668e+01   6.2809415641e+01    0.2131158    0.1396931  19.63 0.0005255902    1.577    0.366
        62 -10.5499     96.9703     67.2434   1.9881127786e+01   5.0520065662e+01    0.2022151    0.1880933  59.12 0.0003003956    1.057    0.054
        63 -11.3583    203.3953     64.8061   3.5934314095e+02   2.7603937325e+01    0.1775807     0.108605 -29.75 0.0009530198    1.714    0.417
        64 -11.7302     17.3362     63.0544   5.3996236080e+01   6.5016235289e+01    0.3568653    0.1942184  22.73 0.0009057776    1.853    0.460
        65 -10.7227     62.0314     55.3271   2.8133776445e+01   6.0271684278e+01    0.2107055    0.1822946  44.77 0.0005980864    1.127    0.113
        66 -11.2019    197.8739     53.9152   3.5741871540e+02   3.0212175825e+01    0.1741748    0.1551189 -45.34  0.001168601    1.194    0.162
        67 -11.5928     85.1597     52.1280   1.8197632486e+01   5.6005070321e+01     0.490249    0.2852948  29.77  0.001873579    2.543    0.607
        68 -11.3921     90.2559     50.7884   1.6077501125e+01   5.5084168797e+01    0.3388127    0.1982387  49.85  0.001165042    1.643    0.391
        69 -11.1774     15.2037     53.5954   5.2676557746e+01   6.7516658262e+01     0.194344    0.1255662  -0.58 0.0009532924    1.696    0.411
        70 -11.9620    245.0056     52.2774   3.5297420506e+02   2.1973019134e+01    0.1520199    0.1153102 -55.21 0.0001818513    1.079    0.073
        71 -13.5223     74.5879     45.1921   1.9095167294e+01   5.9577856339e+01    0.9968426    0.6148897  42.03  0.004642629    1.622    0.384
        72 -10.6874    151.3367     47.6937   1.6827081144e+00   4.1127789541e+01    0.1466689   0.09357676 -68.79 0.0007041011    1.674    0.403
        73 -11.3623    174.8272     45.0888   3.5780636099e+02   3.6216263033e+01    0.3484847    0.1530833 -37.82  0.001597178    2.015    0.504
        74 -12.6720     54.0620     44.8538   2.7424965566e+01   6.3860087821e+01    0.6146103    0.3639882  30.28  0.002756263    1.891    0.471
        75 -11.3383    189.2994     43.0174   3.5569433641e+02   3.3420927663e+01    0.1852623    0.1443972 -50.87  0.001034325    1.095    0.087
        76 -11.7102     32.1483     40.7342   3.7315975655e+01   6.8390467539e+01    0.2802704    0.1663014 -26.72  0.001256345    2.132    0.531
        77 -12.4311     78.2371     31.0135   1.1789334627e+01   6.1010160391e+01    0.2856845    0.2128882 -40.40  0.001433712    1.432    0.302
        78 -10.8082    183.7239    245.7153   3.6548469857e+01   1.2146183806e+00    0.1352263    0.1162656   9.93 0.0006957354    1.324    0.245
        79 -11.2274     81.2568    238.8042   5.7253858702e+01   1.3580311998e+01    0.2453051    0.1899251  19.35  0.001546413    1.155    0.134
        80 -13.0084    239.8702    232.6846   2.5466268432e+01  -2.2639717826e+00    0.4137282    0.2728143  35.22  0.003016883    2.230    0.552
        81 -11.6079     33.4632     27.1188   2.9963243219e+01   7.0783240125e+01    0.2646722    0.1993838   7.84 0.0009491497    1.472    0.321
        82 -10.9867    156.9490     25.2183   3.5444709263e+02   4.2774671184e+01    0.2055148    0.1479937 -72.92 0.0005557325    1.256    0.204
        83 -10.5798     94.4186     23.2211   3.9811555372e+00   5.8177146116e+01    0.1825621     0.121802 -47.14 0.0006090036    1.583    0.368
        84 -11.9292    107.5762     21.8366   6.1770214630e-01   5.5106928256e+01    0.2398126    0.2054634  79.40 0.0003604296    1.048    0.046
        85 -11.2141    155.1026     20.3553   3.5324842226e+02   4.3763091303e+01    0.1969821    0.1802756 -27.39 0.0007538609    1.330    0.248
        86 -12.1247    246.5325    227.1223   2.3695795140e+01  -2.1500748860e+00    0.3169632    0.1375289 -36.18  0.002011212    1.895    0.472
        87 -12.7070    136.8110    218.9097   4.2257574884e+01   1.0705452355e+01    0.4239586    0.2380826 -67.68   0.00193221    3.102    0.678
        88 -10.5958     63.0003    217.0408   5.9694481250e+01   2.0054799317e+01    0.2142263    0.1332035  53.67 0.0005664304    1.614    0.380
        89 -11.4537    240.5094    217.0236   2.3080050828e+01  -3.6389883071e-01     0.160935   0.08056849 -34.53  0.001039991    1.612    0.380
        90 -10.5952    242.7631    204.5887   2.0858007826e+01   1.0405555148e+00    0.1271728   0.09463109  29.15  0.000962259    1.718    0.418
