#   1 NUMBER                 Running object number                                     
#   2 MAG_AUTO               Kron-like elliptical aperture magnitude                    [mag]
#   3 X_IMAGE                Object position along x                                    [pixel]
#   4 Y_IMAGE                Object position along y                                    [pixel]
#   5 X_WORLD                Barycenter position along world x axis                     [deg]
#   6 Y_WORLD                Barycenter position along world y axis                     [deg]
#   7 A_WORLD                Profile RMS along major axis (world units)                 [deg]
#   8 B_WORLD                Profile RMS along minor axis (world units)                 [deg]
#   9 THETA_WORLD            Position angle (CCW/world-x)                               [deg]
#  10 FWHM_WORLD             FWHM assuming a gaussian core                              [deg]
#  11 ELONGATION             A_IMAGE/B_IMAGE                                           
#  12 ELLIPTICITY            1 - B_IMAGE/A_IMAGE                                       
         1 -13.7658     71.8831    147.8547   5.8646095429e+01   3.5731510701e+01     3.008155     1.476121  74.78  0.008041119    5.152    0.806
         2 -13.4051    224.2651     46.0586   2.9179522368e+00   2.5906704048e+01     0.731941    0.7124481 -35.43  0.002590111    1.382    0.276
         3 -11.6877    249.4690     24.9419   3.5707933483e+02   2.4062795933e+01    0.6801781    0.2009799 -33.00  0.003334052    2.692    0.629
         4  -9.4894      1.7238      2.8146   5.5239513428e+01   8.0404812245e+01    0.2005443    0.1346611 -30.39 0.0008615846    1.417    0.294
         5  -9.4590    185.1690    244.7007   4.5625009960e+01   1.5514694624e+00    0.1729382    0.1389268 -27.60  0.001312506    1.406    0.289
         6 -10.3056     75.3774    247.4565   6.9121368813e+01   1.2797613922e+01    0.4724439    0.1769093 -54.40  0.002216544    3.117    0.679
         7 -11.4649     52.0199    247.6560   7.4585736083e+01   1.5159658071e+01     1.276758    0.7027946 -82.05  0.007109199    2.326    0.570
         8 -10.9553     61.3500    233.7771   7.1406506236e+01   1.6878487133e+01    0.5501004    0.3751968  73.03  0.001899368    1.747    0.428
         9 -11.1827     60.5617    225.2510   7.0942422647e+01   1.8688193876e+01    0.5735113    0.2403581 -70.05  0.002148301    2.815    0.645
        10 -10.8965     53.8250    237.8868   7.3531357835e+01   1.6851090512e+01    0.4731985    0.1736217  38.37  0.001059177    2.035    0.509
        11 -11.7585     54.9469    232.8633   7.2912627708e+01   1.7732542156e+01    0.5511329    0.3499072  76.76 0.0007455738    1.907    0.476
        12 -13.6095     42.5496    245.8727   7.6703557873e+01   1.6422243993e+01     2.120518     1.361144  14.66   0.00796739    1.516    0.340
        13 -13.3396     79.4366    186.3185   6.1914021741e+01   2.5060197571e+01     2.577943     1.280721 -84.84  0.007171462    3.446    0.710
        14 -15.1359      7.1945    144.3337   8.1022578338e+01   4.3704346889e+01     10.36715     1.527796 -82.07   0.02382936    6.826    0.854
        15  -9.0027    146.8596    242.8251   5.2808729268e+01   5.7651854026e+00    0.1546472    0.1209372  29.82 0.0004715179    1.330    0.248
        16 -10.0959    103.6273    237.6912   6.1669353955e+01   1.1449374412e+01    0.2530499    0.2012774 -25.30 0.0006342736    1.399    0.285
        17  -9.7475    185.0541    236.1657   4.4499318969e+01   2.7285390501e+00     0.184327    0.1341637 -20.14 0.0005025451    1.218    0.179
        18 -10.8717    129.4156    235.5412   5.5624498873e+01   8.8741599788e+00    0.3603216    0.1570379  23.60   0.00174486    1.967    0.492
        19 -11.6740    126.4836    230.0582   5.5605897455e+01   1.0147955789e+01    0.4622504    0.3567271 -20.46  0.002944709    1.335    0.251
        20 -11.7719    133.3819    229.8016   5.4048364066e+01   9.3841144190e+00     0.480263    0.2990449  -4.61  0.002303021    1.802    0.445
        21  -9.1652    216.4131    235.0047   3.8924465302e+01  -1.2767823324e-01    0.1522613   0.08364471 -32.33  0.001018868    1.597    0.374
        22 -10.2211     72.8878    233.1288   6.8534654217e+01   1.5759185784e+01    0.3006144    0.2285593 -88.38  0.000981989    1.652    0.395
        23 -11.6325    117.8397    230.4031   5.7597265417e+01   1.1103069939e+01      0.45903    0.2151294  35.03   0.00227624    1.843    0.457
        24 -11.0032    147.8021    228.1380   5.0734673712e+01   7.9852228825e+00     0.268467    0.2214303  18.57  0.001821824    1.145    0.127
        25 -10.6919     72.0681    225.7376   6.8091943041e+01   1.7319139628e+01      0.38184    0.2114255  39.58  0.001356414    1.526    0.345
        26 -10.5673    174.8386    223.2095   4.4600902303e+01   5.6933258146e+00    0.2426125    0.1448222  -6.42 0.0007852829    1.755    0.430
        27  -8.6990    110.2974    223.3449   5.8510686307e+01   1.3290699228e+01    0.1311891    0.0903028 -13.30 0.0004826841    1.673    0.402
        28  -8.8596    118.4872    221.7988   5.6403917420e+01   1.2581640686e+01    0.1640217    0.1277435 -49.63 0.0009966928    1.485    0.327
        29  -8.6849     67.0952    221.3558   6.8959317200e+01   1.8776996822e+01    0.1793698    0.1447619  30.83 0.0003820665    1.035    0.034
        30  -9.6675     96.0703    211.4541   6.0567334328e+01   1.7378770041e+01    0.3293141    0.2003695 -70.10  0.001635675    2.121    0.528
        31 -14.9646     40.4587    173.6816   7.2152946531e+01   3.2912477168e+01     7.756511     2.903267  39.32   0.02976899    2.245    0.555
        32  -9.3963    211.0039    198.8847   3.4399041379e+01   5.2885379157e+00    0.1723601    0.1336019 -12.57 0.0004806259    1.011    0.011
        33  -9.8280    193.4868    195.5528   3.6873906593e+01   7.8002335304e+00    0.3993042    0.2152099 -60.93  0.001429257    5.933    0.831
        34 -10.1240     73.2255    188.6302   6.3957615684e+01   2.5323710411e+01    0.4573447    0.2525449 -83.16 0.0009494699    2.450    0.592
        35 -10.3961    124.2489    190.4436   5.0663178897e+01   1.7925937804e+01    0.2666168    0.1274157  25.07  0.001006612    2.083    0.520
        36 -11.6573    108.0691    188.7580   5.4480599395e+01   2.0570479616e+01    0.5177662    0.2964066 -40.03   0.00221887    1.954    0.488
        37  -8.7011    207.5166    189.5242   3.3453104975e+01   7.0600278884e+00    0.1192966   0.09169739 -14.23 0.0008094225    1.051    0.049
        38 -14.3408     12.8597    245.1696   8.3590563600e+01   1.9225698181e+01      1.02691    0.7740619 -54.26  0.003557698    1.762    0.433
        39 -14.9891      3.7694    235.9501   8.5458646379e+01   2.1789436828e+01     1.343646    0.7330439 -81.28  0.007726958    2.057    0.514
        40 -10.3114    115.9898    181.8874   5.1385328276e+01   2.0913067089e+01    0.2179004    0.2038413   9.87 0.0006472573    1.026    0.026
        41 -16.1092      6.5054    217.2933   8.4299426305e+01   2.5512794415e+01     4.711837     1.868921  27.20   0.01646888    1.998    0.500
        42  -9.3436     59.8409    178.8445   6.6730641450e+01   2.9376796390e+01    0.2996672    0.1817307 -60.91  0.001394398    1.742    0.426
        43 -10.1238    171.9601    174.6033   3.7361121647e+01   1.4112555757e+01    0.3244286    0.2298054  24.16  0.001262292    1.418    0.295
        44 -10.7748    174.3454    170.4942   3.6147763479e+01   1.4502668547e+01    0.4129415    0.2932899  53.41   0.00224155    1.973    0.493
        45 -10.5398     72.1499    168.9432   6.1750186877e+01   3.0266067065e+01     1.466166    0.6653123 -85.93  0.004174158    4.348    0.770
        46 -11.8744     81.5686    145.0336   5.5002912222e+01   3.4989810687e+01     1.288872     0.865693 -15.94  0.005304043    2.168    0.539
        47 -10.6253     75.0939    162.5347   5.9924108417e+01   3.1475472108e+01    0.6147994     0.336295  61.86  0.002255684    2.472    0.595
        48 -11.5885     78.7234    136.7934   5.4409909274e+01   3.7578849249e+01    0.6494043    0.4631675  60.15  0.002921636    1.563    0.360
        49 -11.9699     73.7929    130.1916   5.4815382008e+01   4.0103581919e+01     1.549856     0.661845  52.67  0.004109452    3.144    0.682
        50 -11.5671     58.4029    161.5674   6.5080442811e+01   3.3976377003e+01    0.4808951    0.4158037 -39.22  0.001619805    1.287    0.223
        51 -11.4508     63.7485    157.5594   6.2801708397e+01   3.4327598615e+01    0.5959117    0.3509842 -35.83  0.001122935    2.188    0.543
        52  -9.6905    110.4782    166.9653   5.0362402521e+01   2.5062237426e+01     0.259822    0.2228544  71.31 0.0004262242    1.379    0.275
        53 -10.1616    138.0696    246.9460   5.5125174829e+01   6.0778821727e+00    0.1799157    0.1407122   9.94 0.0004148348    1.016    0.016
        54 -13.1062     60.5202    145.3676   6.2078660578e+01   3.8003982844e+01     0.981106    0.6402451  26.07  0.001150741    1.518    0.341
        55  -9.3624    229.6795    165.6748   2.5945717241e+01   7.9591744277e+00    0.1174619   0.07378056 -12.74 0.0004644408    1.680    0.405
        56  -9.2602    142.0920    163.7260   4.1809002833e+01   2.0724461886e+01    0.2281881    0.1884179 -59.74 0.0006193053    1.390    0.280
        57 -10.4540    238.9382    161.6456   2.3959858261e+01   7.4464903878e+00    0.2197185    0.1333829 -38.15 0.0008045989    1.360    0.265
        58  -8.8726    231.3107    160.6595   2.4837570141e+01   8.4887908350e+00    0.1059742   0.08205213 -53.42 0.0007045289    1.694    0.410
        59  -8.4505     93.2505    156.6245   5.3446749648e+01   3.0229145311e+01    0.1522856    0.1148531  73.94  0.000466921    1.642    0.391
        60  -9.8408    102.7115    169.0759   5.2844583023e+01   2.5779814998e+01    0.5673841      0.35619 -88.77  0.002107236    2.706    0.630
        61  -9.2680    124.6506    152.8377   4.4006830060e+01   2.5933626897e+01    0.3376982    0.2414795  86.90  0.001409872    2.246    0.555
        62  -9.3584     41.0110    153.6326   6.9913341706e+01   3.8168230332e+01    0.2328887    0.1895384  71.77  0.001198106    1.215    0.177
        63 -10.4386    133.3643    142.1048   3.9622016737e+01   2.6776007283e+01    0.7486226    0.2212669 -56.66  0.001804485    6.148    0.837
        64  -9.2177     88.3691    148.7058   5.3521101791e+01   3.2974215462e+01    0.3262258    0.2339917 -81.02 0.0008399074    1.691    0.409
        65 -10.3477    109.0207    145.3382   4.6750955259e+01   3.0344400359e+01    0.3090592    0.2751582  32.42 0.0006885959    1.100    0.091
        66 -10.3740     36.9705    142.4504   7.0041058161e+01   4.1675222968e+01    0.4629118    0.3101652  69.98  0.001484681    1.578    0.366
        67 -10.2445     39.7728    139.1876   6.8608655672e+01   4.2275608184e+01    0.2642611    0.2115121  49.43 0.0004261536    1.196    0.164
        68  -8.8449    100.8036    143.6792   4.8800786627e+01   3.2158888561e+01    0.2873911    0.1986856  86.65  0.001196697    2.121    0.529
        69 -14.7496     10.0211    206.4378   8.3029184265e+01   2.7675765089e+01     1.190728      0.86265   4.46  0.003171024    1.588    0.370
        70  -8.4215    145.9984    140.7459   3.6323334326e+01   2.4809878494e+01    0.1744044    0.1225197  38.34 0.0003205821    1.466    0.318
        71  -8.5381     27.3183    137.3491   7.3037493849e+01   4.4061883338e+01    0.1587922    0.1050699 -39.47 0.0007048195    1.734    0.423
        72 -10.4647     97.6574    134.1084   4.7799343569e+01   3.5058575398e+01     0.555619    0.3681123   2.53  0.002177614    2.374    0.579
        73 -11.6917     84.3781    132.1305   5.1615233727e+01   3.7857569189e+01    0.3160199    0.2945228 -60.40 0.0004605343    1.095    0.087
        74 -10.2395    105.6831    130.6597   4.4642980328e+01   3.4451567516e+01    0.4142687    0.3283693 -60.23  0.001085927    1.308    0.235
        75  -9.5166    108.2410    126.5591   4.2976937936e+01   3.4957457415e+01    0.3114395    0.2366274   2.06  0.001204835    1.767    0.434
        76 -10.1742     43.8868    131.2430   6.5965230190e+01   4.4014455038e+01    0.3219149    0.2120846 -64.10  0.000950566    1.498    0.332
        77  -9.5487     25.3127    129.0568   7.2899831232e+01   4.6576046527e+01     0.376303     0.271645  65.44  0.001822638    1.391    0.281
        78  -8.4647    219.0150    126.0145   2.0106812760e+01   1.5339288449e+01    0.1479209    0.1143216 -35.44 0.0003451579    1.045    0.043
        79 -10.8210     95.0738    121.5349   4.5843281956e+01   3.8644340654e+01    0.3431578    0.2843435  12.10 0.0008128238    1.402    0.287
        80  -9.9225     87.3641    121.4210   4.8330170634e+01   4.0079695410e+01    0.3478771    0.2582453  86.00 0.0005968468    1.710    0.415
        81  -9.1254     37.7024    121.6977   6.6965830175e+01   4.7403507285e+01    0.3230515    0.1705853  74.51    0.0011711    2.525    0.604
        82  -9.3204    115.4818    121.4857   3.9732452261e+01   3.4759075214e+01    0.1528425     0.147923 -12.87  0.000808909    1.082    0.076
        83  -9.3242     41.9188    121.1793   6.5180241753e+01   4.7062719278e+01    0.2607964    0.1725714 -21.29  0.001094004    1.970    0.492
        84  -9.4046    142.8801    122.1921   3.2923948806e+01   2.9245227638e+01    0.2129292    0.1950279 -89.59 0.0003376286    1.207    0.171
        85  -9.2409     27.2634    118.0191   7.0750933101e+01   4.9517170525e+01    0.2884607    0.2010971  79.03  0.001339473    1.509    0.337
        86  -9.7810    105.2753    116.5754   4.1512542175e+01   3.7905624480e+01    0.3662308    0.2775836 -11.83   0.00117056    1.827    0.453
        87 -11.0110    245.7566    115.1737   1.4741311900e+01   1.3137378427e+01    0.3741218    0.2496998  85.46  0.002216743    2.867    0.651
        88  -8.7750    235.6716    113.3509   1.5534612068e+01   1.4800321626e+01    0.1186185   0.07610193 -57.05 0.0007048101    1.766    0.434
        89 -11.0746     52.9507    109.7013   5.8566667831e+01   4.8806566695e+01     0.459067    0.3182958 -56.52  0.002081785    1.431    0.301
        90  -9.2153     38.0584    116.0249   6.5928922848e+01   4.8958163453e+01    0.2294212    0.2154579  64.66  0.000474018    1.037    0.036
        91  -9.3831    135.7506    107.9642   3.1154467933e+01   3.3643615668e+01    0.2243346    0.2100605 -71.48            0    1.066    0.062
        92  -9.8603    133.4776    103.9841   3.0685837426e+01   3.4948524514e+01    0.3620231     0.251531 -73.76   0.00155009    1.911    0.477
        93  -8.8155     35.8316    107.8054   6.5501092146e+01   5.1515514808e+01    0.2157231    0.1660766  57.80 0.0003397148    1.344    0.256
        94  -9.0317     20.0443    108.3355   7.2605220731e+01   5.2890942516e+01    0.2088155    0.1859475  36.37 0.0006434715    1.135    0.119
        95  -9.5394     63.9417    106.7642   5.3480954579e+01   4.7925517980e+01    0.2221295    0.1960629  44.18  0.000294314    1.110    0.099
        96 -15.5425     26.6790    178.1040   7.6788649325e+01   3.3142974478e+01     7.373565     2.451105  62.45   0.02331799    3.893    0.743
        97 -10.7667     24.2362    104.9861   7.0243220542e+01   5.3478588025e+01    0.3664326    0.3156937  56.08  0.001700021    1.165    0.142
        98  -9.1946     42.5485    100.9681   6.1223654655e+01   5.2610308838e+01    0.2329858    0.1990018  28.48 8.542055e-05    1.177    0.151
        99 -10.7393    179.4807    165.6409   3.4262681689e+01   1.4617416390e+01    0.5234516    0.3712055 -67.67  0.002680068    2.335    0.572
       100  -8.9715     85.2380     99.3962   4.3632077070e+01   4.5996433533e+01    0.2222241    0.1434164  49.74 0.0004265503    1.578    0.366
       101 -10.8782     54.8209     96.3857   5.4785466980e+01   5.2124974778e+01    0.3572887    0.2232472 -48.89  0.001050928    1.631    0.387
       102  -9.7598     45.3190     95.8606   5.8873087699e+01   5.3640352027e+01    0.2656922    0.2010268  40.91 0.0005580094    1.310    0.237
       103  -8.3971     66.3160     92.6245   4.8978239139e+01   5.1211165878e+01    0.1686551    0.1204294  73.52 0.0007030131    1.800    0.444
       104  -8.7980     74.8386     88.8663   4.4532195926e+01   5.0586334501e+01    0.2134909    0.1825123  77.30 0.0003757472    1.283    0.220
       105 -10.1390     41.9761     88.4820   5.8715466889e+01   5.6076613873e+01    0.2243747    0.2080127 -68.49 0.0004031345    1.077    0.072
       106 -10.5683     34.4913     87.9099   6.2229519863e+01   5.7164123281e+01    0.2802459    0.2289289  41.81 0.0003153642    1.235    0.190
       107  -8.6646     99.4655     86.5340   3.5204228386e+01   4.6065569016e+01    0.1563027     0.148595  81.29 0.0002533508    1.024    0.023
       108  -8.5631     72.4864    244.4970   6.9562442872e+01   1.3644593828e+01    0.1259159   0.09942046  28.96 -4.906746e-05    1.001    0.001
       109  -9.0228    137.3990     83.8554   2.4357234872e+01   3.8120288295e+01    0.3392485    0.1928541 -76.93  0.001107614    3.676    0.728
       110  -8.2656     90.6991     78.2992   3.5523119946e+01   4.9792032503e+01    0.1566713    0.1214237  85.38 0.0003066942    1.581    0.368
       111  -9.6125    115.4959     75.3115   2.7126413151e+01   4.4801165697e+01    0.2946251    0.2317599 -74.33 0.0008838617    1.404    0.288
       112 -10.3367     29.3190     71.0359   6.0904752398e+01   6.2240349075e+01    0.5588137    0.2348512  50.84  0.001857603    3.320    0.699
       113 -12.0624    201.3725     61.3756   8.4276385868e+00   2.8153797092e+01    0.5623223    0.4001558  61.28  0.001341732    1.628    0.386
       114 -12.9519    211.8107     54.5372   5.8243042686e+00   2.7097351583e+01    0.8656446    0.7094802 -42.96  0.003428234    1.155    0.134
       115  -8.9065     60.8865    245.6204   7.2372858345e+01   1.4646231810e+01    0.3675982    0.2523715 -28.84  0.002164569    1.929    0.482
       116  -9.1355     39.1500     60.6061   5.2216177047e+01   6.3581565631e+01    0.2278628    0.2033943 -83.59 0.0006548353    1.256    0.204
       117  -8.8888     60.3689     54.6831   3.9089156003e+01   6.1245337598e+01    0.1561973    0.1167732  75.72 0.0007036521    1.784    0.439
       118  -8.4740     46.3164     50.6204   4.4505898885e+01   6.4725007700e+01     0.151213    0.1148802  75.92 0.0007025247    1.813    0.448
       119 -10.1840     21.5831     44.7524   5.7662458771e+01   6.9594428607e+01    0.2577089    0.1455787 -67.48  0.001156062    2.012    0.503
       120 -10.7515     16.4483     44.9804   6.1439386596e+01   7.0064882824e+01      0.37835    0.1587685  34.35  0.001328784    2.346    0.574
       121 -10.9474      5.5213     42.9520   6.9107198738e+01   7.1385459830e+01     0.337128    0.2141866  33.26  0.001101449    1.661    0.398
       122 -10.3046      1.9137     39.1574   7.0999868862e+01   7.2497234707e+01    0.2492744    0.2369652  70.15 0.0007868308    1.201    0.168
       123  -9.0004     82.9276    245.5405   6.7211054196e+01   1.2336911201e+01    0.1610331    0.1592531  45.19 0.0002878266    1.255    0.203
       124 -10.4686      9.7345     29.0074   6.0909740170e+01   7.4339619151e+01    0.2746237    0.2222774  61.37 0.0005740577    1.571    0.363
       125 -10.0204      2.3842     22.3929   6.5149998892e+01   7.6350982407e+01    0.2835163    0.1286989 -73.50  0.001224006    2.701    0.630
       126  -9.4201     60.7547     21.2512   2.3204684124e+01   6.7068604750e+01    0.2311563    0.2019336  80.14 0.0006196101    1.236    0.191
