#   1 NUMBER                 Running object number                                     
#   2 MAG_AUTO               Kron-like elliptical aperture magnitude                    [mag]
#   3 X_IMAGE                Object position along x                                    [pixel]
#   4 Y_IMAGE                Object position along y                                    [pixel]
#   5 X_WORLD                Barycenter position along world x axis                     [deg]
#   6 Y_WORLD                Barycenter position along world y axis                     [deg]
#   7 A_WORLD                Profile RMS along major axis (world units)                 [deg]
#   8 B_WORLD                Profile RMS along minor axis (world units)                 [deg]
#   9 THETA_WORLD            Position angle (CCW/world-x)                               [deg]
#  10 FWHM_WORLD             FWHM assuming a gaussian core                              [deg]
#  11 ELONGATION             A_IMAGE/B_IMAGE                                           
#  12 ELLIPTICITY            1 - B_IMAGE/A_IMAGE                                       
         1 -13.1825    241.9427     16.3531   3.1621241935e+01   2.4864669675e+01     2.123107     1.289253 -41.33   0.01341718    1.492    0.330
         2 -11.3915    218.3280     27.5559   3.5950343596e+01   2.8427464548e+01    0.7144378    0.4134821 -57.91  0.003603086    1.630    0.387
         3 -10.5952    146.2460     16.0384   4.1810379769e+01   4.6119792585e+01    0.3927197    0.2664929  65.05  0.002209338    1.301    0.231
         4  -9.5857     92.4336     14.9811   5.2389800284e+01   5.8415268943e+01    0.3384313    0.2627381  34.43  0.001790537    1.118    0.106
         5 -10.9953    216.1684      3.5590   3.0929609175e+01   3.1460401955e+01    0.5919136    0.2982534  76.24   0.00331649    1.794    0.443
         6 -10.4744    221.3943      8.2600   3.1520493536e+01   2.9894264188e+01    0.3564611    0.2597443   8.10  0.002128054    2.376    0.579
         7  -8.2001    155.4875     13.4798   3.9698588390e+01   4.4191411893e+01    0.1278501    0.1122696  69.99 4.886896e-05    1.022    0.022
         8  -9.3246     94.7236      8.5176   4.9285642837e+01   5.8518024165e+01    0.3086793    0.1511049 -32.57  0.001534539    2.296    0.564
         9  -9.4313     75.0926      9.3419   5.4972372538e+01   6.2481590698e+01    0.3052029      0.11253  43.84  0.001363697    2.241    0.554
        10  -9.1907     81.7029      9.3879   5.3054182655e+01   6.1158933613e+01    0.2203239    0.1864901  28.36  0.001452663    1.034    0.033
        11  -8.7226    183.9913      6.2128   3.4370905501e+01   3.8268878052e+01    0.2538159    0.1807323 -61.62  0.001208019    1.365    0.268
        12  -8.5577    184.0024      1.9885   3.3336421101e+01   3.8649883516e+01    0.2581206    0.1482383 -46.33  0.001460977    1.728    0.421
        13  -8.3038    100.8892      6.3274   4.7009657814e+01   5.7366071559e+01    0.1951046    0.1515032  80.67  0.001171553    1.520    0.342
        14  -7.5541    176.3195      4.6870   3.4785540202e+01   4.0157306309e+01    0.1287567   0.08109228 -68.16 0.0005719556    1.650    0.394
        15  -9.2539     46.4290      2.0986   6.1639828222e+01   6.8339975630e+01    0.2585458    0.1420946  46.63  0.001471727    1.798    0.444
        16  -7.6078    152.3104      1.3251   3.6665560455e+01   4.5996078732e+01    0.1276317   0.08195088  42.66 0.0004115927    1.656    0.396
        17  -8.6828    144.9735      1.4967   3.7676133362e+01   4.7689717346e+01    0.1967585    0.1075489  70.01 0.0008748069    1.580    0.367
        18  -7.8254    179.6493    203.6831   8.2379297345e+01   5.7642388097e+00    0.1464488    0.1001608  -1.83 0.0007047374    1.735    0.424
        19 -10.4651    244.6216    236.1913   7.5637712266e+01  -8.6640834577e+00    0.8144763    0.3879044  -0.01  0.003480321    3.434    0.709
        20 -11.0003    224.8343    240.8153   7.9946175379e+01  -6.8195633219e+00     1.443464    0.6706839 -35.31  0.007644039    2.108    0.526
        21 -10.6573    234.8553    244.7636   7.8786255541e+01  -8.6109688492e+00    0.9400082    0.3289718 -25.91  0.003841417    3.652    0.726
        22 -10.4145    233.7670    231.8431   7.6816266194e+01  -6.7186095259e+00    0.8981791    0.2716103 -37.20  0.003815032    3.139    0.681
        23 -11.6734    224.7025    218.2356   7.6090847276e+01  -3.5239070436e+00     1.253124    0.6012941 -44.12  0.006052825    2.374    0.579
        24  -9.8687    223.4900    207.8649   7.4434272620e+01  -1.7429796832e+00    0.3927862    0.2342783  15.71  0.002042915    1.795    0.443
        25  -9.7161    197.8574    245.9617   8.5859643503e+01  -3.9546364125e+00    0.3690882    0.2577124   5.82  0.002268247    1.320    0.242
        26  -9.9313    189.5129    235.6838   8.5858445842e+01  -1.2177264250e+00    0.3805214    0.2573874  15.46  0.002194131    1.373    0.272
        27 -10.6717    187.1569    229.9646   8.5395960224e+01   4.1409440040e-02     1.248292    0.7091807  26.80  0.006500668    1.621    0.383
        28 -10.6993    186.1809    245.8508   8.8121195112e+01  -2.3110323511e+00    0.7308908     0.434813 -42.35  0.004123542    1.904    0.475
        29 -11.0769    191.1540    242.2323   8.6579152854e+01  -2.4644952556e+00    0.6837166    0.5536599 -42.80   0.00442579    1.539    0.350
        30  -8.6373    183.4190    199.1194   8.0739587670e+01   5.9842955977e+00      0.32705    0.2187243  67.08  0.001356785    3.124    0.680
        31  -8.1400    176.3326    196.8335   8.1817651685e+01   7.5935796678e+00    0.2057399    0.1200043 -33.50 0.0009459821    1.777    0.437
        32 -10.7915    212.0145    171.6981   6.9538142851e+01   6.2013169197e+00    0.6651052    0.4151228 -57.86    0.0029731    2.400    0.583
        33  -8.0100    145.3754    175.6908   8.4752835074e+01   1.7332167710e+01    0.1520208    0.1178329  72.17 0.0007030266    1.780    0.438
        34 -10.6139    249.3216    168.1726   6.2255037895e+01   8.5209571348e-01    0.4461124    0.2712422 -29.03   0.00243877    1.404    0.288
        35 -11.9680    237.6811    155.3980   6.1570366473e+01   4.7835526462e+00     1.113706    0.4299252 -45.34   0.00445164    2.601    0.616
        36 -11.9203    231.4160    144.8562   6.0400922756e+01   7.6477635336e+00     1.250907    0.8296606 -61.43  0.006014999    2.188    0.543
        37 -11.1831    247.3190    222.0182   7.2723147861e+01  -7.0605644846e+00    0.8708943    0.5965497 -11.54  0.005593372    1.207    0.171
        38  -8.1937    141.7898    157.2262   8.1807084771e+01   2.2074738150e+01    0.2117049    0.1768717  -5.31 0.0004403057    1.334    0.250
        39  -7.5964     72.7196    156.3145   1.0005444606e+02   3.3912557588e+01    0.1442209    0.1077174  75.38 0.0002719105    1.572    0.364
        40  -8.3882    152.8566    150.7449   7.7683152404e+01   2.1376446020e+01     0.304858    0.2140218 -74.41  0.001227158    2.201    0.546
        41  -7.9097    128.6797    151.3146   8.3840374529e+01   2.5890525658e+01    0.1541012    0.1232251  80.06 0.0007039579    1.655    0.396
        42  -8.1740     58.4067    146.2629   1.0241493957e+02   3.8296029500e+01    0.2028131    0.1292926 -74.64 0.0009518169    1.625    0.385
        43  -8.3983    129.3146    142.3624   8.1674497173e+01   2.7834978636e+01    0.1640182    0.1203027 -13.47 0.0007041437    1.759    0.432
        44 -11.5208    247.1345    129.8800   5.4758793163e+01   7.5101363871e+00     1.160066    0.5526981 -48.44  0.005252036    2.127    0.530
        45  -8.9666    192.9804    140.0000   6.6372904470e+01   1.5660876862e+01    0.3168206    0.2056461  61.48  0.001387407    2.135    0.532
        46  -9.0928    165.8077    136.5728   7.1374015954e+01   2.1818306788e+01    0.6239398    0.2129062 -50.68  0.001837286    3.622    0.724
        47 -11.8122    247.7850    208.2149   7.0165852177e+01  -5.1402360225e+00     1.453289    0.6676416 -35.42  0.007444883    1.916    0.478
        48  -9.4445    217.3380    139.5182   6.1667702377e+01   1.1107401867e+01    0.3305071    0.2515365 -58.83  0.001730718    1.573    0.364
        49  -9.9664    204.9930    164.0956   6.9304203343e+01   8.8116408800e+00    0.4676498    0.3118893 -14.99  0.002230696    1.735    0.424
        50  -8.3945     24.7732    117.8787   1.0798009925e+02   4.8813306035e+01    0.2538656    0.1502778  53.43  0.001244671    2.139    0.532
        51  -8.5884    171.7804    116.7060   6.5190726189e+01   2.4630383886e+01    0.2806998    0.1840316 -37.53  0.001167824    1.475    0.322
        52  -9.8235    222.2230    113.2382   5.4958777485e+01   1.4860930698e+01    0.3919081    0.3258568  -6.40   0.00186306    1.384    0.278
        53  -9.8160    197.0252    108.0947   5.8051624653e+01   2.0884376043e+01    0.8474748    0.2316768 -46.81  0.002422807    4.127    0.758
        54  -9.7387    121.7431    108.9387   7.5400655576e+01   3.6873424968e+01    0.6201104    0.3385736 -51.16  0.002336616    1.932    0.482
        55  -9.0227    160.8323    108.4576   6.5486920344e+01   2.8645449686e+01    0.3883401    0.3080947 -51.28    0.0019099    1.293    0.227
        56  -8.8416    215.9630    134.5168   6.0801269351e+01   1.2270583251e+01    0.3476305    0.2020426 -43.49  0.001628768    1.587    0.370
        57 -10.7880    237.9585     97.0857   4.9041730807e+01   1.4547658430e+01    0.9085456    0.5437006 -73.95  0.004002724    2.801    0.643
        58  -9.8753    235.4908     88.7248   4.7542664084e+01   1.6354321905e+01    0.6165867    0.3258214 -41.60   0.00303992    1.622    0.383
        59 -10.2778    122.9511     98.6251   7.2223900073e+01   3.8820758840e+01    0.7208048    0.5172927  46.93   0.00338011    1.441    0.306
        60  -9.0334    106.6999     97.7859   7.6621374651e+01   4.2270336284e+01    0.4074416    0.2951379 -16.07  0.001856092    1.672    0.402
        61  -8.6441    197.4553     95.4349   5.4883013206e+01   2.3053980116e+01    0.3273936    0.2097303 -72.46  0.001380931    2.379    0.580
        62  -8.0314     71.5988     92.7952   8.6482441660e+01   4.9457295135e+01    0.2094851    0.1349793 -59.20 0.0009592612    1.717    0.418
        63  -8.2471     91.8638     92.1997   7.9584930999e+01   4.6238187740e+01    0.2040505    0.1678006  -8.60 0.0003961045    1.295    0.228
        64 -10.3818    214.9991     95.7626   5.2079938672e+01   1.9299574440e+01    0.6629569    0.2854011 -41.24  0.002700252    2.068    0.516
        65  -9.7884    248.2771     84.3272   4.4991799094e+01   1.4614796377e+01    0.7082794    0.3589228 -30.98  0.003411375    2.009    0.502
        66  -9.0278    242.5776     75.2174   4.3733044634e+01   1.7061505668e+01    0.7051575     0.434337 -16.66  0.003380999    2.494    0.599
        67 -10.7781    234.1688     58.3857   4.1067045538e+01   2.1152216550e+01    0.7442459    0.5384858 -84.12  0.003845094    1.464    0.317
        68  -9.8670    248.6857     74.1300   4.2804872009e+01   1.6064205328e+01     0.573402    0.2661409 -35.42  0.002299118    1.950    0.487
        69 -10.0488    248.9109     65.4826   4.0979812293e+01   1.7272251701e+01     0.513788    0.3469058 -39.16  0.002609832    1.315    0.239
        70 -10.7223    247.1213     58.4424   3.9705941418e+01   1.8600456364e+01    0.9022927    0.6251605  -2.41  0.004657996    2.691    0.628
        71 -11.0711    243.8307     50.2307   3.8331035264e+01   2.0353312569e+01    0.7384822    0.5843241 -47.92   0.00488116    1.121    0.108
        72  -9.1386     57.4609    100.0232   9.3277228844e+01   4.9769105908e+01    0.3456223    0.2644541 -65.71   0.00154382    1.400    0.286
        73  -7.9730     83.6865     83.0078   7.9528375617e+01   4.9614171379e+01    0.2422157    0.1019529 -29.38 0.0007024387    4.125    0.758
        74  -9.1089    180.8704     79.8602   5.3868996004e+01   2.9403516679e+01    0.3949302    0.2744894 -82.94  0.001701106    1.989    0.497
        75  -8.0646    141.3061     81.6743   6.2622890357e+01   3.8131722452e+01    0.1507345    0.1190777 -76.30 0.0006004593    1.648    0.393
        76  -8.9826    152.8557     78.3468   5.9027775326e+01   3.6091681065e+01    0.4538921    0.1803579 -40.33  0.001648415    2.479    0.597
        77  -7.9146     64.3458     80.2933   8.5463008397e+01   5.3253051571e+01    0.1476205    0.1016433 -14.36 0.0006693813    1.665    0.399
        78  -9.4680    216.9266     75.0337   4.6955065626e+01   2.2253373080e+01    0.3976005    0.3108248 -70.13  0.002265626    1.327    0.246
        79  -8.8160    215.4021     70.8178   4.6180333017e+01   2.3222099248e+01    0.3191681    0.2348671  -9.59  0.001658294    1.899    0.473
        80  -9.5661    106.3308     72.0163   6.8930890083e+01   4.7477638976e+01    0.5892431    0.4088336 -73.68  0.002457458    2.598    0.615
        81  -9.5238    147.6311     70.0644   5.7773706503e+01   3.8705508962e+01    0.3775869    0.3006977 -57.82  0.001934428    1.396    0.284
        82  -7.6444     81.9952     66.5062   7.4825549007e+01   5.3157160863e+01    0.1887251    0.1251379  62.51 0.0008097614    2.480    0.597
        83  -8.8669    214.9564     64.7919   4.4831383610e+01   2.4219481613e+01    0.2436543    0.1786134 -42.00 0.0009031481    1.260    0.206
        84  -9.5852    200.6938     61.8316   4.6077242268e+01   2.7767384849e+01      0.51204    0.2955735 -60.54  0.002362559    2.009    0.502
        85  -7.9431     47.4855     65.5105   8.7361084740e+01   5.8572937344e+01    0.1345224    0.1165926 -23.04 0.0008101278    1.038    0.036
        86  -8.9137     29.9340     65.8455   9.4692530608e+01   6.0407045184e+01    0.4692387    0.1303138 -42.56  0.001726998    3.082    0.675
        87  -8.1830    107.9977     55.1753   6.2876921771e+01   4.9994190763e+01    0.2284741    0.1725447  84.30  0.001085845    2.050    0.512
        88  -8.7191     17.0172     55.1925   9.7210235799e+01   6.3686643703e+01    0.1846455    0.1353646  47.83  0.001086887    2.008    0.502
        89  -9.7511    234.0211     44.4727   3.8086904541e+01   2.3064007689e+01    0.4873367    0.3262751  65.93    0.0029215    1.568    0.362
        90  -7.7750    124.3115     52.3148   5.7664191230e+01   4.6844524991e+01    0.1466418    0.1055956  20.68 0.0007032093    1.636    0.389
        91  -8.4067     97.4886     48.7969   6.3685272548e+01   5.3171107398e+01    0.2685168      0.19065  44.20  0.001404323    1.347    0.257
        92  -8.9464    221.6230     47.2042   3.9990003078e+01   2.5269009739e+01    0.2882106    0.1128246 -33.70  0.001242383    2.489    0.598
        93  -9.2176    225.4919     42.5191   3.8532603088e+01   2.5071425585e+01    0.3768948    0.3099981  46.90  0.001972246    1.514    0.340
        94  -9.6174    250.1309     43.5870   3.6386852909e+01   2.0009419284e+01    0.6302046    0.1665105 -33.20  0.002361719    3.839    0.739
        95  -9.1445    201.0017     43.1719   4.1478334301e+01   3.0286745870e+01    0.4680857    0.2670531 -69.87   0.00219851    2.155    0.536
        96  -8.2552    157.1371     44.6682   4.8436359842e+01   4.0264846895e+01    0.2412238    0.1839851 -47.62  0.001307399    1.369    0.270
        97  -7.7594     57.4979     45.5103   7.6314047226e+01   6.0885855982e+01    0.1327423    0.1136431  -4.36 -8.27863e-06    1.029    0.028
        98  -8.0379     85.6763     42.9985   6.5217426732e+01   5.6386945013e+01    0.1915862     0.170332 -12.38  0.001152361    1.120    0.107
        99  -8.9777    174.3905     42.1912   4.4900055923e+01   3.6522167989e+01    0.1965601    0.1152327 -44.65 0.0009537817    1.718    0.418
       100  -8.6981    129.1327     40.5813   5.2720296726e+01   4.7370752552e+01    0.2276008    0.1704854 -19.42  0.001215534    1.475    0.322
       101  -9.5059    243.2712    248.1095   7.7851212424e+01  -1.0051762157e+01    0.2142807    0.1459633  23.49  0.001217883    1.375    0.273
       102  -7.6383     51.3612     34.2947   7.4354469122e+01   6.3586138031e+01    0.1355416     0.086699   2.64 0.0007031174    1.705    0.414
       103  -9.2468    146.8229    245.1836   9.5985672781e+01   3.5071327946e+00    0.1750023    0.1388991   3.38 0.0009434756    1.339    0.253
       104  -9.8500    219.2259     19.7141   3.4148652442e+01   2.9130714061e+01    0.2741633    0.2014766 -89.16  0.001029436    1.232    0.188
       105  -8.5638     44.5202     30.4843   7.5672004594e+01   6.5145218178e+01    0.2286801    0.1402904   8.82  0.001043203    1.742    0.426
       106  -8.0186    126.6786     28.6973   4.9342226306e+01   4.9378639805e+01    0.1403712   0.09315332  32.29            0    1.631    0.387
       107  -8.1492    184.4616     26.2825   3.9341491600e+01   3.6101571051e+01    0.2243459    0.1296344 -24.70  0.001086572    2.024    0.506
       108  -8.0027     32.8180     25.6051   7.8903905971e+01   6.7411408720e+01    0.1609274    0.1047904  36.32  0.000892205    1.771    0.435
       109  -8.5625    155.1640    242.0108   9.3815357955e+01   2.8094917329e+00    0.1944925    0.1554339   1.07  0.001044433    1.292    0.226
       110  -7.7663      9.3145    240.6919   1.2316320503e+02   2.1878427506e+01    0.1179469   0.06024553  62.58 0.0003782174    1.628    0.386
       111  -9.6008    142.0297    235.2562   9.5593619900e+01   5.9531876482e+00    0.2513535    0.1484556 -23.86 0.0009859101    2.516    0.603
       112  -9.1925    149.4829    234.8686   9.3960629517e+01   4.8925583808e+00    0.1778897     0.129086 -46.54  0.001020238    1.554    0.357
       113  -8.4724    113.0272     14.2984   4.7278013110e+01   5.3975046228e+01    0.1900876    0.1537974  51.71  0.001163479    1.074    0.069
       114 -11.0039    132.8431    247.2941   9.9155284986e+01   5.1952878345e+00    0.7056453    0.4499205 -77.92  0.003559862    2.674    0.626
       115 -10.6581    134.9956    229.7703   9.6313270283e+01   8.0282328794e+00    0.4542765    0.2766083  -0.34  0.001932087    2.939    0.660
       116 -10.0783    126.7259    227.8145   9.7831010388e+01   9.6616966147e+00    0.2882459    0.1702584 -59.29  0.001447486    1.995    0.499
       117 -11.9148    225.5800    179.0764   6.8510402566e+01   2.6871438069e+00     3.965258     1.588513  51.96   0.01290942    5.196    0.808
       118 -11.4511    245.8029    200.1165   6.9009084277e+01  -3.6675048020e+00     0.868657    0.6582139   8.51  0.004908307    1.227    0.185
       119  -8.4006    156.6025    225.6926   9.1051649553e+01   5.4352090253e+00     0.160867    0.1299324 -56.31 0.0009192277    1.510    0.338
       120  -7.7504     33.3460    225.2763   1.1759335281e+02   2.2591791859e+01    0.1052659   0.09045461 -35.26 0.0007004227    1.629    0.386
       121 -12.3078    231.3578    191.9106   6.9985428227e+01  -3.3216605934e-01     1.748004     1.020147  -9.09  0.008375693    2.137    0.532
       122  -9.3049    245.7656    230.0018   7.4382591716e+01  -7.9701536751e+00    0.2021069    0.1469335   9.13  0.001139581    1.168    0.144
       123  -8.0146    189.2926     16.6563   3.6378519057e+01   3.6038774782e+01    0.1321567   0.08192857 -64.49 0.0007028513    1.659    0.397
       124  -9.4184    190.1530    212.5197   8.1792548387e+01   2.5097365402e+00    0.2595391    0.1429368 -21.30  0.001152436    2.286    0.563
