#   1 NUMBER                 Running object number                                     
#   2 MAG_AUTO               Kron-like elliptical aperture magnitude                    [mag]
#   3 X_IMAGE                Object position along x                                    [pixel]
#   4 Y_IMAGE                Object position along y                                    [pixel]
#   5 X_WORLD                Barycenter position along world x axis                     [deg]
#   6 Y_WORLD                Barycenter position along world y axis                     [deg]
#   7 A_WORLD                Profile RMS along major axis (world units)                 [deg]
#   8 B_WORLD                Profile RMS along minor axis (world units)                 [deg]
#   9 THETA_WORLD            Position angle (CCW/world-x)                               [deg]
#  10 FWHM_WORLD             FWHM assuming a gaussian core                              [deg]
#  11 ELONGATION             A_IMAGE/B_IMAGE                                           
#  12 ELLIPTICITY            1 - B_IMAGE/A_IMAGE                                       
         1 -14.0299    232.9322     32.2458   3.5709172392e+02   2.3500203724e+01    0.7990306    0.6107625 -31.04  0.005280593    1.320    0.242
         2 -14.8511    240.8968     65.6123   3.7291786243e+00   1.7934827010e+01     1.300551     1.221132  14.35  0.009465041    1.355    0.262
         3 -14.6980    247.5278     37.8203   3.5731170470e+02   2.0094739235e+01     1.798342     0.542493 -31.39  0.007957884    2.733    0.634
         4 -11.6964     51.0937     68.3448   4.9735569244e+01   5.9976705326e+01    0.7870779    0.2938631 -68.14  0.001921017    6.126    0.837
         5 -12.9703    244.3245      8.7862   3.5143212274e+02   2.3808110795e+01    0.5239794    0.3798444 -85.49  0.003724456    1.368    0.269
         6 -10.5143    153.6699    241.3419   5.1732441001e+01   5.5195929727e+00     0.114548   0.08191206  47.20 0.0007051282    1.746    0.427
         7 -11.6535    194.1278    238.7078   4.3572108527e+01   8.6380815836e-01    0.1742393    0.1445598 -18.32  0.001176609    1.401    0.286
         8 -10.3315    204.2947    236.6653   4.1462387014e+01  -7.3304300826e-02   0.09460936   0.08244128  28.74 0.0004233718    1.643    0.391
         9 -11.8899    187.9514    232.0021   4.3770050852e+01   2.4603175521e+00    0.1892111    0.1411794  10.08  0.001203772    1.015    0.015
        10 -10.1672    133.0000    232.0060   5.4921340346e+01   9.6485568599e+00    0.1694995   0.07275206 -51.74 0.0008033448    2.949    0.661
        11 -11.7336    184.6850    227.6897   4.3768562159e+01   3.4396509016e+00    0.2168467    0.1475254 -43.17  0.001379337    1.905    0.475
        12 -10.9387    190.7927    226.8203   4.2492859540e+01   2.7860404965e+00    0.1490457    0.1272397  21.69  0.001077589    1.353    0.261
        13 -10.1443    126.7607    227.0107   5.5682727280e+01   1.1312582231e+01    0.1439986    0.1098074 -49.59 0.0008922387    1.648    0.393
        14  -9.9012    248.6512    224.9764   3.2502981215e+01  -3.5540406446e+00     0.141755   0.07748415 -47.23 0.0007049221    4.459    0.776
        15 -10.3357    198.3911    215.1683   3.9334395038e+01   3.3735757662e+00    0.1464953    0.1067305 -40.37 0.0009460638    1.731    0.422
        16 -10.9120     92.4278    212.6906   6.2056997255e+01   1.8681990991e+01    0.2185962    0.1357851 -72.55   0.00113447    2.104    0.525
        17 -11.4636    192.2517    207.8745   3.9326222538e+01   5.1844782169e+00    0.2737343    0.1561302 -37.56  0.001562237    1.862    0.463
        18 -11.3539     85.6355    208.2250   6.3258961444e+01   2.0505550642e+01    0.2946339    0.1688701 -87.05  0.001358099    2.629    0.620
        19 -10.3698    237.0331    208.0331   3.1658105845e+01  -4.0476207188e-01    0.1706741    0.1437368 -85.54 0.0009584412    4.128    0.758
        20 -12.1455     98.7400    204.5518   5.9545785366e+01   1.9393009312e+01    0.3975612    0.1951286 -69.32   0.00172801    2.873    0.652
        21 -11.1308    197.4648    204.1038   3.7747662320e+01   5.0136670327e+00    0.1826948    0.1566085  23.95 0.0008106628    1.318    0.241
        22 -12.1422    184.6203    202.5900   3.9935236551e+01   7.0020596190e+00    0.3838223    0.3018888 -28.18  0.002495831    1.335    0.251
        23 -10.2674    250.1518    201.1300   2.8565707143e+01  -1.0625299463e+00    0.1385798    0.1082784 -20.02  0.001068421    1.318    0.241
        24 -10.4454    244.3146    201.6525   2.9516219437e+01  -4.7439997638e-01   0.09254785   0.08284477 -30.11 0.0003536443    1.720    0.419
        25 -10.3064    211.0000    200.0060   3.4645906202e+01   3.7827620008e+00    0.1864012   0.06057041 -37.51 0.0008137908    3.022    0.669
        26 -11.2778     79.4181    199.6581   6.3920264295e+01   2.3133495121e+01      0.24539    0.1248065 -89.74 0.0009582971    3.347    0.701
        27 -10.6883    139.9838    198.4885   4.8754460043e+01   1.4322178527e+01    0.2536696    0.1798819 -24.09  0.001375922    1.635    0.388
        28 -11.4294    124.0518    197.1981   5.2316502219e+01   1.7028905429e+01    0.4271185    0.2145761 -55.11  0.001946859    2.406    0.584
        29 -12.6875     88.2772    196.8709   6.1287960331e+01   2.2475946679e+01    0.4446779    0.2592956 -78.91  0.002067563    2.356    0.576
        30 -10.3988    216.1372    195.2778   3.2970780817e+01   3.7482900817e+00    0.1917062    0.1529467 -53.47   0.00121973    2.092    0.522
        31 -11.6708    246.4805    193.0240   2.7777342364e+01   3.0370598742e-01    0.2999924    0.2774725 -54.70   0.00228345    2.034    0.508
        32 -10.6975    184.8822    194.0207   3.8463789285e+01   8.2573210543e+00    0.2688877    0.1380645 -45.34  0.001332978    2.294    0.564
        33  -9.7010    209.3354    194.6622   3.4042145834e+01   4.7322719079e+00    0.1020169   0.09868141  72.91 0.0005245056    1.749    0.428
        34 -11.7712    102.5010    192.0122   5.6968789917e+01   2.1384794382e+01    0.3280842    0.1426813 -58.97  0.001356825    2.704    0.630
        35 -11.9599     77.3637    190.8471   6.3476444863e+01   2.5322338774e+01    0.4628557    0.1653949 -52.57   0.00175576    3.217    0.689
        36 -11.1832     20.7898    190.2036   7.8852511806e+01   3.2125865109e+01     0.248012   0.07620945  54.31 0.0009568541    2.829    0.647
        37 -11.2751    129.9538    187.9380   4.9474778552e+01   1.7875981915e+01    0.3500806    0.2955171  87.61  0.001968804    1.614    0.380
        38 -11.4374     95.4983    188.4785   5.8321540446e+01   2.3193862818e+01    0.2273994    0.1408296 -80.50  0.000973743    2.279    0.561
        39 -10.7714    112.0026    196.7547   5.5211485648e+01   1.8970564474e+01    0.2373762    0.1353746  69.26 0.0008890187    3.543    0.718
        40 -11.5937    249.9418    184.0731   2.5769869796e+01   9.8029124585e-01    0.3154125    0.1224099 -28.03  0.001640359    2.273    0.560
        41 -10.4717    165.5848    184.2001   4.0712938235e+01   1.2799417175e+01      0.18823    0.1186961 -28.42 0.0009595417    1.716    0.417
        42 -11.7478     94.0810    182.0728   5.7823248736e+01   2.4800026423e+01     0.418418    0.2042262 -36.51  0.001549273    3.262    0.693
        43 -11.4732     11.6682    183.5028   8.1010690142e+01   3.4478527491e+01    0.2258488    0.1099979 -85.52  0.001101902    2.031    0.508
        44 -11.3120    225.0551    193.2468   3.1141518977e+01   2.8695973544e+00    0.3615638    0.1674654 -38.31  0.001952693    2.172    0.540
        45 -11.0927     83.4108    181.2440   6.0640321416e+01   2.6595363417e+01    0.1879076    0.1370222 -88.11  0.000949174    1.649    0.394
        46 -11.0702      2.7855    172.0041   8.3035111026e+01   3.7880677297e+01    0.2095161    0.1054502  46.19 0.0009205114    1.615    0.381
        47 -10.7128     77.6508    171.6879   6.1006449585e+01   2.9650175141e+01    0.1451525    0.1120453 -13.93 0.0007045886    1.718    0.418
        48 -11.1729    149.9623    168.4713   4.1342476180e+01   1.8257116134e+01    0.4507779     0.207377 -50.85  0.001831859    2.548    0.608
        49 -10.7101    120.6709    169.5028   4.8744015010e+01   2.3166711546e+01    0.2416078    0.1384933 -52.39  0.000936952    1.941    0.485
        50 -11.6262     55.0054    168.7377   6.7354108231e+01   3.3481618926e+01    0.4257455       0.2322  89.62  0.001825932    2.234    0.552
        51 -10.0009     88.0000    166.9921   5.7332886518e+01   2.9171805939e+01    0.2293829   0.08585525 -61.03 0.0008054733    2.964    0.663
        52 -11.7039    213.1331    161.7509   2.7463798679e+01   8.9160938289e+00    0.4502451    0.2003584 -40.02  0.002149752    2.173    0.540
        53 -10.4759    169.6870    164.3208   3.6179878451e+01   1.5587058710e+01    0.1282642    0.1116849  79.01 0.0004597654    1.652    0.395
        54 -10.1524    222.5173    160.5112   2.5693698859e+01   7.6966191480e+00    0.1229302    0.1011776 -11.04 0.0008103362    1.002    0.002
        55 -10.3443     91.5957    158.2143   5.4888702302e+01   3.0659387710e+01    0.2101355    0.1387559 -47.49 0.0009587355    1.693    0.409
        56  -9.9456    204.6562    153.3128   2.7272434453e+01   1.1530493009e+01    0.1186663    0.1040945 -74.99 0.0007046745    1.707    0.414
        57 -11.5191    249.2386    150.3732   1.9878438706e+01   5.3236312916e+00    0.2743192    0.1092316 -38.48   0.00138167    2.200    0.545
        58 -11.5858    189.1676    146.6194   2.8719035636e+01   1.5240307656e+01    0.3165591    0.1920206 -45.60  0.001566554    1.750    0.429
        59 -11.2545      3.0000    147.9897   8.2023658360e+01   4.3770479224e+01    0.2186427   0.06860923 -83.70   0.00080656    2.971    0.663
        60 -13.6674    193.1942    137.7147   2.6103425859e+01   1.6011739518e+01    0.6126598     0.372348 -43.93  0.003069679    1.661    0.398
        61 -10.4934    239.6026    141.7664   1.9563484880e+01   7.8224983240e+00    0.1736987   0.09347881 -39.94 0.0009563228    1.707    0.414
        62 -10.5629     48.9910    137.7277   6.5476092605e+01   4.2146771652e+01    0.2140085    0.1924908  47.94  0.001171718    1.050    0.048
        63 -10.3792    207.5166    136.9905   2.3466338675e+01   1.3607338810e+01    0.2033142    0.1163991 -35.79  0.001031559    1.589    0.371
        64  -9.9869     69.1640    135.8671   5.8197985677e+01   3.9816346483e+01    0.1948989    0.1763736 -31.52 0.0003454195    1.260    0.206
        65 -12.3906    179.7529    132.4088   2.7481042096e+01   1.9429775252e+01    0.4453933    0.2516311 -50.28  0.001984485    2.021    0.505
        66 -13.3395    193.2455    129.6829   2.4359398772e+01   1.7342373944e+01    0.4231265    0.3468712 -46.35  0.002441532    1.272    0.214
        67 -11.4792    144.6544    132.0837   3.5075868386e+01   2.6508608081e+01    0.3866389    0.2913907  88.53   0.00171325    1.994    0.498
        68 -12.5864    153.1579    129.1812   3.2396720802e+01   2.5347471458e+01    0.5442938    0.3821771 -61.03  0.002508564    1.776    0.437
        69 -10.2140    205.3086    130.6424   2.2493945812e+01   1.4993822279e+01    0.1300663    0.1007958 -63.31 0.0007041964    1.731    0.422
        70 -13.1388    169.6830    128.0631   2.8528042960e+01   2.2196139007e+01    0.6612511    0.4129383 -50.29  0.003054612    1.754    0.430
        71 -13.0697    173.0616    121.0639   2.6219437973e+01   2.2793136097e+01    0.5273287    0.3853942 -51.42  0.002659678    1.467    0.318
        72 -13.1755    180.3116    124.1982   2.5524438363e+01   2.0771243483e+01    0.4888481    0.2799249 -44.02  0.002251804    1.731    0.422
        73 -12.0659     12.1828    128.6432   7.7742884310e+01   4.8165252508e+01    0.4688003    0.1900874  72.81  0.001768896    2.757    0.637
        74 -13.0710    184.9775    115.9722   2.2751856627e+01   2.1272401155e+01    0.5310981    0.4388519   7.53  0.002923717    1.379    0.275
        75 -11.9184    130.3164    115.0557   3.4627795139e+01   3.3129822494e+01    0.5047174    0.2704712 -38.25  0.001959971    2.073    0.518
        76 -12.9950    186.4933    128.5046   2.5328640138e+01   1.8816826938e+01      0.42504    0.2024035 -38.52  0.001834702    1.999    0.500
        77 -11.3887     78.2796    110.6943   4.9865749386e+01   4.4779326508e+01    0.4179122    0.2808202  89.77   0.00168966    2.080    0.519
        78 -11.3022    122.5314    108.9047   3.5165030368e+01   3.6177786434e+01     0.386317    0.2527896 -16.32  0.001437817    2.576    0.612
        79 -12.7048    128.8278    101.3060   3.1408407236e+01   3.6394223667e+01    0.6608558    0.3598022 -53.46  0.002549608    2.071    0.517
        80 -12.0586     94.9686     95.0832   3.9886519211e+01   4.5331530947e+01    0.7437289    0.3816513 -56.49  0.002750217    2.196    0.545
        81 -11.7967    201.1783     92.6299   1.4556839910e+01   2.1807203572e+01    0.3122609    0.1940464 -57.00  0.001512602    1.834    0.455
        82 -12.2329     34.9278     86.9606   6.2592156169e+01   5.7375938273e+01    0.9702238    0.3267951 -63.80  0.003393146    2.708    0.631
        83 -12.1632      4.3703     89.2220   7.7585038654e+01   5.9107111509e+01    0.5259625    0.3039182 -84.19  0.002567313    1.617    0.381
        84 -13.0119    124.7585     87.8373   2.8657796621e+01   4.0146296410e+01    0.8130358     0.494253 -29.88   0.00323561    2.054    0.513
        85 -13.5364     86.5048     83.6585   3.9484223075e+01   4.9775458201e+01       1.0258    0.5652379 -43.54  0.004046801    1.937    0.484
        86 -11.9837     48.2402     83.4873   5.5481209798e+01   5.6620793440e+01    0.7047645    0.3758212  68.86  0.002304769    3.583    0.721
        87 -12.5841    104.9204     81.5667   3.2529343857e+01   4.6150021185e+01    0.9406624    0.5621733 -63.36  0.003564125    2.266    0.559
        88 -12.6841    106.4285     71.0629   2.8613772657e+01   4.7970457355e+01    0.6364335    0.3300238 -43.41  0.002238285    2.012    0.503
        89 -12.8598    119.6487     79.1221   2.7389708238e+01   4.3142586780e+01    0.5433866    0.3110847 -43.21  0.002203883    1.805    0.446
        90 -11.7835     74.4432     79.1207   4.2719113327e+01   5.3281344012e+01     0.522921    0.2838091 -56.52  0.002055582    2.002    0.500
        91 -11.7730     23.7222     75.4924   6.5826751889e+01   6.1487145256e+01    0.3876624    0.1191574 -56.22  0.001378823    2.704    0.630
        92 -12.0970    167.4595     77.3529   1.6133260246e+01   3.1758818018e+01    0.2702198    0.2442393  56.67  0.001403541    1.146    0.128
        93 -12.8151    127.8259     75.5513   2.4093364481e+01   4.1825216449e+01     0.493844    0.3021045 -66.51  0.001876473    2.337    0.572
        94 -10.4648    212.4917    247.4969   4.1549987397e+01  -2.2348024114e+00    0.1094207   0.07630267   7.27 5.294613e-05    1.004    0.004
        95 -11.0494    156.2443    247.2447   5.1944141680e+01   4.3734279386e+00     0.145146    0.1021516 -61.22 0.0008963614    2.451    0.592
        96 -11.3061    161.4961    242.0050   5.0241731668e+01   4.4316892330e+00    0.2705575    0.2025513  80.27  0.001462031    3.467    0.712
        97 -12.2581     62.2918     71.8868   4.5590804702e+01   5.7258731540e+01    0.6345633    0.2402311 -53.77  0.002165146    2.719    0.632
        98 -12.4267    116.2508     70.8034   2.5645513075e+01   4.5613409001e+01    0.4955684    0.3252495 -41.34  0.002161133    1.590    0.371
        99 -12.5433     94.9836     70.4278   3.2111493676e+01   5.0811615406e+01    0.6604612    0.3314577 -56.83  0.002319614    2.610    0.617
       100 -11.1407     42.7152     70.2601   5.4554294824e+01   6.0726755108e+01    0.4578584    0.1553916 -55.17  0.001590044    2.709    0.631
       101 -11.4473    170.5690     70.7082   1.3755909714e+01   3.2102168741e+01    0.2789171     0.142738 -30.55  0.001138104    2.095    0.523
       102 -10.8631    169.2287    242.4244   4.8771963491e+01   3.4069524455e+00     0.165657   0.08684453  35.04 0.0009337328    1.648    0.393
       103 -12.6889    203.7260     64.9524   7.4961321706e+00   2.5392580632e+01    0.3362494    0.1745323 -31.25  0.001571412    1.852    0.460
       104 -11.9198    122.0047     63.7383   2.1729391899e+01   4.5482290300e+01    0.5162439    0.2397125 -33.68  0.001867107    2.440    0.590
       105 -11.6416     37.6859     59.6634   5.3992950214e+01   6.3984541604e+01     0.246665    0.1402623 -53.37   0.00100232    1.691    0.409
       106 -12.3453     73.5456     55.9758   3.4872772995e+01   5.8581075121e+01     0.980381    0.3594281 -41.94  0.003285579    2.934    0.659
       107 -12.6676    203.4081     56.6053   5.4677814453e+00   2.6619202873e+01    0.4367849    0.2992463 -74.85  0.002350873    1.574    0.364
       108 -11.2020     19.6468     86.5329   6.9903205767e+01   5.8904469699e+01     0.258227    0.1261939 -73.29  0.001092829    1.940    0.485
       109 -12.7233     27.7663     46.3552   5.5432399758e+01   6.8324399683e+01    0.4915561    0.3007647 -15.84  0.001828987    2.031    0.508
       110 -12.5990     63.2547     51.9377   3.7798496587e+01   6.1522229914e+01     0.810772    0.2540099 -47.77  0.002576981    3.379    0.704
       111 -12.6726    159.1918     54.4834   1.0982442772e+01   3.7435735894e+01    0.2702879    0.2052142 -40.38 0.0006917889    1.307    0.235
       112 -11.3406     53.4734     52.2044   4.2712650884e+01   6.3288132315e+01    0.4687138    0.1520829 -54.73  0.001436693    3.775    0.735
       113 -10.2793     87.6342     51.7144   2.7695009443e+01   5.6231658805e+01    0.1596613    0.1177405  22.63 0.0007020409    1.695    0.410
       114 -12.3789    157.1137     68.9256   1.5639233924e+01   3.5676866300e+01    0.4915793      0.29788  82.44  0.002000736    2.198    0.545
       115 -11.1547    144.5885     45.3780   1.0658875025e+01   4.2559800227e+01    0.3082089   0.09440359 -44.99 0.0009609528    3.353    0.702
       116 -13.0408    185.6352     41.2786   3.5208967555e+00   3.2734036492e+01    0.3541932    0.1954353  58.30  0.001686326    1.891    0.471
       117 -11.1356     36.5904     39.8021   4.7117348970e+01   6.8655977959e+01    0.3380268    0.1398134 -55.21  0.001306929    2.614    0.617
       118 -11.2619     38.2228     35.7612   4.4232031246e+01   6.9255994154e+01    0.2747137    0.1792999   0.93  0.001251163    2.039    0.510
       119 -11.3602     27.0468     30.9469   4.9533142225e+01   7.1808970056e+01    0.6420685     0.160721 -43.39  0.002001412    4.211    0.763
       120 -10.8835    176.6647     33.3174   2.3399892831e+00   3.5923714915e+01    0.1520214   0.09023169 -63.84 0.0003524935    1.697    0.411
       121 -11.2414     12.6676     25.5091   5.8436821045e+01   7.4467181306e+01    0.2333476    0.1134922 -59.74  0.001096208    2.009    0.502
