#   1 NUMBER                 Running object number                                     
#   2 MAG_AUTO               Kron-like elliptical aperture magnitude                    [mag]
#   3 X_IMAGE                Object position along x                                    [pixel]
#   4 Y_IMAGE                Object position along y                                    [pixel]
#   5 X_WORLD                Barycenter position along world x axis                     [deg]
#   6 Y_WORLD                Barycenter position along world y axis                     [deg]
#   7 A_WORLD                Profile RMS along major axis (world units)                 [deg]
#   8 B_WORLD                Profile RMS along minor axis (world units)                 [deg]
#   9 THETA_WORLD            Position angle (CCW/world-x)                               [deg]
#  10 FWHM_WORLD             FWHM assuming a gaussian core                              [deg]
#  11 ELONGATION             A_IMAGE/B_IMAGE                                           
#  12 ELLIPTICITY            1 - B_IMAGE/A_IMAGE                                       
         1 -14.6457    244.3871      9.9417   1.9538809700e+01   2.4740022354e+01     1.836241    0.7340392 -38.29  0.009707884    1.779    0.438
         2 -13.6505      7.3308      9.3523   7.8119978570e+01   7.7482414792e+01    0.9851506    0.5502545 -50.95  0.005263243    1.570    0.363
         3 -12.0997     20.5227     12.4762   6.8995516948e+01   7.5341276893e+01    0.4163377    0.1892653 -33.16  0.001778542    2.431    0.589
         4 -13.6691     12.7236     22.0794   8.0718241129e+01   7.4274886930e+01    0.7335129    0.3062719 -39.82  0.003152556    2.339    0.572
         5 -12.6299     16.4367      5.0867   6.6886128516e+01   7.7235123843e+01    0.4125381    0.2827957 -18.90  0.002329877    1.497    0.332
         6 -12.1578     25.6160      3.0731   5.8095303777e+01   7.6177241134e+01    0.4066536    0.2656951  17.39  0.002153362    1.765    0.433
         7 -12.3566      1.7810     23.6627   9.0172912402e+01   7.4766828783e+01    0.6166799    0.1554117 -66.30  0.002196406    3.386    0.705
         8 -11.6686     98.7692    243.3401   9.1110623723e+01   1.4617928779e+01    0.3298694    0.1226293  42.95  0.001722468    2.264    0.558
         9 -12.2740    248.7687    223.6467   6.2634898169e+01  -1.4486662714e-01    0.4653274    0.2044669 -16.33  0.002837141    2.202    0.546
        10 -11.5487    233.8190    249.9449   6.8478652733e+01  -1.1172457703e+00    0.2911554    0.1283393  25.34  0.001822864    1.799    0.444
        11 -12.8226    235.0585    242.5944   6.7312745543e+01  -5.6109075687e-01    0.4189751     0.201573   3.85  0.002619175    2.193    0.544
        12 -12.7486    242.3677    235.7351   6.5296669401e+01  -6.4692383680e-01    0.6368763    0.2543929 -10.18  0.003026065    3.989    0.749
        13 -11.4904    250.0069    231.6877   6.3629300331e+01  -1.0269400019e+00    0.2939654    0.1374553 -20.15  0.001748869    1.856    0.461
        14 -12.2188    243.4961    244.4488   6.6337652545e+01  -1.5573220725e+00    0.3900953    0.1909854  -6.82  0.002495691    1.968    0.492
        15 -12.6198    247.6436    238.2920   6.4897973908e+01  -1.4016582471e+00    0.4944649    0.2131306 -27.72  0.003329459    2.134    0.531
        16 -11.7278    248.9404    249.2242   6.6206899484e+01  -2.4937984501e+00    0.4310723     0.249288  -3.36  0.003450055    1.318    0.241
        17 -11.3420    241.0955    249.8381   6.7405691723e+01  -1.8085803766e+00    0.3050041     0.128429  26.61  0.002062951    1.911    0.477
        18 -11.8324     87.3140    250.1009   9.3864196755e+01   1.4888491030e+01    0.3526092    0.1189682  31.02  0.001820241    2.251    0.556
        19 -11.9567     75.4855    249.3362   9.6074409354e+01   1.6266851001e+01    0.4693536    0.1310938  40.20  0.002338087    2.475    0.596
        20 -11.5281     51.5261    249.2834   1.0067125631e+02   1.8717808149e+01    0.3917506    0.1352076  37.27  0.002201729    1.961    0.490
        21 -11.6463     37.7775    247.7587   1.0322866584e+02   2.0274594616e+01    0.4503471    0.1703535  51.49  0.002604357    2.111    0.526
        22 -11.5450     20.9476    248.0785   1.0643444534e+02   2.1737708505e+01    0.3377845    0.1567205  51.51   0.00193466    1.602    0.376
        23 -11.2797     12.7950    248.0355   1.0796038895e+02   2.2436925049e+01    0.3249383    0.1536873  51.98  0.001963208    1.538    0.350
        24 -11.4631      4.0196    249.6762   1.0962228138e+02   2.2887810666e+01    0.3053079    0.1909761  33.20  0.001985956    1.329    0.248
        25 -11.9921      3.5764    241.7541   1.0953409500e+02   2.4213647779e+01    0.4203193    0.1876775  58.91  0.002112156    1.732    0.423
        26 -11.7397     30.4039    239.5692   1.0430409193e+02   2.2289439430e+01    0.3682861    0.1645437  55.61   0.00225035    1.866    0.464
        27 -12.0350    226.8131    239.0757   6.8064176910e+01   6.1168209155e-01    0.2408868    0.1227403   7.00  0.001552954    1.908    0.476
        28 -11.3646    108.5572    239.8957   8.8899168285e+01   1.4006731703e+01    0.2422455    0.1060716  42.66  0.001341968    1.976    0.494
        29 -11.7304     73.1972    239.2265   9.5808976871e+01   1.8074948869e+01    0.3058777    0.1287079  48.00  0.001685891    2.086    0.521
        30 -10.2243     65.3294    238.6170   9.7333418922e+01   1.9009510590e+01    0.1805575   0.09579776  51.73  0.001117148    1.683    0.406
        31 -10.3216     38.7833    238.9004   1.0262588064e+02   2.1621182616e+01    0.2208158   0.08266743  48.28  0.001231313    2.031    0.508
        32 -11.6835     57.5192    240.7464   9.9020446096e+01   1.9473916257e+01    0.3936144    0.1480233  45.82  0.002163733    2.065    0.516
        33 -11.1263      6.9730    234.6133   1.0871415643e+02   2.5145680974e+01     0.285376    0.1413774  60.92  0.001685007    1.624    0.384
        34 -12.3523     85.1447    243.0005   9.3736310395e+01   1.6186964540e+01     0.296296    0.1605797  48.74  0.001866714    1.677    0.404
        35 -12.1174    231.8025    232.6326   6.6415042700e+01   7.2791734322e-01    0.2763894     0.145921   6.71  0.001833949    1.758    0.431
        36 -11.8467     16.5033    239.0390   1.0699192444e+02   2.3604000663e+01    0.4906786    0.1703547  44.81  0.002859955    1.917    0.478
        37 -10.9239     14.5572    230.7090   1.0710858893e+02   2.5194414169e+01    0.3303103    0.1337354  50.89  0.001966594    1.815    0.449
        38 -11.3789     60.6848    230.2177   9.7707821363e+01   2.0888028531e+01    0.2874189    0.1003164  48.27  0.001414618    2.468    0.595
        39 -10.9936     40.0443    229.9958   1.0192834912e+02   2.3011442497e+01    0.2430045    0.1450378  79.91  0.001592798    1.799    0.444
        40 -12.0739     26.4131    227.1724   1.0458296334e+02   2.4780163185e+01    0.4180832    0.2035917  73.94  0.002490859    2.108    0.526
        41 -11.3517      5.3734    226.9913   1.0883300597e+02   2.6602678258e+01    0.3478316    0.1613797  59.25  0.001844789    1.702    0.412
        42 -10.4339     48.8940    228.7367   1.0004133961e+02   2.2356780605e+01    0.2213353    0.1066391  62.12  0.001244109    2.155    0.536
        43 -11.8545    236.7642    225.7032   6.4679537533e+01   8.9624319189e-01    0.2427453    0.1074513 -16.69  0.001421915    2.337    0.572
        44 -10.8423     45.7799    235.8789   1.0107940828e+02   2.1450246030e+01    0.2275943    0.0862816  47.64  0.001243951    2.051    0.513
        45 -10.7849     11.3135    224.3880   1.0756161855e+02   2.6584125365e+01    0.2840157     0.125161  47.03  0.001624614    1.633    0.388
        46 -11.0643     19.2041    220.7343   1.0581048561e+02   2.6575981133e+01    0.2829117    0.1270085  54.16  0.001666088    1.769    0.435
        47 -11.5414      2.6472    219.0513   1.0918171157e+02   2.8249604670e+01    0.3142857     0.196043  76.71  0.001850614    1.446    0.309
        48 -10.9955     35.2484    216.1024   1.0219945813e+02   2.5964017386e+01    0.2204609    0.1277163  66.39  0.001368594    1.635    0.388
        49 -11.5189     12.8898    215.4449   1.0694102331e+02   2.8090447942e+01    0.3621802    0.1752862  57.20  0.002104375    1.661    0.398
        50 -12.0305    248.4391    213.7995   6.1198609180e+01   8.5339397816e-01    0.3455361    0.1512998 -22.12   0.00213307    2.012    0.503
        51 -11.4182      2.5394    210.9812   1.0899392618e+02   2.9763576397e+01    0.2757157    0.1592782  64.63  0.001650123    1.412    0.292
        52 -10.9613     21.3181    210.2898   1.0493173488e+02   2.8341089268e+01    0.2329994   0.09501828  68.20  0.001179286    2.468    0.595
        53 -10.5481     28.9519    210.4702   1.0327275352e+02   2.7616352347e+01       0.1753   0.05133051  46.07 0.0008088938    2.482    0.597
        54 -12.0060     13.2809    203.0820   1.0640312606e+02   3.0429150155e+01    0.3883014    0.1814844  50.59  0.002248659    1.664    0.399
        55 -10.4531      1.4957    204.4355   1.0904061764e+02   3.1102669853e+01    0.2097628   0.09604573 -87.53  0.001176764    2.119    0.528
        56 -11.9797      4.0502    195.5775   1.0821081761e+02   3.2666564870e+01    0.3948175    0.1691811  66.76  0.002124742    2.038    0.509
        57 -11.9259      3.9827    186.8279   1.0793590019e+02   3.4472326466e+01    0.4827415    0.1168293  53.70  0.002018357    3.140    0.682
        58 -10.8027     12.3797    182.2132   1.0573848539e+02   3.4791563428e+01    0.1728346   0.09217746  78.59 0.0009557998    1.741    0.426
        59 -11.8663      2.1187    176.2864   1.0801584692e+02   3.6859108101e+01    0.3137189    0.1588141  78.91  0.001736158    1.765    0.434
        60 -11.3132      6.5056    170.5072   1.0668577788e+02   3.7806382635e+01     0.248467    0.1052423 -84.86  0.001220306    2.200    0.546
        61 -10.5586      9.4854    176.4990   1.0619568756e+02   3.6257385311e+01    0.1207217   0.09645998  62.70 0.0008104807    1.013    0.013
        62 -10.6906     11.1837    165.9869   1.0525901419e+02   3.8463221985e+01    0.2195949     0.100892  63.87  0.001082455    1.991    0.498
        63 -11.6852     10.1323    154.4506   1.0492581100e+02   4.1207694557e+01    0.2685547    0.1325513  73.59  0.001333009    1.904    0.475
        64 -10.5108      4.6928    135.3446   1.0541968491e+02   4.6195183244e+01      0.14054   0.07556268  60.43 0.0005107828    1.695    0.410
        65 -12.2979      4.0477     48.8911   9.5834868622e+01   6.8497966707e+01     0.512755    0.2225271 -58.68  0.002357387    1.829    0.453
        66 -12.0366      2.7427     38.9336   9.4277313968e+01   7.1050904901e+01    0.4017513    0.1679513 -69.95  0.001779717    2.057    0.514
        67 -12.3823    225.6257    246.9086   6.9298306945e+01  -2.3098970282e-02    0.3288949    0.1782134  21.50  0.002418945    1.420    0.296
        68 -11.8475     65.9776    247.7671   9.7802208242e+01   1.7498259889e+01    0.3468631    0.1675866  46.63  0.002172816    1.668    0.400
        69 -10.3264     26.9814    247.9714   1.0529172236e+02   2.1225020701e+01    0.1772282   0.07884083  51.05  0.001025027    1.695    0.410
        70 -12.2493    212.4324    245.3501   7.1122212075e+01   1.4866182476e+00    0.3895919    0.1776426   7.85  0.002106692    2.835    0.647
        71 -10.2000    110.6498    247.3254   8.9187521229e+01   1.2698968109e+01    0.1107032   0.06661181  50.25 0.0007048674    1.756    0.430
        72 -11.2389     45.7339    243.7589   1.0150254649e+02   2.0159068272e+01    0.3037436    0.1471057  48.41  0.001785127    1.609    0.378
