#   1 NUMBER                 Running object number                                     
#   2 MAG_AUTO               Kron-like elliptical aperture magnitude                    [mag]
#   3 X_IMAGE                Object position along x                                    [pixel]
#   4 Y_IMAGE                Object position along y                                    [pixel]
#   5 X_WORLD                Barycenter position along world x axis                     [deg]
#   6 Y_WORLD                Barycenter position along world y axis                     [deg]
#   7 A_WORLD                Profile RMS along major axis (world units)                 [deg]
#   8 B_WORLD                Profile RMS along minor axis (world units)                 [deg]
#   9 THETA_WORLD            Position angle (CCW/world-x)                               [deg]
#  10 FWHM_WORLD             FWHM assuming a gaussian core                              [deg]
#  11 ELONGATION             A_IMAGE/B_IMAGE                                           
#  12 ELLIPTICITY            1 - B_IMAGE/A_IMAGE                                       
         1 -12.4109    187.4842     29.9158   6.6582561633e+01   3.4994174059e+01     0.845286    0.7969036 -51.07  0.004008531    1.201    0.167
         2 -12.3159    196.2788     17.8848   6.2526705086e+01   3.4315375261e+01    0.6824244    0.6594079  26.00  0.002264041    1.344    0.256
         3 -10.3930     49.1403      6.3023   9.0278460411e+01   6.6442943339e+01    0.2059358    0.1215929 -32.51  0.001279368    1.883    0.469
         4  -8.2373     83.0000      3.0030   7.8198553513e+01   6.1035300357e+01    0.1762528    0.0647027 -21.93 0.0008068968    2.973    0.664
         5  -9.6027     58.8179      2.9947   8.5449840441e+01   6.5268434465e+01    0.1811671   0.09862424  28.98 0.0009114322    1.612    0.380
         6 -10.2225    102.9233    236.4023   1.3058601918e+02   1.1321563231e+01    0.2622998    0.1826298 -55.48 0.0008977596    1.642    0.391
         7 -11.7623    161.9786    244.6484   1.1989498278e+02  -1.3117543656e-01     1.377411    0.3128089  34.70  0.003132025    8.277    0.879
         8 -12.1215    142.5193    242.4049   1.2344590542e+02   3.5792869821e+00    0.8558009    0.3940817  31.06   0.00356312    2.626    0.619
         9 -12.1326    122.5359    248.6184   1.2821457621e+02   5.8005757425e+00    0.9852923    0.3927954  35.00  0.004064739    2.727    0.633
        10 -11.6715    139.0798    250.0863   1.2517064147e+02   2.7952249581e+00      1.29708    0.3313173  35.84  0.003874292    4.954    0.798
        11 -11.0401    133.3729    246.5936   1.2583016130e+02   4.3697565542e+00    0.3259762    0.3158265 -56.70  0.001944608    1.238    0.192
        12 -11.0165     97.4023    249.4730   1.3315822706e+02   9.6642213252e+00    0.6797733    0.2562249  54.56  0.002863849    2.667    0.625
        13 -10.5041     96.7942    243.4755   1.3261359931e+02   1.0905438073e+01    0.2823202    0.1996956 -69.00 0.0007985627    1.503    0.335
        14 -10.0120     73.5262    245.4876   1.3724539150e+02   1.4007066288e+01    0.4405457    0.2060523  66.67  0.001088226    2.428    0.588
        15 -10.1653     74.5456    250.5315   1.3753525408e+02   1.2883723876e+01    0.2911169     0.174323  39.79 0.0006147609    1.671    0.402
        16 -10.5241     70.9813    250.3471   1.3816970232e+02   1.3428411936e+01    0.3250723    0.1990982  61.28 0.0006132319    1.363    0.267
        17 -10.0607     63.0254    250.2145   1.3959831044e+02   1.4565754219e+01    0.2599767    0.1309008  52.29  0.000702013    1.628    0.386
        18  -9.6205     59.8505    246.3348   1.3983480568e+02   1.5753992048e+01    0.2233537    0.1396056  84.50 0.0006642615    1.479    0.324
        19 -19.3187     11.0567    128.0024   1.3776161987e+02   4.7701375704e+01     18.16731       1.5171 -68.93   0.03672426   11.093    0.910
        20  -8.7878    199.5802    199.2089   1.0446882478e+02   1.3070186636e+00    0.1990725    0.1289661 -29.54 0.0009485866    1.678    0.404
        21  -8.9321    208.4819    188.5046   1.0056690176e+02   1.6507551783e+00    0.1406618    0.1321872  -4.06 5.339834e-05    1.015    0.014
        22  -8.9246    189.4178    188.2063   1.0439552626e+02   5.3382148362e+00    0.2038558    0.1379262 -55.23 0.0007215511    1.694    0.410
        23 -12.3081    147.0169    230.0202   1.2073050864e+02   5.0854527494e+00    0.8845607    0.2943093  46.21  0.003281994    2.775    0.640
        24 -10.7168     79.1138    183.3788   1.2865376047e+02   2.6754166920e+01    0.4535535    0.2853311 -44.49  0.002171594    1.927    0.481
        25 -10.5869     82.9794    177.4798   1.2684167065e+02   2.7571570214e+01    0.4751558    0.2946288 -37.57 0.0009136416    2.266    0.559
        26 -12.1338     78.6767    162.9636   1.2553483407e+02   3.1745429032e+01    0.6087935    0.5084567 -46.29  0.001236794    1.307    0.235
        27 -10.2640     89.9163    167.2325   1.2345639341e+02   2.8946212071e+01    0.3084306    0.2794914 -85.72  0.000402185    1.004    0.004
        28 -10.7110     95.5804    159.9107   1.2071311159e+02   2.9789549218e+01    0.5951595    0.3731208 -34.10  0.001794274    2.198    0.545
        29 -11.0787     58.6353    153.5200   1.2907490432e+02   3.6855871030e+01    0.6013088    0.2203415 -62.33  0.002352629    2.375    0.579
        30  -9.0895    134.1199    145.3141   1.0789142953e+02   2.6057712208e+01     0.473835   0.09756138 -48.68  0.001157836    4.728    0.788
        31 -10.5304     95.3703    143.7887   1.1759814119e+02   3.3749134088e+01    0.3006445    0.2653085 -38.12 0.0006355961    1.219    0.180
        32  -8.4904    106.5221    144.5308   1.1480129009e+02   3.1605715274e+01    0.1514597    0.1432132 -70.19 0.0001845022    1.011    0.011
        33 -13.5595    111.4258    228.2219   1.2782785250e+02   1.1572586015e+01     2.252702    0.6114686  44.14  0.007991042    3.155    0.683
        34  -9.5880    114.8455    132.2656   1.0985327689e+02   3.2973699098e+01    0.3707613    0.2364604 -36.03 0.0009210045    1.786    0.440
        35  -9.6911    102.9079    129.2010   1.1236166518e+02   3.5930475461e+01    0.4501125     0.294619  58.41 0.0008716654    1.836    0.455
        36 -10.6739     82.2178    230.0735   1.3397708163e+02   1.5834075913e+01     0.382353    0.2478892  61.63  0.001535828    1.380    0.276
        37  -8.5559    110.0044    120.7369   1.0839173683e+02   3.6592418283e+01    0.2019631    0.2003109 -42.50 0.0003703433    1.042    0.040
        38  -8.0787     66.4691    224.5761   1.3651145520e+02   1.9283514860e+01    0.1274368    0.1035166  74.48  9.42531e-05    1.015    0.015
        39 -10.1278     47.4442    218.1072   1.3961764234e+02   2.3216757527e+01    0.5398751    0.3597766   5.19  0.002507499    3.785    0.736
        40  -8.5407    167.9714    112.9558   9.1921746072e+01   2.5805613373e+01    0.2623725    0.1933457 -79.44  0.001133962    1.777    0.437
        41 -10.3608     58.5383    110.6602   1.2097129987e+02   4.7131191410e+01     0.254429    0.1795248  35.66  0.001367536    1.594    0.373
        42 -10.1440     40.1269    213.2864   1.4060356279e+02   2.5169088110e+01    0.4326619    0.1722528  55.43  0.001649157    2.425    0.588
        43  -8.5196    115.2446    102.0025   1.0208277955e+02   3.9743440846e+01    0.2057922    0.1253624 -45.32 0.0007584839    1.598    0.374
        44  -9.0282     52.5246     89.4718   1.1783294648e+02   5.2580034287e+01    0.1333937    0.1145527 -38.88 0.0002618817    1.006    0.006
        45  -9.7025     58.8754     78.6487   1.1279883721e+02   5.4037161053e+01    0.2798286    0.1526423 -31.72  0.001309556    1.949    0.487
        46 -11.4753    177.9215     37.9549   7.0050102879e+01   3.6282044706e+01    0.4629164     0.392855 -26.64  0.001721065    1.375    0.273
        47  -9.8317    162.4551    249.5119   1.2051136562e+02  -1.0276866006e+00    0.2821047    0.1095237  40.55 0.0008370933    2.189    0.543
        48 -10.5047     83.4277    245.8690   1.3542655882e+02   1.2482012461e+01    0.3770655    0.1917609 -66.90   0.00180902    2.064    0.516
        49 -10.1837     78.6128    211.5778   1.3255681282e+02   2.0341427080e+01    0.2660939    0.2458411  82.33  0.001278042    1.173    0.147
        50  -8.9886     88.6503    242.7968   1.3411031589e+02   1.2294126847e+01     0.169555    0.1371626  80.59   0.00109078    1.120    0.107
        51  -9.2086    109.9234    203.8955   1.2470467668e+02   1.7002644132e+01     0.253155    0.1930897  10.73   0.00124843    1.993    0.498
