#   1 NUMBER                 Running object number                                     
#   2 MAG_AUTO               Kron-like elliptical aperture magnitude                    [mag]
#   3 X_IMAGE                Object position along x                                    [pixel]
#   4 Y_IMAGE                Object position along y                                    [pixel]
#   5 X_WORLD                Barycenter position along world x axis                     [deg]
#   6 Y_WORLD                Barycenter position along world y axis                     [deg]
#   7 A_WORLD                Profile RMS along major axis (world units)                 [deg]
#   8 B_WORLD                Profile RMS along minor axis (world units)                 [deg]
#   9 THETA_WORLD            Position angle (CCW/world-x)                               [deg]
#  10 FWHM_WORLD             FWHM assuming a gaussian core                              [deg]
#  11 ELONGATION             A_IMAGE/B_IMAGE                                           
#  12 ELLIPTICITY            1 - B_IMAGE/A_IMAGE                                       
         1  -8.9216     74.1353     19.6288   9.2946039086e+01   6.2901944329e+01    0.2935482    0.1823575 -46.56 0.0008905498    2.044    0.511
         2  -8.4684     55.4975     10.1478   9.5234198226e+01   6.7260976087e+01     0.174063    0.1586051 -24.35 0.0007570001    1.326    0.246
         3  -7.9906     47.5159     10.0509   9.8447622237e+01   6.8476866993e+01    0.1799345    0.1029473 -31.55  0.001022702    1.576    0.365
         4  -7.8174     27.9734      9.9663   1.0736466743e+02   7.0981188450e+01    0.1413778     0.107715 -19.88  0.000581132    1.023    0.023
         5  -8.0464     90.5946      8.8023   8.2858933017e+01   6.0975804308e+01     0.175127     0.112882 -33.55 0.0004561164    1.651    0.394
         6  -7.6308    101.3720      8.1723   7.9740629014e+01   5.8737057318e+01    0.1728897    0.1149867 -32.77 0.0003518214    1.604    0.376
         7  -8.9052    236.1454      2.3946   5.9076354724e+01   2.5897845760e+01    0.2560989    0.1628665 -43.60  0.001084988    1.409    0.290
         8  -8.6549     33.5462      5.1632   1.0216101142e+02   7.1002207060e+01     0.272718     0.165836 -50.60  0.001451072    2.604    0.616
         9  -8.5095     79.0643      3.6315   8.3778449932e+01   6.3814960925e+01     0.244994    0.1529018 -36.51  0.001267295    1.809    0.447
        10  -8.0561     15.6155      2.7974   1.1006898954e+02   7.3295506213e+01    0.1456657   0.08869477 -43.62  0.000520081    1.621    0.383
        11  -7.7022    115.4680      2.4894   7.4148571557e+01   5.6052654094e+01    0.1296066    0.1219484  46.85 0.0002346899    1.076    0.071
        12  -8.3058     62.1113      1.4617   8.8265669863e+01   6.7160622691e+01    0.1669977    0.1116867  45.06 0.0004913602    1.513    0.339
        13  -9.0245    120.3476    245.4826   1.3243953682e+02   9.9575809836e+00    0.3102529    0.1682303  67.31  0.001669921    2.241    0.554
        14  -8.7368    249.2731    249.3322   1.1098672476e+02  -1.0267917727e+01     0.235751    0.1466651  -7.55  0.001603667    1.645    0.392
        15  -9.3379    210.8747    246.6564   1.1685768220e+02  -4.4172712050e+00    0.2337019    0.1635004 -44.86 0.0008493447    1.979    0.495
        16  -8.0704    191.7295    249.7682   1.2052929591e+02  -1.8384758547e+00     0.151302    0.1149488  51.58  0.001041376    1.391    0.281
        17  -9.0425     59.3123    249.9738   1.4319285449e+02   1.7804792155e+01    0.1463944    0.1056001  70.79 0.0003308957    1.081    0.075
        18  -8.1909     67.5315    245.0382   1.4149299621e+02   1.7570482162e+01     0.147607    0.0947412 -82.16 0.0008642567    1.566    0.361
        19  -8.2616      9.7797    244.9948   1.5073624102e+02   2.4261635487e+01    0.1254817   0.06250282 -86.86  0.000877914    1.693    0.409
        20  -9.5718    248.6231    241.9836   1.0996589115e+02  -9.4476052636e+00    0.3131882    0.1852213 -25.23   0.00138843    1.804    0.446
        21  -8.9240    247.6449    235.0455   1.0903105138e+02  -8.5904576975e+00    0.1959482    0.1579694  26.34 0.0006835441    1.224    0.183
        22  -9.5461    246.7421    229.4205   1.0826999240e+02  -7.8556333581e+00    0.4335091    0.2232256 -29.07  0.002242836    2.058    0.514
        23  -8.7503    201.9373    243.3267   1.1789765311e+02  -2.6465175523e+00    0.2070879    0.1637165 -60.80  0.001044591    2.000    0.500
        24  -8.3252    169.0334    243.4523   1.2362549309e+02   2.5659136128e+00    0.1841235    0.1568429  85.59 0.0006264764    1.547    0.354
        25  -8.1088     88.2866    242.4109   1.3774418088e+02   1.5182797938e+01    0.1865551    0.1102302  80.60 0.0008923569    1.821    0.451
        26  -8.4465     77.6550    243.1671   1.3963670351e+02   1.6532419449e+01    0.1760703    0.1084148  73.97  0.001150954    1.481    0.325
        27  -9.2711    182.9331    239.9008   1.2071043187e+02   8.0599266927e-01    0.2991972    0.2278885  70.92  0.001641606    1.857    0.462
        28  -9.4222    160.3749    240.5930   1.2478939142e+02   4.3599994372e+00    0.3029093    0.2142268 -89.64  0.001552335    2.264    0.558
        29  -7.8049    153.4765    242.0203   1.2619309955e+02   5.2674038869e+00     0.147088   0.09842731  88.92 0.0007575967    2.492    0.599
        30  -8.2865    147.3183    240.8060   1.2714107338e+02   6.4339351802e+00    0.3155732    0.1703885  74.00  0.001234476    4.660    0.785
        31  -8.7367    240.6006    240.2463   1.1098667574e+02  -8.1275618765e+00     0.247875    0.1241466 -21.21  0.001414836    2.306    0.566
        32  -8.0394    214.1299    241.1574   1.1551087700e+02  -4.2783612220e+00      0.14403    0.1279477  40.21 0.0006265598    1.327    0.247
        33  -8.0887      8.3242    241.6357   1.5082328074e+02   2.4977535293e+01    0.1127036   0.04621641  65.69   0.00070396    1.791    0.442
        34  -8.8661    194.0961    239.6636   1.1872810560e+02  -9.5421342279e-01    0.1654324    0.1567383  39.32 0.0004850975    1.269    0.212
        35  -8.7433    135.7916    239.0947   1.2900096958e+02   8.5356054993e+00    0.1910456    0.1319375  63.16   0.00120344    1.427    0.299
        36  -8.6970    129.2995    238.9789   1.3015230110e+02   9.5819712237e+00    0.2494041    0.1130905  59.27   0.00115749    2.602    0.616
        37  -9.0777    231.0352    237.0261   1.1205579293e+02  -6.3725027282e+00    0.2159304    0.1999344  77.88 0.0009798016    1.817    0.450
        38  -8.0922    208.9875    238.2977   1.1596239212e+02  -3.1405058339e+00    0.1617606    0.1260296  29.73  0.000417953    1.020    0.019
        39  -8.1225     25.3531    237.0319   1.4794181723e+02   2.4007542669e+01     0.175442    0.0550573  78.88 0.0007047234    4.468    0.776
        40  -9.8755    214.9489    233.3099   1.1419093202e+02  -3.4717625042e+00    0.4443639    0.3319947  89.62  0.002343105    3.393    0.705
        41  -9.0805    203.2110    234.7901   1.1643700003e+02  -1.7935209088e+00    0.2784173     0.193869 -56.95  0.001173087    2.292    0.564
        42  -9.6797    175.6890    233.4001   1.2109538105e+02   2.8738744944e+00    0.4006664    0.2734128 -67.53  0.002311157    2.343    0.573
        43  -8.0669    170.1904    236.1202   1.2245295652e+02   3.3954260611e+00    0.1577284    0.1272265  61.72 0.0005652058    1.365    0.267
        44  -9.1255    108.6021    234.4478   1.3339173635e+02   1.3528993968e+01     0.284661    0.1743486  67.27  0.001062113    1.632    0.387
        45  -8.8793     79.0295    234.5440   1.3868876726e+02   1.7818272046e+01    0.2446049    0.1341436  73.29  0.001158069    1.852    0.460
        46  -8.2768    122.8733    234.1325   1.3076973254e+02   1.1369301480e+01    0.1910703    0.1319956  65.44 0.0008909491    1.390    0.281
        47  -8.1549     99.5849    234.2922   1.3500185214e+02   1.4911247129e+01    0.1846516    0.1094195  69.26  0.000882657    1.706    0.414
        48  -8.9629     68.7893    232.7453   1.4034265145e+02   1.9524435093e+01    0.3949093    0.1521772  67.77  0.001679896    3.541    0.718
        49  -8.4383    194.8346    233.0475   1.1764269102e+02  -2.1863604821e-01    0.1780644    0.1443599  53.06  0.001003776    1.370    0.270
        50  -8.1343    145.0335    233.5107   1.2665896053e+02   7.9074386276e+00    0.2078848    0.1262303  64.80  0.001128668    1.972    0.493
        51  -8.6528    140.2213    230.1578   1.2712281041e+02   9.2203682450e+00    0.3035047    0.1495283  57.84  0.001468625    2.239    0.553
        52  -8.2237    132.7994    233.0694   1.2883780135e+02   9.9604653355e+00    0.1897786    0.1385127  65.46 0.0009518506    1.344    0.256
        53  -9.3205    186.4864    230.6160   1.1876609507e+02   1.4763075714e+00    0.3006222    0.2256512 -79.10  0.001223266    2.316    0.568
        54  -8.9254      1.8836    231.2718   1.5140798059e+02   2.7402281072e+01    0.1800618   0.09283286  75.71  0.000913048    1.400    0.286
        55  -8.8779    236.0491    230.6183   1.1021561310e+02  -6.4041684420e+00    0.2034226    0.1549341 -12.61 0.0005169608    1.326    0.246
        56 -10.0362    149.8937    226.5456   1.2487039196e+02   8.1918790498e+00    0.5933135    0.3483684 -87.39   0.00246379    4.139    0.758
        57  -8.1586    229.7799    228.9654   1.1099551344e+02  -5.2609684224e+00    0.1544825    0.1375846 -68.86 0.0007274661    1.926    0.481
        58  -8.8908    162.7061    228.1085   1.2271724200e+02   5.8045237902e+00    0.3277631    0.1955853  64.63  0.001413976    2.329    0.571
        59  -8.8720    128.0729    227.3792   1.2903146878e+02   1.1650734513e+01     0.270525    0.1754584  74.96  0.001047721    1.887    0.470
        60  -8.2930    120.0339    227.9071   1.3058592911e+02   1.2850606627e+01    0.2002615    0.1223803  67.48  0.001012985    1.778    0.437
        61  -8.6976     36.8314    228.1492   1.4554480333e+02   2.4313764847e+01    0.1318239    0.1118757  81.30 0.0005991277    1.327    0.247
        62  -9.2795    225.3966    221.7790   1.1057173174e+02  -3.7125712708e+00    0.2453636    0.2175835 -18.28  0.001034725    1.307    0.235
        63  -8.7580    206.0542    226.0662   1.1461130051e+02  -1.1356120450e+00    0.2723422    0.1599859 -43.01  0.001337667    2.110    0.526
        64  -8.3396    199.8420    226.1032   1.1571261745e+02  -1.2040834338e-01    0.1721089    0.1510796  48.18 0.0005408563    1.276    0.216
        65  -8.2487     49.3434    226.2260   1.4326108964e+02   2.3183922892e+01    0.1546649   0.08337615  88.70 0.0005582325    1.731    0.422
        66  -8.8095    180.6903    224.4986   1.1891147124e+02   3.3051292066e+00     0.211591    0.1847688  69.41 0.0007650732    1.394    0.282
        67  -8.9462    104.7566    223.6966   1.3296192607e+02   1.5967968173e+01    0.3063361       0.1811  77.93  0.001589861    2.050    0.512
        68  -8.9018     94.1167    224.2474   1.3500159036e+02   1.7476795938e+01    0.3369022    0.1593665  65.01  0.001617772    2.433    0.589
        69  -8.1032    223.4804    227.0132   1.1174760649e+02  -4.0495859176e+00    0.2043898    0.1113708 -27.13 0.0006360137    2.080    0.519
        70  -8.8215    216.4694    223.5980   1.1240335710e+02  -2.5102955909e+00     0.216065    0.1970164  71.04 0.0009590292    1.602    0.376
        71  -8.8737    173.0671    223.1584   1.2011009932e+02   4.7949584674e+00    0.2384977    0.1831534  79.57 0.0008325463    1.851    0.460
        72  -7.8875    113.6324    223.8347   1.3131464017e+02   1.4561779357e+01    0.1550826    0.1070391 -83.42 0.0005248603    1.659    0.397
        73  -8.1775     59.6331    223.4802   1.4123448919e+02   2.2399453471e+01    0.2250947    0.1036955  75.84  0.001134896    2.452    0.592
        74  -9.3802    192.6335    221.3165   1.1626135143e+02   1.7381448862e+00    0.2979841     0.249774  84.08  0.001176853    1.762    0.432
        75  -8.4193    140.4638    222.8687   1.2614932386e+02   1.0360537840e+01    0.1572377    0.1230536 -62.87 0.0006020912    1.510    0.338
        76  -9.0757    239.1286    221.3436   1.0818600511e+02  -5.8033894443e+00     0.251047    0.1797203 -24.76 0.0008804374    1.473    0.321
        77  -9.0750    159.9811    221.0132   1.2223096774e+02   7.3571317055e+00    0.4556005     0.203412  56.94  0.001606786    2.988    0.665
        78  -8.9507      7.6908    222.5225   1.5011028272e+02   2.8418026506e+01     0.208041   0.06549272  44.00  0.001180277    2.429    0.588
        79  -9.1148    120.4206    219.4199   1.2951245969e+02   1.4248717541e+01    0.3637004    0.2058593  72.29  0.001494138    2.412    0.585
        80  -8.3770     82.6261    220.5690   1.3677515900e+02   1.9818297959e+01     0.238649    0.1264385  68.82 0.0009002898    1.955    0.488
        81  -8.0369     72.7131    220.2659   1.3858473687e+02   2.1260115211e+01    0.2230103    0.1209825  85.85  0.001227385    2.008    0.502
        82  -8.2597     27.7077    220.5174   1.4664645112e+02   2.6736626545e+01    0.2621505   0.06536449 -69.34  0.001216062    3.495    0.714
        83  -8.5506    210.0407    219.1423   1.1280657971e+02  -8.8140803843e-01    0.2053631    0.1724207 -50.30 0.0007662725    1.611    0.379
        84  -8.1884    202.6681    220.2416   1.1429113048e+02   1.9875138700e-01    0.1587714    0.1538979 -37.17 0.0005853963    1.324    0.244
        85  -9.5462    248.4814    216.5166   1.0582724349e+02  -6.6628156307e+00    0.5144458     0.327958 -36.55   0.00258254    1.851    0.460
        86  -8.2148    179.0387    217.9679   1.1823120720e+02   4.5467156899e+00    0.1471624    0.1336805  31.74 0.0006384435    1.086    0.080
        87  -7.9911    135.3472    218.6783   1.2657182146e+02   1.1917484202e+01    0.1307146    0.1083653  53.27 0.0008394364    1.002    0.002
        88  -8.8592    132.1024    215.3696   1.2676029379e+02   1.3030571790e+01    0.3407807    0.2118085 -85.70   0.00117596    2.432    0.589
        89  -8.5825     62.4243    217.7167   1.4026021707e+02   2.3114435914e+01    0.2993253     0.138347  62.82  0.001582706    2.015    0.504
        90  -8.6792     51.7051    217.5013   1.4220133401e+02   2.4518637819e+01    0.2560408     0.128978  89.39  0.001094554    1.966    0.491
        91  -8.8252    169.3218    216.0295   1.1974987461e+02   6.5268422518e+00    0.2779898    0.2018502 -85.36 0.0009417189    2.200    0.545
        92  -8.6571    143.0724    216.6636   1.2482610544e+02   1.0954008722e+01    0.2521999     0.176598  76.07  0.001230741    1.793    0.442
        93  -7.9910    111.8634    217.2636   1.3089030750e+02   1.6004970671e+01    0.2149775    0.1087888  68.66 0.0009432969    2.787    0.641
        94  -8.1428     18.6147    217.1608   1.4801698882e+02   2.8323620515e+01    0.1407849   0.07955644 -74.10 0.0008229574    1.678    0.404
        95  -8.9009    232.3190    214.7072   1.0820775997e+02  -3.9386040188e+00    0.2323297    0.2003082 -51.54  0.001120189    1.722    0.419
        96  -8.5252    185.7018    214.1523   1.1640346280e+02   3.9619752532e+00    0.2291047    0.1509386 -46.05 0.0009148588    1.818    0.450
        97  -8.2538    154.3837    215.1971   1.2245777158e+02   9.2546314656e+00    0.1603818    0.1200229 -69.93 0.0006915158    1.699    0.412
        98  -8.8799     93.5494    214.3252   1.3407441997e+02   1.9378914514e+01    0.3934078    0.1624025  58.72  0.001290018    2.620    0.618
        99  -7.5734     41.3376    215.0266   1.4389355069e+02   2.6237094910e+01    0.1858657   0.06689802  81.95 0.0007044928    4.305    0.768
       100  -9.4148     73.3850    212.2508   1.3772143411e+02   2.2682810668e+01    0.5603357    0.1995684  61.80  0.002142191    3.787    0.736
       101  -8.5528    224.9101    212.4798   1.0909600655e+02  -2.4594548483e+00    0.2020913    0.1684006 -44.18 0.0007473114    1.586    0.369
       102  -9.5908    213.9546    211.5793   1.1085950582e+02  -5.2096594205e-01    0.3732106    0.3291568 -51.86  0.001654244    1.535    0.349
       103  -8.7405    162.1434    212.5664   1.2058954337e+02   8.3318767961e+00    0.2575572    0.1865129  69.08  0.001016069    1.701    0.412
       104  -8.8791    204.3517    211.1341   1.1250110751e+02   1.1732924591e+00    0.2324532    0.2074234 -73.11 0.0009616131    1.603    0.376
       105  -9.4776    175.4704    210.0940   1.1767470375e+02   6.3781707437e+00    0.3883142    0.2694376  83.46   0.00150132    2.596    0.615
       106  -8.2917    192.3017    210.4769   1.1459096506e+02   3.3564162619e+00     0.193525    0.1543691 -68.49 0.0007606653    1.832    0.454
       107  -8.7852    147.9346    210.5061   1.2302254570e+02   1.1160792585e+01    0.2675544    0.1875343  73.23   0.00122234    1.780    0.438
       108  -8.9565    116.3366    210.3920   1.2918665521e+02   1.6534141616e+01    0.3300153    0.2000868  73.99  0.001173443    2.043    0.511
       109  -8.4897     85.6800    209.6889   1.3510050590e+02   2.1425897041e+01    0.2524681    0.1362419  70.59  0.001040914    2.040    0.510
       110  -8.0835     32.3269    210.6515   1.4521830512e+02   2.8103301569e+01    0.1236381   0.06003851  67.70 0.0007049312    1.755    0.430
       111  -9.2228    236.6826    208.1003   1.0632254301e+02  -3.8097797120e+00    0.2795108    0.2225387 -32.89  0.001133989    1.459    0.314
       112  -8.3134    139.2734    208.3001   1.2439839672e+02   1.3048100095e+01    0.2464391    0.1618705  73.24 0.0007384545    1.957    0.489
       113  -8.2039    126.3741    208.6563   1.2698673076e+02   1.5186853557e+01    0.1884006    0.1284997  70.23 0.0006406097    1.595    0.373
       114  -8.6907      6.0225    208.5432   1.4973456103e+02   3.1187153801e+01    0.2362262   0.08777703  79.36  0.001240895    2.446    0.591
       115  -9.4377    246.3726    207.4124   1.0458284165e+02  -5.2586081615e+00    0.2268326    0.1927824  -6.20 0.0005532971    1.169    0.144
       116  -8.1196    156.4023    208.1932   1.2103636793e+02   1.0066321625e+01    0.1617499    0.1234583 -69.30 0.0005466038    1.636    0.389
       117  -9.1104     99.4089    206.2468   1.3202087862e+02   2.0015015936e+01     0.337395    0.1983708  77.13  0.001366923    2.038    0.509
       118  -8.5906     56.8671    205.9808   1.4030225606e+02   2.6100093333e+01    0.3059074    0.1371516  64.73  0.001188015    2.238    0.553
       119  -9.4749    194.9432    203.3918   1.1291506279e+02   3.9493405039e+00    0.3858078    0.3166923 -46.95  0.001754972    1.459    0.315
       120  -9.1191    192.5654    197.5798   1.1235434009e+02   5.2708990468e+00    0.2883315    0.2442179 -83.63 0.0008949864    1.671    0.401
       121  -9.0985    183.8978    203.9996   1.1508977234e+02   5.8326487708e+00    0.2941734     0.227684  71.13 0.0008684487    1.728    0.421
       122  -8.6550    131.3139    204.3951   1.2542278745e+02   1.5122991299e+01     0.285277    0.1758312  68.52 0.0009173555    1.979    0.495
       123  -8.2558    109.0819    205.1273   1.2996030888e+02   1.8696656861e+01    0.2041869    0.1325267  73.14 0.0007712626    1.671    0.401
       124  -7.5680     92.3018    205.6532   1.3336046723e+02   2.1219982743e+01    0.1324851      0.08075  71.28  0.000703898    1.687    0.407
       125  -8.0016     24.6904    205.3138   1.4625414211e+02   2.9965222971e+01    0.1187502   0.05999197  67.80 0.0002275875    1.630    0.386
       126  -9.4893    250.1086    202.0414   1.0300412663e+02  -5.1850546386e+00    0.3349698    0.1654768 -31.38  0.001329852    2.027    0.507
       127  -8.4539    227.3243    202.8646   1.0699615111e+02  -1.5941238721e+00    0.3001385    0.1478429 -14.59   0.00122436    3.412    0.707
       128  -9.6384    163.9590    203.0912   1.1877432000e+02   9.5755613935e+00    0.4274667     0.239401  56.91 0.0009320656    2.005    0.501
       129  -8.0323     41.3010    202.9875   1.4301536383e+02   2.8590193002e+01    0.1861076   0.06887312  83.15 0.0006238619    4.079    0.755
       130  -8.0873     17.2353    203.2786   1.4747800642e+02   3.1125803575e+01    0.1733399   0.06772429  88.46 0.0008876977    2.375    0.579
       131  -9.2615    243.0313    200.7564   1.0394064002e+02  -3.9009040215e+00    0.2802864    0.1667194 -33.10 0.0008790862    1.746    0.427
       132  -8.2408    222.0816    201.2406   1.0762196828e+02  -4.8697663503e-01    0.2116586    0.1663517 -64.23  0.001211084    2.096    0.523
       133  -8.4589    210.9156    201.6582   1.0968672883e+02   1.3836111298e+00    0.2236539    0.1687419 -55.96 0.0006856364    1.879    0.468
       134  -9.1673    140.5314    200.7583   1.2305147142e+02   1.4178451517e+01    0.3735906    0.2628175 -88.32  0.001314259    1.902    0.474
       135  -8.5661     80.1664    201.4501   1.3530823559e+02   2.3839930559e+01    0.3101397    0.1436641  72.49  0.001280114    3.153    0.683
       136  -8.3459     48.1974    202.0796   1.4163101515e+02   2.7953400306e+01     0.241311    0.1060088  61.25  0.001234624    2.111    0.526
       137  -8.2253     10.4956    202.5053   1.4864149139e+02   3.1932042239e+01    0.1090812   0.07766902  77.90 0.0008105039    1.027    0.027
       138  -9.6395    236.9677    197.8718   1.0443485707e+02  -2.5376548220e+00    0.3831823    0.2091175 -31.90  0.001833723    1.874    0.466
       139  -9.4345    149.7309    198.8641   1.2091857153e+02   1.2877110338e+01     0.392141    0.2627353  83.16  0.001537103    2.289    0.563
       140  -8.7827    123.7596    199.1944   1.2621307395e+02   1.7387085658e+01    0.2658234    0.1872946  88.13  0.000884086    1.692    0.409
       141  -9.3350    113.1029    198.5835   1.2830006522e+02   1.9296933949e+01    0.4383527    0.2373686  72.26  0.001873366    2.716    0.632
       142  -8.9792     88.6558    198.6645   1.3328905366e+02   2.3147201609e+01    0.3354194    0.1966799  78.63  0.001365765    1.952    0.488
       143  -8.4126    177.0666    199.0338   1.1556358708e+02   7.8678336802e+00     0.196462    0.1782079  49.28 0.0005252853    1.103    0.094
       144  -8.6120    202.3229    197.7747   1.1056759119e+02   3.4768433125e+00    0.2211434     0.197335 -84.27 0.0007640242    1.561    0.359
       145  -9.0543     61.5512    197.1147   1.3857765444e+02   2.7275146154e+01    0.3807331    0.1784839  72.72  0.001757694    2.532    0.605
       146  -8.3347     12.9651    197.9770   1.4794320712e+02   3.2588112933e+01    0.1929141   0.08891628  66.28  0.001135556    1.795    0.443
       147  -8.8448    215.8435    195.6885   1.0772762481e+02   1.3777747469e+00    0.2865428     0.177538 -50.16  0.001049523    2.196    0.545
       148  -8.9299    185.4269    194.8710   1.1323726014e+02   7.0106097854e+00    0.2469987    0.2162311 -68.55 0.0007284537    1.441    0.306
       149  -8.0920    132.9709    196.0068   1.2387303859e+02   1.6392232771e+01    0.2093058    0.1472346  76.54 0.0006639898    1.693    0.409
       150  -8.9422    224.3923    193.9493   1.0588731980e+02   1.2981445168e-01    0.3553501    0.1838728 -42.94  0.001733511    2.271    0.560
       151  -7.3806    209.3250    195.6922   1.0890823848e+02   2.5338182116e+00    0.1204005    0.1034154  75.74 0.0007036646    1.650    0.394
       152  -8.7307    161.0635    194.5093   1.1795058013e+02   1.1581391955e+01    0.2574325    0.1977451  88.06 0.0008791633    1.745    0.427
       153  -8.9132     43.7373    193.5076   1.4178214584e+02   3.0224924684e+01    0.3705436    0.1644668  72.96  0.001773748    2.489    0.598
       154  -9.7289    245.7504    192.2986   1.0192337531e+02  -3.2528965198e+00    0.4727798    0.2252141 -24.83   0.00189331    2.226    0.551
       155  -8.8514     77.0533    193.8547   1.3510683017e+02   2.5822452327e+01    0.2462053    0.1649538  78.37  0.000586317    1.410    0.291
       156  -8.5184    231.2438    194.0954   1.0471882101e+02  -1.0690136307e+00    0.1767488    0.1500813  -9.85 0.0006018203    1.138    0.121
       157  -7.8263    205.2226    191.9135   1.0897287532e+02   3.8415887668e+00    0.1599009    0.1068959 -37.75 0.0004356441    1.623    0.384
       158  -8.1709    198.8447    192.0452   1.1018498471e+02   4.9878425067e+00    0.1882254    0.1761899  70.99 0.0005443438    1.309    0.236
       159  -8.2532    179.2739    191.8645   1.1389986055e+02   8.6492246592e+00    0.1941621     0.164751 -72.66 0.0005168079    1.498    0.332
       160  -8.4693    172.4467    191.7815   1.1522586705e+02   9.9395689471e+00    0.2413375    0.1845828 -73.56 0.0009615007    1.785    0.440
       161  -9.2290    139.4708    190.5884   1.2170312176e+02   1.6255718499e+01    0.3535472    0.2437648 -88.80  0.001180063    1.992    0.498
       162 -10.3516     91.9982    188.6955   1.3138407105e+02   2.4665498408e+01    0.8910228    0.2590953  51.48  0.003112436    3.653    0.726
       163  -8.4142      6.2738    190.6463   1.4875599520e+02   3.4671941831e+01    0.1824185    0.0851464  67.12  0.001086854    1.763    0.433
       164  -8.3822    148.7564    189.4862   1.1961203533e+02   1.4764274490e+01    0.2499068    0.1751562 -76.77  0.000805449    1.907    0.476
       165  -8.5540    237.2218    188.3527   1.0261203716e+02  -1.3010161595e+00     0.264937     0.166555 -24.69 0.0009627913    1.588    0.370
       166  -8.9476    216.6567    187.9893   1.0615229455e+02   2.3602594744e+00    0.2689376    0.2128436 -51.09 0.0008023596    1.620    0.383
       167  -9.3048    156.0065    187.4828   1.1779071478e+02   1.3785282551e+01    0.3336823    0.2169463 -60.12 0.0009161947    1.846    0.458
       168  -8.9659    129.2419    188.4653   1.2349992900e+02   1.8499823732e+01    0.2932956    0.2079025  83.70 0.0009059348    1.721    0.419
       169  -9.8399    120.9487    186.6111   1.2496442256e+02   2.0325036643e+01    0.6040537    0.2935446 -72.39  0.002335635    3.280    0.695
       170  -8.5131     34.3111    188.2609   1.4321451139e+02   3.2378744577e+01    0.3083622    0.1418568  79.50  0.001140691    2.222    0.550
       171  -8.2718    230.8520    187.5425   1.0355359535e+02  -9.1463940588e-02    0.2368422    0.1624061 -48.00  0.001110249    1.904    0.475
       172  -8.7897    191.5019    187.2920   1.1070832330e+02   7.1131340371e+00    0.2807164    0.2143199 -73.12 0.0009079103    1.980    0.495
       173  -9.1032     54.6908    186.8915   1.3897214625e+02   3.0273844661e+01    0.3965599    0.1876602  75.47  0.001560609    2.505    0.601
       174  -8.7116    249.3284    185.7523   1.0008733234e+02  -2.9811711873e+00    0.2503358    0.1908208 -46.68  0.001022806    1.755    0.430
       175  -8.7951    164.6783    186.7250   1.1589651448e+02   1.2288826078e+01    0.2512234     0.203294 -75.47 0.0008047356    1.536    0.349
       176  -9.1836    109.5911    186.2488   1.2732351721e+02   2.2336984265e+01    0.3628069    0.2194074  73.86  0.001221287    2.068    0.516
       177  -9.0787    182.8154    184.8142   1.1193799293e+02   9.1720657789e+00     0.340777     0.218014 -53.17  0.001157822    1.897    0.473
       178  -8.8713    210.3459    184.3220   1.0660631785e+02   4.0671150763e+00    0.2515545    0.1976277 -26.66 0.0006411279    1.317    0.241
       179  -8.6697    202.7801    184.3920   1.0802560424e+02   5.4633077398e+00    0.2774502     0.174732 -54.19 0.0009320574    2.163    0.538
       180  -9.0740     66.6558    184.4047   1.3621993551e+02   2.9241410106e+01    0.3701588     0.196037  68.33  0.001152419    1.999    0.500
       181  -7.8475     12.2972    185.6365   1.4732344204e+02   3.5141982948e+01    0.1218792   0.06005675  70.28 0.0007032642    1.717    0.418
       182  -8.2778    243.6481    184.3046   1.0074990520e+02  -1.8392125770e+00    0.1133124    0.1037789 -84.97 0.0007041066    1.706    0.414
       183  -9.1274    224.2465    183.0268   1.0384519837e+02   1.7269726872e+00    0.3755614    0.1680377 -33.64  0.001444975    2.312    0.567
       184  -8.3902    197.0036    183.7616   1.0899817904e+02   6.6511421111e+00    0.2222913     0.174835 -58.13 0.0006037275    1.626    0.385
       185  -8.9227    174.2784    183.6408   1.1341453289e+02   1.1007589649e+01    0.2716068    0.2156895  84.97 0.0008086186    1.698    0.411
       186  -8.9545     44.4620    182.5972   1.4067203671e+02   3.2421884277e+01    0.3087674    0.1606012  69.47  0.001153746    1.866    0.464
       187  -8.1565      2.1225    183.6893   1.4914445857e+02   3.6441667575e+01     0.189068   0.06853364  42.74  0.001057194    2.417    0.586
       188  -9.1834    147.5534    180.7321   1.1838350972e+02   1.6644540825e+01    0.3256083     0.232408  76.92  0.001141323    1.800    0.445
       189  -8.5166    240.4643    180.8091   1.0060491474e+02  -8.1489665372e-01     0.236592    0.1164216 -36.85   0.00113896    2.062    0.515
       190  -7.6078    235.3084    181.6654   1.0165027173e+02  -3.9215699379e-02    0.1171985    0.1050523 -72.97 0.0007042136    1.674    0.403
       191  -9.4645     25.4855    178.5809   1.4422073126e+02   3.5340338488e+01     0.610361    0.2127449  79.25  0.002215028    4.479    0.777
       192  -8.6492    137.5038    179.1897   1.2025004726e+02   1.8826656397e+01    0.3015161    0.2092764 -87.03 0.0009660414    1.937    0.484
       193  -9.4237    191.5036    178.4349   1.0904064814e+02   8.5851949280e+00    0.3120309    0.2336668  60.98 0.0005493069    1.574    0.364
       194  -8.3539    169.4816    178.5161   1.1344110400e+02   1.2850330664e+01    0.2577978    0.1387407 -46.92 0.0006933425    2.029    0.507
       195  -8.9665     35.9307    176.9212   1.4192915364e+02   3.4598564388e+01    0.4521252    0.1752048  82.23  0.001754501    3.718    0.731
       196  -9.5610    248.5065    176.5828   9.8431099568e+01  -1.6086594440e+00    0.4221201    0.2526552 -42.78  0.002214507    1.947    0.486
       197  -8.5198    250.5114    172.8988   9.7367841093e+01  -1.4434999751e+00    0.1859471    0.1443242 -33.71 0.0005198451    1.349    0.259
       198  -8.6423    231.2127    176.9684   1.0143337144e+02   1.3632026793e+00    0.2480513    0.1655955 -43.71 0.0006471319    1.729    0.421
       199  -8.5025    217.6481    177.4449   1.0393648725e+02   3.7729543949e+00    0.2379521    0.1961211 -64.03 0.0008346694    1.713    0.416
       200  -8.6277    205.1454    177.7041   1.0629355345e+02   6.0860970735e+00    0.2205741    0.1820717 -46.28 0.0005995327    1.385    0.278
       201  -8.6468    129.2127    177.6361   1.2177343919e+02   2.0662411687e+01    0.2922638    0.2006547  86.48  0.001168022    1.900    0.474
       202  -9.1841     89.0164    176.9714   1.3047955686e+02   2.7598479580e+01    0.2928929    0.1862845  84.95 0.0009740882    1.757    0.431
       203  -9.2549    183.0070    176.0315   1.1024764665e+02   1.0652874496e+01    0.3114107    0.2369957 -52.78 0.0004902938    1.506    0.336
       204  -9.3481    104.4262    174.8744   1.2677189770e+02   2.5573208694e+01    0.5071086    0.2560282  68.06  0.001769905    3.048    0.672
       205  -8.0524     97.7152    177.6003   1.2865431007e+02   2.6092555967e+01    0.1872212     0.111468  52.30 0.0009413741    1.558    0.358
       206  -9.9646     57.3131    173.2872   1.3699055722e+02   3.2866148753e+01    0.7693387    0.3259226  79.24  0.002653606    4.437    0.775
       207  -8.8062     12.6828    176.6779   1.4666161310e+02   3.6966974321e+01    0.2347094    0.1071767  68.82  0.000921846    1.984    0.496
       208  -9.2344    158.8668    175.1577   1.1501168527e+02   1.5540952238e+01    0.3541698    0.2548785  89.02  0.001041833    2.027    0.507
       209 -10.7427     75.9241    169.4796   1.3238786502e+02   3.1185469075e+01     1.274218    0.4581174 -71.47  0.004663931    3.332    0.700
       210  -8.2897    224.4356    174.2606   1.0208461923e+02   3.0012796721e+00    0.1774777    0.1228716 -43.76 0.0009404109    1.635    0.388
       211  -9.4302    175.6984    172.4395   1.1102285629e+02   1.2734899992e+01    0.3027678    0.2526348 -39.61  0.000863426    1.281    0.220
       212  -8.1294    142.9528    172.8985   1.1798369043e+02   1.9052808214e+01    0.2213929    0.1627759  76.67 0.0005725314    1.649    0.394
       213  -8.7230    134.7830    171.9120   1.1958391804e+02   2.0797628955e+01    0.2527184    0.1900731 -83.21 0.0006986899    1.570    0.363
       214  -9.6405    121.4524    170.4309   1.2227269558e+02   2.3557948866e+01    0.4128169    0.2695227 -84.08  0.001127355    2.010    0.502
       215  -9.2877     45.0738    170.8982   1.3940522826e+02   3.4877530297e+01    0.4040751    0.1831406 -87.75  0.001327599    2.404    0.584
       216  -8.9957    230.2030    170.4546   1.0030020901e+02   2.5123507714e+00    0.2336522    0.1747009 -28.21 0.0005816768    1.309    0.236
       217  -8.5930    205.8896    170.4766   1.0471544872e+02   7.1196440026e+00    0.2454405    0.1900595 -55.88 0.0009268685    1.619    0.382
       218  -8.4522    198.4785    170.4714   1.0612449361e+02   8.5705373695e+00    0.2274484    0.1903692 -89.88 0.0006375607    1.662    0.398
       219  -8.4334    237.1692    169.7230   9.8949853089e+01   1.3514636735e+00    0.2127182    0.1702936 -36.68 0.0006467663    1.339    0.253
       220  -9.1583    167.2052    168.6904   1.1204203196e+02   1.5120804024e+01     0.316042    0.2358111  80.54 0.0008272939    1.837    0.456
       221  -8.3935    149.6941    169.5305   1.1591439149e+02   1.8421485020e+01    0.2703721    0.2028627 -86.81 0.0008091793    1.724    0.420
       222  -8.3861     88.7689    168.7388   1.2937667520e+02   2.9427736221e+01    0.2508085    0.1529534  85.96 0.0007895817    1.977    0.494
       223  -8.0962    218.9366    168.3593   1.0187476788e+02   4.9459278224e+00    0.1866133     0.165524  23.60 0.0005033383    1.061    0.057
       224  -7.7993    211.3875    168.1850   1.0322197873e+02   6.4260258856e+00    0.1861756    0.1259175 -47.12 0.0004595346    1.690    0.408
       225  -8.7930    111.5993    167.5601   1.2400766651e+02   2.5917021266e+01    0.3497599    0.2238067  83.06  0.001302297    2.067    0.516
       226  -8.9462    191.8842    166.5207   1.0660629215e+02   1.0560253270e+01    0.2865507    0.1969306 -44.18 0.0006479294    1.552    0.356
       227  -8.6544    184.9766    166.7954   1.0803236066e+02   1.1899727119e+01    0.2403656    0.2029498 -44.47 0.0005903152    1.265    0.209
       228 -10.1491     95.0193    163.0942   1.2709025506e+02   2.9684410628e+01    0.7999477    0.4015738  76.18  0.002635043    4.253    0.765
       229  -9.0648     20.5585    166.3230   1.4426489318e+02   3.8451633161e+01    0.3141654    0.1317072  64.33  0.001162021    2.431    0.589
       230  -7.8503     12.8347    167.6043   1.4598941337e+02   3.8879437176e+01    0.1567391   0.08176061  51.68 0.0009398315    1.764    0.433
       231  -8.4047    233.8831    165.2405   9.8592077939e+01   2.6175148297e+00    0.2273369    0.1671747 -39.39 0.0006100621    1.439    0.305
       232  -9.9200    136.7151    164.5827   1.1783513893e+02   2.1938103412e+01    0.6046073    0.2988432  59.73  0.002289402    2.670    0.626
       233  -8.6102    159.5466    164.4700   1.1283123674e+02   1.7466470931e+01    0.2696123    0.2206666  84.99 0.0008130402    1.463    0.316
       234  -9.2929     33.5462    163.3016   1.4117679377e+02   3.7824314581e+01    0.5346802    0.1950559  59.28  0.002264915    3.139    0.681
       235  -9.8087    246.0118    162.0206   9.5882039679e+01   8.8399535652e-01    0.4965135    0.1731836 -37.75  0.001973586    2.759    0.638
       236  -8.6401    212.9000    163.6589   1.0200654719e+02   6.8685559497e+00     0.251219    0.1951873 -43.83 0.0007046804    1.401    0.286
       237  -8.4501     57.4972    163.7464   1.3584064971e+02   3.4957266018e+01    0.2368121      0.16134  21.04  0.001283466    2.190    0.543
       238  -8.5295    204.9855    162.9999   1.0334978458e+02   8.5435522599e+00    0.2057809    0.2023624   7.83 0.0005518491    1.110    0.099
       239  -9.3210      3.4465    162.4330   1.4757979803e+02   4.0774549309e+01    0.3893547    0.1423236  55.89  0.002001511    2.540    0.606
       240  -8.0272    222.1214    162.1371   1.0001027450e+02   5.3195536542e+00    0.1722416    0.1669748 -79.85 0.0003756558    1.285    0.222
       241  -9.0285    177.6001    160.8382   1.0831174171e+02   1.4489257526e+01    0.3271896    0.2563506 -80.55 0.0009914794    1.734    0.423
       242  -8.6620    151.8492    161.2451   1.1385825925e+02   1.9650229543e+01    0.2993931    0.2041018 -67.95 0.0009483675    1.838    0.456
       243  -8.5574     60.6609    160.1800   1.3466955520e+02   3.5354634483e+01    0.3316675    0.1763892  72.60  0.001403964    2.241    0.554
       244  -8.5898    239.8788    164.1668   9.7348648097e+01   1.6777534352e+00    0.1912903    0.1751519 -36.61 0.0005931709    1.268    0.211
       245  -8.5241    227.5431    159.2781   9.8445502987e+01   4.7274932393e+00    0.3013569    0.2047998 -56.10  0.001026072    2.064    0.516
       246  -8.3949    128.4306    159.4229   1.1874272558e+02   2.4602446380e+01    0.3185937    0.2033848  79.19  0.001025668    2.316    0.568
       247  -9.7021    250.2244    157.7527   9.4303688073e+01   7.4813384372e-01    0.3284625    0.1666476 -33.31 0.0009220511    1.833    0.455
       248  -8.5145    237.2243    159.2103   9.6760457146e+01   2.9070909485e+00    0.1737709    0.1580636 -50.44 0.0008060371    1.349    0.259
       249  -9.2838    167.6313    157.2206   1.0964407219e+02   1.7232000850e+01    0.3818853    0.2810354 -80.56  0.001070995    1.929    0.482
       250  -9.7568    105.6812    157.8362   1.2373434678e+02   2.9070689096e+01    0.4942897    0.3138681  78.53  0.001371495    2.054    0.513
       251  -8.4520    196.7782    158.0642   1.0388702479e+02   1.1053206953e+01    0.2138835    0.1951579 -77.61 0.0009559199    1.320    0.243
       252  -8.4539    188.1775    157.7241   1.0551357364e+02   1.2883394594e+01    0.2484344    0.1883313 -50.43 0.0007034477    1.447    0.309
       253  -8.4273    217.9307    156.3620   9.9540128182e+01   7.0702135472e+00    0.3060405    0.1832037 -50.05  0.001045338    2.042    0.510
       254  -9.0024    157.5871    156.0542   1.1156169796e+02   1.9530329931e+01    0.2946855    0.2321317 -80.43 0.0008850109    1.569    0.362
       255  -9.4131    119.4285    155.0554   1.2000930599e+02   2.7229655507e+01    0.4641021    0.2738887 -74.11  0.001634501    2.255    0.557
       256  -9.2225     49.7501    155.3485   1.3661499792e+02   3.7804304200e+01    0.4077507    0.2004308  66.83  0.001653318    2.392    0.582
       257  -8.7601    144.7407    155.2017   1.1422857649e+02   2.2310842431e+01    0.3372473    0.2486118  84.65 0.0009843907    1.760    0.432
       258  -9.3974     81.3452    154.7462   1.2901420495e+02   3.3698717006e+01    0.4642382    0.2631309  70.75  0.001443262    2.228    0.551
       259  -8.5049    242.5476    154.9950   9.4974463498e+01   2.5522888655e+00    0.1978787    0.1712473  24.05 0.0004027684    1.139    0.122
       260  -8.6052    239.7276    153.3400   9.5089656947e+01   3.3287240951e+00    0.1845771    0.1615553 -30.37 0.0002973792    1.165    0.142
       261  -8.1056    204.7093    155.1933   1.0174526671e+02   9.9302615262e+00    0.2164368    0.1711002 -51.86 0.0009608144    1.443    0.307
       262  -9.7262     67.9345    153.7237   1.3208063808e+02   3.5855974907e+01    0.4238811    0.2331857  70.85  0.001418112    2.222    0.550
       263  -8.0475    232.6321    153.7946   9.6389823867e+01   4.6078008755e+00     0.189086    0.1199427 -41.09   0.00042578    1.621    0.383
       264  -9.5978    132.8113    153.0052   1.1650500748e+02   2.5133843145e+01    0.4364836    0.3094859  74.60  0.001249905    1.730    0.422
       265  -9.2094    133.4823    148.4879   1.1544348681e+02   2.5973171367e+01    0.2973939    0.2478488 -50.08  0.001003365    1.238    0.192
       266  -8.1441    151.6598    152.5821   1.1214852798e+02   2.1449218022e+01    0.2499669    0.1377882 -48.47 0.0008131082    1.879    0.468
       267  -8.3000    182.3028    151.3911   1.0534370725e+02   1.5278689630e+01    0.2394925    0.1765132 -63.61 0.0006230373    1.705    0.414
       268  -8.8066     98.3760    150.8837   1.2426914340e+02   3.1872922356e+01    0.3189294    0.2121775  89.13   0.00104108    1.813    0.448
       269  -9.7680     29.2436    150.5804   1.4087885156e+02   4.1105351655e+01    0.4702644    0.2091545  76.17  0.002084216    2.779    0.640
       270  -7.9387     20.3079    152.6708   1.4313777206e+02   4.1478168774e+01    0.1255298   0.07077071  72.13 0.0003973432    1.660    0.398
       271  -8.6928      2.8741    150.7913   1.4687940612e+02   4.3334490331e+01    0.3844412    0.1308217 -83.58  0.001802721    2.486    0.598
       272  -9.4811    248.7065    149.3906   9.2769357295e+01   2.2500154555e+00    0.3065329    0.1987085 -33.32 0.0007237267    1.435    0.303
       273  -9.7629    242.5377    150.2013   9.3947423176e+01   3.2769161735e+00    0.4075459    0.2614658  56.90  0.001962102    1.959    0.490
       274  -8.9354    189.4786    150.3492   1.0366293483e+02   1.3957818845e+01    0.3175115      0.22134 -57.82 0.0008702274    1.755    0.430
       275  -8.3795    162.4559    150.7215   1.0938556803e+02   1.9588781198e+01    0.2570346    0.1438978 -50.53 0.0005939722    1.906    0.475
       276  -8.3126    213.0101    149.9958   9.9057103677e+01   9.1201182264e+00     0.208627    0.1747384 -73.17 0.0004659373    1.597    0.374
       277  -9.9856     39.5660    147.8169   1.3813068166e+02   4.0673773102e+01    0.5183625    0.2421123  68.19  0.002182743    2.656    0.624
       278  -8.6798    198.6281    148.9642   1.0155285780e+02   1.2281825595e+01    0.2978938    0.2098063  67.65  0.001190888    1.888    0.470
       279 -10.0537     89.1540    146.1133   1.2569573370e+02   3.4469533339e+01    0.7029186    0.3788025  89.66  0.002584765    3.261    0.693
       280 -10.4015     54.8829    144.5386   1.3396965676e+02   3.9668251589e+01      0.84123    0.4025996  80.42  0.003144816    3.372    0.703
       281  -9.1140    233.2635    147.5917   9.4933106500e+01   5.4585058623e+00    0.2549447    0.1748997 -31.29 0.0005951597    1.383    0.277
       282  -7.6457    228.6687    148.7312   9.5973971389e+01   6.1796913769e+00    0.1404511    0.1017325  12.97 0.0003429616    1.584    0.369
       283 -10.3182    106.7445    144.0529   1.2097340854e+02   3.1980936812e+01    0.8455193    0.4910746 -87.26  0.002562225    2.929    0.659
       284  -9.0888     78.2905    147.4357   1.2860476769e+02   3.5831170345e+01    0.2985257     0.184112  71.59 0.0008019308    1.900    0.474
       285  -8.4488    223.1841    146.8962   9.6531873677e+01   7.5705728691e+00    0.2005852    0.1891549 -54.37 0.0003607927    1.227    0.185
       286 -10.1968    148.9824    144.9060   1.1112539185e+02   2.3591386444e+01    0.5702439    0.3796318 -81.87  0.001600571    2.364    0.577
       287  -8.5996    150.5959    136.5836   1.0891412093e+02   2.4995842930e+01    0.4887204    0.3187001  11.24  0.001795256    3.024    0.669
       288  -9.9175    138.9246    144.8444   1.1342092876e+02   2.5668368941e+01    0.5519564     0.326333 -69.39  0.001276674    2.402    0.584
       289  -9.4667    139.2805    138.2914   1.1192274058e+02   2.7003359245e+01    0.4527675    0.3129828  -6.77  0.001787948    2.728    0.633
       290  -9.2008     13.6835    146.4178   1.4408673120e+02   4.3446028970e+01    0.3577806    0.1586435  60.43  0.001346046    2.323    0.569
       291  -9.5557    242.0947    138.2778   9.1399270724e+01   5.1936624204e+00    0.5113707    0.2534441 -45.44  0.002197923    2.226    0.551
       292  -8.8123    240.2803    145.4198   9.3278420743e+01   4.4378866841e+00    0.2494505    0.1731657 -31.45 0.0005957779    1.345    0.257
       293  -7.5908    242.6895    143.3174   9.2420462059e+01   4.2994497810e+00    0.1439592    0.1247311  -4.11 0.0004295375    1.077    0.071
       294  -8.0127    206.7758    146.5861   9.9464250233e+01   1.0993411282e+01    0.1896499    0.1381264  57.53 0.0005022557    1.544    0.353
       295  -8.3146    175.6391    146.1499   1.0557386834e+02   1.7693775316e+01    0.2275032    0.1827134 -64.20 0.0007287241    1.443    0.307
       296  -9.9492    124.9249    142.3464   1.1620712772e+02   2.8988008372e+01    0.6937601    0.3761595 -64.31  0.002018428    2.241    0.554
       297 -11.2600     69.0809    141.9503   1.3002878139e+02   3.8420100692e+01    0.9142728    0.5418505 -82.26  0.004431479    1.816    0.449
       298  -8.8945    247.1129    143.7793   9.1806692978e+01   3.3881591839e+00    0.2501268     0.177476 -23.01 0.0004797911    1.316    0.240
       299  -8.4878    194.4606    143.9645   1.0125079113e+02   1.4067059507e+01    0.1955281    0.1254458 -62.81  0.000392843    2.281    0.562
       300  -8.8591    165.6968    144.0662   1.0723228267e+02   2.0232866450e+01    0.3034986    0.2075658  63.85 0.0007801047    1.725    0.420
       301  -9.3271      2.7316    141.6966   1.4620993113e+02   4.5341671708e+01    0.3850807    0.1582951  81.58  0.001722406    2.470    0.595
       302  -8.6025    182.0466    141.6084   1.0321957079e+02   1.7184423140e+01    0.2780983    0.2049746 -58.85 0.0006656639    1.581    0.368
       303  -8.2995    250.4666    141.0145   9.0668059526e+01   3.1742482279e+00    0.2032626     0.120429 -33.05 0.0005442892    1.538    0.350
       304  -9.8934     23.3223    138.1666   1.4097921895e+02   4.4478742494e+01    0.4635782    0.2117224  69.74  0.001941741    2.636    0.621
       305  -8.0434    218.7977    138.8472   9.5503458060e+01   9.8085529316e+00    0.1911315    0.1686492 -61.06 0.0005040932    1.332    0.249
       306  -8.7750    172.2613    138.3206   1.0451946039e+02   1.9954246824e+01    0.3396974    0.2319815 -57.72 0.0008880756    1.689    0.408
       307  -8.4259    207.5004    138.0046   9.7380370978e+01   1.2341128740e+01    0.2457388    0.1933448 -68.09 0.0007123899    1.662    0.398
       308  -8.6649    197.6084    137.5941   9.9175573476e+01   1.4548512906e+01     0.284029    0.2094907 -55.03   0.00074422    1.550    0.355
       309 -10.4319     83.3137    133.2433   1.2486793699e+02   3.8374348723e+01    0.6753863    0.3624805 -61.18  0.001915187    1.734    0.423
       310  -8.7547     84.3566    123.2062   1.2263388565e+02   4.0561973709e+01    0.3701459     0.260537 -14.57  0.001549991    2.483    0.597
       311  -9.6469     38.9179    136.0508   1.3683109671e+02   4.3454623794e+01    0.2771328    0.1784049  78.75 0.0009346022    1.553    0.356
       312  -8.8337    248.4054    135.1683   8.9697477457e+01   4.4513623221e+00    0.3044266    0.1833567 -34.68 0.0007412633    1.516    0.340
       313  -9.2188    250.7358    130.1932   8.8220350751e+01   4.7620887351e+00    0.4900895    0.1235279 -33.97  0.001423829    3.590    0.721
       314  -8.6673    246.9054    130.3566   8.8851075159e+01   5.4817905903e+00    0.2568775    0.1713931 -44.02 0.0007449673    1.528    0.346
       315  -8.1943    162.4910    136.1781   1.0614660622e+02   2.2515912642e+01    0.2375136    0.2034147  88.98  0.000684885    1.339    0.253
       316  -8.1619    187.6363    135.2523   1.0060894499e+02   1.7166410620e+01    0.2143944     0.140422 -30.79 0.0009537089    1.638    0.389
       317  -7.8487    231.5212    134.0145   9.2184754519e+01   7.9813257873e+00    0.2082193    0.1311462 -33.11 0.0004251746    1.495    0.331
       318  -8.6564    179.5980    133.8473   1.0192903573e+02   1.9212979160e+01    0.2800604    0.2206549 -69.39 0.0006986435    1.551    0.355
       319 -10.3159    132.6826    131.1047   1.1188894447e+02   2.9920346170e+01    0.7349966    0.4901546 -74.38  0.002296517    1.997    0.499
       320  -9.2739    112.8718    133.2218   1.1725999758e+02   3.3326906990e+01    0.3574689    0.2560488  89.79 0.0009164615    1.746    0.427
       321  -8.3279    237.4072    133.2473   9.1029915041e+01   6.9125605343e+00    0.1967573    0.1216718 -41.77 0.0006565179    1.597    0.374
       322  -9.2938    143.1346    131.7730   1.0954372877e+02   2.7600167294e+01    0.3236029    0.2486514 -76.22 0.0007160681    1.551    0.355
       323 -10.5647     98.2681    130.2794   1.2038545273e+02   3.6621561855e+01    0.7336411    0.3137312 -59.26  0.001661996    2.357    0.576
       324  -8.9622     99.2561    120.7105   1.1808055151e+02   3.8663066218e+01    0.4332009     0.261031  14.74  0.001553557    3.566    0.720
       325  -8.2590    204.5207    130.4923   9.6183290079e+01   1.4319097451e+01    0.2531188    0.1317023 -47.52 0.0007309269    2.087    0.521
       326  -9.5792    152.8338    128.5991   1.0654239000e+02   2.6187563219e+01    0.6468777      0.27779 -46.75  0.002347899    2.348    0.574
       327 -10.0051     73.3359    129.4518   1.2680227487e+02   4.0750648523e+01    0.4203992    0.2660827 -87.65  0.001294471    1.870    0.465
       328  -9.8956     12.9867    129.4900   1.4262339449e+02   4.7314053890e+01    0.4431783    0.2127625  67.61   0.00186896    2.325    0.570
       329  -7.9197    220.5265    130.4237   9.3248788435e+01   1.0868550181e+01    0.1427851    0.1346466  -8.27  0.000102834    1.012    0.012
       330  -8.3847    192.8897    130.1219   9.8342602381e+01   1.6961707679e+01     0.227227    0.2008884 -71.78 0.0005246202    1.295    0.228
       331  -9.2917    168.3814    129.5343   1.0329112497e+02   2.2559634859e+01    0.3115504    0.2491551 -75.91 0.0008960843    1.525    0.344
       332  -9.0218    118.9724    119.5377   1.1262259742e+02   3.5249156953e+01    0.3478038    0.2238616  18.84  0.001295782    2.626    0.619
       333  -8.4246    123.5501    129.5231   1.1377508701e+02   3.2108249253e+01    0.2515352    0.1816815 -77.34 0.0005495244    1.668    0.401
       334  -9.9732    117.7641    125.2307   1.1425952980e+02   3.4204948382e+01    0.5637377    0.3642497  80.65  0.001419013    2.424    0.588
       335  -7.9514      1.9490    130.4532   1.4544786227e+02   4.7893655342e+01    0.1598376   0.06572043  54.17 0.0008087331    2.573    0.611
       336  -8.2182    211.6438    129.1520   9.4542657991e+01   1.2998453466e+01    0.2316118    0.1733639 -53.06  0.001135199    1.490    0.329
       337  -8.5868     58.9705    115.5628   1.2819458948e+02   4.5960745521e+01    0.2848273    0.1950232  -8.49  0.001365196    2.541    0.606
       338 -10.7454     45.0332    123.8513   1.3348807061e+02   4.5649188577e+01     1.016811    0.4837408  76.78  0.003754793    3.820    0.738
       339  -9.7728    237.4970    127.2527   8.9640207025e+01   7.8515160738e+00    0.2690253    0.2496235  55.31 0.0007753488    1.221    0.181
       340  -8.5973    228.4244    125.7150   9.0782696333e+01   9.9840044971e+00     0.271568    0.1283924 -38.36  0.001116545    1.982    0.495
       341  -8.8500    179.3755    124.7059   9.9775638987e+01   2.1035943398e+01    0.2861863    0.2452363 -68.74 0.0006744094    1.310    0.236
       342 -10.2155     28.1579    121.8709   1.3776952348e+02   4.7797437344e+01    0.7552411    0.3300666  80.50  0.002858212    3.813    0.738
       343  -8.8882     27.0162    114.0000   1.3699286039e+02   4.9725373639e+01     0.339239    0.1592161  22.61  0.001674345    2.852    0.649
       344  -7.7952    244.1343    124.2074   8.7880643241e+01   6.9895776281e+00    0.1868145     0.155221 -50.84 0.0004445855    1.316    0.240
       345  -8.2670    188.5093    123.9908   9.7730219015e+01   1.9096446198e+01    0.2294309    0.1468476 -41.32  0.000477101    1.544    0.353
       346 -10.7560     59.9773    125.1010   1.2962830121e+02   4.3584552205e+01    0.7587319    0.4186769  81.60  0.002710183    2.695    0.629
       347  -9.1446    158.8505    121.9701   1.0355880753e+02   2.6231436297e+01    0.3768046    0.2753283 -84.03  0.001117574    1.917    0.478
       348  -9.8021     71.0187    119.8324   1.2562383212e+02   4.3345175534e+01    0.5295017    0.2970856 -80.93   0.00145389    2.321    0.569
       349  -7.7988    203.2030    121.9826   9.4380710924e+01   1.6139524449e+01     0.202511    0.1157405 -37.25 0.0004480534    1.702    0.413
       350  -7.8398    195.0042    121.9918   9.5953018953e+01   1.7993218084e+01    0.2353804    0.1807554 -69.61 0.0005831079    1.654    0.395
       351  -8.8279    172.0830    121.3188   1.0048064324e+02   2.3362738539e+01    0.3203426      0.22414 -40.88  0.001014159    1.426    0.299
       352 -10.0327    141.5555    118.6550   1.0677162164e+02   3.0752651799e+01    0.4932049    0.3308142 -70.54  0.001163066    1.982    0.496
       353  -8.8417    140.6868    113.6755   1.0572376855e+02   3.2007232344e+01    0.3313564    0.2286458  20.77  0.001374667    2.109    0.526
       354  -9.7788    130.6826    118.6438   1.0943612342e+02   3.3069508585e+01    0.4390899    0.2968135 -76.05   0.00110836    2.042    0.510
       355  -9.1090     15.7103    119.3997   1.4079559367e+02   4.9406578839e+01    0.3468088    0.1795256 -20.78  0.001503099    4.336    0.769
       356  -9.6302      3.1064    117.6993   1.4394301451e+02   5.0679329247e+01    0.4729942    0.2086836  73.26   0.00227282    2.703    0.630
       357  -7.4937    231.5070    117.4891   8.8322528980e+01   1.0685635565e+01    0.1443994     0.131372 -46.14  0.000807417    1.129    0.114
       358  -8.3134    219.4400    116.5475   9.0122442093e+01   1.3465560608e+01    0.1455686    0.1372273 -32.23 0.0001114345    1.030    0.029
       359  -9.1072    185.0508    114.6388   9.6087021364e+01   2.1664251981e+01    0.5399426    0.2796248 -61.83  0.001695997    3.593    0.722
       360  -9.9257    109.1763    114.2107   1.1391659848e+02   3.8344004752e+01    0.5141126     0.327152 -75.33  0.001294371    2.159    0.537
       361  -8.9431    109.6118    107.7683   1.1220845035e+02   3.9715246488e+01    0.3254613    0.2302219   2.11  0.001068536    2.453    0.592
       362  -9.3287    249.7322    114.6339   8.4813290945e+01   7.3547252130e+00    0.3546847    0.2233358 -54.95  0.001674309    1.953    0.488
       363  -8.1851    192.9106    115.1799   9.4661269703e+01   1.9735790601e+01    0.2334301    0.1987866 -66.62 0.0005101277    1.316    0.240
       364  -8.1164    167.0678    114.8048   9.9918553884e+01   2.5813230103e+01    0.2534018    0.1782324  24.26  0.001078317    1.869    0.465
       365  -9.9768     78.7546    112.5153   1.2194215726e+02   4.3930493768e+01    0.5709138    0.3635461 -89.79  0.001949874    2.215    0.549
       366  -8.4947     78.2594    105.6807   1.2055900839e+02   4.5597173247e+01    0.3075894    0.2193336 -21.77  0.001161531    2.007    0.502
       367 -10.0441    121.6571    112.0611   1.1009609673e+02   3.6379451149e+01    0.5184321    0.3209972 -68.36  0.001244987    2.130    0.530
       368 -10.0486     92.7602    112.5541   1.1800726158e+02   4.1669536391e+01    0.4719503    0.3182875 -79.32  0.001323855    1.846    0.458
       369  -9.1969     92.7193    105.4185   1.1632195924e+02   4.3317314549e+01    0.5313724    0.3581504   1.42  0.002169492    2.823    0.646
       370  -9.0121    159.2694    112.0352   1.0093739214e+02   2.8171127460e+01    0.3111843    0.2428025 -63.81 0.0008003692    1.432    0.302
       371 -10.0046    133.2985    109.5048   1.0646935839e+02   3.4504775402e+01    0.6778173    0.3205383 -43.70    0.0018992    2.094    0.523
       372  -8.5657    174.9225    111.8669   9.7468643603e+01   2.4565416766e+01     0.279844    0.2238954 -58.11 0.0007079415    1.339    0.253
       373 -10.1413     66.4282    110.1954   1.2499436650e+02   4.6246691272e+01    0.5512844    0.2958506 -67.75   0.00202017    1.852    0.460
       374  -9.8004     14.1957    111.1469   1.4019406287e+02   5.1410168260e+01    0.3780381    0.1915456  79.24  0.001560035    2.321    0.569
       375  -8.7369     42.8526    109.6538   1.3176754646e+02   4.9214847645e+01    0.3062637    0.1782674  11.43   0.00147115    2.781    0.640
       376 -11.1583    248.5285    106.4855   8.3082604885e+01   8.8646910766e+00    0.6983891    0.3838108 -26.75  0.003170096    1.794    0.443
       377 -10.4659     45.5926    102.3294   1.2960964982e+02   5.0632716821e+01    0.7459643    0.4038815  77.17   0.00305944    3.197    0.687
       378  -9.3598     45.9745     92.8689   1.2757611853e+02   5.2781233263e+01     0.395729    0.2431018   3.77   0.00190926    2.666    0.625
       379 -10.6318     22.8130    102.6829   1.3652452458e+02   5.2695249791e+01     0.689002    0.3421747  77.71   0.00258454    2.979    0.664
       380  -8.6028    166.6895    104.2953   9.7234955377e+01   2.7989909244e+01    0.2624114    0.2285568 -71.46 0.0006344639    1.249    0.199
       381  -9.5275    150.5734    103.0198   1.0053912578e+02   3.2016068960e+01     0.480144    0.2831008 -61.21  0.001164636    2.246    0.555
       382 -10.6114    109.0701     98.9226   1.1004899802e+02   4.1788678094e+01    0.8783501    0.5069177  72.23  0.001782854    3.553    0.719
       383  -9.1923    108.4572     92.4301   1.0843331707e+02   4.3326625614e+01    0.4985544    0.2741371  25.37  0.001798485    3.025    0.669
       384  -9.2536      6.8676    103.2134   1.4126594418e+02   5.3715916901e+01    0.2366723    0.1617958  76.99 0.0008674978    1.475    0.322
       385 -10.2809    128.5862    102.0870   1.0569356874e+02   3.7110985002e+01    0.4158277    0.3062091 -69.02 0.0009869657    1.612    0.379
       386  -7.9610    175.4267    102.2448   9.4815791735e+01   2.6307335629e+01    0.2184323    0.1429878 -49.73 0.0006967886    1.581    0.368
       387  -8.2924    159.8487    101.2954   9.7935933950e+01   3.0200826576e+01    0.2694092     0.203354 -54.11  0.000517926    1.379    0.275
       388  -8.5580    188.9855    107.9305   9.3571192455e+01   2.2002909937e+01    0.2366157    0.2205831 -71.24 0.0005386209    1.127    0.113
       389  -9.1482     82.0722    100.0400   1.1809664317e+02   4.6305000744e+01    0.3425606    0.2393053 -81.20 0.0007453032    1.796    0.443
       390  -9.2517     94.9711     96.9910   1.1353288397e+02   4.4833820742e+01    0.3202015    0.2352531 -70.05 0.0005508628    1.520    0.342
       391 -10.1707     63.8000     95.8853   1.2264405703e+02   4.9927726535e+01    0.5539069    0.3488495  89.35  0.001700975    2.408    0.585
       392  -9.0157     66.0964     87.3000   1.1982426717e+02   5.1569577634e+01    0.5667108    0.3079063   6.98  0.001865988    5.026    0.801
       393  -8.6901    151.2353     95.8374   9.8393018383e+01   3.3317157785e+01    0.3109208    0.2048009  24.52  0.001234791    2.178    0.541
       394  -8.5785    176.4831     93.2708   9.2139106422e+01   2.7750010505e+01    0.3673617    0.1998128 -50.51  0.000984747    2.014    0.503
       395  -8.3842    164.8446     94.1021   9.4831693404e+01   3.0418797959e+01    0.2457282    0.2054787 -68.50 0.0005839813    1.322    0.243
       396  -9.4581    139.1969     92.1852   1.0024257652e+02   3.6837687261e+01    0.5133984    0.3302492 -63.03  0.001084472    1.990    0.497
       397 -10.6948    123.9581     90.8593   1.0375567262e+02   4.0481631716e+01    0.7453079    0.5586109 -21.68  0.001944449    1.617    0.382
       398  -7.6298    188.4921     93.5213   8.9824980065e+01   2.4771769606e+01    0.1541167    0.1487518 -57.61 0.0001693953    1.021    0.021
       399  -9.4875      5.2471     92.2309   1.4029354774e+02   5.6293346410e+01    0.2954105    0.1712465  56.08  0.001058072    2.075    0.518
       400  -9.3596    139.8849    104.6323   1.0354304026e+02   3.4102950762e+01    0.3941295     0.293484 -78.02  0.000827127    1.742    0.426
       401  -8.0802    157.6504     91.7532   9.5760399918e+01   3.2603705327e+01    0.2195922    0.1402153 -48.13 0.0004042283    1.590    0.371
       402  -9.5457     34.7274     89.6902   1.3052996083e+02   5.4647801847e+01    0.4790798    0.2455469 -83.60  0.001789145    2.687    0.628
       403  -7.9083    150.6324     88.8576   9.6533315687e+01   3.4842317712e+01    0.2272404    0.1393923 -49.93 0.0005338815    1.698    0.411
       404  -9.9159     86.4356     86.6521   1.1327049257e+02   4.8599328879e+01    0.4561484    0.3397591 -87.24   0.00117392    1.833    0.454
       405  -8.3946     86.9637     80.8698   1.1145243728e+02   4.9764953808e+01    0.2301515     0.173278 -13.80 0.0009289446    1.710    0.415
       406  -7.8554    164.0000     87.0432   9.3002025196e+01   3.1969566256e+01    0.2527486   0.08816032 -37.74 0.0004521454    2.832    0.647
       407  -9.8691     48.4159     84.4672   1.2489598835e+02   5.4425203691e+01    0.4692823    0.3030607  84.54   0.00156412    2.325    0.570
       408  -7.8924    179.4213     85.9163   8.9481983236e+01   2.8378823020e+01      0.22597    0.1212657 -56.41 0.0007067234    2.427    0.588
       409  -9.7859    104.8881     83.4736   1.0685621590e+02   4.5935879047e+01    0.5248824    0.3689054 -61.83    0.0011096    1.609    0.378
       410  -8.7724    104.5272     77.9494   1.0528356034e+02   4.7155190267e+01    0.4728713    0.3076873   8.55  0.001849687    2.773    0.639
       411  -8.5557    157.8877     84.1042   9.3486290279e+01   3.4013698370e+01    0.2398211    0.2083891 -66.31 0.0004827021    1.228    0.185
       412  -9.1584    140.9141     82.7966   9.7052323718e+01   3.8314070857e+01     0.423121    0.2128126 -46.38 0.0009081835    2.013    0.503
       413  -7.5955    170.3376     83.6614   9.0678775458e+01   3.1039095202e+01     0.166047    0.1209653 -72.77 0.0007051056    1.757    0.431
       414  -7.6895    185.4453     82.4993   8.7346525655e+01   2.7491519346e+01    0.1551079    0.1471533 -61.00 0.0003145175    1.040    0.038
       415  -9.1627     23.0763     90.2022   1.3437805868e+02   5.5533732282e+01    0.2695748    0.2118414 -11.36  0.001148225    1.658    0.397
       416  -9.6111     24.7619     80.5915   1.3200184571e+02   5.7571885890e+01    0.4411636    0.2551443  86.11  0.001462608    2.433    0.589
       417  -9.3507      9.7012     80.9247   1.3713226279e+02   5.8558144852e+01    0.2811652    0.1683083  62.86  0.001086631    2.170    0.539
       418  -8.0944    150.4664     80.8000   9.4184006589e+01   3.6433722257e+01    0.3153923     0.205668 -59.52  0.001202654    1.866    0.464
       419  -9.3296    119.4444     80.1403   1.0176653333e+02   4.3650049856e+01    0.4015959    0.2374432 -51.28  0.001106686    1.767    0.434
       420  -8.9377     74.4849     80.2487   1.1522288988e+02   5.1914078570e+01    0.3323383    0.2230863 -69.74  0.001043753    1.812    0.448
       421  -8.5856    166.8214     79.7166   9.0258766746e+01   3.2629721333e+01    0.2631873    0.2052524 -27.23 0.0005730428    1.352    0.261
       422  -9.3200     65.3126     77.6737   1.1750601249e+02   5.3811300988e+01    0.2945659    0.2166449 -58.29  0.001618419    1.277    0.217
       423  -9.9183     63.4094     73.6774   1.1701294885e+02   5.4939522150e+01    0.4614221    0.2600509 -63.38  0.001448479    2.004    0.501
       424  -7.8589    157.2593     76.6334   9.1391553419e+01   3.5555006307e+01    0.1609488    0.1175523 -64.67 0.0004409858    1.640    0.390
       425  -8.7123    140.4860     75.3551   9.4872883227e+01   3.9840282691e+01    0.3160998    0.2255533 -68.06 0.0007236359    1.820    0.451
       426  -9.3614    127.9391     75.1578   9.7956470872e+01   4.2770475188e+01     0.377322     0.270777 -66.54 0.0008725577    1.782    0.439
       427  -8.4165    163.3681     73.4109   8.9098297578e+01   3.4620069718e+01    0.2962918    0.1822208 -41.00 0.0007693334    1.598    0.374
       428  -9.6520     82.3682     72.7695   1.1046109180e+02   5.2252312460e+01    0.4031123    0.2772629 -66.23 0.0009313216    1.802    0.445
       429  -9.1824     83.7740     65.4570   1.0766805082e+02   5.3506449560e+01    0.6263623    0.3658757  -3.57  0.002027989    4.583    0.782
       430  -9.2121    105.8852     71.8235   1.0295267864e+02   4.8122264930e+01    0.3751893    0.2032291 -51.05   0.00109029    1.956    0.489
       431  -9.3992     95.0295     70.8562   1.0588018885e+02   5.0412673903e+01    0.5382901    0.2545644 -55.73  0.001189954    2.675    0.626
       432  -8.4018     95.3089     64.3671   1.0365636302e+02   5.1641968698e+01    0.2473647    0.1649345 -18.25  0.001116959    1.919    0.479
       433  -7.9462     42.9584     73.4653   1.2405242730e+02   5.7469568273e+01    0.2094788     0.132678  78.53  0.000678238    2.774    0.640
       434  -8.6572     41.3286     70.2902   1.2380826007e+02   5.8333147207e+01    0.2280009    0.1576316 -24.27  0.001125436    1.679    0.404
       435  -7.9024    175.5161     72.5376   8.6374682269e+01   3.1718022743e+01    0.1525191    0.1503422 -69.54 0.0001413982    1.014    0.014
       436  -8.4426     31.6899     68.6505   1.2687996389e+02   5.9623423574e+01    0.1915803    0.1418698 -27.76 0.0008704046    1.450    0.310
       437  -8.7633     28.4803     70.9887   1.2860837030e+02   5.9394359610e+01    0.3278985    0.1413163 -39.37  0.001209019    2.470    0.595
       438  -9.5439     51.2961     69.5095   1.2003338745e+02   5.7388665823e+01    0.4286695    0.2601868 -76.03  0.001708964    2.435    0.589
       439  -8.8158    147.2654     68.6356   9.1156988807e+01   3.9444820572e+01    0.3171526      0.26086 -57.50  0.001050421    1.298    0.230
       440  -9.1967    138.8713     66.3330   9.2389340667e+01   4.1877312540e+01    0.3450054    0.1990621 -50.78 0.0008281607    1.941    0.485
       441  -8.8995    121.5791     66.1352   9.6706869863e+01   4.5896192300e+01     0.322566    0.2363107 -64.21 0.0007749468    1.713    0.416
       442  -9.0564    110.1437     63.8824   9.9099997994e+01   4.8779425523e+01    0.3321415    0.2277857 -47.33 0.0007313347    1.477    0.323
       443  -8.7415     64.2078     63.9618   1.1379882519e+02   5.6871530558e+01    0.3418468    0.1936298 -20.97  0.001415817    2.811    0.644
       444  -8.8223     37.2738     64.5449   1.2375328594e+02   5.9980373582e+01     0.246453    0.1897828  88.96 0.0008432828    1.710    0.415
       445  -7.5288    187.4629     63.5072   8.1511521886e+01   3.0175134899e+01    0.1530227    0.1440863 -66.86 9.921079e-05    1.037    0.036
       446  -9.2052     16.6065     69.5604   1.3257870457e+02   6.0619685982e+01     0.430541    0.1723278 -73.92  0.001855984    2.817    0.645
       447  -8.2047    158.1005     62.0897   8.6697509037e+01   3.7889511538e+01    0.2229085    0.2070612   9.56 0.0004746337    1.162    0.139
       448  -9.6211     73.3283     59.5365   1.0917372291e+02   5.6397556048e+01    0.3861043    0.2222402 -53.57   0.00101083    1.824    0.452
       449  -9.2075     97.5041     60.6888   1.0172729578e+02   5.1923508086e+01    0.2639544    0.2522384  25.40 0.0008158567    1.092    0.084
       450  -7.6371    152.6691     60.2976   8.7281754737e+01   3.9548943270e+01    0.1568173    0.1187262 -73.51 0.0003100972    1.641    0.391
       451  -8.3133    147.1724     59.1826   8.8127417999e+01   4.1098420975e+01    0.2122439    0.1748253 -60.22 0.0004732961    1.329    0.248
       452  -9.0402    115.6066     72.5756   1.0043773481e+02   4.5968113985e+01    0.4019501    0.2234402 -41.56  0.001294988    1.736    0.424
       453  -9.8109     23.5286     56.5999   1.2686621698e+02   6.2883865674e+01    0.4395194    0.2597029 -86.94  0.002113443    2.884    0.653
       454  -8.8535    130.6119     57.7425   9.1548960069e+01   4.5328361942e+01     0.263521    0.1795173 -44.63 0.0006127956    1.500    0.333
       455  -9.3818      7.4869     57.3427   1.3334738270e+02   6.3816469479e+01    0.2693769    0.1909093  84.24  0.001255161    1.774    0.436
       456  -9.3100    119.1811     55.4365   9.3691149627e+01   4.8338248526e+01    0.4766639    0.2364133 -43.36  0.001506088    2.051    0.512
       457  -9.5312     54.3707     55.6140   1.1465168389e+02   5.9888065071e+01    0.3404832    0.2160557 -60.51  0.001200863    1.772    0.436
       458  -8.2965    139.9584     56.1625   8.8767829075e+01   4.3364750303e+01    0.2296821    0.2006834 -67.15 0.0005734558    1.267    0.211
       459  -8.6109     44.0826     55.6017   1.1854810605e+02   6.1127327999e+01    0.2324228     0.161698 -63.80 0.0007530318    1.568    0.362
       460  -8.5801    105.8677     53.3336   9.6638000710e+01   5.1574234809e+01    0.2670543    0.1888549 -51.79 0.0007180405    1.586    0.370
       461  -9.2707    246.3436     51.6871   7.0097898490e+01   1.7517712080e+01    0.2322171    0.2201123 -46.59 0.0002273466    1.113    0.102
       462  -9.5490     92.3104     50.6453   9.9741516409e+01   5.4747342994e+01    0.4122725    0.2279118 -49.15  0.001142654    2.011    0.503
       463  -8.2867     75.2466     51.7432   1.0577309359e+02   5.7577596294e+01    0.4007208    0.1922553  22.55  0.001400311    3.938    0.746
       464  -8.1429    144.6582     49.1870   8.5348583820e+01   4.3325989620e+01    0.2068439    0.1412506 -19.22 0.0005620008    1.656    0.396
       465  -7.6726    163.6856     48.0120   8.1080384756e+01   3.8687263969e+01     0.234521     0.126402  -2.41 0.0007021111    4.117    0.757
       466  -8.5177    129.8684     49.1646   8.8756322326e+01   4.6915473818e+01    0.2226616    0.1993185 -65.53 0.0006170558    1.247    0.198
       467  -8.9308    120.9736     47.3334   9.0329786098e+01   4.9272776549e+01    0.3035458    0.2072757 -30.69 0.0005970036    1.463    0.316
       468  -8.4318    112.1941     46.9634   9.2528321782e+01   5.1293355501e+01    0.2157687    0.1867979 -57.58 0.0005437635    1.320    0.242
       469  -8.8995     81.9264     46.6006   1.0158747621e+02   5.7363865414e+01    0.2554103    0.1863651 -43.80 0.0005992229    1.365    0.267
       470  -8.5722     45.1346     44.7369   1.1447937784e+02   6.3142884619e+01    0.2119109    0.1516057 -52.86 0.0006424686    1.385    0.278
       471  -8.6418     16.4858     44.7917   1.2644311047e+02   6.5833729966e+01    0.2017546    0.1675584 -81.29 0.0008255819    1.485    0.327
       472  -8.7973    132.9323     43.5895   8.6049927368e+01   4.7043076507e+01    0.2865869    0.2076806 -42.57 0.0007625333    1.430    0.301
       473  -9.0762     58.0730     42.4192   1.0853584474e+02   6.1899191442e+01    0.3870584    0.1706745 -53.84  0.001255979    2.932    0.659
       474  -8.5783     92.8095     42.6655   9.6560207625e+01   5.6003214303e+01    0.2196258    0.1673234  23.02  0.001170613    1.393    0.282
       475  -9.2946     69.5063     41.4000   1.0388660378e+02   6.0359460418e+01    0.3868591    0.2285251 -53.40  0.001289078    2.110    0.526
       476  -9.5507      5.0971     41.7670   1.3050720376e+02   6.7158206491e+01     0.386971    0.1832139 -74.11  0.001927202    2.608    0.617
       477  -8.5855    105.9806     41.4458   9.2181742876e+01   5.3508058935e+01    0.2610863    0.1860069 -46.64 0.0004842769    1.540    0.350
       478  -8.1641    140.4654     41.5312   8.3625088851e+01   4.5507430703e+01    0.1452807    0.1416958  38.38 4.322039e-05    1.001    0.001
       479  -8.6075     36.8153     40.9006   1.1651943717e+02   6.4799203548e+01    0.2117774    0.1589652 -62.97 0.0007969399    1.586    0.369
       480  -8.9846     95.3728     37.8749   9.3890130037e+01   5.6255070485e+01    0.2547604    0.1939991 -51.36  0.001158917    1.555    0.357
       481  -8.0940     80.5740     36.7973   9.8180267489e+01   5.9241894360e+01    0.1850028    0.1188597 -44.55 0.0005636339    1.650    0.394
       482  -9.4593     26.1181     35.6007   1.1923646370e+02   6.6843276433e+01    0.2849967    0.2069457 -66.05 0.0008217704    1.700    0.412
       483  -8.5552    104.9386     35.2512   9.0064811838e+01   5.4661543368e+01    0.2906348    0.1608588 -53.77  0.001173147    2.683    0.627
       484  -8.0016    125.9556     35.5297   8.4756059161e+01   4.9870649441e+01    0.2065706    0.1379492  55.23 0.0003360804    1.467    0.318
       485  -8.4560    111.9571     34.5338   8.7877731343e+01   5.3230238249e+01    0.2575018    0.1866794 -45.93   0.00059933    1.532    0.347
       486  -8.9827     48.5107     33.5588   1.0882291371e+02   6.4752273257e+01    0.2179314     0.190463 -35.24 0.0006090855    1.181    0.153
       487  -8.2929    119.1081     33.1007   8.5497715559e+01   5.1806733540e+01    0.2189666    0.1690137 -63.40 0.0005464255    1.656    0.396
       488  -8.5385     60.6097     32.6322   1.0362961391e+02   6.3213863680e+01    0.2335478    0.1757132 -47.82 0.0005254829    1.491    0.329
       489  -8.8070     72.3314     31.0197   9.8617309924e+01   6.1589096348e+01    0.2600237    0.1802187 -48.18 0.0007264595    1.698    0.411
       490  -7.9197    139.4455     31.5316   8.0298708338e+01   4.7129496603e+01    0.1414911    0.1382936  57.50 0.0002743649    1.034    0.033
       491  -8.7498     12.9952     30.6838   1.2350755937e+02   6.8818801791e+01    0.2152267    0.1420747 -58.22 0.0009030534    1.437    0.304
       492  -7.9504     42.2630     30.6027   1.1022463990e+02   6.6041378179e+01    0.1143232   0.09247656 -63.06 0.0006972099    1.717    0.418
       493  -8.3166    101.2422     29.2217   8.8680121050e+01   5.6298361091e+01    0.1813965    0.1609898 -56.75 0.0007084046    1.361    0.265
       494  -8.9480     81.3969     27.4538   9.3985633437e+01   6.0501351799e+01    0.2848979     0.210873 -48.10 0.0009986371    1.634    0.388
       495  -8.6113      3.6242     27.8292   1.2702605198e+02   6.9949917728e+01     0.190884    0.1497554 -77.32 0.0007856821    1.627    0.385
       496  -8.7919     91.8577     26.3414   9.0213637206e+01   5.8629041573e+01    0.2781326    0.1736837 -42.72 0.0008195997    1.786    0.440
       497  -7.4840    145.7042     25.7244   7.6991120257e+01   4.6283819983e+01      0.14512    0.1032225  33.08 0.0002322416    1.528    0.346
       498  -8.1400     34.4881     23.2610   1.1052638020e+02   6.8179431268e+01    0.1703727    0.1452334  52.95 0.0008067882    1.793    0.442
       499  -7.4160    104.3015     22.6914   8.5153282416e+01   5.6487873710e+01    0.1305994    0.1066871 -63.32 0.0003597144    1.602    0.376
       500  -8.9137     63.5488     21.0998   9.7422114579e+01   6.4513266386e+01    0.2733748    0.1956086 -51.51 0.0009317718    1.912    0.477
       501  -8.8287     48.4455     21.8738   1.0378525367e+02   6.6662896804e+01    0.1988543    0.1818332 -43.03 0.0006130714    1.410    0.291
       502  -7.7146    120.7262     21.3482   8.0560628372e+01   5.2916810903e+01    0.1381208    0.1049097 -58.13 0.0007000486    1.629    0.386
       503  -8.7265    218.6831    247.8903   1.1573094250e+02  -5.7335815965e+00    0.2517856    0.1446204 -45.40   0.00143429    2.548    0.608
       504  -8.0105     19.5133     21.5137   1.1686809180e+02   6.9960039121e+01    0.1152977   0.08990651 -31.62 3.707357e-05    1.034    0.032
       505  -8.1770     87.9194     17.6995   8.7642590273e+01   6.0525779150e+01    0.1774697    0.1595932  27.85 0.0004436155    1.097    0.088
       506  -7.8581     38.8035     18.6167   1.0646615984e+02   6.8414996124e+01    0.1428315    0.1092958  36.06 0.0004745016    1.586    0.369
       507  -8.0057    112.8071     16.8547   8.0611159663e+01   5.5266365246e+01    0.1744422    0.1578305 -52.90 0.0003697516    1.284    0.221
       508  -8.1458     30.0015     16.0400   1.0933862126e+02   6.9835487910e+01    0.1586086    0.1384548 -57.06 0.0007051003    1.659    0.397
       509  -7.8952      7.5209     15.5073   1.2047196168e+02   7.1928143305e+01    0.1092295   0.08556337 -36.42 -3.118912e-06    1.099    0.090
       510  -7.8350     17.1965     14.1562   1.1482517106e+02   7.1396053494e+01    0.1406167    0.1199443 -41.64 0.0004559718    1.341    0.254
       511  -7.7549    119.7138     11.3724   7.6843827698e+01   5.4233492551e+01    0.1375873    0.1007534 -57.20 0.0007018717    1.712    0.416
       512  -9.0734    175.8833    247.9050   1.2300545827e+02   8.8109413159e-01    0.2729603    0.2004077  78.69  0.001452961    2.170    0.539
       513  -8.7962    132.2714    247.8949   1.3060754362e+02   7.7555065650e+00    0.2518135    0.1636859  79.51 0.0007185005    2.052    0.513
       514  -8.1175    113.3045    248.8600   1.3400336093e+02   1.0499052524e+01    0.1835813   0.09901995 -74.28 0.0008062397    2.478    0.596
       515  -9.0785    103.8681    246.7920   1.3543869189e+02   1.2222036277e+01    0.3581621    0.1891835 -89.05  0.001802491    2.838    0.648
       516  -8.2818     93.6929    249.3298   1.3741101264e+02   1.3287593194e+01    0.1815802   0.09787828  65.32  0.001032306    1.768    0.434
       517  -9.0884    243.0489    246.9332   1.1161445126e+02  -9.1670183776e+00    0.2905826    0.1507583 -23.81   0.00178833    2.135    0.532
       518  -9.2406    232.9039    246.5549   1.1319619034e+02  -7.6810109284e+00    0.3291212    0.2143939  -8.95  0.002130233    1.670    0.401
       519  -9.9981    224.0089    244.7102   1.1438330619e+02  -6.1763191504e+00    0.4040274    0.2134667 -43.35  0.002333729    2.663    0.624
       520  -8.8345    156.1468    247.7983   1.2642450031e+02   4.0224126497e+00    0.1761674    0.1501824  85.42 0.0007370702    1.454    0.312
       521  -8.8093    147.2033    246.0538   1.2778419980e+02   5.6854995398e+00    0.2722108    0.1744528  79.20  0.001514655    2.454    0.592
