#   1 NUMBER                 Running object number                                     
#   2 MAG_AUTO               Kron-like elliptical aperture magnitude                    [mag]
#   3 X_IMAGE                Object position along x                                    [pixel]
#   4 Y_IMAGE                Object position along y                                    [pixel]
#   5 X_WORLD                Barycenter position along world x axis                     [deg]
#   6 Y_WORLD                Barycenter position along world y axis                     [deg]
#   7 A_WORLD                Profile RMS along major axis (world units)                 [deg]
#   8 B_WORLD                Profile RMS along minor axis (world units)                 [deg]
#   9 THETA_WORLD            Position angle (CCW/world-x)                               [deg]
#  10 FWHM_WORLD             FWHM assuming a gaussian core                              [deg]
#  11 ELONGATION             A_IMAGE/B_IMAGE                                           
#  12 ELLIPTICITY            1 - B_IMAGE/A_IMAGE                                       
         1 -15.1340      5.3597    144.3244   1.4107404994e+02   4.4616872443e+01     10.19091     1.517511 -72.82   0.02718867    6.602    0.849
         2 -13.3864    201.3062     29.2525   6.3394592090e+01   3.1479509422e+01     1.262537     1.116121  61.32  0.006708019    1.258    0.205
         3 -13.4494    217.9167     11.6515   5.7711839273e+01   2.9673825378e+01     0.927492    0.7854268  70.76  0.002893321    1.277    0.217
         4 -14.6261      3.3239    112.0107   1.3754150606e+02   5.2129802337e+01     3.900081    0.3824345 -66.19    0.0117286    5.224    0.809
         5 -11.8843      2.7655      3.2573   1.0910927847e+02   7.2241619516e+01    0.3944705    0.2535504   7.83  0.003013969    1.338    0.253
         6 -11.1557    238.0578    247.7456   1.0426711631e+02  -1.3037439188e+01    0.2337661    0.1716557  15.15   0.00148636    1.133    0.118
         7 -11.6609    178.6470    249.7957   1.1611326150e+02  -4.0451586527e+00    0.5309259    0.1769181  34.64  0.002001817    2.914    0.657
         8 -11.3847    139.0008    249.5267   1.2410371409e+02   2.7496700039e+00    0.3548989    0.1998372  37.63  0.001800655    1.564    0.361
         9 -11.6361    124.4505    249.9405   1.2710390229e+02   5.1360270832e+00    0.5546485     0.174644  42.17  0.002171982    2.602    0.616
        10 -13.8875      9.4515    240.6917   1.4797429398e+02   2.3068437141e+01     1.835861     1.288229  86.06    0.0134306    1.119    0.106
        11 -12.9258     42.8488    212.0332   1.3956879953e+02   2.5300313688e+01       1.0781    0.7193683 -75.43  0.005098505    1.343    0.255
        12 -12.7726     27.2530    229.4040   1.4407810440e+02   2.3414397952e+01    0.3154887    0.2482767 -78.75  0.000737266    1.292    0.226
        13 -13.8940     32.3408    223.0252   1.4262376672e+02   2.4170486469e+01    0.8362389     0.571867  69.57  0.002361806    1.196    0.164
        14 -11.4476    148.2871    248.5311   1.2207675016e+02   1.3371676600e+00    0.3333983    0.2043856  38.86  0.001766592    1.393    0.282
        15 -10.7712     63.3579    246.3534   1.3871575391e+02   1.5340193538e+01    0.2511584    0.1866847  70.91  0.000572901    1.082    0.076
        16 -12.9622     33.8367    246.4232   1.4412248878e+02   1.9181799851e+01     1.137662     1.113621 -49.28  0.008809018    1.665    0.400
        17  -9.8036    198.3176    245.6735   1.1153334274e+02  -6.6548523620e+00    0.1203983   0.09950542  63.10 0.0004319258    1.676    0.403
        18 -10.1153     81.6724    249.0824   1.3547768032e+02   1.2142992934e+01    0.2055239    0.1374448  79.09  0.001199332    1.473    0.321
        19 -10.0031    185.5154    239.5095   1.1309251637e+02  -3.5328968636e+00    0.1339753    0.1141023  24.91 0.0008103137    1.022    0.022
        20  -9.7949    234.0000    237.9832   1.0333484621e+02  -1.1088209433e+01    0.1912865   0.06654321 -38.28 0.0008043566    2.956    0.662
        21 -12.4443     88.1511    226.0755   1.3163909060e+02   1.5830310479e+01     1.394549   0.09270355  45.20  0.003096855    8.207    0.878
        22 -12.4715    122.3865    231.9553   1.2514647080e+02   8.9276000462e+00    0.8875661    0.2124507  39.88  0.002825211    3.688    0.729
        23 -12.0432    104.3145    230.0258   1.2871896338e+02   1.2387296048e+01    0.6985587    0.1647379  41.19  0.002304228    3.558    0.719
        24 -10.9319      6.9795    215.2860   1.4683121517e+02   2.8526820545e+01    0.2145869    0.1558357 -86.31 0.0006614184    1.137    0.121
        25 -12.7235     10.0469    207.0559   1.4568020313e+02   2.9995454006e+01    0.7287425    0.6626713  21.02  0.004306254    1.642    0.391
        26 -13.1380     55.8020    210.8840   1.3675228622e+02   2.3891836520e+01     3.833476     1.177793  61.53  0.006314252   17.858    0.944
        27 -11.6159    245.3358    246.2982   1.0268750983e+02  -1.3861582201e+01    0.5194021    0.2493998 -20.47  0.002534333    2.480    0.597
        28 -10.3133     53.5176    203.0094   1.3638791839e+02   2.5977119366e+01    0.4720807     0.233639  89.34   0.00205964    2.447    0.591
        29 -11.5771     55.7530    196.5621   1.3516150007e+02   2.7169212462e+01     0.281834     0.230359 -66.94 0.0005031081    1.247    0.198
        30  -9.3083    192.6686    194.0065   1.0336739321e+02   3.3851215340e+00    0.2312068    0.1194895 -63.57 0.0007051976    4.402    0.773
        31 -11.8306     62.6000    188.3190   1.3257713629e+02   2.8181268264e+01    0.2738401    0.2468279 -74.14 0.0004283971    1.161    0.138
        32 -11.2873      4.3678    184.2585   1.4507266903e+02   3.5549107700e+01    0.3892838    0.2047322  64.04  0.001352795    1.847    0.459
        33 -13.0605     59.9106    173.6506   1.3122795062e+02   3.2065563170e+01    0.5474153     0.284935 -46.41  0.001555599    2.250    0.556
        34 -10.5767     73.6995    175.6821   1.2811864552e+02   2.9632316234e+01    0.2455984    0.2248851 -77.71 0.0003506212    1.085    0.078
        35 -10.2660     90.7592    168.3956   1.2261461716e+02   2.8734719238e+01    0.6506833    0.3072652  62.96  0.002066303    3.786    0.736
        36 -11.6014     81.1702    167.1872   1.2486784398e+02   3.0570996517e+01    0.6266751    0.4596478 -49.59  0.003201596    1.413    0.293
        37 -10.1376     95.0610    151.4545   1.1830900903e+02   3.2158319904e+01    0.3010544    0.2806151  51.32  0.000765281    1.107    0.097
        38 -11.7029     83.5664    150.2878   1.2119653735e+02   3.4346833184e+01    0.3198338    0.2546189 -45.76  0.001088363    1.291    0.226
        39  -9.0259     98.3709    147.1483   1.1653600742e+02   3.2634611214e+01    0.2085181    0.1837589 -62.54 0.0005194125    1.090    0.082
        40 -11.9330     67.5935    143.5315   1.2432352995e+02   3.8390930660e+01    0.6911733    0.4473221  63.91  0.002946738    1.920    0.479
        41  -9.5383    107.8787    136.9763   1.1172002410e+02   3.3361280657e+01    0.4126992    0.2707468 -10.02  0.001507777    2.916    0.657
        42 -10.3773     94.8265    133.8603   1.1466638922e+02   3.6477125918e+01    0.2536866    0.2261599 -30.82 0.0003539592    1.201    0.167
        43  -9.0196    105.7238    123.3137   1.0911098804e+02   3.6998779108e+01     0.191813    0.1698515 -17.08 0.0003561885    1.251    0.201
        44  -8.9775    167.2437    112.2374   9.0433525366e+01   2.6041614524e+01    0.2171744    0.1814739 -82.45 0.0004559162    1.360    0.265
        45  -9.8913    242.3253     92.3287   7.2135537821e+01   1.2598524540e+01    0.1298005    0.1104251   5.97 0.0007050159    1.700    0.412
        46  -9.3941    159.5191     77.5434   8.2891001092e+01   3.4564048298e+01    0.1509908    0.1423144  73.00 2.186432e-05    1.019    0.018
        47  -8.7437    152.5392    212.9965   1.1564544041e+02   7.2904838332e+00    0.1920183    0.1439282 -51.70 0.0003037576    1.463    0.317
        48 -10.3135    227.2036    249.6068   1.0660404391e+02  -1.1722567448e+01    0.1827498   0.09735028  26.06 0.0009575288    1.730    0.422
        49 -10.3787    218.6909    249.3630   1.0817754954e+02  -1.0414528111e+01    0.1780723    0.1531548  59.13  0.001133869    1.726    0.421
        50 -11.6102    162.2837    248.9931   1.1929609344e+02  -1.1405863268e+00     0.414147     0.194483  42.00  0.001937007    1.795    0.443
