#   1 NUMBER                 Running object number                                     
#   2 MAG_AUTO               Kron-like elliptical aperture magnitude                    [mag]
#   3 X_IMAGE                Object position along x                                    [pixel]
#   4 Y_IMAGE                Object position along y                                    [pixel]
#   5 X_WORLD                Barycenter position along world x axis                     [deg]
#   6 Y_WORLD                Barycenter position along world y axis                     [deg]
#   7 A_WORLD                Profile RMS along major axis (world units)                 [deg]
#   8 B_WORLD                Profile RMS along minor axis (world units)                 [deg]
#   9 THETA_WORLD            Position angle (CCW/world-x)                               [deg]
#  10 FWHM_WORLD             FWHM assuming a gaussian core                              [deg]
#  11 ELONGATION             A_IMAGE/B_IMAGE                                           
#  12 ELLIPTICITY            1 - B_IMAGE/A_IMAGE                                       
         1 -13.7032      8.7510    118.1367   1.2336095947e+02   4.9263782468e+01     2.351852    0.5513926 -55.90  0.009688573    3.222    0.690
         2 -15.3403     59.8172     37.1503   8.6698665221e+01   6.1802703344e+01     6.574124     3.598185 -14.86    0.0289853    2.513    0.602
         3 -14.0360    170.9612     44.5085   5.9171036373e+01   3.6762400004e+01     1.139306    0.8435065   4.31  0.004010943    1.637    0.389
         4 -14.8125    188.5649     10.6955   4.6009435288e+01   3.6202251091e+01     1.717553     1.343773  69.80   0.00719546    1.195    0.163
         5 -10.4066     12.9857    241.6816   1.3131688197e+02   2.3888038516e+01    0.1750681    0.1353355 -87.66  0.001110375    1.384    0.277
         6 -14.9013     99.1886    244.3638   1.1757767938e+02   1.2941773638e+01     1.094856    0.6797344  38.70  0.006971388    1.559    0.359
         7 -18.7864     56.4022    234.9034   1.2404859818e+02   2.0233990343e+01     3.771796     2.290554  40.68   0.02042478    1.656    0.396
         8 -12.2306    152.3851    222.5332   1.0543765701e+02   8.1160758405e+00    0.2420038    0.1813966  57.32 0.0007994021    1.319    0.242
         9 -11.0223     13.0000    237.0984   1.3110864653e+02   2.4661252107e+01    0.2463786   0.04539171 -77.16   0.00104309    4.860    0.794
        10 -11.8665     11.5889    207.0222   1.2982549014e+02   3.0211342354e+01    0.1836302    0.1244488  58.19  0.001105635    1.273    0.214
        11 -11.8250     40.8258    200.0815   1.2415398249e+02   2.8545742780e+01    0.2713383    0.2172042 -32.52   0.00118671    2.190    0.543
        12 -11.2947    193.1141    196.4809   9.3456718753e+01   5.0395833492e+00    0.4990252    0.2652591 -62.40  0.001568685    6.036    0.834
        13 -15.1895    113.5784    190.8636   1.0862253875e+02   2.0276183162e+01     1.240036    0.7596573  48.67  0.006570086    1.481    0.325
        14 -15.0741     75.6743    214.7198   1.1896244733e+02   2.1374014661e+01     0.875378    0.5289481  55.46  0.005392271    1.391    0.281
        15 -11.2943    153.9167    186.4596   9.9501329366e+01   1.4004554000e+01    0.2878596    0.2023886 -72.85  0.001159054    1.995    0.499
        16 -11.4339    149.0054    181.0133   9.9571617792e+01   1.5935327860e+01     0.218446    0.1661254  78.13 0.0007228007    1.689    0.408
        17 -10.8091    188.6232    178.8317   9.1004297256e+01   8.7464141076e+00    0.2747726    0.1997994 -47.18  0.001167784    1.579    0.367
        18 -10.6477    194.5753    175.4875   8.9158065273e+01   8.1567879049e+00    0.2524011    0.2148052  11.61  0.001437199    1.136    0.120
        19 -13.1668    104.3231    174.1368   1.0811504534e+02   2.5216816418e+01    0.3932482    0.3256024 -11.80  0.002195516    1.783    0.439
        20 -11.6325    100.6948    170.9597   1.0842982162e+02   2.6481556024e+01    0.2724585    0.1726525  56.72  0.000906055    1.583    0.368
        21 -12.3723     97.1184    166.2472   1.0849971481e+02   2.8072376263e+01    0.6157908    0.2980637 -42.15  0.002509195    2.858    0.650
        22 -12.7032    125.0652    173.2141   1.0338062399e+02   2.1861918700e+01    0.2980277    0.2159114  59.36 0.0006143912    1.398    0.285
        23 -13.3599    112.1133    170.9673   1.0587854063e+02   2.4587940010e+01    0.4794172    0.3421802  83.29  0.002463054    1.672    0.402
        24 -12.4909    141.0228    170.5513   9.9396136821e+01   1.9473674824e+01    0.2785985    0.2509574  74.08  0.000624346    1.148    0.129
        25 -12.5703    119.8135    164.6380   1.0306059574e+02   2.4589088765e+01    0.3126331    0.2585086  82.44  0.001048068    1.286    0.222
        26 -11.7699    114.8322    163.1407   1.0393282351e+02   2.5786925863e+01     0.219809    0.1822499  76.75 0.0006615012    1.242    0.195
        27 -14.0386    120.0053    158.0194   1.0181228922e+02   2.5971484968e+01    0.9091234    0.5168692  70.16  0.003445868    2.981    0.665
        28 -12.2184    102.8031    155.3707   1.0536693811e+02   2.9540104872e+01    0.3979029      0.29698 -88.70 0.0007662823    1.494    0.331
        29 -13.5629    106.6761    150.8330   1.0362339236e+02   2.9895810916e+01     0.736438    0.5472932  26.75   0.00334836    1.634    0.388
        30 -13.8682    133.7292    146.7014   9.6350106515e+01   2.5833824832e+01     1.267603    0.3353857 -54.74  0.003149283    5.669    0.824
        31 -12.4692     92.6696    149.9106   1.0683652333e+02   3.2411819390e+01    0.2904631    0.2682415 -38.55 0.0007188523    1.263    0.208
        32 -11.2001     25.4998    231.1725   1.2886473611e+02   2.4411418688e+01    0.1931778    0.1119083 -84.88 0.0009327162    1.491    0.329
        33 -11.4531     68.8775    145.0782   1.1184681366e+02   3.6996118081e+01    0.4956672    0.2612538  67.21  0.002101652    2.677    0.626
        34 -13.1995    114.9028    137.0437   9.8870345492e+01   3.1528264333e+01    0.5063164    0.2955739 -44.27  0.001783146    1.761    0.432
        35 -11.7455    104.3519    136.3284   1.0136972645e+02   3.3570516807e+01     0.258236    0.2457984 -85.85 0.0002679814    1.024    0.023
        36  -9.6965     25.0172    226.3058   1.2867204831e+02   2.5323589736e+01     0.270374   0.09447329 -68.79  0.001511853    2.667    0.625
        37 -11.4765    134.0177    245.4868   1.1165406920e+02   7.5726927851e+00    0.2230746    0.1615498 -33.50  0.001415536    2.051    0.512
        38 -11.4638    109.1637    133.4352   9.9546177156e+01   3.3382385964e+01    0.2506875    0.1671618 -58.46 0.0008662929    1.478    0.323
        39 -12.4142    119.3899    128.7908   9.5927046075e+01   3.2541166480e+01    0.2831957    0.2538859   8.74 0.0007755584    1.296    0.229
        40 -12.4167    134.8183    122.8902   9.0657498033e+01   3.0775687772e+01    0.5405676     0.161803 -49.67  0.001574203    3.576    0.720
        41 -11.1942    107.7695    124.4994   9.7941029325e+01   3.5666034652e+01    0.2700654    0.2228835 -35.67 0.0005496937    1.294    0.227
        42 -10.8816    113.4731    118.4907   9.5038885339e+01   3.5977907857e+01    0.1491362    0.1417199 -61.89 9.378311e-06    1.016    0.016
        43 -10.1499    168.4328    114.5077   8.0567113445e+01   2.5130864840e+01    0.3027645    0.2213131  89.04  0.001251918    2.124    0.529
        44  -9.5366    117.6892     66.2510   7.8737765391e+01   4.6128264318e+01    0.1400908    0.1208275 -83.76 0.0002428088    1.515    0.340
        45 -11.7844    157.6126     59.6736   6.6733832734e+01   3.7881873569e+01    0.3934619    0.3174337  61.02 0.0008736828    1.294    0.227
        46 -11.1982    166.9866    226.2714   1.0324648597e+02   5.0928028580e+00    0.2128387    0.1802357 -42.03 0.0005453997    1.430    0.300
        47 -12.3992    175.3048     37.4658   5.6162348214e+01   3.6588154841e+01    0.4072067    0.3532756  -2.95 0.0009160613    1.245    0.197
