#   1 NUMBER                 Running object number                                     
#   2 MAG_AUTO               Kron-like elliptical aperture magnitude                    [mag]
#   3 X_IMAGE                Object position along x                                    [pixel]
#   4 Y_IMAGE                Object position along y                                    [pixel]
#   5 X_WORLD                Barycenter position along world x axis                     [deg]
#   6 Y_WORLD                Barycenter position along world y axis                     [deg]
#   7 A_WORLD                Profile RMS along major axis (world units)                 [deg]
#   8 B_WORLD                Profile RMS along minor axis (world units)                 [deg]
#   9 THETA_WORLD            Position angle (CCW/world-x)                               [deg]
#  10 FWHM_WORLD             FWHM assuming a gaussian core                              [deg]
#  11 ELONGATION             A_IMAGE/B_IMAGE                                           
#  12 ELLIPTICITY            1 - B_IMAGE/A_IMAGE                                       
         1 -11.9264     76.4368     21.4128   8.4474257321e+01   6.1723553665e+01    0.5265455     0.360459  34.04   0.00220055    1.559    0.359
         2 -10.2631    171.3858     24.6401   6.2395373922e+01   3.9439203347e+01    0.4387686    0.1969593 -26.79  0.001678787    2.176    0.540
         3 -11.6270     88.8433     13.6428   7.6843118358e+01   6.0572589256e+01    0.6478802    0.3585132 -42.62  0.003035224    1.982    0.495
         4 -10.9614     92.4245      9.4942   7.3814017898e+01   6.0399418271e+01    0.3166703    0.2705842  73.45  0.000855965    1.533    0.348
         5 -11.1185     13.9297     15.9654   1.0871522705e+02   7.0367776855e+01    0.3184854     0.211604  14.43  0.001676524    1.848    0.459
         6 -11.4885     39.9369     19.4820   9.7998462374e+01   6.7309151329e+01    0.5914655    0.4241609 -21.92  0.003471629    1.361    0.265
         7 -10.9493     22.2169      9.1982   1.0185929057e+02   7.0961232986e+01    0.3272705    0.2134018  -7.19  0.002054208    1.799    0.444
         8 -12.0340     30.3550      7.4361   9.7017785591e+01   7.0476532858e+01    0.4816572    0.2998675 -46.28  0.002057552    1.416    0.294
         9 -11.4872     35.0251     13.0662   9.7414915720e+01   6.9000698156e+01    0.3759787    0.2331809 -45.60  0.001936906    1.376    0.273
        10 -11.7771     40.0174      8.6007   9.3020189771e+01   6.9183239840e+01     0.595741    0.3076352 -40.36  0.002383159    1.608    0.378
        11 -11.5548    155.7945     13.7275   6.1139043010e+01   4.4804593592e+01    0.5411772    0.3028189  29.73  0.002208904    2.127    0.530
        12 -10.3208    119.2545     12.0999   6.7887764461e+01   5.4153761835e+01    0.2445067    0.2037636  57.62 0.0002667216    1.257    0.205
        13 -11.6212    150.9191      7.5362   5.9648540764e+01   4.6728794375e+01    0.4473056    0.3161326  14.54  0.002158287    1.559    0.358
        14 -12.1781     56.4217      5.3934   8.4308023452e+01   6.7425155389e+01    0.6131653     0.357412 -21.42  0.003281014    1.648    0.393
        15 -11.8547     11.1047      6.7836   1.0656230203e+02   7.2292136052e+01    0.7046595    0.4969728  54.43  0.004551614    2.371    0.578
        16 -11.4975      4.5539      9.8754   1.1123916128e+02   7.2137122314e+01    0.2946354    0.1842376  14.45  0.001657472    1.988    0.497
        17 -11.5148      2.4132      6.3436   1.1106331364e+02   7.2927535284e+01    0.2740017    0.2015125 -65.91   0.00122723    1.398    0.285
        18 -11.1871    210.0448      7.1914   5.1555234309e+01   3.1013546131e+01    0.2795472    0.2334739  76.57  0.001530915    1.191    0.160
        19  -9.4275    172.6479      8.3158   5.6526542709e+01   4.0883382585e+01    0.1571641    0.1063472 -60.68 0.0007046629    1.735    0.424
        20 -11.8189     80.2280      1.7609   7.3779329477e+01   6.3775856492e+01     1.291623    0.2688216  42.52  0.001146445    5.231    0.809
        21 -10.1360     70.6653      7.3070   7.9851719938e+01   6.4821929464e+01    0.4828457    0.3029413  63.41  0.002261683    2.572    0.611
        22 -10.6463     73.5101      5.4631   7.7915439739e+01   6.4565443858e+01    0.3528207    0.2285351  55.50  0.001881596    1.924    0.480
        23 -11.1675    194.9716      5.2644   5.2625955002e+01   3.5186891110e+01    0.4089672    0.1796311 -47.41   0.00154884    2.510    0.602
        24 -10.7827    144.9822      5.8393   6.0028027175e+01   4.8441574373e+01    0.2464947    0.2045893 -11.64 0.0005817226    1.218    0.179
        25 -10.7938    119.6874      4.6391   6.4563401677e+01   5.4877484997e+01    0.4820065    0.1976795  44.62  0.001401769    2.330    0.571
        26 -10.1032    235.3782      4.3655   4.8343547196e+01   2.4816932687e+01    0.2096631    0.1527594  31.55 0.0008321683    1.611    0.379
        27 -10.4958    217.7310      3.9528   4.9822447833e+01   2.9319875575e+01    0.1937589    0.1770675 -42.84 0.0003705241    1.066    0.061
        28 -11.0858    159.9415      2.3812   5.6263730577e+01   4.4842167407e+01    0.3408029    0.2880956 -51.76   0.00183439    1.283    0.221
        29 -11.0967    130.3412      3.6870   6.1912336757e+01   5.2372536928e+01    0.2839459    0.2224507  49.92  0.001428103    1.208    0.172
        30  -9.5974    230.5304      3.4784   4.8516731457e+01   2.6106660157e+01    0.1366081     0.127032 -55.84 0.0003367664    1.016    0.016
        31 -10.7596    172.4476      2.9593   5.4683653273e+01   4.1445779556e+01    0.3450392    0.2065854  85.11 0.0008148921    1.909    0.476
        32  -9.7345    176.5141      2.4841   5.3977293853e+01   4.0396535240e+01    0.2572401     0.195344 -17.59  0.001312049    1.362    0.266
        33  -9.8415    113.0927      2.8932   6.5291644091e+01   5.6616023791e+01    0.2096732    0.1927098 -53.01  0.001228074    1.285    0.222
        34 -10.9746     19.0100      2.6688   1.0049501636e+02   7.2394662871e+01    0.3011978    0.1914158   6.95  0.001925887    1.872    0.466
        35  -9.9771     50.1590      2.0879   8.5169766773e+01   6.8836259941e+01    0.3473128    0.1343509  34.72  0.001533832    3.022    0.669
        36 -10.0311    100.0962      1.7651   6.7992741891e+01   5.9675594924e+01    0.2012642    0.1827116 -39.17 0.0004790113    1.272    0.214
        37  -9.0450    204.2978      1.2887   5.0363239176e+01   3.3074142251e+01    0.1446064     0.101325  37.40 0.0001954466    1.555    0.357
        38  -9.3289     67.4507      1.4907   7.8011312119e+01   6.6154545379e+01    0.1304185     0.107187  -3.95 4.202346e-05    1.039    0.038
        39  -9.4217    212.3178    133.6886   8.5745044294e+01   1.3486102314e+01    0.1290903     0.111315 -79.16 0.0003697028    1.642    0.391
        40 -10.9956      1.8042    248.7757   1.3641419093e+02   2.6735403536e+01    0.2617859    0.1091618 -89.55  0.002037226    2.084    0.520
        41 -13.2906      9.0592    245.6924   1.3533875476e+02   2.6515366460e+01     1.106874    0.2117272  42.46  0.006537707    3.052    0.672
        42 -13.5828      9.9402    229.8472   1.3470516841e+02   2.8750952440e+01     0.673547    0.3161055  65.35  0.005247799    1.475    0.322
        43 -10.9387     12.0885    129.8496   1.2912420173e+02   4.6456023429e+01     0.375017    0.1488734  67.14  0.001750294    2.699    0.629
        44  -9.3665     35.3815    130.7598   1.2387590034e+02   4.4239660812e+01     0.157698   0.08588196 -64.24 0.0006587951    1.643    0.391
        45  -9.8981     29.2115    129.3644   1.2516538705e+02   4.5114025566e+01    0.3010442    0.1291791  86.07  0.001423197    2.700    0.630
        46 -11.5274     23.3193    121.3516   1.2575562022e+02   4.7314863170e+01    0.4358042    0.1898786  86.49  0.001044517    2.504    0.601
        47 -10.5884      4.4243    113.6801   1.2961063413e+02   5.0354384300e+01    0.2331009    0.1344478   5.46  0.001402432    3.032    0.670
        48 -10.2812    249.2758    111.9570   7.4724588876e+01   8.8083744675e+00    0.1974912     0.164519  -7.04  0.001093759    1.078    0.072
        49 -10.6414      3.6664    118.8398   1.3020163997e+02   4.9332757465e+01    0.1525856    0.1437597  87.92 0.0007862337    1.343    0.255
        50  -9.9943     65.9779    110.7224   1.1356704666e+02   4.5108667857e+01    0.1781165    0.1546837  89.26 0.0008589991    1.051    0.048
        51 -10.8164      3.6839    108.9805   1.2939810752e+02   5.1387039161e+01    0.2685063     0.132946  37.49   0.00168874    2.197    0.545
        52 -10.3266     58.0630    107.9465   1.1518322700e+02   4.6690518816e+01    0.1897578     0.142192 -37.31  0.001042232    1.696    0.410
        53 -10.8254     13.1705    108.1240   1.2693625902e+02   5.0917760554e+01    0.1686085    0.1285007 -66.21 0.0005750032    1.254    0.203
        54 -10.1172     89.4968    105.4695   1.0640942464e+02   4.2909277275e+01    0.1332838     0.121069 -80.95 0.0001754554    1.018    0.018
        55  -9.8024    113.5252    102.4961   9.9561126467e+01   3.9449352093e+01    0.1388328    0.1318557 -80.12 0.0001071296    1.014    0.013
        56 -11.3353     57.3715    101.5260   1.1427899494e+02   4.8177179000e+01    0.3041951    0.2115532  51.82  0.001714952    1.531    0.347
        57 -11.0473     18.3632     94.5569   1.2403411650e+02   5.3453161341e+01    0.2739692     0.160853  81.17  0.001254281    1.707    0.414
        58 -10.2516     20.4015     99.7949   1.2412199327e+02   5.2162853200e+01    0.2177434   0.07161845 -61.63 0.0006941945    2.339    0.572
        59  -9.3949    129.4969     97.5201   9.4378785228e+01   3.7371739656e+01     0.141699    0.1392769 -78.70  3.20246e-05    1.002    0.002
        60  -8.8923    101.6372     96.6853   1.0126288994e+02   4.2781737767e+01    0.1384987    0.1099497 -10.83 0.0003803257    1.761    0.432
        61 -10.6824     78.9612     94.9850   1.0702965222e+02   4.6760355322e+01    0.1941227     0.174624 -69.58 0.0002989783    1.008    0.008
        62 -11.0134     27.4545     90.9976   1.2098178391e+02   5.3510745300e+01    0.4865261     0.244639  58.42  0.002519886    2.400    0.583
        63 -10.4682     25.3563     84.9636   1.2068965078e+02   5.5004648619e+01    0.2561331    0.1617305 -80.85  0.001037093    1.387    0.279
        64 -10.9687     58.6041     91.3100   1.1203596029e+02   5.0274240178e+01    0.2518486    0.2076193 -39.96 0.0002141493    1.363    0.266
        65 -11.4063     11.1710     88.1216   1.2526444269e+02   5.5352921410e+01    0.5463648    0.1984251 -72.32  0.002098616    2.102    0.524
        66 -10.1918     17.7118     88.5841   1.2344630933e+02   5.4799080968e+01    0.2747939    0.1744634 -32.31  0.001046698    2.174    0.540
        67 -10.8430     76.4756     89.2856   1.0647011128e+02   4.8356694576e+01     0.232085    0.2112321 -66.66 0.0005712241    1.023    0.023
        68 -10.2447     43.0929     89.0909   1.1613286365e+02   5.2484649196e+01    0.4492489    0.1569008  50.84  0.001746828    4.020    0.751
        69 -10.4325      1.8535     89.7684   1.2807626881e+02   5.5572875427e+01    0.1930366    0.1176085 -80.27  0.001289544    1.244    0.196
        70 -10.1190    107.6788     89.3167   9.7843129477e+01   4.3245828148e+01    0.1430523     0.109561 -89.99 0.0007041795    1.662    0.398
        71 -11.2777     98.7429     89.3692   1.0026383484e+02   4.4820800809e+01    0.2437839    0.1875649  31.07   0.00130548    1.501    0.334
        72  -9.2669     33.0004     88.0532   1.1891788342e+02   5.3676811254e+01    0.1487306    0.1006801 -69.97 0.0003821783    1.201    0.167
        73  -9.4798    124.0142     86.9987   9.2983069411e+01   4.0568907609e+01    0.1759685    0.1692661 -51.35 0.0007336264    1.015    0.015
        74 -11.2835     54.6570     84.7896   1.1188572790e+02   5.2174919482e+01    0.3042181    0.2056903 -76.96  0.001724419    1.472    0.321
        75 -10.3212      3.8281     83.2598   1.2680487924e+02   5.6854863495e+01    0.2968056    0.1627771  78.33  0.001079938    1.850    0.459
        76 -10.0701      2.9604     78.4935   1.2649864405e+02   5.7929104763e+01    0.1526729    0.1192562 -79.03 -0.0002344993    1.043    0.042
        77  -9.2671    129.3986     83.6086   9.0693571578e+01   4.0127338785e+01    0.1410658    0.1386592 -27.98 5.871967e-05    1.022    0.021
        78  -9.8223     78.0526     83.4355   1.0464881029e+02   4.9392859784e+01    0.1863697    0.1306148  42.80 0.0004599852    1.561    0.359
        79 -11.4956     64.1038     80.0406   1.0800227241e+02   5.2056930271e+01    0.4181423    0.2917199 -62.91  0.002143954    1.284    0.221
        80  -9.8184    250.3961     80.8300   6.7006615613e+01   1.2514671579e+01    0.1974524    0.1238605 -12.18 0.0005357245    1.638    0.389
        81 -10.4996     89.6512     79.7784   1.0035601836e+02   4.8369676519e+01    0.4216553    0.2384926 -37.58  0.001915654    1.976    0.494
        82 -10.6323    176.8073     77.3507   7.8230079460e+01   3.0387944579e+01    0.3825708    0.2579619  42.25  0.001741896    1.501    0.334
        83  -9.2749    124.3027     78.7155   9.0591720899e+01   4.2140344542e+01    0.1427803    0.1152189 -83.65 0.0002761894    1.557    0.358
        84 -11.6923     56.2589     75.3344   1.0933830025e+02   5.4057247169e+01    0.3912708    0.2895694  14.04  0.001427709    1.817    0.450
        85  -9.3968    160.5971     74.8333   8.0858291364e+01   3.4718332727e+01    0.2093954    0.1386681 -45.45 0.0003860997    1.571    0.363
        86  -9.0238     74.7284     75.6725   1.0370694986e+02   5.1546240185e+01    0.1321433   0.09661189 -31.26 0.0002141976    1.582    0.368
        87 -10.1060     32.2026     73.1257   1.1653498590e+02   5.7026260200e+01    0.2290601     0.183992  70.61 0.0007848414    1.381    0.276
        88 -10.9748     35.6298     72.1807   1.1524349620e+02   5.6925110913e+01    0.4477664    0.2736053 -76.98  0.001793473    1.590    0.371
        89  -9.8773      6.7024     74.3353   1.2482394414e+02   5.8613014754e+01    0.1729371    0.1322182  89.06  0.001099752    1.190    0.160
        90  -9.9576      2.9660     73.5630   1.2588225985e+02   5.8990013635e+01     0.222508    0.1510753  -8.77  0.001049549    2.157    0.536
        91  -9.0573    224.2802     74.2998   6.9062162844e+01   1.9316871631e+01    0.1472305    0.1076014  17.73 0.0002709095    1.544    0.352
        92  -9.5222    136.4805     74.4686   8.6294003795e+01   4.0342778358e+01    0.1469709    0.1440652 -22.01 0.0002380661    1.002    0.002
        93 -11.2276    105.9035     71.6583   9.3454003607e+01   4.7177605313e+01    0.2606253    0.2453184  -1.67 0.0004122486    1.139    0.122
        94  -9.4286     92.4729     72.4806   9.7538142030e+01   4.9421917973e+01    0.1383677    0.1276571 -54.46 7.771493e-05    1.025    0.024
        95  -9.7282     80.7946     72.2094   1.0094580172e+02   5.1374967132e+01    0.2197278    0.1430901  86.60 0.0009042796    2.734    0.634
        96 -10.3313     15.3270     75.8860   1.2236060391e+02   5.7732322252e+01    0.1781987    0.1454468  60.92  0.001162048    1.376    0.273
        97  -9.3786     45.8022     68.7723   1.1118756452e+02   5.6663481210e+01    0.1825207   0.08665328  44.54 0.0006693611    2.514    0.602
        98 -10.1953    114.3655     66.8057   8.9644054036e+01   4.6480210308e+01    0.2451494    0.1975173  70.10 0.0003672738    1.493    0.330
        99 -10.9204     34.4257     64.7697   1.1409116945e+02   5.8651641687e+01    0.2835681    0.1779905 -55.98 0.0006698221    1.296    0.228
       100 -11.4327     39.6914     61.5711   1.1155971983e+02   5.8846848277e+01    0.6028286    0.2288869 -43.23   0.00235789    2.800    0.643
       101 -10.6094    131.6871     64.4838   8.4390467043e+01   4.3241025120e+01    0.3649801    0.3007272  52.87   0.00188741    1.261    0.207
       102 -11.2461     11.3237     37.1572   1.1630227213e+02   6.6285552500e+01    0.5218275     0.300671  77.33  0.002719333    2.893    0.654
       103 -12.8398     20.8627     57.8688   1.1733167571e+02   6.1255735923e+01    0.5946714    0.3735566 -55.94  0.003763106    1.270    0.213
       104 -10.4245     20.3930     51.2086   1.1606786316e+02   6.2718710909e+01    0.2663227     0.165059 -46.06 0.0007859778    1.440    0.305
       105 -12.4102      5.2779     51.4787   1.2171518748e+02   6.3608419841e+01    0.4430568    0.1898162 -41.33  0.002370629    2.414    0.586
       106 -11.8231     15.7589     45.7793   1.1658978872e+02   6.4194391754e+01    0.6359084    0.4475437 -11.57  0.004223978    1.837    0.456
       107  -9.8656     72.5735     63.2932   1.0100709359e+02   5.4478072836e+01    0.2528789    0.1193896 -55.21  0.000844501    2.004    0.501
       108 -11.2786      3.5286     61.3180   1.2397821140e+02   6.1594385227e+01    0.4584014    0.2018903  64.23  0.001897085    3.527    0.717
       109 -11.0894      9.7058     60.5385   1.2173922969e+02   6.1417009749e+01    0.3375811    0.1560325 -53.06  0.001922338    1.765    0.433
       110 -10.6007     62.6117     62.1402   1.0393325313e+02   5.6098791055e+01    0.2678215    0.1894123 -38.97  0.001138997    1.383    0.277
       111  -9.9160     66.9087     60.5665   1.0206339959e+02   5.5850668542e+01    0.2125358     0.181727   5.42  0.000563331    1.396    0.284
       112 -10.0726    101.0152     61.7105   9.1789475075e+01   5.0063431631e+01    0.2794496    0.1689167 -65.79  0.001044263    2.525    0.604
       113 -11.1189     54.3405     58.3861   1.0568307088e+02   5.7930974154e+01    0.5568942    0.4261793 -78.75   0.00330629    1.496    0.332
       114 -11.9746     88.2618     53.6112   9.2987792018e+01   5.3937307769e+01    0.4372461    0.3828551  12.61  0.002319387    1.261    0.207
       115 -10.2497     60.2237     58.0426   1.0357393310e+02   5.7270993136e+01    0.1966316    0.1929695 -46.31 0.0006462162    1.138    0.121
       116  -9.4028     71.4671     57.1955   9.9551045315e+01   5.5900318877e+01     0.180492    0.1183104 -59.95  0.000470866    1.566    0.361
       117 -10.4538    225.1895     54.7284   6.3553822119e+01   2.1704751664e+01    0.4614075    0.2870598   1.53  0.001925663    2.075    0.518
       118  -9.9590     99.8220     56.1825   9.0335489403e+01   5.1355011985e+01    0.1917544    0.1557365 -20.23   0.00042305    1.303    0.233
       119  -9.1636     67.7041     56.7785   1.0067522066e+02   5.6525554116e+01    0.1196232   0.09567134 -16.97 0.0002306787    1.453    0.312
       120 -11.6363    114.5353     54.0779   8.5436509319e+01   4.8827306682e+01    0.3341304    0.3133039  28.89 0.0007538558    1.100    0.091
       121  -8.9305    165.5416     54.4493   7.3492045164e+01   3.6847636814e+01    0.1510924    0.1474775   5.73 0.0001140621    1.007    0.006
       122 -10.4047     34.3467     53.5375   1.1148297472e+02   6.1076668584e+01    0.2555735    0.1511867 -45.72 0.0007377894    1.494    0.331
       123  -9.7017    106.0144     53.2371   8.7536203866e+01   5.0713251016e+01    0.2008647    0.1858916  42.06 0.0007723472    1.149    0.130
       124 -12.0274     66.3963     52.5101   9.9795834447e+01   5.7582529013e+01    0.4989898    0.2380025  31.56  0.001577961    2.588    0.614
       125  -9.5020     75.3212     50.2774   9.6052175707e+01   5.6712363253e+01    0.2047255    0.1642846 -29.39 0.0002778227    1.217    0.178
       126 -10.5713     77.8209     46.4102   9.3893974228e+01   5.7071351722e+01    0.3267506    0.2684796   8.52 0.0008200461    1.397    0.284
       127  -9.1506    176.0469     52.2324   7.0740181726e+01   3.4513031269e+01    0.1938341    0.1259349  56.35 0.0003027685    1.533    0.348
       128 -10.8486    102.8346     47.3476   8.6389591075e+01   5.2415612584e+01    0.4353787    0.2285248  27.84    0.0012081    2.929    0.659
       129  -9.6856     83.5078     56.9855   9.5589527290e+01   5.4073761747e+01    0.1932976    0.1594956 -43.13  0.001106303    1.095    0.087
       130 -10.3308     30.8178     45.8142   1.1078138920e+02   6.3025421315e+01    0.2627767    0.1861561 -85.37  0.001561611    1.737    0.424
       131 -10.9248     25.8996     43.8334   1.1215663427e+02   6.3856107095e+01     0.283369    0.2353447  48.47  0.001142418    1.515    0.340
       132  -9.5286     64.9821     46.2262   9.8235624077e+01   5.9042779576e+01    0.1693156    0.1560658 -27.20  0.001086202    1.087    0.080
       133  -9.3811     91.4230     44.5410   8.8826467600e+01   5.5088961765e+01    0.1391775    0.1251612 -26.63  0.000106524    1.018    0.017
       134 -10.4129     70.3848     41.9660   9.4855181552e+01   5.9083870150e+01    0.2806855    0.2589068  33.29  0.001789122    1.232    0.188
       135  -9.5272     94.8579     41.9159   8.6792563242e+01   5.4925576133e+01    0.1913568    0.1612439 -57.14 0.0008170534    1.341    0.254
       136  -9.4139      2.3165     42.3121   1.2109089370e+02   6.5701057245e+01     0.158207    0.1050312  12.72  0.001058887    1.998    0.500
       137  -9.7321      5.7112     39.4039   1.1912489244e+02   6.6137849634e+01     0.226491   0.09223945 -47.18            0    2.016    0.504
       138 -10.1208    181.6367     40.4641   6.5957214057e+01   3.4722763324e+01    0.3149557    0.2304752  40.75  0.001491159    1.398    0.285
       139 -10.7132    139.1657     40.4737   7.4394345080e+01   4.5530560999e+01    0.3191417    0.2561609  74.50  0.001586752    1.465    0.317
       140  -9.2236     58.0219     41.2004   9.9026167638e+01   6.0983892699e+01    0.1458952    0.1030479  32.19            0    1.635    0.388
       141 -10.3012     36.2224     41.1159   1.0732771907e+02   6.3498890642e+01    0.2291684    0.1668823 -27.78  0.001215933    1.453    0.312
       142  -9.1887    159.7368     40.6317   7.0049778564e+01   4.0379515853e+01    0.1582189    0.1141351  15.80 0.0006983973    1.651    0.394
       143 -10.2446    131.9966     38.4983   7.5355845303e+01   4.7545597882e+01    0.4283745    0.3425155  65.94  0.001650652    1.403    0.287
       144 -11.4210    134.2099     34.0744   7.3185299022e+01   4.7679382921e+01    0.2463682    0.2108861  25.17 0.0002888472    1.178    0.151
       145  -9.2680     42.9483     40.7344   1.0458117752e+02   6.2885717037e+01    0.1301543    0.1089665  16.80  0.000410561    1.413    0.292
       146 -12.2800    121.7079     36.8148   7.7279327025e+01   5.0186194748e+01    0.5509357    0.5175469 -87.12  0.001967856    1.241    0.194
       147  -9.1505    101.4966     39.5152   8.3886429764e+01   5.4055861422e+01    0.1431177    0.1295268 -11.35 0.0008099253    1.053    0.050
       148 -11.0943     19.5759     31.8331   1.1136694443e+02   6.6822430329e+01    0.5596478    0.2799708  -6.54  0.002665512    3.545    0.718
       149 -10.5835     22.7340     38.5775   1.1199015466e+02   6.5200596623e+01    0.2139044    0.1908043  75.79 0.0007993051    1.392    0.282
       150 -11.0753     26.5268     35.3068   1.0947814885e+02   6.5565490480e+01    0.3795636    0.1910851 -44.03  0.001694551    1.669    0.401
       151 -10.4809      1.5072     35.5085   1.1998961296e+02   6.7162740428e+01    0.2424143    0.2033653 -46.15   0.00189828    1.205    0.170
       152 -10.6250      3.0063     32.7427   1.1872586574e+02   6.7662294019e+01    0.2738058    0.1965081  88.81  0.001885829    1.588    0.370
       153  -9.2649     69.6778     36.7074   9.3162666515e+01   6.0182155901e+01    0.1324751   0.09634525 -11.93 0.0003107601    1.612    0.380
       154 -10.0528     91.1043     34.6565   8.5168034017e+01   5.6895189382e+01     0.324617    0.1820503 -27.22  0.001466312    1.862    0.463
       155  -9.7967     38.7387     35.2912   1.0446188756e+02   6.4424123999e+01    0.2579613    0.1805098  58.80 0.0006007551    2.140    0.533
       156 -11.8457     43.8524     28.9563   1.0011399757e+02   6.5101694589e+01    0.5093461    0.3366339 -33.99  0.002999813    1.363    0.266
       157 -10.3915     38.8399     30.7931   1.0286154975e+02   6.5300106921e+01    0.2109725    0.1570245 -23.06 0.0004241526    1.384    0.277
       158  -9.4620     54.8337     34.4222   9.7795013174e+01   6.2714671601e+01    0.1606537     0.117607   8.67 0.0004329524    1.673    0.402
       159  -9.7299     50.1924     33.6295   9.9305164766e+01   6.3453792308e+01    0.1627275    0.1525336  68.41 0.0004489152    1.377    0.274
       160 -11.4745    145.0902     32.9462   7.0340048331e+01   4.5170907259e+01    0.2341409    0.2167044  30.77  0.001268991    1.055    0.052
       161  -9.2795     71.6811     33.7124   9.1295300284e+01   6.0418730328e+01     0.132324   0.09678886  -8.82 0.0001560947    1.595    0.373
       162 -10.2059    127.0642     30.9114   7.3677230842e+01   4.9838284241e+01    0.3197136    0.2276285  30.41  0.001278097    1.503    0.335
       163 -10.0772    205.1477     30.8250   5.9328815009e+01   2.9766199564e+01    0.2383898    0.1989248 -58.07  0.001004296    1.267    0.210
       164  -9.6155    166.4635     31.1025   6.5482861656e+01   3.9933552302e+01    0.2256904    0.1472669 -25.22 0.0005185874    1.532    0.347
       165 -11.3888      8.1390     28.8901   1.1551471977e+02   6.8176425353e+01    0.2886813    0.2171044  67.93  0.001986631    1.814    0.449
       166 -10.1570    149.7361     29.4705   6.8099326177e+01   4.4472201032e+01    0.2957992    0.1526302  65.80  0.001158232    2.152    0.535
       167  -9.4869     96.5603     28.9429   8.1170363352e+01   5.6781033688e+01    0.2132709    0.1169615 -11.66 0.0008057826    2.835    0.647
       168 -10.5739     69.9118     28.6245   8.9880616317e+01   6.1601681360e+01    0.3690907    0.2141698 -27.08  0.001764967    1.787    0.440
       169 -11.4801     76.9058     25.8305   8.6232017114e+01   6.0925151425e+01    0.2929776    0.2633589  -2.81 0.0004158757    1.080    0.074
       170  -9.4685    229.6194    247.8287   1.0231226066e+02  -2.4375771940e+00    0.1089987   0.09445591 -20.76 0.0009388733    1.616    0.381
       171  -9.2061    162.3044     28.3563   6.5277905553e+01   4.1372893962e+01    0.1625956    0.1099532  24.66 0.0007040043    1.717    0.418
       172 -10.0700    140.2155     27.0279   6.9177780776e+01   4.7193005452e+01    0.3660123    0.1944331  58.55  0.001525725    1.889    0.471
       173  -9.7624    224.9655    246.7815   1.0286513421e+02  -1.6858443141e+00    0.1425303   0.08994996  15.79  0.001026569    1.583    0.368
       174 -10.6900    114.1628     24.3196   7.4294333094e+01   5.3744527049e+01    0.3503893     0.266932 -13.08  0.001303368    1.311    0.237
       175 -10.2782    100.6925     25.5196   7.8516972602e+01   5.6472639408e+01     0.253529    0.1992482 -40.61 0.0007131673    1.312    0.238
       176  -9.3551     18.3484     26.2964   1.1018870275e+02   6.8027097043e+01    0.1212011   0.06916133 -34.96 0.0007033861    1.678    0.404
       177 -10.2516     59.0273     24.3672   9.2180602053e+01   6.3986279757e+01    0.2574998    0.1738005 -20.71  0.001425292    1.540    0.351
       178 -10.6302    219.1730     23.4952   5.5376673024e+01   2.6966022215e+01     0.291603    0.1683193  25.36  0.001195265    2.339    0.572
       179  -9.5361     89.3967     22.7566   8.0765342362e+01   5.9143787304e+01    0.2436166    0.1194866 -33.39 0.0007813303    1.883    0.469
       180 -10.2812     85.3334     20.9440   8.1272908025e+01   6.0191342607e+01     0.314923     0.161868  32.33 0.0008912394    2.343    0.573
       181  -9.2015    136.3197    245.6808   1.1633986266e+02   1.1372636469e+01    0.1043656   0.06274259  61.97 0.0004062752    1.664    0.399
       182  -9.7425    217.4521    245.0000   1.0375857333e+02  -4.4591571584e-01     0.238968   0.04371706  43.75 0.0009381864    3.963    0.748
       183 -10.6620      1.9739     21.8355   1.1637175975e+02   6.9934733312e+01    0.2617834    0.1232911 -61.19 0.0009643454    1.564    0.360
       184 -10.4895     20.1084     16.7621   1.0601608964e+02   6.9745475507e+01    0.1628027    0.1397954 -23.98  0.000366378    1.187    0.157
       185 -11.1616     13.3001     20.5901   1.1063812924e+02   6.9514260649e+01    0.2705958    0.2045377 -59.18 0.0008687406    1.186    0.157
       186 -12.2485      5.1992    240.8662   1.3572908411e+02   2.7556082184e+01    0.3860792    0.1591553  53.47  0.003012125    1.566    0.362
       187  -9.8606    132.1033     20.3450   6.8352927402e+01   5.0060978369e+01    0.2512246    0.1971436   1.77 0.0009899009    1.328    0.247
       188  -9.5399     60.6935    241.1570   1.2767469875e+02   2.1824141541e+01    0.1851113   0.04807481  42.43 0.0009828956    2.784    0.641
       189  -9.6290    202.4959    240.1150   1.0541649046e+02   2.2162847856e+00    0.1240244    0.1035029 -17.72 0.0007293264    1.531    0.347
       190 -12.7139     25.9946    235.8059   1.3258067358e+02   2.6330135878e+01    0.3057598    0.2353355  54.99   0.00231366    1.361    0.265
       191 -11.7377      4.1362    232.5054   1.3562857903e+02   2.8876161147e+01    0.2505295    0.1155452  64.68  0.000348607    1.460    0.315
       192  -9.8093    249.1986    234.1071   9.7578475245e+01  -4.1028213432e+00    0.1577712    0.1023931  23.23  0.000419129    1.156    0.135
       193 -10.7364     30.9680     20.4819   1.0240169550e+02   6.8072712580e+01    0.2655318    0.1429527 -50.19 0.0005479193    1.523    0.344
       194 -10.1459     26.4815     16.6490   1.0294073160e+02   6.9214308865e+01    0.2511483    0.2209012  56.14  0.001798999    1.618    0.382
       195  -9.9785    175.2307     20.6254   6.0394873397e+01   3.8885037343e+01    0.2203751     0.127369  53.84 0.0005404141    1.646    0.392
       196 -11.0355    100.2101     19.1745   7.5936368734e+01   5.7494620837e+01    0.3483846    0.2707539 -60.64  0.001065522    1.728    0.421
       197 -10.1933     58.3333     18.8905   9.0064711697e+01   6.5025511288e+01    0.3394661    0.1299847 -50.44  0.001263844    3.495    0.714
       198 -10.1129    199.8833     17.1915   5.5801235551e+01   3.2684965033e+01    0.2243688    0.1907888 -64.58 0.0004923895    1.233    0.189
       199 -10.3498     49.2137     16.2018   9.2569492323e+01   6.6745139147e+01    0.2043015    0.1750255 -46.68 0.0004938158    1.301    0.231
       200  -9.0309    209.6864    229.6679   1.0294804344e+02   2.1580078342e+00    0.1116956   0.06764655  21.73 0.0007045183    1.680    0.405
       201  -9.9413    153.7419     25.6105   6.5896599042e+01   4.3944807282e+01    0.2504503    0.1888095  75.75 0.0007820616    1.492    0.330
       202 -10.6564     62.4705     14.0635   8.6216904457e+01   6.5183398310e+01     0.188987    0.1763515 -41.97 0.0005299285    1.306    0.234
       203 -10.1551    190.8053     13.9166   5.5923220611e+01   3.5446795499e+01    0.2272026    0.1958326  29.34  0.000830077    1.209    0.173
       204  -9.9813     68.7312     13.4437   8.3563115442e+01   6.4267742874e+01    0.2057384    0.1515632  28.28 0.0006290189    1.421    0.296
       205  -9.5936    140.6498    227.3222   1.1380863475e+02   1.3060719739e+01    0.1124533   0.06918662  63.59 0.0007048539    1.747    0.428
       206 -10.1099     32.8839    225.1677   1.3107514207e+02   2.7238853787e+01    0.2160643   0.08083934  50.64   0.00142111    1.857    0.462
       207 -12.1148      7.8761    217.7714   1.3459066583e+02   3.0797210050e+01    0.2431154    0.1779375  72.38  0.002244268    1.159    0.137
       208 -11.0613     15.9908    212.1377   1.3311839481e+02   3.0952545412e+01    0.1754828    0.1296873  54.56  0.001149999    1.308    0.235
       209  -9.3365    209.5125    211.5173   1.0041748527e+02   4.0774256216e+00    0.1164149   0.08872232  32.06 8.376429e-05    1.006    0.006
       210 -10.1390     20.4845    209.8279   1.3230496785e+02   3.0902276593e+01    0.1609153    0.0886827  57.56 0.0003015086    1.315    0.240
       211  -9.3857    246.7881    206.9769   9.3839741776e+01  -1.3882699221e+00    0.1346495    0.0837639 -19.61 0.0008762905    1.736    0.424
       212 -10.2523    123.9879    206.0103   1.1431160649e+02   1.8595531831e+01    0.1606416    0.1269553  53.49  0.001150708    1.019    0.019
       213  -9.5978    197.2304    203.9674   1.0131926173e+02   6.9599533886e+00    0.1290678    0.0980393 -31.56   0.00067516    1.605    0.377
       214 -11.7721      9.2696    203.2520   1.3381969723e+02   3.3018337559e+01    0.2229106    0.1404334  82.36  0.001116217    1.212    0.175
       215  -9.6840    180.1595    199.2341   1.0352792070e+02   1.0428601526e+01    0.3246442    0.1169654  48.75  0.001442366    2.481    0.597
       216  -9.6760     23.0074    197.4848   1.3129376615e+02   3.2718042748e+01    0.1392917   0.08038413  44.67 0.0005733771    1.577    0.366
       217 -10.4808      6.7929    191.8688   1.3375334693e+02   3.5157503849e+01    0.2338774   0.08994307  65.00  0.001462707    2.049    0.512
       218  -9.5744     15.3303    185.1138   1.3197788216e+02   3.5584500996e+01    0.1471053   0.06776741  85.26  0.000939508    1.835    0.455
       219  -9.4264      1.3131    182.8695   1.3430403302e+02   3.7182608272e+01    0.1266288   0.06710862 -78.75 0.0004770918    1.636    0.389
       220  -9.9011     18.6862    177.2907   1.3095854840e+02   3.6684617248e+01    0.1076087   0.05443193  65.83 0.0002102033    1.590    0.371
       221  -9.9666    100.9908    175.9992   1.1506552278e+02   2.7044719603e+01    0.1653871     0.138364  64.54  0.001138513    1.017    0.017
       222 -11.2706      4.9554    167.4649   1.3295121434e+02   3.9669993795e+01    0.3040596    0.1513225  62.50  0.001501495    1.593    0.372
       223  -9.3719     41.4702    158.2460   1.2519247907e+02   3.8049669921e+01    0.1553298   0.08655125  88.21 0.0009373738    1.645    0.392
       224  -8.7306    247.3276    155.6902   8.4523272183e+01   3.8745957698e+00    0.1103881    0.1027334 -70.75 0.0004014417    1.661    0.398
       225 -10.4633      2.2663    153.5683   1.3274094197e+02   4.2498932800e+01    0.1750848   0.07905602  40.37  0.001135919    2.114    0.527
       226  -9.8567     23.6707    150.7073   1.2824090827e+02   4.1279635132e+01   0.09640166   0.07575969 -55.59 0.0003803897    1.627    0.385
       227 -10.1738     21.9208    143.3380   1.2803576664e+02   4.2904533079e+01     0.196428    0.1184265  87.59  0.001146693    1.355    0.262
       228 -11.4239      2.8538    138.2827   1.3173275533e+02   4.5441594872e+01    0.2345249    0.1578032  47.50  0.001774576    1.515    0.340
       229 -10.7693     11.2543    141.1151   1.3014155935e+02   4.4241140785e+01      0.23816     0.129906  33.61 0.0008516635    2.083    0.520
       230 -10.8304      8.9876    135.4810   1.3023112937e+02   4.5548349874e+01    0.1687175    0.1101375 -85.95 0.0004077408    1.178    0.151
