#   1 NUMBER                 Running object number                                     
#   2 MAG_AUTO               Kron-like elliptical aperture magnitude                    [mag]
#   3 X_IMAGE                Object position along x                                    [pixel]
#   4 Y_IMAGE                Object position along y                                    [pixel]
#   5 X_WORLD                Barycenter position along world x axis                     [deg]
#   6 Y_WORLD                Barycenter position along world y axis                     [deg]
#   7 A_WORLD                Profile RMS along major axis (world units)                 [deg]
#   8 B_WORLD                Profile RMS along minor axis (world units)                 [deg]
#   9 THETA_WORLD            Position angle (CCW/world-x)                               [deg]
#  10 FWHM_WORLD             FWHM assuming a gaussian core                              [deg]
#  11 ELONGATION             A_IMAGE/B_IMAGE                                           
#  12 ELLIPTICITY            1 - B_IMAGE/A_IMAGE                                       
         1 -13.8165     68.2405    144.2342   1.0517269710e+02   3.7437624020e+01     3.178911     1.517325 -89.67  0.002429904    5.551    0.820
         2 -13.7087    214.0157     31.7734   4.2024079375e+01   2.8277208365e+01     1.256306      1.13112   9.76  0.007735933    1.435    0.303
         3 -13.7696    220.7297     25.7786   3.9857244949e+01   2.7457614002e+01     1.504314    0.7984819  34.25  0.001541284    3.716    0.731
         4 -13.6919    236.3516     10.6550   3.5026363658e+01   2.5703897158e+01    0.7575147    0.6114837 -63.96  0.002633684    1.043    0.041
         5 -10.1530      2.0000      5.0167   9.3101161343e+01   7.3868882697e+01    0.1762619   0.05023739 -47.53  0.000805566    2.964    0.663
         6 -10.7289     53.8530    231.4926   1.1871056948e+02   1.9625917883e+01    0.2804124    0.1455645 -86.74  0.001217187    2.022    0.506
         7 -13.2505     39.8120    234.9164   1.2159080695e+02   2.0627513021e+01    0.8200547    0.4334101  77.20  0.002471563    1.800    0.444
         8 -15.1839     91.3149    246.4121   1.1284568325e+02   1.1885042951e+01     6.128245     2.571396  31.78   0.02825411    2.638    0.621
         9 -13.0935     31.0954    247.6608   1.2392411007e+02   1.9221400871e+01    0.9314837    0.5348222  35.61  0.004996047    1.817    0.450
        10 -11.9845    170.9378    221.8173   9.3716117077e+01   3.7822025938e+00    0.3857423     0.198269  26.85  0.001757384    2.093    0.522
        11 -12.7609     48.7788    224.7569   1.1916049371e+02   2.1570248476e+01     0.808099    0.2261279 -61.57  0.003462561    3.488    0.713
        12 -15.8267      7.7746    238.8558   1.2745259822e+02   2.3245587723e+01     12.86863      1.17405 -77.22   0.03754492    9.030    0.889
        13 -14.5883      9.8567    207.9003   1.2551577894e+02   2.9142974050e+01     1.501418    0.9306104 -75.94  0.003556633    1.447    0.309
        14 -10.6544    192.9292    193.6459   8.4288933549e+01   4.8530502850e+00    0.6291711    0.3649786 -56.95  0.002715853    2.654    0.623
        15 -11.7526     56.3387    181.6058   1.1344738303e+02   2.9981953001e+01    0.3976408    0.2799141 -36.97  0.001026318    1.990    0.497
        16 -11.7719     62.3429    175.6112   1.1130014267e+02   3.0621271765e+01    0.2995037    0.2525555 -46.06 0.0007931416    1.401    0.286
        17 -13.2075     79.4354    158.3689   1.0451453757e+02   3.2396688026e+01      1.73461    0.8146648  59.27  0.001949059    3.102    0.678
        18 -13.3170     59.5152    161.8799   1.1019198329e+02   3.4256701779e+01    0.5131449    0.3039958 -45.52  0.001495372    1.950    0.487
        19  -9.0329    174.7090    149.3263   7.8950928790e+01   1.6830278425e+01    0.1488216    0.1230375 -82.61 0.0003302257    1.617    0.382
        20 -10.1854    133.8528    145.0086   8.7696557495e+01   2.6119657340e+01    0.7413437    0.1884609 -54.08  0.001749575    5.539    0.819
        21 -10.6955     95.7083    144.2965   9.7623859797e+01   3.3280681025e+01    0.3506265    0.2700661 -54.70 0.0009057405    1.247    0.198
        22  -9.5052     99.0077    140.5116   9.5955967753e+01   3.3644695488e+01    0.3036136    0.1897599 -32.63  0.001267108    2.080    0.519
        23 -11.9512     83.4825    142.8936   1.0071381535e+02   3.5572636571e+01    0.3059277    0.2577167 -54.15 0.0005047668    1.148    0.129
        24 -11.5430     28.3573    143.5978   1.1594202359e+02   4.2078990723e+01    0.2980659    0.1721564 -66.14  0.001596103    1.441    0.306
        25  -9.5471    159.0476    135.0840   7.9201643322e+01   2.3121760080e+01    0.2466404     0.195124 -86.21 0.0008786049    1.722    0.419
        26 -10.2253     74.2637    135.4427   1.0190195822e+02   3.8773564730e+01    0.2017115    0.1293414  48.49 0.0009483754    1.685    0.406
        27 -10.6833    106.9989    131.7653   9.1855947969e+01   3.4348488006e+01    0.4102854    0.3686066  67.67  0.001431579    1.185    0.156
        28 -10.6963     94.7696    128.5373   9.4589336633e+01   3.7270625983e+01    0.3063762    0.2628673  -3.24 0.0008862698    1.394    0.283
        29 -11.3152     66.5842    127.3661   1.0259347750e+02   4.1835571519e+01    0.3817318    0.2407894 -84.23  0.001304351    1.996    0.499
        30 -12.1982     54.1780    240.8870   1.1936407482e+02   1.7792954133e+01    0.4664406    0.3297582  16.76  0.002261429    2.276    0.561
        31  -9.6484    115.1611    125.6041   8.8155631380e+01   3.4287597880e+01    0.2245475    0.1487102  26.68 0.0009526186    1.798    0.444
        32  -9.5111    105.4100    120.2091   8.9596772874e+01   3.7393838713e+01    0.2242816    0.2033388  17.03 0.0004213525    1.197    0.165
        33  -9.5243    168.0518    113.0526   7.1564368906e+01   2.5767119170e+01    0.2550739    0.1965612 -78.60  0.001129575    1.749    0.428
        34  -9.7763    205.1125    110.4413   6.3337660876e+01   1.7923203235e+01     0.344071    0.2178265  38.34  0.001533145    1.793    0.442
        35 -11.2680     72.8805    165.4271   1.0729841364e+02   3.1629560487e+01    0.2713403    0.2447004 -63.08 0.0004039155    1.143    0.125
        36  -9.2154     24.9128     82.7187   1.0722133437e+02   5.7014226190e+01    0.1672384    0.1482455 -49.17 0.0003467162    1.088    0.081
        37  -9.7973    161.4777     81.5287   6.4295405105e+01   3.3460539164e+01    0.1519305    0.1506469 -20.80 0.0001126487    1.011    0.011
        38 -12.4845     17.5489    217.7760   1.2463707898e+02   2.6388432867e+01    0.4112223    0.3293703 -75.61   0.00200415    1.362    0.266
        39 -10.4964     13.3499     60.3136   1.0658847858e+02   6.2804624063e+01    0.2200055    0.1728542 -55.74 0.0004772053    1.129    0.114
        40  -9.7586     30.5674     53.7354   9.7396225967e+01   6.2866087728e+01    0.1990862    0.1629509   7.11 0.0003832208    1.309    0.236
        41 -13.2991    206.6838     36.8644   4.4163462329e+01   2.9359290207e+01     1.363922    0.7759172  39.47  0.005959474    2.442    0.590
        42 -11.2028     62.5631    236.4639   1.1744763985e+02   1.7579019778e+01    0.3039359    0.1856752  81.74  0.001055113    1.646    0.392
        43 -13.0165     27.0163    210.0378   1.2232851845e+02   2.7022982909e+01    0.4449109    0.3266349 -58.94  0.001030387    1.631    0.387
        44 -10.7921    133.1529     40.0974   5.7501509183e+01   4.7031822453e+01    0.5797731    0.3414727 -74.72  0.001669997    3.661    0.727
        45  -9.9459     95.1238     42.1647   6.8402925867e+01   5.5245457465e+01     0.319601    0.1662852 -42.61  0.001393863    2.129    0.530
        46  -8.7920    133.1915     32.3996   5.4837532567e+01   4.8028339455e+01    0.1841949    0.1316877  71.56 0.0001976878    1.519    0.342
        47 -15.3375     37.2266    199.1175   1.1941718339e+02   2.8267642342e+01     2.973773     1.579089  67.88   0.01212332    1.829    0.453
        48  -9.6272    189.5785     15.2571   4.0547715456e+01   3.6038239825e+01    0.1661073    0.1312046  -9.76 0.0008274807    1.590    0.371
