#   1 NUMBER                 Running object number                                     
#   2 MAG_AUTO               Kron-like elliptical aperture magnitude                    [mag]
#   3 X_IMAGE                Object position along x                                    [pixel]
#   4 Y_IMAGE                Object position along y                                    [pixel]
#   5 X_WORLD                Barycenter position along world x axis                     [deg]
#   6 Y_WORLD                Barycenter position along world y axis                     [deg]
#   7 A_WORLD                Profile RMS along major axis (world units)                 [deg]
#   8 B_WORLD                Profile RMS along minor axis (world units)                 [deg]
#   9 THETA_WORLD            Position angle (CCW/world-x)                               [deg]
#  10 FWHM_WORLD             FWHM assuming a gaussian core                              [deg]
#  11 ELONGATION             A_IMAGE/B_IMAGE                                           
#  12 ELLIPTICITY            1 - B_IMAGE/A_IMAGE                                       
         1 -13.3848    223.5193     28.1621   5.7695969795e+00   2.6690620746e+01    0.9041548    0.5198108 -22.31  0.004241373    2.513    0.602
         2 -13.3302    218.1270     26.5003   5.9202594737e+00   2.8059756975e+01    0.8150344    0.5279911 -21.35  0.003978753    2.149    0.535
         3 -12.0865     59.4647      2.9929   2.7527569766e+01   6.6226900540e+01    0.5697773    0.1076301  45.19  0.002088519    3.643    0.726
         4  -9.8799     86.2158    240.5213   7.9014710452e+01   1.2652310564e+01    0.2091949   0.09644978 -57.85 0.0005647059    2.388    0.581
         5 -19.4586     13.8576    140.6507   8.5509417453e+01   4.4636494991e+01     18.41796     5.673583 -76.12   0.06663318    3.189    0.686
         6 -10.3111    152.9551    210.8607   5.9824602218e+01   7.9314400053e+00    0.2563577    0.1929661 -86.32 0.0009082295    2.088    0.521
         7  -9.7792    164.6084    205.9362   5.6316959324e+01   6.8792072411e+00     0.444232    0.1734225 -54.05   0.00152943    3.459    0.711
         8 -11.2244    146.9999    207.4680   6.0604858643e+01   9.6551872380e+00    0.2985251     0.192632 -72.21  0.001277192    2.458    0.593
         9  -9.9161     51.1083    200.8771   8.2636880322e+01   2.6105396208e+01    0.2321264   0.07658968 -69.39 0.0008126853    2.951    0.661
        10  -9.8993    211.0035    198.7864   4.5128982390e+01   3.2108732666e-01    0.2212191    0.1817516 -22.08 0.0005087951    1.117    0.105
        11  99.0000     69.0701    195.9276   7.7714571279e+01   2.4919101690e+01    0.3982178    0.1454615 -58.23  0.001546005    2.605    0.616
        12  -9.6794    193.1954    194.6328   4.7950511743e+01   4.0606768243e+00    0.2723834    0.1719134 -71.35 0.0009515022    4.147    0.759
        13 -11.2176     54.4650    191.3299   8.0749926739e+01   2.7957257138e+01    0.5417327    0.2900367  80.86  0.002302716    2.420    0.587
        14  -9.8947     48.5975    193.8346   8.2470501448e+01   2.8080706533e+01    0.1787102    0.1539766  85.99 0.0006046338    1.028    0.027
        15  -9.5789     42.7598    194.5414   8.3950587155e+01   2.8603196818e+01    0.1416385     0.112083  65.40 6.975787e-05    1.154    0.134
        16 -15.7315     70.2169    143.3141   6.9145841028e+01   3.7885060063e+01     3.124009     2.397993  78.63   0.01546197    1.537    0.349
        17 -11.9220     55.2444    180.3039   7.9189183141e+01   3.0548866871e+01    0.4162075    0.3321512 -23.38  0.001521346    1.668    0.400
        18 -11.5768    173.4715    176.2093   4.8525374110e+01   1.1299475651e+01    0.8435204    0.4620408 -47.41  0.002517539    1.881    0.468
        19 -11.2908    180.8589    169.1788   4.5397010904e+01   1.1335184283e+01    0.6415221    0.4271888 -58.79  0.002842705    1.898    0.473
        20 -10.7247    177.3892    170.1522   4.6372319306e+01   1.1804592160e+01    0.4045305    0.2484788 -53.94  0.001309556    1.878    0.467
        21  -9.4381     63.5916    181.5529   7.7196085161e+01   2.9153598779e+01     0.139214    0.1259734  87.75 6.504029e-05    1.012    0.011
        22  -9.4374     74.0630    179.7959   7.4212570621e+01   2.8127334315e+01     0.213005    0.1745515  68.52 0.0004945106    1.219    0.180
        23 -12.9814    112.5613    170.2343   6.2344064027e+01   2.4214860356e+01     1.050643    0.6903833 -84.40  0.004234137    2.287    0.563
        24 -11.1091    139.5464    171.1960   5.5566644010e+01   1.8945279814e+01     0.288462    0.2129147  39.21 0.0006227557    1.328    0.247
        25 -10.5202    133.3976    170.8111   5.7040272100e+01   2.0212090602e+01    0.2303898    0.1406593 -39.26  0.000955988    1.775    0.437
        26 -12.2487    233.0012    167.7834   3.4792268767e+01   2.1691946279e+00    0.4842038    0.3799971 -85.78  0.002036858    2.267    0.559
        27 -10.2379    231.4670    160.4742   3.3550988382e+01   3.7179246802e+00    0.1380484    0.1194802 -25.40 2.380436e-05    1.011    0.011
        28 -10.8585     93.7998    157.6112   6.5033426958e+01   3.0589789185e+01    0.3137998    0.2353821 -85.48  0.001095441    1.594    0.372
        29 -11.3074     54.4581    239.7822   8.5610171713e+01   1.7113790889e+01    0.2659144    0.1544686  71.78  0.001445028    1.747    0.427
        30 -11.6097    133.4120    143.6112   5.1113879853e+01   2.6579147077e+01    0.9508653    0.3124327 -55.22  0.002538631    4.158    0.759
        31 -11.3149    113.4542    152.2336   5.8447846096e+01   2.8429134918e+01    0.5088588    0.3444227  89.16  0.001693586    2.367    0.577
        32 -11.7053    109.1040    145.3118   5.8156044346e+01   3.0933502736e+01    0.3990887    0.3592869 -32.31  0.001266458    1.148    0.129
        33 -11.0542     88.3619    149.2077   6.4933497327e+01   3.3600918553e+01    0.2818108    0.2592683 -39.23 0.0003165713    1.114    0.102
        34 -12.9280     94.1177    144.0254   6.2187518740e+01   3.3935230490e+01    0.8940099    0.7254062 -14.49  0.001729654    1.488    0.328
        35  99.0000     46.8388    233.3987   8.6646630936e+01   1.9385970779e+01     0.298728    0.1357295  50.42  0.001493636    1.892    0.472
        36  -9.2036    170.6297    140.8721   4.1319811202e+01   1.9367862393e+01    0.2308185    0.1409997 -54.24 0.0009386177    1.827    0.453
        37 -12.3432    105.8849    131.9010   5.6010031277e+01   3.4806556366e+01    0.7280906     0.441879 -45.22   0.00222732    1.628    0.386
        38 -11.9324     94.4406    131.3244   5.9277143326e+01   3.7029700126e+01    0.3787908    0.2968824 -55.04 0.0002882268    1.251    0.201
        39 -11.5143    135.5873    128.3519   4.6849271510e+01   2.9652493133e+01     1.027227    0.1583965 -47.99  0.002040102    7.086    0.859
        40 -11.0980    114.0602    125.5837   5.2095510955e+01   3.4736903395e+01    0.3569168    0.2940714   9.83 0.0008458018    1.403    0.287
        41 -10.5553    101.4582    120.6675   5.4580619508e+01   3.8335202426e+01    0.2989182    0.2511768  -6.61 0.0005701722    1.357    0.263
        42  -9.5044    162.1406    119.8288   3.8107821355e+01   2.5687360591e+01    0.2276439    0.2097303 -74.50  0.000455618    1.168    0.144
        43  -9.8271     86.3672    118.1400   5.8631986594e+01   4.1636564672e+01    0.4127189    0.1423213 -53.28  0.001336867    2.837    0.647
        44 -10.1572    109.4925    115.9620   5.0967117140e+01   3.7890339972e+01    0.2715015    0.2184832  14.33 0.0003630477    1.418    0.295
        45 -10.2275    158.4374    114.2249   3.7528915513e+01   2.7692500338e+01    0.3710993    0.2569216 -66.02   0.00101636    1.870    0.465
        46 -11.0505     81.9858    109.4989   5.7870026326e+01   4.4431886107e+01    0.3336889    0.2861172  27.84 0.0005859321    1.207    0.171
        47 -12.0149    118.7173    103.3359   4.4855840381e+01   3.8825253825e+01     0.501522    0.3723079  70.25  0.002041464    1.798    0.444
        48 -11.5392    115.7673    108.8634   4.7231586926e+01   3.8230792275e+01    0.5605036    0.3278522  60.84  0.001952277    2.460    0.594
        49 -10.9634    111.4859    104.3022   4.7225837481e+01   4.0121828302e+01    0.3663951    0.2780686  18.14   0.00100329    1.533    0.348
        50 -10.0095    151.2796    105.9792   3.7045272703e+01   3.1027110801e+01    0.2852431    0.2107225 -60.10  0.001041317    1.541    0.351
        51 -10.3638    161.3127    125.7669   3.9795926688e+01   2.4615232247e+01    0.3984028    0.1872718 -38.26  0.001435224    2.210    0.548
        52 -11.2632    121.1670     99.0665   4.2955993228e+01   3.9211978384e+01    0.3554827    0.2273416  48.96  0.001288194    1.601    0.375
        53 -10.1512     70.3325     98.9004   5.9023235842e+01   4.8752428735e+01    0.2458541    0.1965238  45.06 0.0007490085    1.405    0.288
        54  -9.3979     92.1389    237.8352   7.7441977048e+01   1.2328318621e+01    0.1523419    0.1408564  19.53            0    1.264    0.209
        55 -11.1914    125.5190     87.5944   3.8417975144e+01   4.0586389227e+01    0.2868138    0.2601537  86.98 0.0004904026    1.266    0.210
        56 -12.0872     52.9252    231.9262   8.5250158158e+01   1.8941707056e+01    0.2475792    0.1516437 -63.29 0.0008376125    1.727    0.421
        57 -11.2807     60.9785     86.2456   5.8881036406e+01   5.2961241714e+01    0.5939051    0.2499569  44.86  0.002195572    3.105    0.678
        58 -11.5959     58.9375    231.9025   8.3975509064e+01   1.8177787693e+01    0.1865332    0.1563442 -82.59 0.0006023953    1.210    0.173
        59  -9.5587     72.2914     78.9932   5.2567069049e+01   5.2786361208e+01    0.1940487    0.1724405 -28.31 0.0002588995    1.071    0.067
        60  -9.4978     85.5157     76.0346   4.6992619251e+01   5.1090366377e+01    0.2109818    0.1853377  24.75 5.148609e-05    1.108    0.098
        61 -10.9046     47.2845    229.2103   8.6202376306e+01   2.0218403768e+01     0.183925    0.1183517  64.66 0.0009504507    1.396    0.284
        62 -10.1753     75.9253     70.6449   4.8580830076e+01   5.3840297580e+01    0.3519893    0.2245288  54.55   0.00095902    2.157    0.536
        63 -12.7726    177.3801     65.9095   2.0788687940e+01   3.2102134056e+01    0.4954371    0.4595563 -56.44 0.0007766456    1.085    0.078
        64  -9.7364     33.4158    228.2387   8.9008314561e+01   2.2054247006e+01    0.1058401   0.09344536 -17.19 0.0001513557    1.707    0.414
        65 -11.5626     38.3023    235.6506   8.8568984777e+01   1.9933192378e+01    0.1620035    0.1255036 -88.84 0.0006415235    1.203    0.169
        66 -13.6626    193.7103     53.5002   1.5042560497e+01   3.0083311771e+01     1.126804    0.9171478  43.12  0.003588282    1.452    0.311
        67 -12.4383    200.2398     47.7965   1.2768120314e+01   2.9362943803e+01    0.5576691     0.453616  46.56  0.001686379    1.454    0.312
        68 -11.6590     88.0683    219.2966   7.6145878117e+01   1.6822182168e+01    0.4190436    0.3624384  42.07  0.001431389    1.116    0.104
        69 -10.6547     63.8580     60.8841   4.9753930718e+01   5.7654489362e+01    0.3187293    0.1949389  42.86  0.001182065    1.820    0.451
        70 -10.5780     57.5209     60.4070   5.2071474158e+01   5.8702613447e+01    0.2266756    0.1844677   5.27 4.022444e-05    1.145    0.126
        71 -11.1532     54.4849     59.4486   5.2958969005e+01   5.9317252197e+01    0.2494953     0.215366  34.47  0.000660754    1.340    0.254
        72 -10.8988     52.1994     54.3735   5.2104490674e+01   6.0565703615e+01    0.2235478    0.1580766  35.39 0.0005903359    1.517    0.341
        73  -9.4603     90.4239    246.7462   7.8788487089e+01   1.0818768675e+01    0.1446269     0.119345 -51.61 0.0005133859    1.472    0.321
        74 -12.5597    248.9301    246.6046   4.6651943589e+01  -1.2216010568e+01    0.6520371    0.2835736 -33.72  0.003523826    2.141    0.533
        75 -10.9036     59.8806    245.4823   8.4989230848e+01   1.5266093229e+01    0.1100536     0.102692 -56.11 -3.641934e-05    1.397    0.284
        76 -10.8383     60.6664     21.4968   3.5467853891e+01   6.4140407876e+01    0.2274884    0.1967589  22.42 0.0007075412    1.153    0.132
