#   1 NUMBER                 Running object number                                     
#   2 MAG_AUTO               Kron-like elliptical aperture magnitude                    [mag]
#   3 X_IMAGE                Object position along x                                    [pixel]
#   4 Y_IMAGE                Object position along y                                    [pixel]
#   5 X_WORLD                Barycenter position along world x axis                     [deg]
#   6 Y_WORLD                Barycenter position along world y axis                     [deg]
#   7 A_WORLD                Profile RMS along major axis (world units)                 [deg]
#   8 B_WORLD                Profile RMS along minor axis (world units)                 [deg]
#   9 THETA_WORLD            Position angle (CCW/world-x)                               [deg]
#  10 FWHM_WORLD             FWHM assuming a gaussian core                              [deg]
#  11 ELONGATION             A_IMAGE/B_IMAGE                                           
#  12 ELLIPTICITY            1 - B_IMAGE/A_IMAGE                                       
         1 -13.5550    168.8027     56.7234   6.2087909638e+01   3.5608896675e+01     2.237988     1.393883  23.49  0.006768168    2.414    0.586
         2 -13.1603    183.6161     41.9450   5.4933913938e+01   3.3935796185e+01     0.957298    0.8355827 -52.88  0.002846904    1.142    0.124
         3 -12.7333    188.5759     35.1534   5.2150167534e+01   3.3552448689e+01    0.6255656    0.5793038  21.68  0.001490671    1.223    0.183
         4 -11.5861    190.8213     15.3481   4.6066079673e+01   3.5325770716e+01    0.4533981    0.3105847  85.34   0.00148624    1.435    0.303
         5 -13.9053    206.0396     10.3362   4.2982639921e+01   3.1967339555e+01     1.199153     1.015935  56.68   0.00413204    1.258    0.205
         6 -12.6845    233.9140      3.6238   3.8815132666e+01   2.5861197885e+01     1.779427    0.4043441  74.88  0.005819528    4.328    0.769
         7 -10.4144     60.8127      3.3856   6.9348100198e+01   6.6870131791e+01     0.180105   0.09587155  35.13 0.0009551376    1.740    0.425
         8  -9.4181    156.2852    189.4442   9.7839585857e+01   1.2634143089e+01    0.1916429    0.1210665  51.84 0.0009320867    1.531    0.347
         9 -11.8703    248.8104    245.5861   9.0053303179e+01  -1.0857505738e+01    0.5155265    0.2104042 -27.53  0.002799126    2.671    0.626
        10 -10.3582    150.5032    249.7938   1.0767392338e+02   3.7301217938e+00    0.2238695    0.1923019  53.83 0.0007359725    1.147    0.128
        11 -13.6505     11.5607    206.2000   1.2896702980e+02   3.0502261660e+01    0.6799636    0.4009299  31.02  0.004363732    2.203    0.546
        12 -18.7769     40.5931    238.8738   1.2589432001e+02   2.1266157615e+01     5.619822     4.699805  76.89   0.03928673    1.293    0.226
        13  -9.4793     11.4705    188.1423   1.2792003281e+02   3.4142282930e+01   0.08529933   0.07650906  21.35 0.0003254894    1.726    0.421
        14  -9.9678     18.0579    187.1134   1.2658442145e+02   3.3732720026e+01    0.1403912    0.1176024  69.90  0.000394609    1.230    0.187
        15  -9.0728      7.3755    186.1412   1.2857596081e+02   3.4926102125e+01   0.08259947   0.07513049  35.51 0.0006383146    1.596    0.373
        16 -19.1747     28.5436    103.1394   1.1490705336e+02   5.1790951307e+01     16.86679    0.7654309 -66.29   0.02603705   17.909    0.944
        17 -11.1571    151.2066    180.3031   9.7301147566e+01   1.5339407756e+01    0.4017739    0.2805963 -77.35  0.001637809    2.019    0.505
        18 -11.4136    145.4857    181.0096   9.8658610286e+01   1.6295253673e+01    0.3294586    0.3061947  18.18 0.0009464293    1.193    0.162
        19 -12.0598    142.1306    175.7894   9.8459774265e+01   1.7976550822e+01    0.5132287    0.3728467 -79.05  0.001890277    1.766    0.434
        20 -10.8364    188.6525    176.6465   8.8797979959e+01   8.6775280182e+00     0.560101    0.3871737 -57.39  0.002072447    1.884    0.469
        21 -11.7716    204.1302    200.3261   9.0263489952e+01   1.9029296060e+00    0.6698271    0.2179031  34.77  0.002317311    3.511    0.715
        22  -8.6836    194.4836    172.5428   8.6807793637e+01   8.2419254041e+00    0.1419158    0.1296066  20.46 8.472936e-05    1.009    0.009
        23  -9.4233     64.0843    170.7117   1.1532102086e+02   3.2035920680e+01    0.2923245    0.1629331  36.37 0.0009830459    1.944    0.486
        24 -11.2730     81.4802    195.2309   1.1449024219e+02   2.4284273769e+01    0.4936453    0.3385459  68.57  0.002881079    1.336    0.252
        25 -11.0148     94.8910    156.6346   1.0602751214e+02   3.0657224545e+01    0.2569563    0.2396998 -86.65 0.0003521017    1.080    0.074
        26 -12.2036    100.1277    150.2952   1.0363433639e+02   3.1236255073e+01    0.6460344    0.4938393 -33.00  0.003177052    1.702    0.412
        27 -11.1732    133.7332    145.1991   9.4396561645e+01   2.6112958374e+01     1.182001    0.3004715 -54.61  0.002890836    5.587    0.821
        28 -10.2336    113.3903    151.5160   1.0060511422e+02   2.8612090775e+01    0.2974072    0.2366474  82.84 0.0007112721    1.358    0.263
        29  -9.5224    174.8501    149.1115   8.5878960585e+01   1.6653421387e+01     0.228489    0.2063524  89.14  0.000597532    1.279    0.218
        30 -10.4072    143.9757    146.6857   9.2286069502e+01   2.3698257483e+01    0.4792408    0.2054415 -59.26  0.001519281    3.445    0.710
        31  -9.1983    115.2791    144.0879   9.8678285491e+01   2.9949947225e+01    0.2377531    0.1626702 -85.57  0.001045397    1.927    0.481
        32  -9.5662    128.2769    139.6275   9.4522699087e+01   2.8444222992e+01    0.2644287    0.2278541  79.56  0.001000415    1.231    0.188
        33 -11.4277    110.0704    137.3846   9.8612124743e+01   3.2454533518e+01    0.5465644    0.3103488 -42.52   0.00211737    1.956    0.489
        34 -11.7978     98.8778    136.3522   1.0128606545e+02   3.4692052193e+01    0.2822585    0.2743273   2.80 0.0003431538    1.213    0.175
        35 -11.1319    105.8543    130.8107   9.8309382557e+01   3.4750286707e+01    0.4009542    0.3387794 -76.88  0.001151682    1.189    0.159
        36 -10.5324    116.4610    128.4986   9.5030930361e+01   3.3294276924e+01    0.2968148    0.2602352 -16.89 0.0007234662    1.380    0.275
        37 -10.1646    160.6066    127.6393   8.4010132314e+01   2.4147306622e+01    0.3270267    0.2470254 -63.03  0.001498894    1.529    0.346
        38 -10.5651    104.4885    123.9995   9.7169680127e+01   3.6585193476e+01    0.2868696    0.2412494 -44.93 0.0009549324    1.212    0.175
        39 -10.3356    121.3015    122.5672   9.2390688978e+01   3.3694253110e+01    0.4023491    0.2528925 -18.20  0.001432213    3.082    0.676
        40  -9.4292    152.8877    119.6902   8.3816769058e+01   2.7555632067e+01    0.2717439    0.2123366 -31.11 0.0005377994    1.373    0.272
        41 -11.3780    192.7656    194.7448   9.1425002180e+01   4.8455696736e+00    0.9895214    0.5427102 -64.75  0.003227524    5.450    0.817
        42  -9.5232    111.3194    118.0300   9.3940586990e+01   3.6690078896e+01    0.2323195    0.2083596  27.35 0.0003209277    1.242    0.195
        43  -9.8482    231.2662    113.7999   6.6609146761e+01   1.0729558860e+01    0.2512569    0.2311234  29.58 0.0007267916    1.147    0.128
        44  -9.8544    167.6043    112.4564   7.8553886349e+01   2.5656514050e+01    0.3498235    0.2468703 -73.97   0.00139813    2.028    0.507
        45 -11.1377    134.7641    107.4699   8.5069580438e+01   3.4221390117e+01     1.083813    0.1209759 -46.03  0.001892617    9.397    0.894
        46 -11.4265    119.1830    110.6042   8.9974616348e+01   3.6825814896e+01    0.5817853    0.3734384  70.56  0.002307898    2.324    0.570
        47  -8.4919     91.6672    112.2740   9.8011489505e+01   4.1582392598e+01    0.1459211    0.1114931  78.75 0.0003999032    1.597    0.374
        48  -9.8027    205.3539    110.2427   7.0260554711e+01   1.7176020333e+01    0.3150012    0.2156064  46.72 0.0009937943    1.509    0.337
        49 -10.1126     74.3288    103.9613   1.0113923590e+02   4.6281491133e+01    0.2043595    0.1660187 -57.05 0.0005794571    1.104    0.095
        50 -10.1081     63.9752     99.4876   1.0326670757e+02   4.8782973512e+01    0.1954057    0.1375492  36.92  0.001031901    1.599    0.375
        51 -10.2122    189.3710     89.0226   6.7626667232e+01   2.4865081514e+01    0.3884065    0.3228352 -57.29  0.001644174    1.257    0.205
        52  -9.1865    151.8651     82.1813   7.3596834684e+01   3.5430662083e+01    0.2178981     0.186833  18.20 0.0004107344    1.316    0.240
        53  -9.4719     76.0738     74.1898   9.2604410692e+01   5.2714384160e+01    0.2032315    0.1778599 -17.83 0.0002353734    1.165    0.141
        54  -9.8969     57.6882    189.6772   1.1882740660e+02   2.8732498833e+01    0.3240288    0.1735774 -70.19  0.001311804    1.735    0.424
        55  -9.6010     59.9348    187.0000   1.1808281679e+02   2.9012257795e+01    0.2560033    0.1304926  46.39 0.0007944159    1.789    0.441
        56  -9.0934    162.6747    235.8041   1.0368814974e+02   3.7782050652e+00    0.1475511    0.1143946 -62.80 0.0009396045    1.703    0.413
        57 -12.0271    198.5115     23.1772   4.7357555615e+01   3.2458244058e+01    0.4066471    0.3591988 -48.69  0.001641436    1.129    0.114
        58  -9.7081    167.2962    228.3808   1.0179455103e+02   4.1088655175e+00    0.1888618    0.1725942 -40.47 0.0006025615    1.330    0.248
        59 -11.7318    150.0755    188.5702   9.8990965524e+01   1.3967188337e+01    0.3948638    0.2904212  61.30  0.001480392    1.435    0.303
        60 -10.4587     15.7836    213.1636   1.2861096420e+02   2.8736168825e+01    0.1439719    0.1039021  77.25  0.000365002    1.045    0.043
