#   1 NUMBER                 Running object number                                     
#   2 MAG_AUTO               Kron-like elliptical aperture magnitude                    [mag]
#   3 X_IMAGE                Object position along x                                    [pixel]
#   4 Y_IMAGE                Object position along y                                    [pixel]
#   5 X_WORLD                Barycenter position along world x axis                     [deg]
#   6 Y_WORLD                Barycenter position along world y axis                     [deg]
#   7 A_WORLD                Profile RMS along major axis (world units)                 [deg]
#   8 B_WORLD                Profile RMS along minor axis (world units)                 [deg]
#   9 THETA_WORLD            Position angle (CCW/world-x)                               [deg]
#  10 FWHM_WORLD             FWHM assuming a gaussian core                              [deg]
#  11 ELONGATION             A_IMAGE/B_IMAGE                                           
#  12 ELLIPTICITY            1 - B_IMAGE/A_IMAGE                                       
         1 -12.1970    222.5483     99.7276   7.7530920705e+01   1.5877034487e+01     1.133225    0.5717672 -39.74  0.004821373    1.862    0.463
         2 -10.5087    201.0152     19.8928   6.1742732470e+01   3.3037063446e+01    0.7075457    0.2472939  65.24  0.002836359    2.435    0.589
         3 -11.9605    193.9229      9.9038   6.0196507301e+01   3.5785799413e+01     1.786377    0.7703956 -78.01  0.006702344    3.647    0.726
         4 -12.3366    207.7455      3.6129   5.7391374393e+01   3.3247409331e+01     2.322774    0.4802307  68.61  0.008418572    3.691    0.729
         5 -10.6316    247.3642     17.0342   5.6731233275e+01   2.3043667177e+01     0.456981    0.4442945 -32.58  0.002929103    1.537    0.349
         6  -9.2786    134.5038      9.0315   6.8115024594e+01   4.9776124645e+01    0.1730532    0.1261413 -23.94  0.001035875    1.601    0.375
         7 -10.7011    247.6491      4.0340   5.4242634548e+01   2.4502200485e+01    0.5502816    0.3807117 -81.52  0.003448908    1.131    0.116
         8  -9.1892    158.7979    216.4035   1.1535245041e+02   5.5061894291e+00    0.2355873    0.2275814  67.89 0.0004142275    1.077    0.071
         9 -12.7729    245.1404    239.6442   1.0251256192e+02  -1.2687969252e+01     1.331195    0.7074004 -21.82            0    2.008    0.502
        10 -11.3147     35.7902    185.6883   1.3819003267e+02   3.2068413089e+01    0.5932875    0.5314658  26.39  0.002487918    1.509    0.337
        11  -9.0705    244.8108    191.1750   9.3546448868e+01  -5.2181407271e+00    0.1899575    0.1428072 -11.51  0.001075072    1.331    0.249
        12  -8.5791    249.1136    184.8670   9.1543208712e+01  -4.8566027390e+00    0.1966619    0.1767317 -41.91  0.001232364    1.236    0.191
        13  -7.6846    237.3309    185.6600   9.3777788693e+01  -3.0306259718e+00    0.1301616    0.1081854 -73.64 0.0007051663    1.743    0.426
        14 -10.0267     48.0320    175.8489   1.3424317634e+02   3.2967646165e+01    0.5181131    0.3053161  39.36  0.002702746    1.824    0.452
        15  -7.3449    123.9563    181.0000   1.1689730247e+02   1.9726214412e+01    0.2162929   0.08365847  40.90 0.0007458223    2.564    0.610
        16  -8.5258    241.8472    177.8162   9.1385191271e+01  -2.4304917611e+00    0.1773162    0.1597595 -54.20  0.001066274    1.290    0.225
        17  -8.8985    250.2282    160.0293   8.6292109245e+01  -7.3787861631e-01    0.2026685    0.1734074 -27.07   0.00120765    1.053    0.050
        18  -7.6168    250.7733    155.0304   8.5162151591e+01   5.5060616121e-02    0.1758133    0.1000438 -40.04  0.000841343    1.532    0.347
        19  -7.3853    232.5022    151.4414   8.7485355584e+01   4.0764217538e+00    0.1422585    0.1291581 -32.35 0.0003362647    1.021    0.020
        20  -8.1304    219.1205    148.3351   8.9211003915e+01   7.3094859799e+00    0.1948489    0.1880734  69.83 0.0004501685    1.132    0.117
        21  -7.5352    131.6869    141.3462   1.0675245337e+02   2.7582473030e+01    0.1643998    0.1235267  89.29 0.0007046757    1.713    0.416
        22  -9.9458    184.2023    136.5264   9.3389726925e+01   1.7186176945e+01    0.4702513    0.2887348 -86.30  0.001489047    3.740    0.733
        23  -9.0296    201.2758    136.3640   8.9883806205e+01   1.3454814717e+01    0.2102056    0.1447573  60.74 0.0008291054    1.652    0.394
        24 -10.4363    193.7020    130.8014   9.0076530928e+01   1.6265801496e+01    0.3576418    0.2724546 -82.87  0.001637913    1.675    0.403
        25 -10.8870    203.4571    130.3475   8.8056895885e+01   1.4198813930e+01    0.6776267    0.3403752  68.24  0.002150791    3.752    0.733
        26  -8.7875    166.8549    131.1043   9.5863951516e+01   2.2250582925e+01    0.2462563    0.2113658 -76.25 0.0004403041    1.262    0.208
        27  -7.9376    238.4616    130.4476   8.1903317804e+01   6.8467789680e+00    0.1424381    0.1264681 -46.47 7.423666e-05    1.006    0.006
        28  -8.1507    153.3315    130.6710   9.8884400706e+01   2.5379241260e+01    0.1658086    0.1255673 -87.37 0.0007051733    1.716    0.417
        29  -9.9892    186.6825    129.2199   9.1126779745e+01   1.8169323608e+01     0.269545    0.2355865  49.36  0.001367918    1.190    0.160
        30  -9.1877    172.1603    128.3226   9.4003497441e+01   2.1651828013e+01    0.3662406    0.1815056 -62.79  0.001104209    3.502    0.714
        31  -9.7089    182.3582    126.0197   9.1251164696e+01   1.9819789915e+01    0.2936081    0.2236997  84.83  0.001323385    1.654    0.396
        32 -10.6962    212.2737    123.5401   8.4823093695e+01   1.3622909925e+01    0.5664103    0.3799332 -81.44  0.002374443    2.253    0.556
        33 -11.5621    194.1385    115.0823   8.6199880994e+01   1.9366269822e+01    0.6630784    0.3427037  51.83  0.002653906    2.009    0.502
        34 -12.9892    203.8174    110.2755   8.3213671070e+01   1.8100169320e+01     1.201371    0.7940813 -26.78  0.005289224    1.839    0.456
        35 -10.7191    234.5984     92.8438   7.4144786124e+01   1.4481904728e+01    0.4784568    0.3776012  -3.23  0.002446314    1.943    0.485
        36 -11.1644    167.3497    113.0854   9.1242889874e+01   2.5991499422e+01    0.4653587    0.3918284 -76.34  0.001749359    1.294    0.227
        37  -9.3870    151.8319    110.8353   9.4199996287e+01   3.0050575590e+01    0.2218534    0.1882728 -85.51 0.0005138502    1.324    0.245
        38  -8.8164    133.5614    109.3380   9.8293345442e+01   3.4462284922e+01    0.3034521    0.1482696 -49.42  0.001128589    2.075    0.518
        39  -9.8884    183.6830    108.6687   8.6674656030e+01   2.3075722398e+01    0.3328153    0.2248886 -78.36  0.001359762    2.088    0.521
        40 -12.2839    214.8789    114.6220   8.2277319139e+01   1.4782163727e+01    0.8300188    0.7503732 -23.55  0.004552627    1.228    0.185
        41  -8.9181    154.6576    108.2995   9.2870856580e+01   2.9935371077e+01    0.1619292    0.1235682 -86.50 0.0007036076    1.671    0.402
        42 -11.0708    165.0932    105.1852   8.9691936376e+01   2.8147063626e+01    0.5961724    0.3458233 -71.23  0.001997486    3.127    0.680
        43  -8.9674    116.8447    249.1769   1.2873807972e+02   6.5254927588e+00    0.1665546    0.1520633  24.87  0.001085853    1.354    0.262
        44  -9.1701    150.0639    102.4984   9.2400142452e+01   3.2197632228e+01    0.2453221    0.1533749  49.94 0.0009106178    1.610    0.379
        45  -9.5034    193.4084    100.7412   8.2797112890e+01   2.2347507220e+01    0.2118901    0.1447495 -31.91 0.0008441049    1.609    0.379
        46 -10.7485    189.0009     97.2358   8.2746666639e+01   2.4055236727e+01    0.4042404    0.2248171  42.23  0.001627538    2.112    0.527
        47  -8.4073    141.7648    105.0041   9.5074411858e+01   3.3568041313e+01    0.2092614    0.1289784 -43.90 0.0006362018    1.604    0.377
        48  -8.8557    166.5151    127.0001   9.4932860616e+01   2.3220425536e+01    0.2531035    0.1529018 -45.95   0.00103917    1.616    0.381
        49  -8.8287    134.4795     97.5207   9.4841233066e+01   3.6749583562e+01    0.2881968    0.1396267 -53.04  0.001035541    2.392    0.582
        50  -7.5526     43.7176     98.2953   1.2199780232e+02   5.1967169162e+01    0.1213599    0.0992441  86.99 0.0002134733    1.539    0.350
        51 -10.3966    149.1981     96.0718   9.0856289524e+01   3.3698845948e+01    0.3743112    0.3215097 -61.56   0.00169044    1.204    0.169
        52 -11.6085    183.8725     87.3086   8.1177644819e+01   2.7131230948e+01    0.8115723    0.3438642 -34.45   0.00287824    2.647    0.622
        53 -11.9589    168.3724     92.0943   8.5521901240e+01   2.9952512004e+01     0.727001    0.4012477 -51.20  0.002939251    1.915    0.478
        54 -10.6674    158.8140     90.1837   8.7057502091e+01   3.2592839768e+01    0.3527165    0.3066673 -15.69  0.001792633    1.338    0.253
        55 -10.2954    162.6199     86.7888   8.5306224874e+01   3.2328189945e+01    0.4148742     0.213422  39.57  0.001555354    2.374    0.579
        56  -8.2737    143.1735     91.1619   9.0922840076e+01   3.6058496933e+01    0.2198834    0.1836226 -73.70  0.001082167    1.356    0.263
        57 -11.2498    178.1657     84.0921   8.1427200173e+01   2.9088808574e+01    0.4722186    0.3880396  43.92  0.001363648    1.317    0.241
        58 -11.5412    176.4726     76.4553   7.9729336332e+01   3.0851159204e+01    0.7382199    0.5295449  40.46  0.002900567    1.592    0.372
        59  -8.2331    140.9907    122.4832   9.9837853770e+01   2.9940465177e+01    0.2205873    0.1381115  70.97 0.0008085512    2.411    0.585
        60 -10.7512    142.0604     85.4307   8.9568924374e+01   3.7417344613e+01     0.580657     0.244262  47.54  0.001564198    2.352    0.575
        61 -10.3356    150.0577     78.9531   8.5872091830e+01   3.6749575864e+01    0.4071279    0.2690212 -59.96  0.001791886    1.816    0.449
        62 -10.0808    238.1944     71.3287   6.8898020931e+01   1.7328921296e+01    0.4427398    0.2694068 -47.36  0.002268362    1.451    0.311
        63  -8.0083    115.5014     85.4686   9.6384124797e+01   4.3244122592e+01    0.1464064    0.1421704  -3.85 0.0008098186    1.013    0.013
        64  -8.4748    184.2505     69.8656   7.6576788239e+01   3.0083223646e+01    0.2176824    0.1859306 -73.04  0.000472486    1.148    0.129
        65 -10.8152    234.2748     75.0071   7.0212117743e+01   1.7582896586e+01    0.4985659    0.2919201 -43.38 0.0002474251    1.550    0.355
        66  -8.9311    120.8354     68.8033   8.9922685599e+01   4.5174701025e+01    0.2198229     0.190479  21.37 0.0006754305    1.201    0.168
        67  -8.4813    108.0978     68.3448   9.3214789845e+01   4.7927600495e+01    0.1911448     0.181073  29.88 0.0005218654    1.051    0.049
        68  -9.0339    234.8701     65.0345   6.7934893560e+01   1.9056466192e+01     0.371811    0.2709078  15.18  0.001748883    2.749    0.636
        69  -8.1516    229.1288     65.8596   6.8842802874e+01   2.0197729349e+01    0.2196921    0.1645433 -67.29 0.0009608128    1.225    0.183
        70 -10.6444    157.9873     77.4292   8.3709128590e+01   3.5138103715e+01    0.4249417    0.2931289 -62.21  0.001264281    1.704    0.413
        71  -8.5801    136.4931     62.9790   8.4289237596e+01   4.2642141679e+01    0.2089469    0.1166104 -57.96 0.0008103875    2.569    0.611
        72  -8.7311    194.7093     61.7093   7.2753878891e+01   2.8871102631e+01    0.2706123    0.2127869  36.44  0.000865071    1.607    0.378
        73 -10.6587    176.9287     58.6669   7.4901940297e+01   3.3650298558e+01    0.4445581    0.3433631  -0.72   0.00148623    1.871    0.465
        74  -8.5027    200.4901     57.5504   7.0841446004e+01   2.8129028987e+01     0.309339    0.1849343  44.15   0.00140684    2.072    0.517
        75  -8.7358    140.4980     58.4986   8.2030903439e+01   4.2421791522e+01    0.1424567    0.1352433  55.62 -0.0001748673    1.001    0.001
        76  -9.5319    162.4131     51.4911   7.5540561645e+01   3.8247015037e+01    0.3091286    0.1319218  59.82  0.001219001    2.193    0.544
        77  -9.0996    171.9954     50.3041   7.3506212121e+01   3.6093481855e+01    0.2024445    0.1736872  72.45  0.000204989    1.076    0.071
        78  -9.8896    157.9976     47.5643   7.5251332858e+01   3.9871343814e+01    0.3816407    0.2616367 -26.05  0.001917467    1.690    0.408
        79  -9.0521    225.5577     42.4459   6.4071826874e+01   2.4493400246e+01    0.6531404    0.3151761  86.51  0.002760812    2.600    0.615
        80  -9.6754    218.8032     46.1066   6.5681583559e+01   2.5517524198e+01    0.6472475    0.3429963  70.25  0.003118842    1.824    0.452
        81  -9.3307    218.6171     41.4835   6.4658288229e+01   2.6208279383e+01    0.4587657    0.2805227  73.68  0.002388404    1.543    0.352
        82  -9.8008    132.4602     45.8815   7.9960290864e+01   4.6121848610e+01    0.2559449    0.2417092 -26.71 0.0004969247    1.136    0.120
        83 -10.2678    229.3849     35.4595   6.2137327392e+01   2.4588519324e+01    0.4545519    0.2928594  48.70  0.001752482    2.015    0.504
        84  -8.0605    219.4911     29.9961   6.1999349113e+01   2.7536016206e+01    0.1796859    0.1193865 -42.19 0.0004845555    1.514    0.340
        85  -9.1717    226.4167     27.1277   6.0659770374e+01   2.6336406238e+01    0.3444271    0.2585037  51.42  0.002063142    1.665    0.400
        86  -8.9954    104.9909    250.0000   1.3113749744e+02   8.2848819736e+00    0.2123588   0.06240878  40.69 0.0008039526    2.953    0.661
        87  -8.3058     11.6129    235.2033   1.4700759343e+02   2.3843544681e+01    0.1507661   0.08301739 -72.10 0.0005607284    1.650    0.394
        88 -10.2773     31.6761    190.3391   1.3957112725e+02   3.1443788633e+01    0.4487591     0.236377  61.26   0.00231835    1.907    0.476
        89  -8.5348      5.4720     16.9747   1.1241451831e+02   7.0300877257e+01    0.1266534   0.09069963 -61.10 0.0008100119    2.600    0.615
        90  -9.3816    249.7777     21.9922   5.7492594232e+01   2.1926466674e+01    0.2710429    0.1971839 -30.38  0.001683996    1.790    0.441
        91  -7.9749    172.5109     11.5432   6.3135405193e+01   4.0659479842e+01    0.1288603    0.1081723  75.52 8.754971e-05    1.028    0.027
        92 -11.3388      3.6590    213.4020   1.4701124646e+02   2.9175322396e+01    0.6527044    0.3781041 -72.40  0.004175538    1.492    0.330
        93 -10.8266      4.2315    208.6194   1.4658445193e+02   3.0145870346e+01    0.5619254    0.2677492  71.73  0.003108642    1.904    0.475
