#   1 NUMBER                 Running object number                                     
#   2 MAG_AUTO               Kron-like elliptical aperture magnitude                    [mag]
#   3 X_IMAGE                Object position along x                                    [pixel]
#   4 Y_IMAGE                Object position along y                                    [pixel]
#   5 X_WORLD                Barycenter position along world x axis                     [deg]
#   6 Y_WORLD                Barycenter position along world y axis                     [deg]
#   7 A_WORLD                Profile RMS along major axis (world units)                 [deg]
#   8 B_WORLD                Profile RMS along minor axis (world units)                 [deg]
#   9 THETA_WORLD            Position angle (CCW/world-x)                               [deg]
#  10 FWHM_WORLD             FWHM assuming a gaussian core                              [deg]
#  11 ELONGATION             A_IMAGE/B_IMAGE                                           
#  12 ELLIPTICITY            1 - B_IMAGE/A_IMAGE                                       
         1 -13.4014      4.0484     14.7903   1.2560893296e+02   7.1247042895e+01     2.230481    0.2988664 -53.17  0.008107987    4.445    0.775
         2 -13.8259    204.4492      6.7233   6.6666830830e+01   3.2752093436e+01     1.677217      1.06573  50.18  0.008350621    1.621    0.383
         3 -13.7311    189.8412     25.8632   7.4134494222e+01   3.4505161830e+01     1.537023     1.326068  48.58  0.006584971    1.167    0.143
         4 -12.7780      4.8161     51.5540   1.3609913571e+02   6.4113541532e+01    0.7853969    0.5704011  88.87  0.005355911    1.657    0.397
         5 -10.8667    237.7599    246.4408   1.1685845009e+02  -7.2187035176e+00    0.1884353    0.1336509  32.99  0.001015015    1.144    0.126
         6 -10.8365    247.3748    249.3862   1.1578755393e+02  -8.8864408797e+00    0.3200549    0.1639787  51.93  0.001728127    2.865    0.651
         7 -10.1519    174.8561    250.1564   1.2756392151e+02   2.0653306945e+00    0.1706238    0.1254624  53.63 0.0008031048    1.298    0.229
         8 -11.0908    139.6099    249.9046   1.3334913166e+02   7.5823251966e+00    0.2553195    0.1844041  65.18  0.001817761    1.368    0.269
         9  -9.9149     67.1059    250.5274   1.4503387213e+02   1.7713004187e+01    0.1960837   0.09695286  48.09   0.00130588    1.552    0.356
        10  -9.7336     63.5173    250.5467   1.4558677727e+02   1.8158559633e+01    0.2003704    0.0783606  43.62  0.000624022    2.077    0.519
        11 -14.3615      7.1260    210.5973   1.5215400644e+02   3.1031282186e+01     2.966323     0.656579 -73.24  0.009524799    3.567    0.720
        12 -14.1518     54.0692    212.8605   1.4444937207e+02   2.5623702236e+01     6.950011    0.6396944  47.13   0.02437252    5.249    0.809
        13 -12.9890     41.9856    236.5222   1.4804098651e+02   2.2962534845e+01    0.4103487    0.2982771 -51.73 0.0007489464    2.332    0.571
        14  -9.8045    248.3179    231.3139   1.1286583954e+02  -7.3134133002e+00    0.1182446   0.06864551  16.57 0.0003071056    1.648    0.393
        15 -13.9923     47.3983    228.3209   1.4667084041e+02   2.3709648161e+01    0.9469244    0.7133616 -75.17  0.003410251    1.489    0.328
        16 -11.4600    185.5480    238.6555   1.2430232513e+02   1.7652423605e+00     0.428473    0.2889362 -77.68  0.002279497    3.344    0.701
        17 -10.0913     19.1021    241.9043   1.5177468047e+02   2.4554573757e+01    0.1641276   0.08756664  68.34   0.00124173    1.327    0.247
        18  -9.8565    100.2073    222.5539   1.3722558215e+02   1.7701348198e+01    0.3032381    0.1687149  84.11  0.001179834    2.395    0.582
        19 -15.1213     17.2824    166.0748   1.4763975840e+02   3.8633358283e+01     6.578909     1.764471 -84.89   0.02087692    5.150    0.806
        20 -10.3831    173.1369    222.1456   1.2416411045e+02   5.9984953876e+00    0.2391076     0.124365  38.08  0.001272012    1.660    0.397
        21 -12.6135      3.7573    183.0444   1.5129185724e+02   3.6442370036e+01     1.284629    0.3760173 -74.83  0.005627794    2.649    0.623
        22  -8.9822    152.5231    212.9441   1.2658967131e+02   1.0884369302e+01    0.1499186    0.1238022 -56.21 0.0003122484    1.445    0.308
        23 -12.4229     25.3549    202.5660   1.4868605587e+02   3.0723823421e+01    0.5405135    0.1622097  56.00  0.002450153    2.837    0.648
        24 -11.6023     66.6027    201.2918   1.4121948796e+02   2.6181724961e+01    0.2472668    0.1988098 -59.37 0.0005665775    1.573    0.364
        25 -10.2626    194.2950    197.5760   1.1648628744e+02   5.7889596428e+00      0.41948    0.2190734 -58.43  0.001680123    3.919    0.745
        26 -11.9048     72.2215    192.8544   1.3933121052e+02   2.7048573881e+01    0.2410508    0.2043744 -74.68 0.0004501132    1.290    0.225
        27 -10.0621     84.7883    245.7509   1.4190454519e+02   1.6142805263e+01    0.3470562    0.1403562  70.00  0.001514227    4.028    0.752
        28  -9.9839     66.8755    243.3081   1.4457414737e+02   1.8868005097e+01    0.1944976    0.1103757  78.99  0.001154204    1.661    0.398
        29  -8.7424    105.9360    181.7986   1.3128313354e+02   2.4234319894e+01    0.1733994    0.1273063  69.85 0.0004211931    1.311    0.237
        30 -11.0314     81.5563    179.7591   1.3600805964e+02   2.8342522240e+01    0.2218924    0.1915612 -87.87 0.0004624638    1.119    0.106
        31 -13.3281     68.8486    177.7906   1.3836881615e+02   3.0490921036e+01    0.4478445     0.268094 -46.46  0.001836165    2.329    0.571
        32 -12.0274     88.4398    169.9364   1.3330031511e+02   2.9342350425e+01    0.6031798    0.5449538 -70.73  0.004004562    1.216    0.178
        33 -11.1391     32.8103    155.5510   1.4352691851e+02   3.9353928386e+01    0.2873364    0.1260433 -67.99  0.001539979    1.891    0.471
        34 -10.1262    100.2183    153.5644   1.2822778266e+02   3.0949158784e+01    0.2565795    0.2378566 -72.35 0.0007388265    1.130    0.115
        35  -9.3648    103.0537    149.1823   1.2683332889e+02   3.1420994104e+01    0.2262315    0.1830359 -36.59 0.0005449277    1.536    0.349
        36 -12.1400     89.0714    153.0536   1.3068260057e+02   3.2814981013e+01    0.2580869    0.2369263 -50.34 0.0005331315    1.290    0.225
        37 -12.7588     66.8764    143.5819   1.3438540954e+02   3.8037271203e+01    0.7549483    0.4504826  69.48  0.003309281    1.924    0.480
        38 -12.6845     28.3596    138.9082   1.4277924240e+02   4.3370856084e+01    0.7397809    0.1901588 -65.81  0.003036668    2.887    0.654
        39 -11.2511     13.5779    242.2733   1.5259350144e+02   2.5050838511e+01    0.2658832    0.1120279 -89.31  0.001792029    2.042    0.510
        40  -9.9154    110.8687    138.0085   1.2293240630e+02   3.2493135918e+01    0.3549131    0.2429631 -29.38    0.0013826    2.096    0.523
        41 -10.7558     98.4681    135.5337   1.2544054779e+02   3.5151018908e+01    0.2475473    0.2211181 -34.20 0.0002579177    1.334    0.250
        42 -10.2593     58.1069    132.8651   1.3489562438e+02   4.1532324995e+01     0.204023    0.1546212  81.11  0.001235003    1.281    0.219
        43  -8.4239    192.2856    144.2730   1.0637335375e+02   1.4779931844e+01    0.1424553    0.1094672  13.28 0.0002389017    1.505    0.336
        44 -10.4602     56.0693    129.2518   1.3484863094e+02   4.2588732597e+01    0.3986324     0.204621 -45.53  0.001906358    2.304    0.566
        45  -9.1493    107.8960    124.5170   1.2088994958e+02   3.5964342044e+01    0.1897797    0.1396429  43.75 0.0003787489    1.412    0.292
        46  -8.7821     70.8021    124.5951   1.3034123058e+02   4.1762954196e+01    0.1781725    0.1158727  52.88 0.0009419161    1.646    0.393
        47  -9.8345     53.8483    120.1568   1.3396635911e+02   4.4901563600e+01    0.1756698     0.140492 -48.80 0.0008992683    1.332    0.249
        48  -9.6506    175.0000    138.2164   1.0851717609e+02   1.9593506352e+01    0.3838841    0.2615224  87.32 0.0009897747    2.643    0.622
        49 -10.1677    168.0234    113.0496   1.0391082881e+02   2.5928905975e+01    0.3750239    0.2927581 -79.92  0.001048492    1.698    0.411
        50  -9.6866    203.2352    111.7632   9.6447231132e+01   1.7998785128e+01    0.2122648    0.1733068  12.89 0.0005484817    1.355    0.262
        51 -10.1008     34.6170     93.0850   1.3459511066e+02   5.3006427830e+01    0.3831036    0.1895453  48.91  0.001926695    2.532    0.605
        52  -8.6278    184.5367     77.4644   9.0660447887e+01   2.8420074235e+01    0.1543655    0.1489714   6.41 7.047343e-05    1.045    0.043
        53 -10.2043     16.6285     66.1563   1.3502833060e+02   6.0334396071e+01    0.2155403    0.1612041  42.11 0.0009848257    1.705    0.413
        54  -9.9297     81.7327    248.8210   1.4262848162e+02   1.6081443339e+01     0.212097    0.1169393  69.11  0.001225016    1.665    0.399
        55  -9.6989     77.7562    245.9030   1.4303851492e+02   1.7056141594e+01    0.2547666    0.0886922  56.96  0.001303252    2.536    0.606
        56  -9.5000     46.6608    248.9557   1.4804762746e+02   2.0429699286e+01    0.2265972   0.09520462  63.70 0.0008573871    1.951    0.487
        57 -11.4691      4.1411     61.9583   1.3849810240e+02   6.1978745625e+01    0.3966711     0.259569  55.50  0.002568518    2.060    0.515
