#   1 NUMBER                 Running object number                                     
#   2 MAG_AUTO               Kron-like elliptical aperture magnitude                    [mag]
#   3 X_IMAGE                Object position along x                                    [pixel]
#   4 Y_IMAGE                Object position along y                                    [pixel]
#   5 X_WORLD                Barycenter position along world x axis                     [deg]
#   6 Y_WORLD                Barycenter position along world y axis                     [deg]
#   7 A_WORLD                Profile RMS along major axis (world units)                 [deg]
#   8 B_WORLD                Profile RMS along minor axis (world units)                 [deg]
#   9 THETA_WORLD            Position angle (CCW/world-x)                               [deg]
#  10 FWHM_WORLD             FWHM assuming a gaussian core                              [deg]
#  11 ELONGATION             A_IMAGE/B_IMAGE                                           
#  12 ELLIPTICITY            1 - B_IMAGE/A_IMAGE                                       
         1 -10.6249     50.0991     26.1485   1.0221769406e+02   6.3875281369e+01    0.4675736    0.1699321 -39.91   0.00215884    2.721    0.633
         2 -11.7669     25.5867     20.2738   1.0963948591e+02   6.7504844308e+01    0.4450985    0.2458553  -3.24  0.002476183    2.034    0.508
         3 -10.9676    216.3265     16.9150   6.3172634668e+01   2.9440820060e+01    0.7261764    0.1795449  52.75  0.002325945    4.657    0.785
         4 -11.6715    130.7282     14.9138   7.5137817412e+01   5.0160642112e+01    0.4514948    0.2858141  11.74  0.002225456    2.030    0.507
         5 -11.1232     75.5436     17.1761   8.9855987286e+01   6.1107117537e+01     0.300913    0.1972265   7.10 0.0008275883    1.560    0.359
         6 -12.2558     26.0646     13.5311   1.0666225384e+02   6.8375538215e+01    0.2703035    0.1852333   5.91 0.0003660531    1.285    0.221
         7 -11.0542      3.8729     20.4857   1.1921149533e+02   6.9239663575e+01    0.2950251    0.1464931 -31.57  0.001900539    1.556    0.357
         8  -9.2814    175.7254     12.0058   6.6840162449e+01   3.9758965991e+01    0.1481567     0.117458 -31.42 0.0004275297    1.435    0.303
         9 -11.0391    120.1211     11.4278   7.6143760471e+01   5.2863398136e+01    0.3330995    0.2034726  27.37 0.0004626414    1.774    0.436
        10 -11.0084     75.0850      5.3606   8.5205421651e+01   6.2378681471e+01    0.6475894    0.1753373 -26.42  0.002653345    3.678    0.728
        11 -11.1026     78.8375      9.8107   8.5901316266e+01   6.1294294153e+01    0.3173249    0.2255153  36.33  0.001348362    1.220    0.180
        12 -11.7417     81.4018      6.0139   8.3632914075e+01   6.1187002304e+01    0.2427166    0.1980217   3.22 0.0001922729    1.150    0.131
        13 -10.3691     60.9997     10.8160   9.1994021180e+01   6.4173784718e+01    0.3220151    0.1997196  62.50  0.001438538    3.285    0.696
        14  -9.7399     23.2021      9.2048   1.0604026262e+02   6.9223619751e+01    0.1613875    0.1091987  -9.85 0.0005334472    1.162    0.139
        15  -9.6517     37.2331      8.5491   9.9854298462e+01   6.7733038669e+01    0.1425645   0.08703437  16.95 0.0003202625    1.496    0.332
        16 -10.8830     10.9489      6.8576   1.1054319010e+02   7.0657958994e+01    0.4579084    0.1940946   9.52  0.002346319    3.203    0.688
        17  -9.0858    182.7202      7.6625   6.4780424916e+01   3.8495237840e+01    0.1280061    0.0910649  40.44 0.0002673812    1.618    0.382
        18  -9.5414     59.0828      5.3120   9.0294902312e+01   6.5034615304e+01    0.2328085   0.08090112  39.84  0.001101144    2.536    0.606
        19 -10.0303    135.9789      3.9936   7.0640573712e+01   4.9946604585e+01    0.2063619     0.127475  36.30 0.0004239253    1.640    0.390
        20  -9.3486    120.4902      4.5207   7.3713784535e+01   5.3387812167e+01    0.1258196    0.1085218  48.20  2.62397e-05    1.036    0.034
        21  -9.5685    115.5689      4.2215   7.4616544031e+01   5.4485783041e+01    0.1705566    0.1140663   4.57 0.0009622741    1.713    0.416
        22 -10.7589     91.9367      3.9951   7.9998587785e+01   5.9372906025e+01    0.1823928    0.1457972  29.72 0.0003549021    1.035    0.034
        23 -11.6808     27.0474      3.2849   1.0172311101e+02   6.9528672687e+01    0.3302389    0.2007138  32.51  0.001600248    1.752    0.429
        24 -10.6519     31.0429      2.5195   9.9677134808e+01   6.9158515138e+01    0.2359174    0.1770419  44.52  0.001209796    2.086    0.521
        25  -9.9608     18.7281      3.9289   1.0568045369e+02   7.0321101181e+01    0.1442854    0.1020148 -15.62 0.0003286261    1.085    0.078
        26  -9.9291    129.2277      3.2362   7.1608497848e+01   5.1546187218e+01    0.2115199    0.1344467 -67.29  0.001056937    2.355    0.575
        27  -9.9876     99.2080      3.6125   7.8053736118e+01   5.7961570340e+01    0.3238309   0.09576172  55.15  0.001263355    2.789    0.641
        28  -9.0849    124.4459      1.4155   7.1900403353e+01   5.2764002221e+01    0.1238449    0.1069205  55.33 1.440609e-05    1.065    0.061
        29  -9.6640     86.1560    233.4583   1.3664512784e+02   1.5339984506e+01    0.2318691    0.1267715  86.42  0.001141131    2.258    0.557
        30 -11.2005    247.1019    250.0920   1.0890263950e+02  -1.3766128418e+01    0.4360405    0.1993221  29.51  0.002300092    1.981    0.495
        31 -11.1947    250.5319    243.9315   1.0727328117e+02  -1.3512938765e+01    0.4627873    0.2196478 -36.40  0.001549716    2.282    0.562
        32 -12.4026    231.9199    247.1971   1.1109427633e+02  -1.1164448166e+01    0.6947662     0.361862  28.51  0.003769414    1.750    0.429
        33  -9.2660    168.6293    250.7000   1.2326580468e+02  -1.3290885972e+00    0.1262322   0.08930667  17.95 0.0007030874    1.743    0.426
        34 -10.0295    127.9103    249.6495   1.3071568497e+02   5.7079231711e+00    0.1860746    0.1684746 -55.83 0.0009333314    1.380    0.275
        35  -9.8549     72.8227    250.1325   1.4065708951e+02   1.4150991933e+01    0.1499573    0.1433101 -43.79  0.001108186    1.690    0.408
        36 -10.7884     10.9953    250.3433   1.5068460632e+02   2.1771680656e+01    0.2521144    0.1652536  48.37  0.001793317    1.564    0.361
        37 -11.6636     27.8642    246.0163   1.4781842145e+02   2.0699162752e+01    0.3814419    0.1708543 -78.15   0.00227964    1.965    0.491
        38 -12.3417     20.9174    248.9317   1.4908952652e+02   2.0949748791e+01    0.5515803    0.1824807  51.55   0.00304507    2.300    0.565
        39 -11.5442     14.2786    245.0983   1.4989582178e+02   2.2380012914e+01     0.320863    0.1168754 -81.79  0.001752974    2.405    0.584
        40 -10.3374    190.5652    226.6610   1.1537191587e+02  -1.3479538367e+00    0.2746033    0.1301584 -45.27 0.0009985656    2.416    0.586
        41 -10.4471    167.0176    233.9734   1.2112166800e+02   1.6338435951e+00    0.2020925    0.1770053  39.57 0.0007763862    1.034    0.033
        42 -10.7826    115.8566    226.3980   1.3010044509e+02   1.1958026848e+01    0.3016663    0.1497233 -64.59  0.001328444    2.311    0.567
        43 -10.3229    129.9285    226.7831   1.2736869136e+02   9.4735018806e+00     0.371492    0.1709896  55.53  0.001596965    2.286    0.563
        44 -10.2784     88.1328    227.1362   1.3558203540e+02   1.6280092101e+01    0.1788962    0.1669668  72.59  0.001112195    1.271    0.213
        45 -10.4481     66.4588    226.4146   1.3959298188e+02   1.9595448021e+01    0.2593978    0.1590156  49.56  0.001035196    1.460    0.315
        46  -9.4786      6.6688    227.3054   1.5007145472e+02   2.6534324006e+01     0.115555   0.05651884  69.37 0.0005612716    1.659    0.397
        47 -10.0619    144.4389    226.5242   1.2444800260e+02   6.9641125962e+00    0.1335589    0.1151518  56.37 9.780536e-05    1.032    0.031
        48 -10.5204    180.8743    224.1346   1.1684360450e+02   8.0678891315e-01    0.2230714    0.1788981 -31.73 0.0007162269    1.415    0.293
        49 -10.3068     81.3992    224.6943   1.3660008873e+02   1.7786536610e+01    0.2425561    0.1529866  84.98 0.0009550784    1.615    0.381
        50 -10.7674     13.1232    222.1329   1.4869010773e+02   2.6896217393e+01     0.184464    0.1444739 -86.31 0.0004211556    1.253    0.202
        51 -11.3237    141.4218    221.3889   1.2429141465e+02   8.4593708476e+00    0.3239223    0.2477886  12.94   0.00155056    1.864    0.463
        52 -10.9400    123.3558    221.5306   1.2795235234e+02   1.1622692002e+01    0.2646589    0.2267361  59.89 0.0009741749    1.020    0.020
        53  -9.2782     51.5072    222.5576   1.4198653825e+02   2.2379359256e+01    0.1197023   0.09353604  78.17 0.0001016913    1.035    0.034
        54 -10.2828    174.0319    219.9713   1.1750769614e+02   2.7688764253e+00    0.2102739    0.1848282  42.67 0.0006180457    1.029    0.028
        55  -9.2178     21.7143    220.3120   1.4710574467e+02   2.6356531241e+01    0.1176401   0.06309108  72.45 0.0003412002    1.577    0.366
        56  -9.6976    250.2905    219.0680   1.0291584579e+02  -1.0232996315e+01    0.1727415    0.1395323  -9.34 0.0006755682    1.106    0.096
        57 -10.5230    191.5265    216.9882   1.1352744129e+02   7.7482886108e-02    0.2587062     0.175764 -39.96  0.001161842    1.617    0.381
        58 -10.1652    194.5247    215.4809   1.1267221406e+02  -2.1532196956e-01    0.2161203    0.1183324  32.58 -2.628317e-05    1.830    0.454
        59  -9.6202     50.3355    218.3116   1.4181689499e+02   2.3398039902e+01    0.1054312   0.09124327 -50.09 0.0007044864    1.683    0.406
        60 -10.7850     10.0556    217.0407   1.4887655534e+02   2.8219452483e+01    0.2706967    0.1520974  66.05 0.0008320346    1.453    0.312
        61  -9.3326     37.5649    217.4831   1.4408533844e+02   2.5139323996e+01     0.117633   0.08958373  82.49 0.0001246462    1.034    0.033
        62 -10.1201     24.9706    217.1702   1.4630926275e+02   2.6637465020e+01    0.2042933   0.09004286  63.41  0.001088577    2.093    0.522
        63 -10.2544    234.7732    216.5962   1.0523708746e+02  -7.4079800388e+00    0.1750556    0.1139544  46.97 0.0009454391    1.715    0.417
        64 -10.4721    201.6572    216.0979   1.1138849060e+02  -1.6096747099e+00    0.2786492    0.1844182  43.28  0.001331668    1.413    0.292
        65  -9.5810    137.0277    215.8074   1.2434455700e+02   1.0320695252e+01    0.2147355    0.1537054  19.82  0.001068959    1.959    0.489
        66  -9.9883     30.9790    215.7191   1.4512916647e+02   2.6264357131e+01    0.1684761     0.124998  74.14  0.001177903    1.074    0.069
        67  -9.2284    179.6865    215.6938   1.1565337494e+02   2.4768478347e+00    0.1354391    0.1028142   9.45 0.0007024945    1.622    0.383
        68 -10.3405    208.9662    212.1644   1.0926186901e+02  -2.2786225452e+00    0.2132101     0.189226 -18.19 0.0004973696    1.155    0.134
        69 -10.2026    170.2131    213.1491   1.1712764189e+02   4.6956100431e+00    0.1872379    0.1583667  69.26 0.0007846426    1.322    0.243
        70  -9.6191    142.8517    213.2034   1.2274499714e+02   9.7687951959e+00    0.1798579    0.1597732  19.26 0.0005207871    1.326    0.246
        71 -10.9223     20.6501    211.6178   1.4665885421e+02   2.8236096002e+01    0.2975471    0.1508235  75.69 0.0008942164    1.777    0.437
        72  -9.5363    212.8708    211.8810   1.0845985077e+02  -2.9295031019e+00    0.1667396     0.158842  66.54 0.0005479042    1.317    0.241
        73 -11.8995      4.4459    207.5242   1.4921666864e+02   3.0681209240e+01    0.4193859    0.2379978  86.98  0.002767545    1.346    0.257
        74  -9.6620    218.4756    206.9889   1.0647873636e+02  -3.1354759406e+00    0.1900999    0.1100856 -14.03 0.0008089513    2.558    0.609
        75  -9.5022    188.2677    205.6580   1.1214778032e+02   2.6490668817e+00    0.1312224    0.1096908  87.26 0.0006984621    1.604    0.377
        76 -10.4084    205.9856    201.4984   1.0784832837e+02   5.2462498769e-02    0.2363699    0.1428767 -30.71 0.0007270936    1.821    0.451
        77  -9.2638    238.5219    201.4422   1.0169112010e+02  -5.7413327410e+00    0.1330982    0.1126292   3.75 0.0001464325    1.056    0.053
        78  -9.3649    223.4987    201.5287   1.0448683887e+02  -3.1431448569e+00    0.1307401    0.1232447  14.83 0.0008070077    1.126    0.112
        79  -9.1836     34.6551    200.7563   1.4317264614e+02   2.8985607988e+01    0.1005417   0.08875792 -53.48  0.000248622    1.569    0.363
        80 -11.0286    214.8068    198.9988   1.0565420620e+02  -1.1520469171e+00    0.2595705    0.1638566  28.17  0.001147979    1.644    0.392
        81 -10.1677    227.0155    197.0045   1.0294713293e+02  -3.0316234570e+00    0.2088397    0.1823955   4.78  0.000638881    1.046    0.044
        82 -11.7295    192.2697    195.0304   1.0934340451e+02   3.8074312404e+00    0.4027871    0.2963128 -63.09  0.002016519    1.776    0.437
        83  -9.7310    203.0162    195.9657   1.0737005749e+02   1.5761142819e+00    0.2122942    0.1972709  12.48 0.0007156532    1.016    0.016
        84  -9.5227      7.0000    195.9762   1.4796568412e+02   3.2832411859e+01    0.1824863   0.04985387 -75.01 0.0005612954    2.889    0.654
        85 -10.2826    215.4966    194.7098   1.0468470464e+02  -5.5021553488e-01    0.2383416    0.1844657  -9.77   0.00056441    1.393    0.282
        86 -11.0844    232.7059    191.2607   1.0075425676e+02  -3.1047240107e+00    0.3058571    0.2070176  19.35  0.001574079    1.625    0.385
        87 -10.0298    163.0000    191.4740   1.1476795384e+02   1.0238287173e+01    0.3119215   0.08317623 -47.70 0.0009405458    3.982    0.749
        88  -9.3808     56.6386    197.7068   1.3851921330e+02   2.6965468033e+01    0.1139083   0.09658325 -40.26 0.0007029763    1.702    0.412
        89  -9.4166    205.5854    190.2341   1.0573608172e+02   2.1062553774e+00    0.1881236    0.1311834 -26.88 0.0005649019    1.552    0.355
        90 -10.4880    225.8429    188.9752   1.0157428674e+02  -1.4836161216e+00    0.3127135    0.1736207  16.93  0.001219884    2.932    0.659
        91 -10.2188    218.0000    187.0112   1.0266890514e+02   3.1166069540e-01    0.2294205   0.07727601 -40.20 0.0008082744    2.983    0.665
        92 -11.7391     16.3179    183.4208   1.4519535944e+02   3.4648287568e+01    0.4247888    0.1975689 -87.47  0.002231376    1.949    0.487
        93 -10.5049    167.8505    184.1040   1.1232389431e+02   1.0759286540e+01    0.4498253    0.2392019  64.20  0.001560366    3.214    0.689
        94  -9.4000     61.6320    184.8197   1.3596084118e+02   2.9176575029e+01    0.1905057    0.1077012 -79.51 0.0009504798    1.718    0.418
        95 -11.4770    248.3570    182.6357   9.6201159793e+01  -4.4482926170e+00    0.4852322    0.2526346  21.11  0.001966934    2.949    0.661
        96  -9.7281    236.4680    182.4744   9.8290837018e+01  -2.3241574690e+00    0.1361968    0.1224909  -5.62 0.0008092536    1.005    0.005
        97  -9.7266    250.4622    190.0374   9.7321041935e+01  -5.9785279236e+00    0.1966316    0.1183488 -34.41 0.0005010449    1.562    0.360
        98 -10.3021      2.1372    180.1242   1.4768663863e+02   3.6621369109e+01    0.1845037    0.1336532  75.37 0.0005113548    1.185    0.156
        99 -11.1947    244.6421    177.9021   9.5887289792e+01  -3.0272904209e+00    0.3033671    0.1580951 -25.60  0.001333374    2.130    0.530
       100  -9.4865     36.0918    178.4987   1.4067798973e+02   3.3717003864e+01    0.1554982    0.1162113  46.39 0.0005294648    1.465    0.317
       101 -10.6904    200.0275    176.7159   1.0410038179e+02   5.6941663109e+00    0.2054522    0.1851161  27.55 0.0005506591    1.082    0.076
       102  -9.4662     70.2068    177.5930   1.3312216331e+02   2.9648161773e+01    0.1549909    0.1303402  29.80 0.0004498642    1.507    0.337
       103 -11.4161    224.2849    178.3596   9.9700902242e+01   6.3619007583e-01     0.288812    0.2700394  16.34 0.0005363976    1.065    0.061
       104  -9.7780    183.3386    173.3146   1.0684113084e+02   9.7698308250e+00    0.1528279    0.1170943   5.27 0.0007047392    1.698    0.411
       105  -9.5197    193.3540    172.3306   1.0454476573e+02   7.8969603912e+00    0.1554351    0.1153363   5.11 0.0007045876    1.780    0.438
       106  -9.6373     59.6153    171.7726   1.3471124876e+02   3.2430912869e+01     0.190403     0.110217 -78.46  0.000946288    1.665    0.399
       107  -9.7088     74.4996    171.4822   1.3126657066e+02   3.0448538741e+01    0.1366794    0.1185451 -86.44 7.860891e-05    1.015    0.014
       108  -9.8407      4.5289    167.9983   1.4621608540e+02   3.9052966535e+01    0.1858611   0.08733534 -75.89  0.001041269    1.620    0.383
       109  -9.7344    209.8561    166.2113   9.9911895290e+01   5.6892760911e+00    0.2019025    0.1684984   2.71 0.0004947208    1.319    0.242
       110  -9.1583     21.6520    166.6783   1.4250087836e+02   3.7850756383e+01     0.117972   0.07941801 -49.14 -8.750715e-06    1.740    0.425
       111 -10.7182     52.5367    163.5845   1.3521941518e+02   3.5227355512e+01    0.4816695     0.260227 -34.05   0.00194236    3.676    0.728
       112 -10.8067     40.9419    165.1582   1.3807634056e+02   3.6217158245e+01    0.1973272    0.1422508  79.72 0.0005386699    1.303    0.233
       113  -9.6346      9.9835    165.2561   1.4483868296e+02   3.9207436670e+01     0.157085    0.1215872 -88.42 0.0002849916    1.048    0.046
       114  -9.0999    229.4870    164.5257   9.5809452143e+01   2.0883198039e+00    0.1426709    0.1299744  -9.24 0.0001462038    1.041    0.039
       115  -9.7638     45.3158    164.3176   1.3697751466e+02   3.5915345474e+01    0.1240825   0.08984278 -45.49 0.0007038515    1.652    0.395
       116 -10.6173     36.3557    161.4780   1.3866068068e+02   3.7562627479e+01    0.4449525    0.1212876 -64.03  0.001760654    2.823    0.646
       117 -10.3769    246.4269    162.2497   9.2301444167e+01  -7.2008385247e-01    0.2156638    0.1266461 -36.42  0.000499698    1.566    0.361
       118 -10.9774    248.1195    158.6471   9.1244108715e+01  -4.1665652531e-01    0.2801667    0.2355877 -37.76   0.00112923    1.140    0.123
       119  -9.8692    238.5896    158.2227   9.2808432428e+01   1.4496561081e+00    0.2072014     0.125193 -26.61 0.0009481955    1.740    0.425
       120 -10.8550     22.3055    155.9358   1.4118867157e+02   4.0218518324e+01    0.3400777     0.227371  52.19  0.002128838    1.602    0.376
       121  -9.5896     23.7055    152.6670   1.4049061364e+02   4.0834310618e+01    0.2109773    0.1162057 -60.87 0.0006055451    1.529    0.346
       122  -9.0777    235.6775    154.6957   9.2559716679e+01   2.6380993919e+00    0.1439524    0.1077575   2.55 0.0004388057    1.637    0.389
       123  -9.6820    216.7547    154.7797   9.6070441712e+01   6.4302046354e+00     0.230733     0.119031  56.82 0.0008816507    2.444    0.591
       124  -9.9202    205.2655    152.2313   9.7740116609e+01   9.3305504940e+00    0.2743838    0.1839307 -36.17  0.001262453    1.485    0.327
       125  -9.3904    151.5323    153.0572   1.0954549906e+02   2.0760307220e+01    0.2167815    0.1346454 -72.36 0.0008079194    2.439    0.590
       126 -10.3153     12.1402    152.9017   1.4313878868e+02   4.1784046618e+01    0.2896523     0.127675  31.64   0.00154446    2.692    0.628
       127 -10.4596    178.1956    151.4307   1.0318786415e+02   1.5356025968e+01    0.3345378    0.2725885  77.24  0.001612691    1.468    0.319
       128  -9.3692     46.1487    151.1344   1.3498823359e+02   3.8888013041e+01    0.1753644    0.1322838  78.54 0.0003942926    1.322    0.244
       129  -9.6146     92.9829    148.2296   1.2283710163e+02   3.3072796619e+01    0.1857163    0.1195744  41.20 0.0007976477    1.641    0.391
       130  -9.3240    233.5190    146.9824   9.1245961823e+01   4.4536047953e+00    0.2236611     0.133559 -37.01  0.001023559    1.569    0.363
       131 -10.3398    207.0049    145.9819   9.5978502332e+01   1.0177334989e+01    0.2269241    0.2229108   2.05 0.0007600153    1.028    0.027
       132 -11.0420      7.8742    145.1184   1.4327063487e+02   4.3863766851e+01    0.2072376    0.1496328  40.84  0.001088029    1.658    0.397
       133 -10.7025      3.4242    143.1860   1.4408224315e+02   4.4620452182e+01    0.2201086    0.1449944 -54.02 0.0008871264    1.489    0.328
       134 -10.0337    212.8417    141.8120   9.3889821414e+01   9.7279531531e+00    0.4112803    0.2265015 -15.80  0.001301524    3.823    0.738
       135  -9.4225     37.9543    142.2269   1.3571272016e+02   4.1854107055e+01    0.1492857    0.1055873  35.81 0.0008795114    1.667    0.400
       136 -10.4558    236.3929    138.7931   8.8915299220e+01   5.3573988480e+00    0.2519991    0.2172266 -74.70 0.0005621872    1.383    0.277
       137 -10.9147     57.7421    138.7260   1.3013683786e+02   4.0427480012e+01    0.2504771    0.2002451  83.21 0.0004923108    1.291    0.225
       138  -8.8788     16.6515    139.6925   1.4058372560e+02   4.4398881753e+01    0.1211634   0.07597354 -46.69 0.0004579233    1.705    0.414
       139 -11.7066      3.5669    136.4007   1.4331574937e+02   4.6119999916e+01    0.5349541    0.1940314 -52.80  0.001963637    2.452    0.592
       140 -11.9519      9.1124    136.8002   1.4204371073e+02   4.5636011252e+01    0.2239702    0.1702926 -62.40 0.0002519451    1.183    0.154
       141  -9.8370     40.8110    135.6562   1.3400359281e+02   4.3086191598e+01    0.1695582    0.1554467 -23.49 0.0009051475    1.362    0.266
       142 -10.2827     21.8504    136.0977   1.3885487445e+02   4.4783654841e+01    0.1905797    0.1412315  86.41 0.0008177497    1.298    0.230
       143  -9.9302    138.3230    135.2692   1.0865231284e+02   2.7536534351e+01    0.2872819     0.189878  33.27 0.0008539708    1.740    0.425
       144 -12.1936     36.6353    130.8052   1.3432522221e+02   4.4638575596e+01    0.3816456     0.289897 -71.26  0.001905495    1.098    0.089
       145 -10.3363    249.5900    129.9075   8.4741790809e+01   4.2975822390e+00      0.25385    0.2160198  67.19  0.001064999    1.376    0.273
       146  -9.8763     73.9561    129.4732   1.2412263142e+02   4.0443688682e+01     0.219087    0.1723878 -59.31 0.0005919321    1.134    0.118
       147  -9.4728     29.1598    130.6038   1.3623449543e+02   4.5397185786e+01    0.1417581    0.1181198 -13.68 0.0003002476    1.600    0.375
       148  -9.3837    243.0041    128.4702   8.5485301644e+01   5.8699819310e+00     0.192413    0.1428239  52.44 0.0004753536    1.487    0.328
       149  -9.4956     60.2168    128.4718   1.2764346460e+02   4.2529093254e+01    0.1662623    0.1248719  54.01 0.0003946037    1.495    0.331
       150 -10.3389    219.6219    124.4772   8.8588208602e+01   1.1558610548e+01    0.2676517    0.2449469 -20.17 0.0005621793    1.134    0.118
       151 -11.6459     10.5289    122.5653   1.3990201121e+02   4.8725098923e+01    0.3859789    0.2701508 -17.86  0.002452085    2.002    0.501
       152 -11.3360     17.5766    116.4110   1.3716060606e+02   4.9588199856e+01    0.3374584    0.2226724 -53.77  0.001378294    1.286    0.222
       153 -10.3055     20.1493    112.7958   1.3589240682e+02   5.0200581168e+01    0.1870566    0.1403119 -50.96  0.000576382    1.202    0.168
       154 -12.3127     16.7926    108.4818   1.3613225269e+02   5.1414621677e+01    0.3380647    0.3003743 -60.84  0.002460907    1.138    0.121
       155  -9.4595     20.5310    121.5537   1.3714397444e+02   4.8199867843e+01    0.1229852   0.09662467 -65.95 0.0001406755    1.023    0.022
       156  -9.6029    221.6371    120.1688   8.7211715866e+01   1.1922925737e+01    0.2161814    0.1357206 -29.61 0.0009426695    1.712    0.416
       157  -9.5539     55.3054    117.3578   1.2684982148e+02   4.5716131358e+01     0.140272   0.09065186 -36.37 0.0006545287    1.723    0.420
       158 -10.0589    179.3125    116.2386   9.4487797134e+01   2.2422464798e+01    0.2563654     0.209543  40.27 0.0005930036    1.287    0.223
       159  -9.1581     96.2831    115.6905   1.1494174586e+02   4.0126880554e+01    0.1435336     0.113442 -89.44 0.0006982594    1.567    0.362
       160 -10.7944     66.5254    113.1951   1.2278209609e+02   4.5252848245e+01    0.2936764    0.2214729  -0.10 -0.0001218436    1.781    0.438
       161 -11.4168     35.9786    110.9404   1.3111271375e+02   4.9252766419e+01    0.5414443    0.2444335 -59.49  0.001758476    1.768    0.434
       162  -9.5849    167.4773    108.9957   9.5198063160e+01   2.6678140768e+01    0.2379871    0.1537114 -41.36  0.000549888    1.538    0.350
       163  -9.6178    117.1909    108.8253   1.0750810281e+02   3.7783607485e+01    0.2013608    0.1750144  -9.51  0.001026541    1.320    0.242
       164 -10.2337    242.0016    108.1826   8.1045122897e+01   9.6783409810e+00    0.2297815       0.1611 -82.93 0.0006786507    1.950    0.487
       165 -12.2193     61.9792    107.2636   1.2279092615e+02   4.7194699381e+01    0.2677784    0.2185425 -51.93 0.0003780427    1.067    0.063
       166 -11.4354     23.7050    107.2505   1.3396435421e+02   5.1157185326e+01    0.2857416    0.2218077 -87.81 0.0009087683    1.369    0.270
       167  -9.5196    133.4633    107.5055   1.0291191002e+02   3.4701009549e+01    0.1533434    0.1490114 -22.96 0.0001536313    1.052    0.049
       168 -10.2455     76.4335    107.0629   1.1851030750e+02   4.5252379561e+01    0.2198198    0.1254071 -53.17 0.0004200498    1.583    0.368
       169 -11.0353      3.5239    100.7530   1.3866125967e+02   5.3975749812e+01    0.2505888    0.2036273 -82.13  0.001012174    1.224    0.183
       170 -10.3795      6.2998    106.3105   1.3872472292e+02   5.2601614854e+01    0.2616614    0.1437559 -52.32  0.000996993    1.476    0.322
       171 -10.9612      2.8398    105.1592   1.3951350960e+02   5.3060936879e+01    0.2063593    0.1580225 -57.01 0.0004478743    1.113    0.101
       172  -9.8153    223.3289    103.9760   8.3066387088e+01   1.4529707711e+01    0.2132994    0.1780298 -45.55 0.0005275039    1.121    0.108
       173 -11.5917     70.3295    102.5692   1.1922890371e+02   4.7130510798e+01    0.3583324    0.2501851  16.95 0.0004577213    1.799    0.444
       174 -10.7531    247.9458    102.2940   7.8813387921e+01   9.4481976499e+00    0.1941411    0.1836193 -70.39 0.0009356817    1.083    0.077
       175  -9.6514     10.0082    102.2459   1.3704727588e+02   5.3253613690e+01    0.1592338    0.1328326 -55.15  0.001144938    1.118    0.106
       176  -9.7104    120.1799    101.2429   1.0468608753e+02   3.8816975907e+01    0.2478261    0.1650424  -0.78 0.0008054839    2.706    0.630
       177  -9.9623     91.6303    101.2066   1.1262918738e+02   4.4151473853e+01    0.2042309    0.1239189 -40.51 0.0002939858    1.604    0.377
       178 -10.0455     36.4989    101.4258   1.2911950713e+02   5.1332304996e+01    0.2847963    0.1411871  36.75  0.001440581    2.370    0.578
       179 -10.5706     27.6719    100.9208   1.3165476108e+02   5.2232905411e+01    0.1767976    0.1738333  61.98 0.0001820214    1.246    0.197
       180 -11.8898     50.5139     99.3331   1.2444031791e+02   5.0343083411e+01    0.2303438    0.2002737 -53.31 0.0002912859    1.037    0.035
       181 -11.1116     62.1701     98.5746   1.2072072852e+02   4.9105350703e+01    0.2641235    0.1922529 -30.02 0.0008417682    1.454    0.312
       182 -11.1855     20.8196     95.0026   1.3258702953e+02   5.4071874595e+01    0.5159697     0.107669 -60.48  0.001644094    3.338    0.700
       183  -9.9278      3.4407     85.9921   1.3624838007e+02   5.7123549773e+01    0.2435101    0.1643425  21.63  0.001650483    1.895    0.472
       184 -11.0568      8.2361     94.9587   1.3635608028e+02   5.4941970835e+01    0.2906584     0.171136 -40.31  0.001103579    1.620    0.383
       185 -11.1700     10.9491     91.0459   1.3485335737e+02   5.5608858856e+01    0.2808121    0.1745685  14.12  0.001243242    2.072    0.517
       186 -10.4524      7.0183     88.7637   1.3564279375e+02   5.6335452575e+01    0.1737472    0.1314238 -61.57 0.0002788906    1.061    0.057
       187 -10.4859      1.4929     93.8033   1.3815528851e+02   5.5580198095e+01    0.3096065   0.07124351 -62.88  0.001308546    2.785    0.641
       188 -10.0741    227.1517     93.1999   7.9867562406e+01   1.5583493534e+01    0.2022322    0.1986305 -23.88 0.0003871399    1.139    0.122
       189 -10.4037    109.4040     92.6622   1.0524865013e+02   4.2752001770e+01    0.3434008    0.1382076 -45.53  0.001250382    2.400    0.583
       190 -10.8548     38.6811     96.1756   1.2736394019e+02   5.2277961703e+01    0.2075534    0.1967703 -53.94 0.0003247049    1.147    0.128
       191  -9.5323    171.3268     91.3231   8.9643978186e+01   2.9238870644e+01    0.1578719    0.1235671  14.36 1.618713e-05    1.690    0.408
       192 -10.9014     96.3156     90.3438   1.0832601659e+02   4.5654782477e+01    0.3733343    0.2170309  -8.15  0.001167886    4.491    0.777
       193  -9.3701     73.0359     88.7406   1.1488323586e+02   4.9738229722e+01    0.1527762    0.1189009  33.02 0.0002656416    1.410    0.291
       194 -10.0926     49.2065     87.9404   1.2217349515e+02   5.2957849340e+01    0.2243417    0.1533031 -59.66 0.0004175003    1.389    0.280
       195 -10.9769     46.3791     82.6921   1.2177845089e+02   5.4371502528e+01    0.5140122    0.2473313 -55.06  0.002496512    1.826    0.452
       196 -10.1145    112.7331     86.4518   1.0254598932e+02   4.3359504111e+01    0.2870788        0.143  50.47  0.001136541    2.224    0.550
       197 -10.3871     23.9132     85.5649   1.2972221734e+02   5.5853350199e+01    0.2891196    0.1312985 -36.74  0.001411193    2.289    0.563
       198 -10.9818     67.3315     85.0022   1.1565470050e+02   5.1323580248e+01     0.213957    0.1788815 -11.24 0.0006675352    1.259    0.206
       199 -11.0343    118.2317     83.0300   1.0003995124e+02   4.2919193400e+01    0.3551541    0.2748733  -8.46  0.001318252    1.563    0.360
       200 -12.0298     19.7191     81.7672   1.3026246493e+02   5.6967773025e+01    0.5242823    0.3696072 -12.15 0.0008914385    1.669    0.401
       201 -10.3534     15.5635     81.5188   1.3155631090e+02   5.7313068557e+01    0.3629633    0.1393457 -50.26  0.001833647    1.917    0.478
       202 -10.9715     85.2926     80.9103   1.0891117457e+02   4.9451930276e+01    0.3129238    0.2186102 -40.47 0.0008800589    1.326    0.246
       203 -12.2810     72.3250     78.8504   1.1235353419e+02   5.1871245059e+01     0.454008    0.3690524 -18.68 0.0005899729    1.229    0.186
       204 -11.1898     77.8116     71.8567   1.0853772798e+02   5.2412275479e+01    0.3857362    0.2821665  53.52 0.0007677102    1.763    0.433
       205  -9.9083     29.8883     81.7888   1.2695143995e+02   5.6155541153e+01    0.1784562    0.1339093 -41.65 0.0004506854    1.125    0.111
       206  -9.3842    126.4025     80.4885   9.7120150363e+01   4.1683841567e+01    0.1460326    0.1418436 -26.59 -3.588647e-05    1.028    0.027
       207 -10.3420      2.4030     71.7967   1.3388458140e+02   6.0096668062e+01    0.2566202    0.1354062 -52.67  0.001396407    1.368    0.269
       208 -12.3190      3.3685     77.4513   1.3468853832e+02   5.8897253509e+01    0.3559358    0.3058183 -49.52 7.317253e-05    1.145    0.126
       209 -10.9734      8.1819     73.5960   1.3232650933e+02   5.9410227538e+01    0.2832546    0.2165177  -5.45  0.002029351    1.531    0.347
       210 -12.3993     61.8189     73.0046   1.1406248485e+02   5.4486135766e+01    0.6359134    0.4128552 -25.42  0.002110249    1.628    0.386
       211 -10.3935     54.5450     72.4311   1.1631724193e+02   5.5518332208e+01     0.192611    0.1751729 -31.54 0.0005406947    1.097    0.089
       212 -11.4757    150.9823     78.4902   9.0523592683e+01   3.6487660976e+01    0.2986468    0.2679497 -62.71 0.0004737287    1.180    0.153
       213  -9.9890    121.5916     76.2300   9.7105185291e+01   4.3505764969e+01    0.2047313    0.1387578 -28.43 0.0007300844    1.579    0.367
       214 -11.3363    108.6117     75.2694   1.0035754125e+02   4.6332852770e+01    0.4456829    0.2862786  -6.64  0.001760818    2.473    0.596
       215 -10.5703     40.4964     72.9212   1.2120281571e+02   5.6980173253e+01    0.3308846     0.212967 -54.87  0.001119603    1.421    0.296
       216 -10.8380     36.9485     67.9548   1.2108414111e+02   5.8313494586e+01    0.3636317    0.1973182 -39.84  0.001331509    1.561    0.359
       217 -11.0582     46.6845     70.3355   1.1838473455e+02   5.6839561259e+01    0.2080097    0.1701607 -52.98 0.0006595567    1.241    0.194
       218 -11.5251     50.9833     67.9690   1.1623753709e+02   5.6811945399e+01    0.4089521    0.2170244 -30.16  0.001995566    2.013    0.503
       219  -9.9522    102.7506     73.1824   1.0138472226e+02   4.7852977820e+01    0.1976559    0.1611822   6.23 0.0007939276    1.340    0.254
       220 -10.8937     26.4162     70.1726   1.2532379987e+02   5.8816180776e+01    0.4228384    0.2657591 -83.37  0.002127295    2.816    0.645
       221 -11.1279     21.0282     65.8834   1.2612495738e+02   6.0088233212e+01    0.2633989     0.172699  19.25  0.001685178    1.799    0.444
       222 -10.5725    152.3088     72.1555   8.8379777881e+01   3.7295966125e+01    0.2618175    0.1986077  44.21 0.0007956101    1.314    0.239
       223 -10.2076    115.9929     71.3793   9.7119624120e+01   4.5559439218e+01    0.2683793    0.2078922 -28.10 0.0006507189    1.306    0.234
       224  -9.4740     16.4873     72.2358   1.2922683791e+02   5.9152415931e+01    0.1569978   0.09856316 -67.81  0.000934167    1.617    0.382
       225 -10.0262    175.0310     70.9360   8.3281913825e+01   3.1987276494e+01    0.2195507    0.2167231  88.85 0.0003903305    1.046    0.044
       226 -11.6207     95.4777     68.1652   1.0194681304e+02   5.0121767015e+01    0.5283461    0.3192089 -20.01  0.002340869    2.114    0.527
       227 -10.9586     68.7776     67.4742   1.1011001933e+02   5.4590698146e+01    0.3996026    0.2062922 -38.85  0.001468539    1.772    0.436
       228 -10.8559    160.1008     69.6110   8.5943231649e+01   3.5861093410e+01    0.3849294    0.2361639  80.06   0.00149087    2.484    0.597
       229 -10.6080    130.2161     69.1914   9.2729298371e+01   4.2900129647e+01    0.3844752     0.244265  31.25  0.001701253    1.832    0.454
       230 -10.5898    130.1087     64.2506   9.1229265257e+01   4.3766828047e+01    0.2994594    0.2015789 -44.02 0.0002489555    1.560    0.359
       231 -11.8176     43.0695     66.1089   1.1843423355e+02   5.8051953150e+01    0.3527936    0.2458598 -61.81   0.00181395    1.660    0.398
       232 -11.3447     31.0698     66.2411   1.2267820833e+02   5.9193940707e+01    0.2636442     0.198404 -56.13 0.0004341434    1.297    0.229
       233 -10.1660      6.6994     67.8714   1.3159562893e+02   6.0645123250e+01    0.1768712    0.1284488 -30.56 0.0006399056    1.298    0.230
       234  -8.9378    150.6964     66.7361   8.7142966537e+01   3.8601874952e+01    0.1463832    0.1129738  24.41 0.0001502189    1.522    0.343
       235 -11.2013    105.8140     64.4158   9.7745266664e+01   4.8835731815e+01    0.3790687     0.223711 -37.28  0.001551233    1.670    0.401
       236 -11.4805      2.9832     63.7429   1.3197157893e+02   6.1664465939e+01    0.3625667    0.2518363 -67.50  0.001713705    1.413    0.292
       237 -11.3224    140.8399     63.8464   8.8518436468e+01   4.1395788990e+01    0.4190995    0.2685133  39.39  0.001198629    1.619    0.382
       238 -10.4571    121.3574     62.3191   9.2848536400e+01   4.6000847605e+01    0.3171133    0.2227427  -2.49  0.001474557    1.877    0.467
       239 -11.2879     83.8211     62.5122   1.0369677150e+02   5.3162059063e+01     0.451245    0.3364907 -56.18  0.001851947    1.662    0.398
       240 -10.2006     86.2848     58.6298   1.0165406072e+02   5.3419799613e+01    0.2456447    0.2030669 -34.61 0.0006046428    1.186    0.157
       241 -10.3764     77.1494     65.3993   1.0674053052e+02   5.3720753185e+01    0.2462443    0.1666187  50.74  0.001271488    1.875    0.467
       242 -10.3818    173.8721     63.5161   8.1437388621e+01   3.3493825380e+01    0.3167519    0.2100348 -48.42  0.001470566    1.570    0.363
       243 -10.5982     51.7017     62.5412   1.1437101954e+02   5.7756578314e+01    0.2472787    0.1781885 -21.63 0.0008683595    1.330    0.248
       244 -11.3689     10.8495     62.6235   1.2892968695e+02   6.1427272543e+01    0.2236813    0.1734928 -37.35 0.0004027084    1.091    0.083
       245  -9.7959     56.4451     62.4637   1.1270699403e+02   5.7187927011e+01    0.1758045    0.1120134 -51.42 2.441752e-05    1.606    0.377
       246 -10.9907     58.1768     58.3632   1.1081632437e+02   5.7712710467e+01    0.3276958    0.1861607 -44.66  0.001729739    1.614    0.381
       247 -11.2559     27.3506     61.2840   1.2265580790e+02   6.0473000459e+01    0.3511581    0.1913471  14.18  0.001972285    2.211    0.548
       248 -10.5338     33.0206     60.0690   1.2026733996e+02   6.0200537430e+01    0.2910911    0.1869275 -18.55  0.001214164    1.638    0.390
       249  -9.7053    183.8069     61.2280   7.8979416212e+01   3.1398794976e+01    0.1998831    0.1683297  37.05 0.0005189722    1.329    0.247
       250  -9.8129     93.0452     61.2446   1.0044808633e+02   5.1783702627e+01     0.187559    0.1691858  10.99 0.0004125165    1.061    0.057
       251 -10.6115     70.5501     59.0452   1.0684610793e+02   5.5866345350e+01    0.4763977    0.2088187 -43.95  0.002126805    2.154    0.536
       252 -10.8212     64.4678     59.9922   1.0918934643e+02   5.6572896078e+01    0.3019444    0.1795944  34.70  0.001148278    1.801    0.445
       253  -9.7807     18.2894     59.4581   1.2544780769e+02   6.1533673090e+01    0.1903672    0.1298092 -71.07 0.0007594386    1.848    0.459
       254 -10.8478    114.2378     57.5773   9.3205398876e+01   4.8279727809e+01    0.3954193    0.2579263  53.43  0.001529598    1.619    0.382
       255  -9.9380    137.5471     54.5311   8.6408724990e+01   4.3636732010e+01    0.2257327    0.2157665  18.06 0.0006448967    1.043    0.041
       256 -10.5757    123.3253     57.0098   9.0646700514e+01   4.6439127010e+01    0.3144877    0.1966472  73.19  0.001292858    2.571    0.611
       257 -12.1582    127.7859     52.1343   8.7968130472e+01   4.6212275319e+01    0.3936039    0.3093826 -24.00 0.0005737785    1.330    0.248
       258  -9.6435     80.8648     57.1423   1.0286365258e+02   5.4582828167e+01    0.1764322    0.1408296  -7.43 0.0003305437    1.230    0.187
       259  -9.1990    193.9954     56.0480   7.5866538847e+01   2.9675434320e+01    0.1709896    0.1561893  84.10 0.0003016866    1.023    0.023
       260 -11.1341     98.8398     55.7810   9.6922385330e+01   5.1628745189e+01    0.4496454    0.2466374  44.95  0.001387101    1.832    0.454
       261 -11.7967     38.1370     51.7856   1.1589148690e+02   6.1218454909e+01    0.5816153    0.3386046 -29.00  0.003326389    1.583    0.368
       262 -10.2546     44.9054     51.7356   1.1338778732e+02   6.0499220841e+01     0.235924    0.1858128 -27.59 0.0003671666    1.043    0.041
       263 -11.2826     46.1502     47.1023   1.1139379729e+02   6.1154167167e+01    0.2397644    0.1721057 -34.51 0.0002577002    1.194    0.162
       264 -11.3769      4.4299     52.4389   1.2874993860e+02   6.3746892436e+01    0.3600902     0.214086 -26.69  0.002370516    1.575    0.365
       265  -9.8360      7.0069     40.9405   1.2458826495e+02   6.5676518473e+01    0.1692622     0.106287 -36.07 0.0007619835    1.201    0.167
       266 -11.1563     12.6007     50.2088   1.2505956923e+02   6.3658241513e+01     0.366129    0.1511894 -44.87  0.001762144    1.780    0.438
       267 -12.4614      9.7826     45.4396   1.2479927354e+02   6.4705667037e+01    0.4712709    0.3190835 -25.92  0.001275372    1.278    0.217
       268  -9.8690    157.8418     52.1694   8.1309359837e+01   3.9176539670e+01    0.1983429    0.1633312  30.87 0.0003891417    1.323    0.244
       269 -10.8479     52.1964     49.2411   1.0991858531e+02   6.0064971976e+01    0.2984296    0.2140404   2.85  0.001815468    1.437    0.304
       270 -10.7923    134.9381     49.6002   8.5459928397e+01   4.4973507975e+01    0.3531834    0.2536905 -77.09  0.001582025    2.077    0.519
       271 -10.4506     73.3010     52.1652   1.0363411814e+02   5.6625508092e+01    0.3015959    0.2680566  79.77  0.001395727    1.707    0.414
       272 -10.8784    114.9579     48.9503   9.0170205754e+01   4.9466516542e+01    0.3348593    0.2413003  -7.32  0.001710815    1.608    0.378
       273 -11.2453    101.4570     47.8054   9.3467034331e+01   5.2373871028e+01    0.4771387    0.3199999  24.96  0.002174396    1.603    0.376
       274  -9.8250     98.7020     44.6215   9.3152624613e+01   5.3378545401e+01    0.2577949    0.1759575  20.74 0.0007072312    1.595    0.373
       275 -11.8377    142.9661     46.4189   8.2665663834e+01   4.3566640936e+01    0.4761689    0.3147779  62.03  0.001898341    1.521    0.343
       276 -10.1813     22.8683     46.2095   1.1992723641e+02   6.3613048251e+01    0.1578387    0.1297541 -35.88 0.0004781004    1.138    0.122
       277 -10.6580     87.1179     52.6307   9.9377015782e+01   5.4272420896e+01    0.1960161    0.1614216  46.65  0.001003356    1.375    0.272
       278  -9.3555    233.3517     45.2358   6.7753035118e+01   2.1802835739e+01    0.1792482    0.1115748 -47.45 0.0004622921    1.480    0.324
       279 -10.5982    122.7168     43.9283   8.6532687954e+01   4.8524163587e+01    0.3674119    0.3194003   8.90  0.001124038    1.167    0.143
       280  -9.3649     86.0143     45.2181   9.7143383306e+01   5.5624127565e+01    0.1655115    0.1018008  40.42 0.0003730764    1.609    0.378
       281 -10.5139     64.1447     41.5000   1.0297592988e+02   5.9702974763e+01    0.2470433    0.1746456 -32.92  0.001067244    1.319    0.242
       282  -9.9106    163.0176     42.4648   7.7459662918e+01   3.9288357882e+01     0.212369    0.1318954  61.30  0.000367523    1.505    0.336
       283  -9.7322     81.0222     46.9909   9.9334278143e+01   5.6209692501e+01    0.1570333    0.1367358  -5.10 0.0003268487    1.013    0.013
       284 -10.0095     56.5115     42.0161   1.0585002671e+02   6.0689179795e+01    0.1653337    0.1050272 -58.38 0.0008104107    2.682    0.627
       285  -9.4516     52.4464     42.4170   1.0746043640e+02   6.1157042226e+01    0.1230741   0.09966533 -13.17 0.0001181787    1.028    0.027
       286 -10.3092     23.8829     41.3787   1.1799210020e+02   6.4364212255e+01    0.1945419    0.1669066  -5.38  0.001461207    1.226    0.184
       287 -10.4226    226.3794     40.3328   6.7453691796e+01   2.4107488290e+01    0.2501357    0.1996064 -74.64 0.0005293124    1.135    0.119
       288 -10.6730     95.3862     40.1145   9.2522889459e+01   5.4656016833e+01    0.3093241    0.2544661  69.30  0.001161308    1.663    0.399
       289  -9.3412    235.5883     40.5250   6.6431654845e+01   2.1948012902e+01    0.1315069    0.1158275 -74.52 0.0003905837    1.056    0.053
       290 -10.5407     88.8737     38.6731   9.3930673399e+01   5.6065382966e+01    0.3181837    0.2400313 -67.30   0.00102515    2.294    0.564
       291 -11.7834     82.3873     36.5398   9.5142033711e+01   5.7513771382e+01    0.3443659    0.2910335   6.32  0.001338439    1.037    0.035
       292 -10.2173     44.0631     39.4820   1.0952020154e+02   6.2647004554e+01    0.2504016     0.150042 -40.14 0.0009970188    1.508    0.337
       293 -10.1031    159.1689     39.1596   7.7203905102e+01   4.0668777995e+01      0.20134     0.182763  43.01 0.0003448296    1.106    0.096
       294 -10.1331    119.6818     39.0343   8.5645895642e+01   4.9853060150e+01    0.1888726    0.1669115  -6.37 0.0004640595    1.151    0.131
       295 -11.0253     69.8843     36.6126   9.9221928645e+01   5.9564237649e+01    0.4882388    0.2765511 -11.66  0.002249453    2.235    0.553
       296 -10.0447     19.4412     37.9724   1.1864673605e+02   6.5306398220e+01     0.185036    0.1278143 -11.88 0.0005322932    1.351    0.260
       297 -11.3735     24.5309     35.5031   1.1575522865e+02   6.5285324277e+01    0.2554505    0.2208803  11.64 0.0007035179    1.365    0.267
       298 -10.5977      1.4486     31.8140   1.2409617089e+02   6.7568292670e+01    0.1651649   0.09342598 -40.09 0.0009660913    1.277    0.217
       299 -10.6837      1.8805     37.7037   1.2570777665e+02   6.6540844124e+01      0.24587     0.114125 -28.51 0.0006829625    1.972    0.493
       300 -10.2432      9.1661     33.0303   1.2124283168e+02   6.6886773635e+01    0.3110971    0.1900057 -64.50  0.001851332    2.415    0.586
       301 -10.8753      5.0090     32.9979   1.2297246119e+02   6.7159517756e+01    0.3357616    0.1632164 -33.48  0.002078274    1.636    0.389
       302 -10.9637      9.4973     25.3667   1.1848661860e+02   6.8100310470e+01    0.4201802     0.174865 -26.61  0.002228808    2.414    0.586
       303 -10.2068      8.2832     21.6161   1.1766153088e+02   6.8766530685e+01    0.1911645    0.1382003 -46.14 0.0005947355    1.477    0.323
       304 -10.3302    103.6013     36.8439   8.9054055416e+01   5.3501089551e+01     0.340603    0.1750042  47.82  0.001520327    1.835    0.455
       305 -10.5428    106.3149     34.0163   8.7328524194e+01   5.3321138474e+01    0.2762415     0.250218 -37.64  0.001165596    1.271    0.213
       306  -9.8702    142.1846     36.1593   7.9625411894e+01   4.5125550190e+01    0.1827709    0.1592037 -70.97 0.0003614204    1.323    0.244
       307 -10.0187     56.5420     36.0504   1.0365687869e+02   6.1598587464e+01    0.1826658    0.1063553 -34.98  0.001022894    1.572    0.364
       308  -9.9612    111.0179     35.0118   8.6449671365e+01   5.2223060910e+01    0.1934431    0.1797183  20.30   0.00036105    1.053    0.051
       309 -10.4828     78.7875     29.8561   9.3774827472e+01   5.9030387280e+01    0.3555949    0.1802842 -17.03  0.001642539    2.400    0.583
       310 -10.1614     82.3242     29.6641   9.2599194268e+01   5.8441407755e+01    0.2408155    0.1899313 -59.41  0.001093236    1.987    0.497
       311  -9.3964     61.0212     33.9573   1.0127520661e+02   6.1275574889e+01    0.1445115    0.1195865  -0.37 0.0003478102    1.031    0.030
       312 -10.1408     31.9881     33.9397   1.1220843573e+02   6.4831009694e+01    0.2324905    0.1408755  17.47  0.001187037    1.719    0.418
       313 -10.1337    145.1437     31.7640   7.7654676002e+01   4.4972111147e+01    0.1937522    0.1740117  72.07 0.0003521694    1.121    0.108
       314 -10.1276     97.6649     31.8073   8.8890641317e+01   5.5325527064e+01     0.185848    0.1472926  22.83 0.0005542515    1.162    0.140
       315 -10.1337     55.8711     31.8684   1.0231968251e+02   6.2299686723e+01    0.1940515    0.1404007  -6.97 0.0006717568    1.253    0.202
       316  -9.6894    178.2536     31.2124   7.1691813633e+01   3.6990214408e+01     0.192946    0.1505613 -76.52  0.000785927    1.354    0.261
       317 -10.5461     77.0539     33.6591   9.5761587838e+01   5.8818530100e+01    0.2602904    0.1628741  22.49 0.0007703601    1.654    0.395
       318 -10.8032     54.3381     23.3652   9.9541418746e+01   6.3671741693e+01     0.249999    0.1766372   6.56 0.0006393723    1.290    0.225
       319 -10.1790    137.0423    247.5264   1.2875254902e+02   4.5433828564e+00    0.1751375     0.160723  80.49 0.0005610362    1.178    0.151
       320 -10.3927    124.9059     27.9569   8.0694206690e+01   5.0082142090e+01    0.1971974    0.1711246  34.51 0.0002727728    1.056    0.053
       321  -9.8081    172.5174     27.4694   7.1552446129e+01   3.8853185464e+01    0.1381415    0.1224869  83.75 0.0002128086    1.067    0.063
       322 -11.0732     71.0585     26.0248   9.4792761606e+01   6.0808357114e+01    0.3766174    0.2053845  27.23  0.001967571    1.877    0.467
       323  -9.4485    179.8333     25.8295   6.9988167246e+01   3.7247871858e+01    0.1859279    0.1472956 -75.84 0.0002735722    1.301    0.232
       324  -9.5026     90.5119     26.5548   8.8987187920e+01   5.7339050981e+01    0.1275245    0.1103895  17.53 9.368537e-05    1.021    0.020
       325 -11.5541     60.8679     23.8720   9.7408268190e+01   6.2665633133e+01    0.4112523    0.1960763 -44.84  0.001941281    2.908    0.656
       326 -10.2251    113.0778     25.1035   8.2479979297e+01   5.2984576090e+01    0.1953825    0.1742557  41.20 0.0006019065    1.074    0.069
       327 -10.3037    100.0476     22.1308   8.4712241587e+01   5.6003296203e+01    0.2082646    0.1885057 -21.88 0.0005610355    1.234    0.190
       328 -10.9006     84.6515     22.0787   8.9004763733e+01   5.8946216010e+01    0.3434946     0.203933  11.05  0.001744885    2.034    0.508
       329 -10.7503     35.1360     21.4096   1.0614487492e+02   6.6346053281e+01    0.2993476    0.1568837 -30.84  0.001062314    1.633    0.387
       330 -10.8315      6.1428    245.2305   1.5114717095e+02   2.3208223007e+01    0.3057169    0.1407389  79.53  0.001345186    1.758    0.431
       331 -10.3212    124.0503     21.9332   7.8862078390e+01   5.0945340492e+01    0.1946129    0.1715497  41.03 0.0003070755    1.004    0.004
       332 -11.1605     65.6358     21.5738   9.4844218815e+01   6.2224444638e+01    0.2741973    0.1806778  29.92  0.000744372    1.391    0.281
       333  -9.7034    137.1713     20.1896   7.5575011289e+01   4.8147632736e+01    0.1727494    0.1504242 -86.68 0.0002356438    1.307    0.235
       334  -9.1389     45.5230     20.5247   1.0168758011e+02   6.5219883158e+01    0.1181244   0.09085375  -4.42 0.0008095325    1.030    0.030
       335 -11.7252      8.4767    241.3712   1.5058409233e+02   2.3680569651e+01    0.3783379    0.1716447  76.45  0.002312685    1.830    0.453
       336 -10.1381    107.8895     17.9420   8.1203703723e+01   5.4849750553e+01    0.2656476    0.1933579   3.29 0.0008763406    1.472    0.321
       337 -10.1320    104.2064     18.6924   8.2385028956e+01   5.5532724575e+01    0.2339087    0.1430008  13.72 0.0006918942    1.962    0.490
       338 -12.1114    225.9500    245.9375   1.1195674106e+02  -1.0082418558e+01     0.634078    0.3693599   3.30  0.003198066    2.412    0.585
       339 -11.1954    178.5360    243.6360   1.2037540821e+02  -1.9320284005e+00     0.417918    0.1330439  45.39  0.001644946    2.758    0.637
       340  -9.2620     50.4813     18.5856   9.9013974700e+01   6.4811856638e+01    0.1178146   0.09162553   0.97 7.625938e-05    1.028    0.028
       341 -10.3472    148.3094    244.3262   1.2620858831e+02   3.1652897546e+00     0.120436    0.0962428  12.94 0.0004891671    1.657    0.396
       342  -9.8659     18.5482     18.8398   1.1208831295e+02   6.8362531644e+01    0.2402395    0.1127952  19.25  0.001405833    2.264    0.558
       343 -10.0853     20.0282     15.4580   1.1007823695e+02   6.8704506051e+01    0.2130006    0.1666919  18.57  0.001107147    1.454    0.312
       344 -10.1447     82.0650     16.3476   8.7545140844e+01   6.0048938503e+01    0.1936537    0.1458188   2.54 0.0003340757    1.246    0.197
       345 -10.7499    135.5384     16.5229   7.4717908183e+01   4.8900484465e+01     0.253599   0.09064902  50.75 0.0009944306    2.324    0.570
       346 -10.5713     13.5127     33.4805   1.1958091071e+02   6.6507128642e+01    0.2685058    0.1426664  42.40  0.001467074    3.283    0.695
       347 -10.0317     10.0049     15.9138   1.1472003600e+02   6.9486274091e+01    0.1910058    0.1126868 -12.04  0.001180449    1.535    0.349
       348 -10.0866     99.8587     14.0349   8.1774316215e+01   5.6887276445e+01    0.1930557    0.1639746  24.75 0.0009386181    1.030    0.029
       349  -9.6135    115.5175    244.5132   1.3240452634e+02   8.6429768385e+00    0.1264293     0.102079  60.59 4.517028e-05    1.006    0.006
       350 -10.2766    109.7708    243.2095   1.3332234759e+02   9.8095396228e+00    0.2820854    0.1682695  69.97  0.001240642    1.834    0.455
       351 -10.2323     72.1293    243.7956   1.4020947615e+02   1.5421862503e+01    0.2105944    0.1604272  69.60  0.001069985    1.005    0.005
       352  -9.2326     90.2825     12.7388   8.3804912386e+01   5.8892435904e+01    0.1037053   0.09762128 -83.70  0.000284324    1.481    0.325
       353 -11.8586     34.6483    241.2808   1.4640308081e+02   2.0791825311e+01    0.4469651    0.2501768  48.04  0.002901763    1.613    0.380
       354  -9.4721     24.4637    232.4762   1.4748287483e+02   2.3654205358e+01    0.1791809   0.09281616  44.71  0.001079496    1.844    0.458
       355 -10.2818     31.7933    237.1427   1.4658638462e+02   2.1916961774e+01    0.2268892    0.1481774  71.82 0.0007316486    1.154    0.133
       356 -10.2923     29.0343    233.0023   1.4675701669e+02   2.3035175347e+01    0.2967643     0.138004  61.33  0.001724473    1.809    0.447
       357  -9.1097     51.3105     11.3237   9.5644950730e+01   6.5556507363e+01    0.1208327   0.07344811   6.50 0.0004431179    1.654    0.395
       358 -11.7965    156.1440    241.4629   1.2431979294e+02   2.2906823202e+00    0.3197324    0.2229638  33.46  0.001154095    1.396    0.284
       359 -11.7497     19.3751    238.2560   1.4868722068e+02   2.3108234717e+01    0.4184681    0.2589256  42.79  0.002902242    1.756    0.430
       360 -11.4708     73.9759    238.3267   1.3937009071e+02   1.6194971229e+01    0.4355656     0.298624  62.03  0.002400133    1.180    0.152
       361  -9.3361     50.2873    240.3319   1.4370673528e+02   1.9035020396e+01   0.09778766   0.08550916 -63.19 0.0003483216    1.622    0.383
       362 -10.3700    174.4944    238.4846   1.2036576993e+02  -4.2108662135e-01    0.2463641    0.1902209  35.00  0.001189707    1.145    0.127
       363 -10.9460    177.6665    234.9426   1.1920923198e+02  -4.0647550967e-01      0.28917    0.2309684   7.56  0.001330198    1.472    0.321
       364  -9.6458    195.2837    238.6023   1.1642546765e+02  -4.0342243110e+00     0.189238    0.1041526  33.03 0.0009559125    1.672    0.402
       365 -10.6496    159.7639    235.8621   1.2281317043e+02   2.5975362118e+00    0.2302092     0.160228  35.17 0.0008162711    1.349    0.259
       366 -10.9944     73.7246    233.0166   1.3890065064e+02   1.7258820220e+01    0.2646916     0.177773  53.01  0.001050217    1.289    0.224
       367 -11.3533    153.3735    233.8058   1.2375424652e+02   4.0777492032e+00    0.2571821    0.1985878 -30.76   0.00102782    1.683    0.406
       368  -9.5529     53.6759    234.6838   1.4265556412e+02   1.9684266557e+01   0.09948698   0.09030563 -55.16 0.0007043268    1.667    0.400
       369  -9.9593     79.5808    231.3700   1.3765202069e+02   1.6729270554e+01    0.2150038    0.1334604  45.02 0.0005875273    1.512    0.339
       370  -9.7849     88.6369    241.1825   1.3699563416e+02   1.3491213632e+01    0.1562789    0.1054155 -58.78 0.0009422331    1.730    0.422
       371  -9.4795    235.8273    230.4226   1.0753590013e+02  -9.5459017166e+00     0.167835    0.1010701  26.64 0.0004472868    1.536    0.349
