#   1 NUMBER                 Running object number                                     
#   2 MAG_AUTO               Kron-like elliptical aperture magnitude                    [mag]
#   3 X_IMAGE                Object position along x                                    [pixel]
#   4 Y_IMAGE                Object position along y                                    [pixel]
#   5 X_WORLD                Barycenter position along world x axis                     [deg]
#   6 Y_WORLD                Barycenter position along world y axis                     [deg]
#   7 A_WORLD                Profile RMS along major axis (world units)                 [deg]
#   8 B_WORLD                Profile RMS along minor axis (world units)                 [deg]
#   9 THETA_WORLD            Position angle (CCW/world-x)                               [deg]
#  10 FWHM_WORLD             FWHM assuming a gaussian core                              [deg]
#  11 ELONGATION             A_IMAGE/B_IMAGE                                           
#  12 ELLIPTICITY            1 - B_IMAGE/A_IMAGE                                       
         1 -14.5469     68.7062    144.2401   9.7642367377e+01   3.7518326258e+01     4.772148     2.526458  71.98  0.004070092    4.124    0.758
         2 -13.4450    202.6077     42.6784   3.9585920952e+01   2.9921489187e+01     1.197377     1.107544   1.04    0.0052747    1.426    0.299
         3 -13.4566    213.7211     32.2027   3.5956580611e+01   2.8817983596e+01    0.8797076    0.7546049  39.60  0.002353787    1.567    0.362
         4 -12.5173      2.9018     23.6390   9.3065509721e+01   7.1007133958e+01      1.01063    0.4457324 -52.24  0.005443495    2.155    0.536
         5 -12.5122      2.1243      7.9373   8.6741625409e+01   7.3571589775e+01     2.003197    0.2781799 -46.82  0.006714902    6.061    0.835
         6 -11.8408    242.3876      8.9930   2.8824801900e+01   2.5600831353e+01    0.4372435    0.4224843  57.12  0.003131087    1.518    0.341
         7 -11.9322    236.1642      7.4161   2.8937094759e+01   2.6994058765e+01    0.5750654     0.299864 -46.17  0.002947742    1.631    0.387
         8 -11.5637    241.3674      2.6896   2.7702717565e+01   2.6467058621e+01    0.5500811    0.2405338  81.07  0.003065282    2.126    0.530
         9 -10.5564     55.8144      5.6579   5.8311344279e+01   6.6756989229e+01    0.3521055    0.2136614  64.51  0.001780604    2.690    0.628
        10  -8.7721     88.4901    209.8925   1.0248663817e+02   1.8617140691e+01    0.1977115    0.1341357 -66.13  0.001017957    1.549    0.354
        11 -10.1913    139.8567    249.7575   9.6229824014e+01   2.9990070870e+00    0.2629775    0.1360815  37.37  0.001328908    1.632    0.387
        12 -10.2412    102.0000    249.0185   1.0414861898e+02   8.6139962831e+00    0.2660077    0.1991993 -63.24  0.001146285    1.545    0.353
        13 -11.3100    101.2346    243.0213   1.0363773241e+02   9.8604108556e+00    0.4572376    0.2315607 -62.78  0.001427412    2.301    0.565
        14 -12.9937     51.4964    186.2037   1.0864093908e+02   2.9148113515e+01    0.9864436    0.8490943  54.74  0.005744825    1.131    0.116
        15 -15.2770      6.6900    156.1975   1.1711199649e+02   4.0840769920e+01     6.956386     1.489524 -73.40   0.01075846    3.684    0.729
        16  -9.5927     58.1058    195.4064   1.0806466894e+02   2.6120974715e+01     0.242385    0.1857056 -71.69 0.0004307167    1.257    0.204
        17  -9.5958     21.8558    195.4528   1.1673127551e+02   3.0107416504e+01    0.4084776    0.1514796  53.89  0.001729464    2.746    0.636
        18 -10.0034    149.4415    190.9798   8.4795305489e+01   1.2868180131e+01    0.4888763    0.3274547 -85.66  0.001917361    2.983    0.665
        19  -9.4457    117.4824    188.5252   9.2137323409e+01   1.8933547089e+01    0.1457135    0.1397129  46.50  0.000106369    1.023    0.023
        20 -10.7682     81.3573    182.5130   1.0044393116e+02   2.6082505099e+01    0.4779054    0.3568727 -86.07  0.001284363    1.461    0.316
        21  -9.4813     99.3867    180.8683   9.5468817064e+01   2.3715444471e+01    0.2623468    0.2133256  26.29 0.0006627452    1.288    0.223
        22 -10.8419     42.5920    176.2096   1.0975771325e+02   3.2628902992e+01    0.5335279    0.2659886 -85.76  0.002270803    2.294    0.564
        23 -10.1084     39.3207    176.3438   1.1062244556e+02   3.2951051875e+01    0.3867229    0.1752473 -59.97   0.00170351    1.995    0.499
        24 -10.1181    186.5558    174.6073   7.3212800690e+01   9.6244411636e+00    0.3710562    0.3423985 -62.60  0.001293176    1.310    0.237
        25 -12.7383     54.1068    146.2633   1.0237871626e+02   3.8891340200e+01     1.354367    0.7849318  20.40  0.006122245    2.059    0.514
        26 -12.2977     79.6293    158.7611   9.7058794950e+01   3.2252913803e+01     1.118371    0.6190343  57.01 0.0004873956    2.310    0.567
        27 -12.7436     67.5770    154.1427   9.9722724067e+01   3.5143606327e+01    0.6512007    0.4652684 -51.57 0.0009168083    1.352    0.260
        28 -14.4636     36.4555    191.5060   1.1293137539e+02   2.9567799702e+01     4.787747      1.78792  65.74   0.01321683    4.793    0.791
        29 -10.8806    240.8221    169.3296   6.1845308181e+01   1.5474390377e+00    0.2289251    0.2168365  58.84  0.001113182    1.448    0.310
        30  -8.6853    110.5214    167.5185   9.0141725119e+01   2.5084165309e+01    0.2658336    0.1498748 -67.87  0.001025619    2.254    0.556
        31  -8.2848    102.7476    164.9644   9.1754010390e+01   2.7031990479e+01    0.1850698    0.1276071 -54.94 0.0001825013    1.436    0.304
        32 -10.1134    129.6969    249.5783   9.8350776335e+01   4.5180597516e+00    0.2489251    0.1104563  30.47  0.001079074    2.069    0.517
        33 -11.6236     86.8998    152.3070   9.3793887142e+01   3.2771087577e+01    0.6317571    0.4488991 -20.88  0.002669907    1.872    0.466
        34 -10.5124    133.7992    145.2995   7.9299588969e+01   2.6077714253e+01     1.148428    0.2921503 -54.22  0.002591021    5.907    0.831
        35  -8.4030    112.1665    150.3683   8.6245953718e+01   2.8962922185e+01    0.2173014    0.1400957  47.33 0.0004975821    1.636    0.389
        36  -9.2217    174.8925    149.1680   7.0269345159e+01   1.7025793339e+01     0.228547    0.2109632 -85.49 0.0007714974    1.286    0.222
        37 -11.1203     29.8219    144.7498   1.0937073093e+02   4.1850723475e+01    0.5423642    0.3216021  37.46  0.002750301    1.810    0.448
        38 -10.3738    101.4376    138.3467   8.6684481484e+01   3.3830120125e+01    0.5610862    0.3596282 -20.12  0.002182586    2.357    0.576
        39 -11.5570     88.6096    137.7957   9.0361762181e+01   3.6147680093e+01    0.3022211    0.2695997 -40.13   0.00044559    1.110    0.099
        40 -11.4708     66.3710    171.8948   1.0285819735e+02   3.0809774981e+01    0.4692726    0.3184853 -29.69  0.002201203    1.969    0.492
        41 -10.1121    105.9468    130.9749   8.3684623398e+01   3.4818272464e+01    0.4425009    0.3428171 -59.39  0.001578641    1.334    0.250
        42  -9.4995    110.7576    129.4247   8.1920560260e+01   3.4295148771e+01    0.3675106    0.2669852   7.61 0.0009580917    1.827    0.453
        43 -10.2485    134.8899    128.8618   7.5126707690e+01   2.9648587426e+01    0.3586034    0.3243076  32.45  0.001236559    1.124    0.110
        44 -11.2574     43.7123    129.0195   1.0268493693e+02   4.4484606061e+01    0.3761398    0.2400286  47.03  0.001836494    1.776    0.437
        45 -13.0885     18.0960    217.3974   1.1915546394e+02   2.5501287404e+01     0.653509    0.4937938 -16.07  0.004002096    2.153    0.535
        46  -9.1300    160.6868    127.3243   6.8362435429e+01   2.4574578520e+01    0.1560462    0.1244687 -83.54 0.0004763005    1.661    0.398
        47 -10.2346     97.9726    125.0396   8.4649233088e+01   3.7698776828e+01    0.3334469    0.2655914  -9.67 0.0009512823    1.503    0.335
        48 -11.3940     71.0463    167.1257   1.0085515883e+02   3.1372060244e+01    0.4229087    0.2931254 -48.33  0.001302321    1.476    0.323
        49  -9.9132    116.9714    123.7047   7.8744145459e+01   3.4450335414e+01    0.2943065     0.219342 -21.33  0.001061712    1.610    0.379
        50  -8.9709    135.0000    119.9160   7.2855092162e+01   3.1639969559e+01    0.2630385   0.08847465 -45.63 0.0008003436    2.928    0.658
        51  -9.1832     35.2353    172.6169   1.1126678656e+02   3.4302962200e+01    0.2245093      0.16285 -88.70  0.001031017    1.284    0.221
        52  -8.8404    107.2477    118.2472   8.0192245486e+01   3.7610998778e+01     0.217806    0.1988265  -7.82 0.0004370552    1.143    0.125
        53  -8.7034     83.0078    117.3182   8.7462689971e+01   4.2125768957e+01    0.2047841    0.1927958  34.42 0.0004158898    1.115    0.103
        54  -9.8270    231.3991    113.7350   5.1784129455e+01   1.2777241913e+01    0.2491711     0.222623 -43.50 0.0007837809    1.033    0.032
        55  -9.6466     40.1019    113.8130   1.0108580960e+02   4.8690507490e+01    0.2077237    0.1829452  87.81 0.0006242669    1.253    0.202
        56  -9.4796    247.3344    110.3273   4.8800656144e+01   1.0469492801e+01    0.1265296   0.09778104  -6.66 0.0005137102    1.719    0.418
        57  -9.3676    205.5670    110.1126   5.5127635296e+01   1.8490073970e+01    0.2521109    0.2096934  42.79 0.0007193987    1.333    0.250
        58 -10.9978     32.9941    108.4998   1.0253283611e+02   5.0693948127e+01    0.3762949    0.2404893 -61.35  0.001329656    1.370    0.270
        59  -8.5349    134.5027    106.4846   6.9454726743e+01   3.4673465427e+01    0.1538427     0.152168 -27.19 0.0001118635    1.016    0.016
        60 -10.4588    119.0365    103.9757   7.2980913272e+01   3.8495831808e+01    0.2412238    0.2333134   6.10 0.0005404222    1.024    0.023
        61 -10.0190     41.8152    103.4004   9.8343798684e+01   5.1073331335e+01    0.3237436    0.2034723  46.39  0.001103279    1.940    0.485
        62  -9.9782     36.2288    100.8504   9.9824951014e+01   5.2255290763e+01    0.2890846    0.1986794  51.82  0.001080527    1.847    0.458
        63  -9.9349    120.8303     98.1621   7.0854620515e+01   3.9365990192e+01    0.2322312    0.2172046 -87.61 0.0006036853    1.201    0.168
        64 -16.8202     13.9456    242.4573   1.2145502857e+02   2.0666987415e+01     6.682701     2.314293  22.90   0.02693701    4.652    0.785
        65  -9.0346     73.1540     83.8271   8.1834902169e+01   5.1434909941e+01    0.2069208    0.1966533  71.43 0.0005694833    1.284    0.221
        66  -8.7710    159.5170     83.4855   5.7203343982e+01   3.3554060130e+01    0.1469459    0.1437902 -81.88  6.05332e-05    1.003    0.003
        67  -8.1194     95.3263     68.6629   6.9483957689e+01   5.0468884351e+01    0.1426885    0.1187397 -87.74 0.0007051605    1.724    0.420
        68  -8.8697     52.2016     64.6265   8.3849299954e+01   5.8506913149e+01    0.2079161    0.1762051 -46.72 0.0006232371    1.272    0.214
        69 -10.2262     13.4941     59.8152   9.9307207648e+01   6.3403693216e+01    0.2263049    0.1826967 -28.64 0.0004123065    1.063    0.060
        70 -12.6982    192.3306     50.0028   4.2681785632e+01   3.1248658450e+01    0.7510663     0.678137  36.10  0.000897952    1.353    0.261
        71 -11.7400    115.3741    248.2101   1.0122001932e+02   6.8500609555e+00    0.6347108     0.395363  84.34  0.003026898    2.785    0.641
        72 -14.5860      9.4670    207.4337   1.2033403623e+02   2.8505901740e+01     1.127202    0.9912208 -34.69  0.007686274    1.570    0.363
        73 -10.2024    111.1204    203.6377   9.6155223061e+01   1.6557712380e+01    0.2491797    0.2190833  68.85 0.0004346965    1.199    0.166
        74 -10.6493    107.6184    203.8058   9.7029005414e+01   1.7075547683e+01    0.2603384    0.2041967 -61.37  0.001396849    1.352    0.260
        75  -8.6864    198.3461     23.4819   3.5566640522e+01   3.3240521035e+01    0.1895463    0.1126513 -35.01 0.0005836057    1.751    0.429
        76  -8.9140     78.4237     57.3062   7.1281948888e+01   5.5712857005e+01    0.2210252    0.1676428  56.96  0.001103864    1.692    0.409
        77 -11.1261      1.7646     48.6137   1.0182939639e+02   6.6396831296e+01    0.5882277   0.08870692 -58.89  0.002028591    4.260    0.765
        78  -8.7060    189.5295     14.9998   3.4489422647e+01   3.6159428558e+01    0.1711271    0.1187633 -35.83  0.000570183    1.548    0.354
        79 -10.9737    192.7823    194.8721   7.5923849215e+01   4.6635027998e+00    0.9773629    0.5007435 -61.71  0.003029057    5.251    0.810
        80 -10.3436    122.5016    199.2698   9.2704330604e+01   1.5675068388e+01    0.3447599    0.2474581 -79.86  0.001324967    1.856    0.461
        81  -8.4560     67.4232    197.5033   1.0602269979e+02   2.4419438203e+01    0.1367034    0.1223724  74.88 7.184329e-05    1.026    0.025
