#   1 NUMBER                 Running object number                                     
#   2 MAG_AUTO               Kron-like elliptical aperture magnitude                    [mag]
#   3 X_IMAGE                Object position along x                                    [pixel]
#   4 Y_IMAGE                Object position along y                                    [pixel]
#   5 X_WORLD                Barycenter position along world x axis                     [deg]
#   6 Y_WORLD                Barycenter position along world y axis                     [deg]
#   7 A_WORLD                Profile RMS along major axis (world units)                 [deg]
#   8 B_WORLD                Profile RMS along minor axis (world units)                 [deg]
#   9 THETA_WORLD            Position angle (CCW/world-x)                               [deg]
#  10 FWHM_WORLD             FWHM assuming a gaussian core                              [deg]
#  11 ELONGATION             A_IMAGE/B_IMAGE                                           
#  12 ELLIPTICITY            1 - B_IMAGE/A_IMAGE                                       
         1 -14.4295    188.0235     78.8952   6.9784681322e+01   2.6912278489e+01     6.564291     2.001565  59.56   0.01188516    3.845    0.740
         2 -15.6298    222.9671     65.1518   6.0286177057e+01   2.0422692470e+01     6.625087     3.290075  89.64   0.01838512    5.706    0.825
         3 -14.8993    231.4014     28.3146   4.9375770206e+01   2.3106197261e+01     1.457676     1.051295  11.78  0.007390177    1.818    0.450
         4 -17.0303    243.9656     37.7915   5.0549001193e+01   1.9012851962e+01     7.036691     4.228271  54.16   0.01495003    1.794    0.443
         5 -14.4772    245.0537     13.2240   4.4250279175e+01   2.1522646216e+01    0.6465929    0.5737622 -28.21  0.001939065    1.163    0.141
         6 -14.2361    248.6857      4.9472   4.1939605030e+01   2.1529368493e+01    0.8459768    0.4381248 -57.73  0.004134061    1.880    0.468
         7 -12.3728    206.0707     17.3580   4.9043151870e+01   3.0700662930e+01    0.9443654    0.4929739 -33.27  0.004136916    1.811    0.448
         8 -15.2317    217.9669     75.5387   6.3803068949e+01   2.0128860756e+01     7.016504     2.611897 -53.30   0.01712851    6.379    0.843
         9 -14.2755    214.2699     22.8243   4.9697715497e+01   2.7992347390e+01     1.777225     0.899236  39.17   0.00308938    2.598    0.615
        10 -10.5268    159.0392     23.5610   5.7551672575e+01   4.2470449334e+01    0.5226514    0.3202536 -25.38  0.001622658    1.681    0.405
        11 -10.6981     92.4668     14.9961   6.9204564583e+01   5.9787320806e+01    0.5456101    0.2525959 -36.36  0.001722297    2.178    0.541
        12  -9.2589    164.7845     17.7810   5.4611813655e+01   4.1601824184e+01    0.4094185    0.1298193 -19.91  0.001264219    3.732    0.732
        13 -12.4282    119.1521      8.8898   5.9649553683e+01   5.4349573711e+01    0.7656471    0.6279839  -4.46   0.00298062    1.243    0.195
        14 -10.8040    128.9361     10.3121   5.8180895968e+01   5.1768579509e+01    0.3687584    0.2059007 -12.03  0.001304889    2.025    0.506
        15 -10.6992    141.6809      7.4634   5.4678892342e+01   4.8782246043e+01    0.4927671     0.310827  31.50  0.002168747    1.732    0.423
        16  -9.5722     79.1450      8.0672   7.0052167645e+01   6.3383331445e+01    0.2746631    0.1656193 -28.00 0.0007580639    1.591    0.372
        17  -9.6874    216.2993      8.1119   4.5385703772e+01   2.9041427109e+01    0.2362516    0.1595284 -60.49  0.001205325    1.470    0.320
        18  -9.8167    147.9414      3.3285   5.2091879530e+01   4.7528456898e+01    0.4051743    0.2318811  -5.38  0.001263197    2.085    0.520
        19 -10.7066    137.0690      3.1580   5.3817700193e+01   5.0383784582e+01    0.4342313    0.2649623  -1.61  0.001458269    1.922    0.480
        20 -11.1750    206.8553      1.8085   4.4492531175e+01   3.2062942635e+01    0.2837578    0.2059847  20.48  0.001461264    1.742    0.426
        21  -9.3226    181.7829      3.7012   4.7658057500e+01   3.8474940447e+01    0.2289043    0.1935665   8.74 0.0008260239    1.346    0.257
        22  -8.7154    171.7633      2.5609   4.8492827817e+01   4.1255158423e+01     0.233311    0.1468452 -49.12 0.0005913226    1.683    0.406
        23  -9.9078    159.1614      1.9948   4.9957101002e+01   4.4672408931e+01    0.2937979    0.2088838  23.39  0.001460971    1.598    0.374
        24  -9.0995    221.9270      1.6233   4.3129429039e+01   2.8260942240e+01    0.1856012     0.157261  41.24 0.0006297412    1.359    0.264
        25  -9.9422    142.4666    122.3386   9.0973238442e+01   2.9482955175e+01    0.5765715     0.201306  52.84  0.001813823    3.381    0.704
        26 -14.0975    227.2725    244.8555   9.6491059879e+01  -3.9838979877e+00     3.557985    0.7010756  40.39    0.0144093    3.740    0.733
        27 -10.3848    168.0759    114.2831   8.3285702240e+01   2.5451513373e+01     0.436759    0.3073828 -43.46  0.001436889    1.465    0.317
        28 -11.7381    123.4007    106.0197   9.1722090053e+01   3.6778128398e+01     1.192542    0.7679631 -58.38  0.005396674    1.700    0.412
        29 -10.7939    120.4823     98.0083   9.0430024633e+01   3.9052869404e+01    0.6677907    0.2821929 -56.42  0.001848445    3.111    0.679
        30  -9.3672    214.7545    116.3699   7.4734255212e+01   1.4647402582e+01    0.2785555    0.2306578 -79.17 0.0009334334    1.661    0.398
        31  -8.7512    219.6841    116.3622   7.3881772640e+01   1.3582789502e+01    0.1840557    0.1272594  40.43 0.0009116495    1.439    0.305
        32  -9.9121    173.9391    114.0593   8.1988117892e+01   2.4168952827e+01    0.4222104    0.2873754 -71.14  0.001756698    2.308    0.567
        33 -10.6935    134.8484    108.9102   8.9574847820e+01   3.3804012857e+01     1.116035    0.2638764 -45.19   0.00309391    4.273    0.766
        34 -10.0281    133.6337     98.1408   8.7096019599e+01   3.6256207322e+01    0.3492525    0.2783874  88.95 0.0008542042    1.574    0.365
        35  -8.7073    101.0707    175.9143   1.1011749029e+02   2.6284539172e+01    0.1452855    0.1355638  54.06 -0.0009232552    1.187    0.157
        36  -8.5814    216.2228    106.3840   7.2045476203e+01   1.5867242056e+01    0.1877294    0.1400617  63.78 0.0004861462    1.560    0.359
        37  -8.7495    141.4426    105.5024   8.7112803507e+01   3.3075463878e+01    0.1476435    0.1464419  26.50 0.0002004116    1.027    0.027
        38 -12.0864    200.6360    100.5266   7.3310041180e+01   2.0345593381e+01    0.6931497    0.5020986  67.87  0.001351576    1.647    0.393
        39  -9.0428    156.1250    103.3205   8.3122022960e+01   3.0221708038e+01    0.2033276    0.1899385  61.00 0.0003520786    1.086    0.079
        40  -9.8692    147.1752    102.4409   8.4955001568e+01   3.2414370245e+01     0.315194    0.2658313  28.37 0.0007429142    1.280    0.219
        41  -8.3946    163.4348    103.4939   8.1540872413e+01   2.8512318445e+01    0.1506137    0.1461165  14.22 5.524874e-05    1.034    0.033
        42 -10.9651    156.6919     97.2948   8.1387172417e+01   3.1235649443e+01    0.6488591     0.351891  47.56  0.002153144    1.818    0.450
        43 -12.2358      4.0944     87.6911   1.2338157688e+02   5.6665567503e+01    0.8867806    0.3325873 -74.33  0.004411473    2.075    0.518
        44 -10.5481    140.4739     92.8029   8.3955215807e+01   3.5812263862e+01    0.3407305    0.3041217 -71.34 0.0008633054    1.218    0.179
        45 -11.6372    171.2425     89.8653   7.6180998670e+01   2.9152291475e+01     0.713506    0.4606605  29.75  0.002998246    1.915    0.478
        46 -11.7162    154.6031     88.1814   7.9329986116e+01   3.3435682918e+01    0.3408478    0.3179015 -50.27 0.0006065473    1.094    0.086
        47 -16.8817    206.8298    149.9438   8.3737584490e+01   1.1124908379e+01     6.913157     2.168152  48.36   0.02447825    3.104    0.678
        48  -9.0051    106.9594     82.7343   8.9932442773e+01   4.4964806108e+01    0.1968173     0.187971  59.64 -0.000430966    1.085    0.078
        49  -9.4776    151.4725     81.5038   7.8111972250e+01   3.5417242871e+01    0.2705779     0.265859 -50.45 0.0008583333    1.031    0.030
        50 -10.8479    161.0656     79.2896   7.5316143068e+01   3.3501629642e+01    0.3227031    0.2881631 -64.45  0.001204544    1.215    0.177
        51 -12.1419     44.1634    159.4066   1.2067049645e+02   3.7380017654e+01    0.4117115    0.3389704  13.55 0.0009970091    1.802    0.445
        52 -10.8157    108.4868     77.1531   8.7856999736e+01   4.5814772766e+01    0.5001892    0.2009436  45.39  0.001828916    2.574    0.611
        53  -9.6566    139.9974     78.5281   7.9939735335e+01   3.8677042490e+01    0.2855645    0.2165096 -18.85 0.0006596422    1.531    0.347
        54 -12.8070     68.8482    144.2663   1.1312056582e+02   3.7593779510e+01     1.164654    0.9066369  50.14  0.004626123    1.260    0.206
        55 -10.7801    121.2132     61.4390   7.9304762932e+01   4.6162032894e+01    0.2910016    0.2633786 -71.93 0.0001496682    1.240    0.194
        56 -11.9599    125.8636     54.5808   7.5734615837e+01   4.6321359873e+01    0.6295444    0.5616722 -57.40  0.002233333    1.214    0.176
        57  -8.5791     72.5678     58.4413   9.3284368669e+01   5.6119619507e+01    0.1358945    0.1235825 -42.29 0.0001548467    1.029    0.028
        58 -11.1059     22.5070     43.1029   1.0803762931e+02   6.5253771747e+01    0.3528241    0.2200842  49.50  0.002013692    2.214    0.548
        59 -11.2951    158.0905     38.1608   6.2772768220e+01   4.0843592995e+01    0.5885155    0.1944618 -36.72  0.001952196    2.869    0.651
        60 -11.3356    122.7253     38.6002   7.0737061558e+01   4.9661244126e+01    0.4235464    0.2650529 -26.40  0.001239682    1.640    0.390
        61 -11.2283    110.0413     38.4441   7.4047625074e+01   5.2604137021e+01    0.4722682    0.3015276  -6.37   0.00202615    2.128    0.530
        62  -9.2092    102.6636     38.6701   7.6252387892e+01   5.4177146552e+01    0.1519416    0.1084543  11.79 0.0006511385    1.731    0.422
        63  -9.1523     87.2254     36.6730   8.0270312368e+01   5.7642059022e+01    0.1904358    0.1694442 -35.57  0.001102352    1.130    0.115
        64  -9.1711     78.5602     36.1912   8.3017625697e+01   5.9334127882e+01    0.1946607    0.1217999 -27.01 0.0006033814    1.621    0.383
        65 -10.1238    102.1077     32.7799   7.4057459470e+01   5.5226801564e+01    0.2898219    0.1849384  -1.07  0.001252439    2.167    0.538
        66 -13.0192     51.4400    154.9471   1.1856268967e+02   3.7487499588e+01    0.7768531    0.6085339  89.57  0.002983124    1.091    0.083
        67 -11.1918    162.9499     27.4503   5.8225046259e+01   4.0962962786e+01     0.528625    0.3468061 -26.89  0.001469194    1.558    0.358
        68 -12.3678     58.4294    151.1156   1.1650030289e+02   3.7460228696e+01    0.6532102    0.3904276  89.82  0.001850619    1.712    0.416
        69 -10.5336    179.1914     23.8954   5.4473487334e+01   3.7060086225e+01    0.5046824    0.4157441  76.56  0.002567254    1.204    0.169
        70  -9.9322    101.6811     25.1212   7.0991652696e+01   5.6444712699e+01    0.2911857    0.1114996 -37.01  0.001097572    2.560    0.609
        71  -9.1455    171.2490     23.4515   5.5522185476e+01   3.9232178299e+01    0.4673418     0.153047 -30.64  0.001603033    2.836    0.647
        72  -8.8871    188.4953     20.7538   5.2189042858e+01   3.4941667546e+01    0.1833401    0.1414825   1.65 0.0005359948    1.524    0.344
        73  -9.9682     92.0000     18.9610   7.1149929695e+01   5.9368755029e+01    0.3052188    0.1798201 -31.17  0.001037999    1.647    0.393
        74  -8.6395     86.3267    171.9030   1.1277021911e+02   2.9320315709e+01    0.1605463    0.1401133  79.80 0.0003303783    1.070    0.066
        75 -10.8331    136.5418    126.9626   9.3410403236e+01   2.9773255191e+01    0.6822088     0.374112 -60.18  0.002509031    2.311    0.567
        76  -9.2761      1.2500     17.9549   1.1047504993e+02   7.1739723380e+01    0.1538501   0.07595255 -59.60  0.000893333    1.607    0.378
        77  -9.3957    135.0000    119.9578   9.2191838088e+01   3.1513720166e+01     0.316263    0.1766149 -53.01  0.001014858    1.920    0.479
        78 -10.2899    248.3665    126.8148   7.1672866359e+01   6.2484343242e+00    0.5325989     0.332819  -6.38  0.002648209    1.803    0.445
        79  -9.5874    217.0360    125.1117   7.6399535796e+01   1.2816162498e+01    0.3622702    0.2384813  80.09   0.00147791    2.963    0.662
        80 -10.2164    250.3935    118.7946   6.9562056441e+01   6.9324106138e+00    0.4420367    0.2194281 -22.24  0.001578632    2.025    0.506
        81  -9.9676    250.7553    115.0225   6.8647945357e+01   7.3686816244e+00     0.345149    0.1794847 -27.21   0.00125536    1.774    0.436
        82 -13.7569    169.6987     75.7051   7.2435140303e+01   3.1997596467e+01     3.039192     1.111385 -33.51  0.001123983    2.776    0.640
        83 -10.7387    160.7067    117.7731   8.5744473969e+01   2.6442521431e+01    0.4441241    0.3108957 -78.57 0.0003345281    2.249    0.555
        84 -10.0874    135.4747    233.1820   1.1038810795e+02   1.1299194643e+01    0.2006721    0.1482919  45.61 0.0002667346    1.043    0.041
        85  -8.1374    238.3042    223.2912   9.1594203360e+01  -3.5100431141e+00    0.1145418    0.0677136  17.36  0.000224093    1.572    0.364
        86  -9.1317     33.3287    218.3393   1.2712174573e+02   2.7296825580e+01   0.08612805   0.07835621 -58.74 0.0007051739    1.736    0.424
        87 -13.2793     14.8634    174.7018   1.2804233803e+02   3.7207860602e+01    0.7625607    0.5491543  76.30  0.003931814    1.029    0.028
        88  -9.3447    205.5978    121.9966   7.7714840451e+01   1.5753766635e+01    0.2540729    0.2021348  69.98  0.000600539    1.572    0.364
