#   1 NUMBER                 Running object number                                     
#   2 MAG_AUTO               Kron-like elliptical aperture magnitude                    [mag]
#   3 X_IMAGE                Object position along x                                    [pixel]
#   4 Y_IMAGE                Object position along y                                    [pixel]
#   5 X_WORLD                Barycenter position along world x axis                     [deg]
#   6 Y_WORLD                Barycenter position along world y axis                     [deg]
#   7 A_WORLD                Profile RMS along major axis (world units)                 [deg]
#   8 B_WORLD                Profile RMS along minor axis (world units)                 [deg]
#   9 THETA_WORLD            Position angle (CCW/world-x)                               [deg]
#  10 FWHM_WORLD             FWHM assuming a gaussian core                              [deg]
#  11 ELONGATION             A_IMAGE/B_IMAGE                                           
#  12 ELLIPTICITY            1 - B_IMAGE/A_IMAGE                                       
         1 -14.3253     96.8767     76.6357   4.2495108420e+01   4.8587789503e+01     2.234404      1.14798 -29.64  0.007948129    2.724    0.633
         2 -15.1993     81.2080     69.0785   4.5386123712e+01   5.3323503832e+01     2.297828     1.474401 -52.07   0.01044396    1.640    0.390
         3 -14.7431     60.9973     57.6722   4.9325143476e+01   5.9334456444e+01     3.148516    0.8022456 -49.37   0.00951534    3.950    0.747
         4 -14.1536     50.3798     62.8829   5.5746365569e+01   5.9838849734e+01      1.85696    0.9766959 -63.57  0.007674763    2.384    0.580
         5 -14.2207    242.4244     45.9603   6.8819868650e+00   2.0051608046e+01     1.565994    0.6743842 -63.10   0.00659305    3.097    0.677
         6 -13.5381    191.1396     36.1487   9.6938649879e+00   3.2485674206e+01    0.8050867     0.577961 -53.81  0.002834478    1.298    0.230
         7 -13.6157     54.9950     24.4355   3.7783318209e+01   6.6448953766e+01    0.7650533    0.6395974  36.57   0.00459105    1.197    0.165
         8 -13.9397     46.0010     16.0814   3.7704743055e+01   6.9282625838e+01     1.194412     1.004099   9.36  0.007166635    1.048    0.046
         9 -11.6163      3.6585     19.7946   6.6074713825e+01   7.3741410594e+01    0.3297827    0.3012353  -5.84  0.002390377    1.215    0.177
        10 -14.3122    144.7377     28.2730   1.3876652719e+01   4.5049959059e+01     1.263125    0.6844922 -80.81  0.004855759    2.766    0.638
        11 -11.7968    172.9685     10.7275   4.6204748552e+00   3.9806340596e+01    0.3241857     0.272411  30.02  0.001923238    1.486    0.327
        12 -14.6180    123.9813      5.6026   9.2928978627e+00   5.2761622831e+01     1.555143    0.8237774  80.10  0.007009842    1.944    0.486
        13 -12.8542    187.5519      3.7912   1.3441296248e+00   3.6919407500e+01    0.8507345    0.3522055  82.30  0.003709215    2.374    0.579
        14 -11.3914    218.0264      8.0159   1.3433137450e-01   2.9506645526e+01     0.289643    0.1484086 -59.33   0.00151537    1.754    0.430
        15 -12.8689     65.6817    200.5485   7.5811135470e+01   2.4543846186e+01     1.897486    0.9303474  69.84  0.008073509    2.786    0.641
        16 -12.2315    230.1892    249.6152   4.8435735620e+01  -6.0147038335e+00    0.2549477    0.1300212  18.07  0.001591148    1.670    0.401
        17 -13.3990    160.7767    248.3841   6.0768299779e+01   2.7965933664e+00    0.7456617    0.3093475  36.99  0.003838862    1.941    0.485
        18 -14.1870     98.6992    246.7359   7.3003084067e+01   1.1414096009e+01      1.11676    0.4517691  41.43  0.005649581    1.901    0.474
        19  99.0000     39.4130    174.2149   7.9844973264e+01   3.3626508274e+01     2.533446    0.9382055 -76.52   0.01026127    2.773    0.639
        20 -13.8151      6.0515    153.8515   8.7191638305e+01   4.1546564884e+01     1.018196    0.6233693  85.29  0.005741141    1.431    0.301
        21 -13.9552      9.3229    244.7717   9.0674637038e+01   2.1968372512e+01      1.73381    0.6422313  84.42  0.009183509    2.778    0.640
        22 -13.5970     19.3222    248.7303   8.8933096424e+01   2.0307175251e+01    0.5389438    0.2795981  45.44  0.003526309    1.387    0.279
        23 -14.6693     56.5469    242.2074   8.1262444346e+01   1.7468450132e+01     1.330549    0.7053588  58.35  0.006557317    1.711    0.416
        24 -13.6228     36.3475    249.0252   8.5684000936e+01   1.8511431754e+01    0.6519308    0.2912524  36.29  0.002800161    1.729    0.422
        25 -13.9802     57.7325    222.0261   7.9539712023e+01   2.1125592579e+01    0.9917783    0.5014377  61.80  0.004219011    2.021    0.505
        26 -14.1947     17.8761    152.8325   8.3827506853e+01   4.0866020929e+01     1.584641    0.6957127  72.44  0.005741764    2.559    0.609
        27 -14.9187     25.3779    188.2615   8.4507244899e+01   3.1846340578e+01     2.154205    0.9074005  75.79  0.009401937    2.685    0.628
        28 -14.9682     21.8176    168.2023   8.3966848686e+01   3.6814963727e+01     1.441889    0.5814836  64.26  0.006007118    2.723    0.633
        29 -14.0029     40.8012    216.4327   8.2854644641e+01   2.4202200849e+01     1.144251    0.7256172  49.60  0.006428634    1.272    0.214
        30 -14.4215     25.2874    242.9713   8.7546157202e+01   2.0744353305e+01    0.9538635    0.2857726  59.78  0.004308354    3.141    0.682
        31 -13.7937      9.4967    221.3800   8.9788774415e+01   2.6358762949e+01     1.967292    0.5873722  69.19   0.00818284    3.616    0.723
        32 -14.0179     35.5350    237.1188   8.5220774608e+01   2.0754099637e+01    0.8354237    0.3833078  63.19  0.003558048    2.031    0.508
        33 -14.0441     38.9234    228.3773   8.4021501264e+01   2.2044605033e+01     1.048481    0.2934453  45.96  0.004698626    2.557    0.609
        34 -12.0801     74.7040    236.2881   7.7051702035e+01   1.6329339781e+01     1.701202    0.9378747  71.27  0.009033855    2.270    0.560
        35 -11.6354     81.4437    197.2323   7.1657437388e+01   2.3134467075e+01     0.439767    0.2395482  62.10  0.002009475    2.187    0.543
        36 -13.2281      1.9751    186.8710   8.9989032546e+01   3.4222593028e+01    0.8375779    0.1899749 -84.27  0.003006928    4.281    0.766
        37 -12.0676    143.6820    190.0992   5.5896902064e+01   1.4900464777e+01    0.2879972    0.2039867  -6.58  0.001440355    1.841    0.457
        38 -13.2852     97.1319    180.6473   6.5590088353e+01   2.4416771430e+01     1.015011    0.7939035 -89.76   0.00546565    1.473    0.321
        39 -14.1208    107.4277    177.9590   6.2581313990e+01   2.3370467185e+01     1.527525    0.8225204 -62.41  0.006757708    2.144    0.533
        40 -13.2528     88.3403    161.6833   6.5001559777e+01   3.0109186543e+01     1.826327     1.153178  76.37  0.007898879    2.204    0.546
        41 -12.4802    181.4944    173.1536   4.4669178646e+01   1.1571899444e+01    0.3151027    0.2573018 -44.65  0.001808754    1.371    0.271
        42 -11.4098    164.2785    185.3629   5.0541349509e+01   1.2333135772e+01    0.2492706    0.1633508 -29.63  0.001268129    1.667    0.400
        43 -11.9796     43.7020    159.0060   7.7125218684e+01   3.6803909876e+01    0.7801169    0.3146583  61.28   0.00274886    3.389    0.705
        44 -13.2366     31.7652    140.1391   7.8493452213e+01   4.2761092239e+01     1.438676    0.5894791  83.65  0.004851448    3.794    0.736
        45 -10.5411     28.1506    145.1792   8.0137699439e+01   4.1842558294e+01    0.5460933     0.294047 -89.84  0.002557032    1.888    0.470
        46 -12.4428    231.7241    152.1587   3.1339187360e+01   6.6141820055e+00    0.6032543    0.2722511  42.38  0.002870119    2.425    0.588
        47 -11.9116     44.6252    146.8133   7.5405429791e+01   3.9720410636e+01    0.5690767     0.336275  -8.82  0.002326928    3.074    0.675
        48 -11.2529     40.7673    133.7042   7.4866290569e+01   4.3464158893e+01     1.661393    0.7659709  82.64  0.005794641    3.459    0.711
        49 -11.5953    158.7258    180.8552   5.0936866762e+01   1.4095997112e+01    0.2234442    0.1700451 -19.18  0.001094519    1.441    0.306
        50 -11.2151      4.8011    139.5741   8.6568559073e+01   4.5112388964e+01      0.66314     0.282218  88.39  0.002959656    2.252    0.556
        51 -11.7333      2.9265    114.3775   8.5108377106e+01   5.1504833640e+01    0.4716591    0.4160679  83.93  0.003110463    1.076    0.070
        52 -14.4064     10.0789    130.8987   8.4271091565e+01   4.6907549164e+01     1.302636    0.8114433   6.36  0.005812581    2.066    0.516
        53 -13.8716      2.7857    125.1173   8.6078124988e+01   4.8824839180e+01     1.756453    0.8618872 -14.21  0.007733145    3.232    0.691
        54 -11.6761    118.4965    137.7818   5.2208079606e+01   3.0446036505e+01    0.4081368    0.3141579 -60.46  0.001720421    1.393    0.282
        55 -10.7843     73.7880    133.7987   6.4443645301e+01   3.9144160595e+01    0.2027685     0.192306 -36.40 0.0004079023    1.143    0.125
        56 -13.0614    111.8046    104.2814   4.6009005518e+01   3.9426081622e+01    0.4886295    0.4454281 -75.29  0.002015156    1.175    0.149
        57 -13.3651    136.2153    125.9937   4.4856032857e+01   2.9542593055e+01     1.067014    0.4986161 -47.83  0.004024026    2.183    0.542
        58 -14.2411    126.3813     97.8276   4.0138846156e+01   3.7710687630e+01     1.025374    0.5521284 -50.16  0.004032953    1.955    0.489
        59 -14.4722    117.5841    120.5687   4.8512319499e+01   3.4553767360e+01     1.751268     1.339183 -73.13  0.008041772    1.592    0.372
        60 -14.9500    123.6647    109.2066   4.3962185855e+01   3.5842756602e+01     1.530213     1.110267 -88.89  0.006450929    2.065    0.516
        61 -13.4245    230.7544    118.1237   2.4344941159e+01   1.1983454503e+01    0.9838513    0.5065356 -34.21  0.003986211    1.689    0.408
        62 -11.3242     89.7868    121.4119   5.6928784282e+01   3.9604129936e+01    0.3020518    0.2382092  -9.19  0.001427117    1.648    0.393
        63 -11.7820     31.2995    116.7819   7.5617224624e+01   4.8761841473e+01    0.5813934    0.3151287 -83.42  0.002617327    1.940    0.484
        64 -11.6215     50.7023    116.9234   6.8906167123e+01   4.6606146175e+01    0.3827215    0.2634284 -62.13  0.001570209    1.355    0.262
        65 -14.4755    108.1121     88.1223   4.2535183804e+01   4.3767051723e+01     1.878522    0.8249165 -50.62  0.006646791    2.453    0.592
        66 -13.2643     80.4041    100.5911   5.5000828016e+01   4.6294496301e+01     1.173484    0.7211811  46.16  0.005084547    1.705    0.413
        67 -12.5689    217.3653    247.3380   5.0269656322e+01  -4.2781979174e+00    0.2483082    0.1647496  33.97  0.001712571    1.576    0.365
        68 -14.5496     77.6358     87.7784   5.2500983813e+01   4.9815971847e+01     1.497989     1.190216  82.63  0.006812146    1.625    0.385
        69 -11.8980    181.3033    244.9978   5.6417476127e+01   5.2825863364e-01    0.2113268    0.1480968 -37.66  0.001107419    1.712    0.416
        70 -13.0095      3.6579    102.7242   8.3698045950e+01   5.4392635494e+01    0.7529536    0.3688043 -76.79  0.003025223    1.739    0.425
        71 -13.0531     15.1696     99.3825   7.8989435186e+01   5.4532420851e+01     1.028268    0.5633834  75.53  0.004369932    2.196    0.545
        72 -14.2642      4.5022     86.1566   8.1379275023e+01   5.8494579588e+01     1.298376    0.6221998 -85.81  0.005285557    2.109    0.526
        73 -12.4136     27.8972     99.1228   7.4073181747e+01   5.3591311744e+01    0.7997676    0.2809851 -64.16  0.003132746    2.376    0.579
        74 -11.8257     54.9287     99.5759   6.3880963357e+01   5.0463505949e+01    0.5377283    0.2865613 -57.43  0.002342179    1.736    0.424
        75 -12.1596     53.9784     92.4915   6.2591786316e+01   5.2353859026e+01    0.3220659    0.2737014  27.24  0.001431193    1.248    0.199
        76 -14.8493    108.9460    232.5370   6.9419677517e+01   1.2437886728e+01     1.500217    0.6388983  44.94  0.006053389    2.058    0.514
        77 -12.0957    107.7802    221.3602   6.8402990450e+01   1.4597385394e+01      0.58416    0.3158562  52.76  0.002775658    1.957    0.489
        78 -12.6860     18.9800     84.9332   7.5171643069e+01   5.7897723374e+01    0.6154693    0.4121461 -44.74  0.002992171    1.413    0.292
        79 -13.7459     19.4396     72.4812   7.2529350795e+01   6.0932018860e+01     0.868901    0.5871493  75.86   0.00312292    1.894    0.472
        80 -13.9183     99.3441    103.0369   4.9443660108e+01   4.2219208235e+01     1.652491    0.9241533 -67.21  0.005980445    2.640    0.621
        81 -11.7036      9.8041     67.4565   7.5982973302e+01   6.2795879492e+01     0.489875    0.3206924  75.38  0.002586073    1.913    0.477
        82 -11.6101    211.5351     65.7606   1.4816166772e+01   2.3776415665e+01    0.4051492    0.2248012  63.98   0.00194887    1.960    0.490
        83 -13.5501    215.5647     44.2693   9.0581212727e+00   2.5849666498e+01    0.7683164    0.4400565 -84.63  0.003687907    2.149    0.535
        84 -13.0059    219.9650     57.8079   1.1859356934e+01   2.3088817668e+01    0.4895167    0.3510367  59.70  0.002147038    1.537    0.350
        85 -13.7424    216.7178     51.8845   1.0791290909e+01   2.4592418017e+01    0.9149008    0.6342099 -88.60  0.005019785    1.601    0.375
        86 -14.4083    233.6742     52.3539   9.1301753620e+00   2.0975558896e+01    0.9510174    0.5153961 -39.01  0.004901018    1.541    0.351
        87 -10.8907      1.5618    237.2823   9.1904769200e+01   2.4034136040e+01    0.2205735    0.1042945  84.23  0.001188614    1.948    0.487
        88 -12.2493     22.5152     54.9918   6.6680485540e+01   6.4811859183e+01    0.5714312    0.3817626 -81.19  0.002951591    1.901    0.474
        89 -11.7089     76.4038     44.3602   3.7939785579e+01   5.9066242891e+01    0.4405626    0.2836263  41.49  0.001835647    1.514    0.339
        90 -10.7478      2.0399     43.7436   7.4797660417e+01   6.8734768591e+01    0.2452775    0.1193519 -52.06    0.0012775    1.611    0.379
        91 -13.3833    165.7565     39.4420   1.4047773437e+01   3.8283863238e+01    0.7902336    0.6049854  80.33  0.004183196    1.295    0.228
        92 -13.7665     54.4283     74.9974   5.7760664483e+01   5.6503686911e+01     1.220202    0.6603006  46.92  0.005220431    2.184    0.542
        93 -12.4857     54.9140     38.6211   4.4445987330e+01   6.4074916369e+01     0.786622    0.2875078  42.49   0.00300129    2.819    0.645
        94 -10.9361     19.8053    220.3217   8.7601655631e+01   2.5599771182e+01     1.082978    0.3395476  82.57  0.004186161    4.291    0.767
        95 -12.2526     34.6881     31.9768   5.1698737286e+01   6.8336498269e+01    0.7230636     0.425602  17.57  0.003641029    1.880    0.468
        96 -13.2139     56.2441     32.3720   4.1032131774e+01   6.4943345925e+01    0.5559027    0.4674189  56.49  0.003200424    1.476    0.322
        97 -12.0093      9.9972    198.5940   8.8692216775e+01   3.1004119497e+01    0.8962733    0.3015234  76.32  0.003687682    3.321    0.699
        98 -13.4941    146.4590    216.8661   5.9422942526e+01   9.6700006104e+00     0.958019    0.4702225 -34.55  0.004422532    2.668    0.625
        99 -12.7138    216.7173     30.9695   5.7107694256e+00   2.7252940631e+01    0.5625147    0.2839699  86.93  0.002353188    2.290    0.563
       100 -12.2173      3.7114     30.5674   6.9996370856e+01   7.1529182605e+01    0.4389928    0.3154825  -3.34  0.002780426    1.420    0.296
       101 -12.6734    190.2883     22.0026   5.9758877424e+00   3.4377909366e+01    0.3662817    0.2713085 -87.87  0.002084881    1.280    0.219
       102 -13.0696    143.6746    207.9510   5.8714622171e+01   1.1635034772e+01     1.198253    0.3583245  42.31  0.004356178    3.133    0.681
       103 -11.9825    175.7934     19.6012   6.8701515533e+00   3.8177177968e+01    0.2784299    0.1577245 -75.88  0.001275759    1.981    0.495
       104 -13.7901    133.4081    220.7569   6.2746615188e+01   1.0958884917e+01     0.759567    0.5061191  54.61  0.004103902    1.739    0.425
       105 -14.7443    119.1390    214.0749   6.4983034562e+01   1.4276413816e+01     1.525561    0.9844292  64.65  0.006671382    2.105    0.525
       106 -13.7655     64.2412    180.2906   7.3997324941e+01   2.9224071447e+01     1.045039    0.3577762  37.96  0.003694716    2.466    0.594
       107 -14.3700     58.3828    168.7002   7.4186541669e+01   3.2694523807e+01     1.959164     1.015296  89.64  0.008214819    2.499    0.600
