#   1 NUMBER                 Running object number                                     
#   2 MAG_AUTO               Kron-like elliptical aperture magnitude                    [mag]
#   3 X_IMAGE                Object position along x                                    [pixel]
#   4 Y_IMAGE                Object position along y                                    [pixel]
#   5 X_WORLD                Barycenter position along world x axis                     [deg]
#   6 Y_WORLD                Barycenter position along world y axis                     [deg]
#   7 A_WORLD                Profile RMS along major axis (world units)                 [deg]
#   8 B_WORLD                Profile RMS along minor axis (world units)                 [deg]
#   9 THETA_WORLD            Position angle (CCW/world-x)                               [deg]
#  10 FWHM_WORLD             FWHM assuming a gaussian core                              [deg]
#  11 ELONGATION             A_IMAGE/B_IMAGE                                           
#  12 ELLIPTICITY            1 - B_IMAGE/A_IMAGE                                       
         1 -13.2569    200.5695     32.8337   6.2818607702e+01   3.0963933066e+01     1.099346    0.9090653  66.95  0.005677765    1.158    0.137
         2 -13.6646    218.0106     14.3198   5.7028330392e+01   2.9257896578e+01     1.047313    0.8241304  39.23  0.006948176    1.749    0.428
         3 -12.9915      2.4698     10.9648   1.0729242386e+02   6.9916989974e+01     1.532728    0.2070863 -41.51  0.005359496    6.202    0.839
         4 -11.1862     14.7640     12.6616   1.0238932808e+02   6.8583154801e+01    0.1835241      0.12887 -18.78 0.0007448586    1.196    0.164
         5 -11.3157    121.3554    248.7253   1.2514322129e+02   6.4440865574e+00    0.3167904    0.1969141  59.15  0.001425565    1.804    0.446
         6 -11.5126    248.7652    248.2565   1.0017050479e+02  -1.2840793315e+01    0.3980969    0.2518558 -27.12  0.002493885    1.449    0.310
         7 -12.2591    139.6579    248.6031   1.2141693849e+02   3.5555517667e+00    0.4837673    0.3853546 -69.47  0.002921663    1.554    0.357
         8 -13.3097      9.3536    207.7499   1.4324354090e+02   2.9523420070e+01    0.7729592    0.7524973   9.79  0.003610469    1.448    0.309
         9 -15.5335     10.6718    148.6691   1.3698179898e+02   4.2670521787e+01     10.65188     4.053544 -84.56   0.03712276    4.316    0.768
        10 -10.8192     95.3908    244.0030   1.2978271583e+02   1.1322990961e+01    0.2712329    0.1194199 -60.01  0.001259824    2.456    0.593
        11 -11.0527     60.1101    242.5408   1.3655738518e+02   1.6556495093e+01    0.3161758    0.1912958  61.62 0.0004523106    1.556    0.357
        12 -11.5106    179.4657    247.4912   1.1320184121e+02  -2.6487647546e+00    0.3784858    0.2417947 -16.88  0.001954689    2.004    0.501
        13 -11.5401     48.1256    236.3956   1.3826594753e+02   1.9312532519e+01    0.3469197    0.1962001  67.27  0.001718484    1.784    0.440
        14 -12.7254     26.5445    227.1450   1.4154865150e+02   2.3707901608e+01     0.279994    0.2260373 -63.96 0.0007321064    1.375    0.273
        15  -9.3955    180.2932    232.6606   1.1058529668e+02  -3.0103629113e-01    0.1242178    0.1064926  73.32 0.0007027771    1.651    0.394
        16 -12.9315    113.3731    231.1981   1.2441015859e+02   1.1068148100e+01    0.9608777    0.2185985  41.82  0.003118157    3.789    0.736
        17 -12.3341     92.6987    227.3540   1.2826327919e+02   1.5066220374e+01    0.5530608    0.2289941  46.68  0.002383662    2.276    0.561
        18 -11.6870     85.4387    225.3097   1.2953354838e+02   1.6573115618e+01    0.5093354    0.1700076  46.65  0.001973335    2.873    0.652
        19  -9.4623     92.3151    249.6841   1.3105647064e+02   1.0687220154e+01    0.1294064    0.0838974  66.38 0.0007036531    1.646    0.393
        20 -11.1336    101.8328    247.8317   1.2895360674e+02   9.6224911552e+00    0.2480385      0.14621  51.21   0.00132757    1.560    0.359
        21  -8.7800    152.6855    213.0246   1.1302539511e+02   8.0688814703e+00    0.1809181    0.1744302 -19.73 0.0003852078    1.080    0.074
        22 -13.9661     32.1473    220.2217   1.3987094773e+02   2.4547921291e+01    0.7564083    0.5828932  82.99  0.002594936    1.091    0.083
        23 -11.6614     55.3860    194.8247   1.3221972279e+02   2.7419814429e+01    0.3191989    0.2371843 -47.67 0.0005345536    1.485    0.326
        24 -12.0492      4.0804    184.4618   1.4231792194e+02   3.5069086069e+01    0.5763398     0.303154  83.68  0.002495311    1.937    0.484
        25  -8.6155    125.6465    185.6712   1.1422928207e+02   1.8688528316e+01    0.1527329    0.1157293  -9.62   0.00070466    1.774    0.436
        26  -8.9529    120.0070    188.1774   1.1602966179e+02   1.9126786227e+01    0.2354638    0.1690367   4.15 0.0008352179    2.015    0.504
        27 -10.7875     73.3102    174.5692   1.2504437412e+02   2.9750580561e+01    0.2478892    0.2236467 -70.97 0.0004014137    1.029    0.028
        28 -13.1411     59.5616    172.2150   1.2807735076e+02   3.2157831987e+01     0.551441    0.2762738 -43.27  0.001890932    2.295    0.564
        29 -11.8095     62.1661    186.8211   1.2958692453e+02   2.8394365506e+01    0.2843323    0.2371598 -49.71  0.000429539    1.267    0.211
        30 -11.7803     81.4417    165.9798   1.2153402835e+02   3.0602744528e+01    0.6240953     0.518648 -22.39  0.003388843    1.425    0.298
        31  -9.9226     94.8235    150.5627   1.1507071929e+02   3.2147494562e+01    0.2833599    0.2552318 -52.24  0.000733064    1.059    0.056
        32 -11.9381     83.3142    149.4108   1.1791462889e+02   3.4247432239e+01    0.3183608    0.2454048 -40.49 0.0006431061    1.294    0.227
        33  -9.0058    134.3497    148.2579   1.0435360948e+02   2.5479491795e+01    0.2169472    0.1418821 -55.51 0.0006394121    1.636    0.389
        34  -9.0688     98.2155    146.7828   1.1337325024e+02   3.2466975887e+01     0.201729    0.1672505 -24.13 0.0004566861    1.322    0.243
        35 -12.2032     67.2295    143.6343   1.2115557196e+02   3.7935696575e+01    0.6985165    0.4565027  58.64  0.003322501    1.972    0.493
        36  -9.5609    107.9745    136.1797   1.0839752368e+02   3.3207747428e+01    0.3635033    0.2323019 -12.12  0.001390283    2.645    0.622
        37 -11.9660    240.6823    247.1080   1.0141997499e+02  -1.1626274795e+01    0.4629095     0.157355  34.92  0.002073331    2.776    0.640
        38 -10.3498     94.6876    133.2712   1.1135290570e+02   3.6188383499e+01    0.2569062    0.2233439 -22.79 0.0003785623    1.188    0.159
        39 -10.3090     50.2345    130.0088   1.2329481658e+02   4.3266156295e+01    0.2299423    0.1958605  43.82 0.0006661784    1.341    0.255
        40  -9.1267    105.6753    123.0444   1.0588883730e+02   3.6569551956e+01    0.2001485    0.1768118 -39.81  0.000307706    1.087    0.080
        41  -9.7108    167.4839    112.6118   8.7942384465e+01   2.6002625311e+01    0.2833738    0.2392604 -71.01 0.0007155599    1.368    0.269
        42 -14.4005     13.1829    241.2620   1.4501981534e+02   2.2257624254e+01     2.446904     1.583535  55.05   0.01699081    1.354    0.261
        43 -11.0939    109.2645    246.3636   1.2727985601e+02   8.7664972499e+00    0.2213626     0.154019 -46.49 0.0008591282    1.690    0.408
        44  -8.8653    184.6628     77.6654   7.5808636097e+01   2.8336987324e+01    0.1437334    0.1099287  20.39  0.000705186    1.746    0.427
        45 -11.5711    216.1537    248.6203   1.0622663805e+02  -8.4187490259e+00    0.3063612    0.1761081  31.68  0.001696624    1.559    0.358
        46 -10.8702    190.8336    249.6757   1.1129953901e+02  -4.7756918519e+00    0.2693944     0.101988  31.13  0.001098844    2.634    0.620
        47 -11.7580    127.5640    244.9357   1.2336897647e+02   6.1575079490e+00      0.43826    0.2008481 -54.24   0.00201781    2.471    0.595
