#   1 NUMBER                 Running object number                                     
#   2 MAG_AUTO               Kron-like elliptical aperture magnitude                    [mag]
#   3 X_IMAGE                Object position along x                                    [pixel]
#   4 Y_IMAGE                Object position along y                                    [pixel]
#   5 X_WORLD                Barycenter position along world x axis                     [deg]
#   6 Y_WORLD                Barycenter position along world y axis                     [deg]
#   7 A_WORLD                Profile RMS along major axis (world units)                 [deg]
#   8 B_WORLD                Profile RMS along minor axis (world units)                 [deg]
#   9 THETA_WORLD            Position angle (CCW/world-x)                               [deg]
#  10 FWHM_WORLD             FWHM assuming a gaussian core                              [deg]
#  11 ELONGATION             A_IMAGE/B_IMAGE                                           
#  12 ELLIPTICITY            1 - B_IMAGE/A_IMAGE                                       
         1 -13.1141    186.1098     33.6807   6.0883175297e+01   3.4552737213e+01     1.536929     1.029216  23.22   0.00531224    1.870    0.465
         2 -11.9728    190.1139     27.3714   5.8260815134e+01   3.4268934326e+01    0.7771314    0.5412831  57.83  0.001555723    1.424    0.298
         3 -11.5455    208.6072      2.9583   4.8493252604e+01   3.1968136703e+01    0.8356045    0.3961825  71.71  0.003553312    2.057    0.514
         4 -10.0780    183.4223    215.7069   1.0379853502e+02   7.1560784251e+00    0.3010528    0.1858932  65.82  0.001626948    2.534    0.605
         5 -10.5020    138.6444    249.9433   1.1504936024e+02   9.7765416607e+00    0.3258142     0.145377  42.94  0.002008586    1.658    0.397
         6 -19.4379     25.5592    142.0270   1.2592947543e+02   4.3138038503e+01      17.1202     2.534973 -74.41   0.05140446    6.389    0.843
         7  -9.1094     99.5266    180.5895   1.1446132011e+02   2.6182549041e+01     0.207909    0.1741134  69.87 0.0006144382    1.024    0.023
         8  -9.7530    195.4962    169.1071   9.4212736928e+01   1.1306619468e+01    0.2776743    0.2624259 -30.70 0.0008310121    1.214    0.176
         9  -8.0955    163.3834    204.1696   1.0563404657e+02   1.1985457422e+01    0.1427096    0.1122997 -67.69 0.0004550726    1.669    0.401
        10 -10.2852    107.6315    210.4312   1.1629462812e+02   1.9854576168e+01    0.2703104    0.1178886  46.59  0.001418142    1.824    0.452
        11 -10.5264     69.5659    158.8015   1.1800655508e+02   3.4674099886e+01    0.2905457    0.1600732  71.50 0.0009970372    1.977    0.494
        12  -9.0979    140.7070    157.3093   1.0264365961e+02   2.3571215908e+01    0.2169509    0.1819124  71.83 0.0004993968    1.213    0.176
        13 -10.9722     99.0227    154.9041   1.1110620539e+02   3.1196702640e+01     0.497549    0.3772894 -37.03  0.002588401    1.840    0.457
        14 -10.6797     63.1952    155.4373   1.1898988659e+02   3.6187912942e+01    0.3035719    0.1943735  50.19  0.001331781    1.455    0.313
        15  -8.7760    164.9537    153.1836   9.6975431050e+01   1.9691127839e+01    0.2379395    0.1481655 -81.60 0.0008850165    3.745    0.733
        16  -9.8912    133.3069    141.4816   1.0131459274e+02   2.7932436484e+01    0.5822846    0.1567301 -56.02  0.001539119    6.080    0.836
        17 -10.6105    109.3189    140.0316   1.0639955643e+02   3.2530143460e+01     0.449896    0.2588403 -39.69  0.002071785    2.328    0.571
        18 -10.6502     97.9010    140.0747   1.0902278943e+02   3.4411289241e+01     0.267504    0.2404129  50.98 0.0003612092    1.192    0.161
        19  -9.4965     79.8482    140.1260   1.1321642342e+02   3.7146422372e+01    0.1658417     0.148519 -55.22 0.0007424643    1.318    0.241
        20 -10.6575    103.7539    199.9694   1.1588647024e+02   2.2141298973e+01    0.3133411    0.1972487  39.10   0.00193112    1.577    0.366
        21  -9.6934    105.6144    130.7823   1.0557825068e+02   3.5083914716e+01    0.3326105    0.2625352 -89.22  0.001391786    1.311    0.237
        22  -9.6204    103.9858    126.6968   1.0519184296e+02   3.6224531293e+01    0.2686532    0.2338835 -38.36 0.0007583529    1.363    0.267
        23 -10.9771    116.8868    129.7782   1.0273891488e+02   3.3312854700e+01    0.4250433    0.3516932  47.87  0.002427625    1.211    0.174
        24 -10.1834    193.4407    191.9503   9.8529935317e+01   8.5163595301e+00    0.4386586    0.3401361 -40.15  0.002640315    1.544    0.352
        25  -9.2716    160.0408    127.0086   9.2542507532e+01   2.5353005716e+01    0.2305793    0.1781015  89.11 0.0008971677    1.711    0.415
        26  -9.5454    135.7048    124.4550   9.7299729295e+01   3.0824015420e+01    0.2553187    0.1807915 -26.38  0.001213442    1.884    0.469
        27  -8.5139    135.6731    129.6804   9.8424717852e+01   2.9793610071e+01    0.1383697    0.1133915   2.45 0.0004388363    1.682    0.405
        28  -9.2205    111.0594    119.1790   1.0196538465e+02   3.6581043668e+01    0.1978779     0.190637   3.40 0.0004343193    1.245    0.197
        29  -8.3039    116.6516    213.2670   1.1500195858e+02   1.8072331893e+01    0.1173231   0.06995662  62.79 0.0002426069    1.616    0.381
        30  -8.5290    209.4667    198.9501   9.6942201072e+01   4.8866005698e+00    0.1433375     0.103763 -63.67 0.0008090999    2.516    0.603
        31  -8.6040    168.0348    112.9642   8.7562612478e+01   2.6200824544e+01    0.2384459    0.1826465 -78.06  0.001128809    1.750    0.429
        32  -9.1084    135.0000    111.9862   9.4620820330e+01   3.3464327295e+01    0.2384394     0.081443 -45.75 0.0008001092    2.926    0.658
        33  -8.3635    205.5280    110.4736   7.9716086440e+01   1.8214101620e+01    0.1431064    0.1373909  -0.84 0.0004044581    1.033    0.032
        34  -8.9674     99.6527    192.0450   1.1577662095e+02   2.4109037353e+01    0.1597518    0.1307157  74.06 0.0004430562    1.082    0.076
        35 -10.0672     60.1876    189.8130   1.2300136396e+02   2.9865384731e+01    0.3241041    0.2049297 -67.93  0.001327655    1.644    0.392
        36  -8.3326    127.5313     94.5140   9.2014801670e+01   3.8545476589e+01    0.1463346    0.1404692 -67.71 1.040441e-05    1.009    0.009
        37 -10.6995    170.9765     70.3635   7.5208672327e+01   3.3035677126e+01    0.4634469    0.3326424 -82.39  0.001034945    1.952    0.488
        38  -8.8954    107.9358     62.6883   8.7730035478e+01   4.8945802776e+01    0.1920364    0.1894483  22.55 0.0002853082    1.075    0.070
        39 -11.7596    171.5178     47.8751   6.7968775094e+01   3.6440281124e+01     0.578727    0.4521156  21.26  0.001482974    1.469    0.319
        40 -10.5006    137.9358    244.1358   1.1460187041e+02   1.0599400930e+01    0.2100033    0.1121692  48.11  0.001384552    1.380    0.275
        41 -10.0211    167.9691    220.9903   1.0708690211e+02   8.9761752432e+00     0.173019    0.1244779  66.06 0.0007642497    1.668    0.400
