#   1 NUMBER                 Running object number                                     
#   2 MAG_AUTO               Kron-like elliptical aperture magnitude                    [mag]
#   3 X_IMAGE                Object position along x                                    [pixel]
#   4 Y_IMAGE                Object position along y                                    [pixel]
#   5 X_WORLD                Barycenter position along world x axis                     [deg]
#   6 Y_WORLD                Barycenter position along world y axis                     [deg]
#   7 A_WORLD                Profile RMS along major axis (world units)                 [deg]
#   8 B_WORLD                Profile RMS along minor axis (world units)                 [deg]
#   9 THETA_WORLD            Position angle (CCW/world-x)                               [deg]
#  10 FWHM_WORLD             FWHM assuming a gaussian core                              [deg]
#  11 ELONGATION             A_IMAGE/B_IMAGE                                           
#  12 ELLIPTICITY            1 - B_IMAGE/A_IMAGE                                       
         1 -11.9463    221.9584     16.0696   3.9933027418e+01   2.7723034106e+01    0.7969078    0.7350076  69.89  0.004153046    1.202    0.168
         2 -12.2433    198.2845     38.2259   4.8405860555e+01   3.0791704776e+01    0.9164623    0.7017568  43.38  0.003342433    1.463    0.316
         3 -12.0199    205.9633     33.2967   4.6068617495e+01   2.9524815116e+01      1.06953     0.734135 -51.83  0.004672457    1.411    0.292
         4 -10.9523      1.8331     21.6534   1.0269843703e+02   7.0826872896e+01    0.7066085    0.1168652 -54.98  0.002596212    4.276    0.766
         5  -9.9706      2.3060      3.4620   9.4683750335e+01   7.3856894020e+01    0.2939429    0.1308058 -47.60  0.001689526    2.015    0.504
         6 -11.1353    213.9139     24.9618   4.2967919259e+01   2.8612196888e+01    0.6345357     0.458057  37.32    0.0019167    1.776    0.437
         7  -7.9808     47.6816      2.3231   7.0710465542e+01   6.8854502607e+01    0.1036376   0.09445608 -40.28  0.000704422    1.670    0.401
         8  -8.7144    140.3234    238.3158   1.0521698922e+02   6.3882315064e+00    0.1185101   0.09095605  12.38 0.0004789834    1.665    0.399
         9  -7.8550    174.4861    249.9912   1.0033312065e+02  -7.5676893653e-01    0.1395471    0.1052531 -87.33 0.0008090822    2.435    0.589
        10 -10.8375    114.4207    244.0117   1.1079310210e+02   9.4845840102e+00    0.4010507     0.316849 -60.92  0.002746251    1.525    0.344
        11 -11.9218     68.4115    248.3887   1.1955191249e+02   1.5242648906e+01     1.296585    0.3823708  41.56  0.006132428    2.621    0.619
        12 -10.5910     90.4638    249.8166   1.1575732535e+02   1.2008278611e+01    0.8448104    0.2144536  35.17  0.002889247    4.975    0.799
        13 -11.6806    100.3690    248.1246   1.1380765532e+02   1.0878655684e+01    0.9808091    0.3026834  37.18  0.004136237    3.037    0.671
        14 -11.6795     28.0398    216.0647   1.2449249979e+02   2.6110124826e+01    0.9094886    0.3456552  83.36  0.002965074    3.115    0.679
        15 -11.9196     23.5018    224.6624   1.2583618333e+02   2.4918086103e+01    0.8517613    0.4219071  58.47  0.003637656    1.602    0.376
        16 -13.9329      8.7885    151.0907   1.2361052329e+02   4.1908605766e+01     6.305733     1.294095 -80.57   0.01755791    6.491    0.846
        17 -10.9381    135.5706    229.9883   1.0506887399e+02   8.5311474381e+00    0.4106373    0.3247209 -25.42  0.002525323    1.718    0.418
        18 -11.6895    113.3245    229.5607   1.0938184848e+02   1.2142152999e+01    0.9929573    0.1894971  41.13  0.003294542    4.090    0.755
        19 -10.7558     89.7092    229.5866   1.1397254660e+02   1.5682581252e+01    0.4403611    0.2428864 -82.51  0.001581971    2.243    0.554
        20 -10.5893     83.5900    224.7464   1.1466867746e+02   1.7466312004e+01    0.6391912    0.3842467 -61.10  0.003606901    1.836    0.455
        21 -12.9955      3.3043    166.7433   1.2604600548e+02   3.8811890871e+01      3.36109    0.5833511 -79.09   0.01046319    5.567    0.820
        22 -11.3044    128.0809    231.8817   1.0677660565e+02   9.4120355761e+00    0.4936884    0.2671999  53.19  0.002569993    1.759    0.432
        23 -10.6498    123.1920    226.4810   1.0706353426e+02   1.1135195726e+01    0.4556805    0.2557866  49.82   0.00217531    1.564    0.360
        24 -11.4071     78.3587    221.0585   1.1532270767e+02   1.8910619026e+01    0.9758439    0.2389797  51.04   0.00337444    4.178    0.761
        25  -9.3359    168.4236    226.2247   9.8088887573e+01   3.7219572726e+00    0.1558346    0.1253125 -62.14 0.0009471997    1.641    0.391
        26  -7.4975     53.6946    231.6694   1.2090571460e+02   2.0132185252e+01   0.09668938   0.08838278 -47.95 0.0003494533    1.658    0.397
        27  -9.7744     38.9515    224.4229   1.2306123107e+02   2.3268820530e+01    0.3252978    0.1636235  57.25  0.001938584    1.625    0.384
        28 -10.9581     47.5128    223.4498   1.2142024980e+02   2.2452511674e+01    0.3077409     0.225068  77.12 0.0006411315    1.107    0.096
        29 -10.3979     44.7906    219.4563   1.2162609475e+02   2.3556228179e+01    0.3871685    0.3029532 -11.81  0.001304011    2.592    0.614
        30  -9.9386    155.8445    228.3076   1.0085722133e+02   5.4820538123e+00    0.2120148    0.1407685  50.66   0.00119456    1.441    0.306
        31  -8.6309    163.0000    212.9876   9.7117506901e+01   6.8209849792e+00    0.1970565   0.07662218 -46.87 0.0008019874    2.939    0.660
        32  -8.3068     63.9225    202.8769   1.1641004731e+02   2.4538917381e+01    0.1696439    0.1560263 -85.05 0.0005633315    1.247    0.198
        33  -8.2026     29.5680    201.7439   1.2321388134e+02   2.8851969711e+01     0.162676   0.08925485  87.04 0.0009152849    1.612    0.380
        34  -8.9621    194.0458    194.0504   8.7555097052e+01   4.5131030348e+00    0.6209757    0.2084979 -44.68   0.00226633    3.371    0.703
        35  -9.2238     57.1103    188.2029   1.1633510967e+02   2.8565079172e+01    0.5028124    0.2328348  87.90  0.002101991    2.920    0.658
        36  -9.6360     13.1214    185.9274   1.2534303958e+02   3.3810875729e+01    0.2269388    0.1324734 -77.41 0.0005341276    1.421    0.296
        37 -10.1472     63.5096    180.6719   1.1407613359e+02   2.9415216370e+01    0.4059618    0.2604223 -39.45   0.00133347    2.302    0.566
        38 -10.2147     68.5895    174.9218   1.1220387543e+02   3.0038857258e+01    0.3012961     0.261366 -42.98  0.001083549    1.443    0.307
        39 -13.2667      6.3454    244.4881   1.2966153819e+02   2.3013430415e+01     1.434096     0.988337  83.63  0.008582937    1.188    0.158
        40  -8.3296     41.0256    178.7118   1.1887575360e+02   3.2584773774e+01    0.1657262    0.1385631  74.31 0.0003949438    1.084    0.077
        41 -12.3340     10.2844    231.5897   1.2845644421e+02   2.4954408025e+01     1.194951    0.3858776  59.93  0.006294278    2.512    0.602
        42 -12.0322     68.2730    144.3236   1.0783318723e+02   3.7291014774e+01     1.081321    0.6357527  72.81  0.003728218    2.288    0.563
        43 -11.5406     83.3921    158.8431   1.0631025971e+02   3.1651835395e+01     1.125001    0.7553235  50.79  0.001857582    1.489    0.328
        44 -11.8067     65.4924    161.1565   1.1109557372e+02   3.3647674447e+01    0.4864783    0.3145405 -46.92  0.001282896    1.771    0.435
        45  -8.8515     22.7691    156.6138   1.2085107494e+02   3.9472552812e+01    0.1726334    0.1299163 -78.77  0.001100415    1.098    0.089
        46  -7.8557     33.2971    155.6763   1.1825205307e+02   3.8687333817e+01    0.1312322   0.08090685  73.15  0.000427585    1.624    0.384
        47  -9.7358     99.9848    142.3251   9.9071746504e+01   3.2898206550e+01     0.583093    0.3394446 -28.72  0.002185898    2.939    0.660
        48 -10.7655     86.7914    142.3931   1.0257889069e+02   3.5045828444e+01    0.4333332    0.3216313  35.75 0.0007615997    1.459    0.315
        49  -8.8228    109.6603    131.7274   9.4260610666e+01   3.3687080735e+01    0.3021834    0.2221747  15.15  0.000931298    1.833    0.454
        50 -10.0280     58.6761    131.0649   1.0821289045e+02   4.1755597281e+01    0.3022911    0.1825108 -69.41  0.001488578    1.527    0.345
        51  -9.0604     97.0927    128.2045   9.6907208353e+01   3.6758874450e+01    0.2840311    0.2181731 -36.75 0.0007876063    1.420    0.296
        52  -8.5247    106.3217    131.6606   9.5143904678e+01   3.4311946450e+01    0.3027262    0.2073307 -84.39  0.001293348    2.025    0.506
        53  -9.8270     78.1017    165.1462   1.0858949007e+02   3.0958410815e+01    0.2787661     0.240584 -74.55 0.0004506729    1.095    0.087
        54  -8.1473    106.9964    120.2481   9.2334113158e+01   3.6876059926e+01    0.1977953    0.1943965  35.64 0.0001961579    1.072    0.067
        55 -12.0473     31.2002    247.9152   1.2583861978e+02   1.9822792730e+01    0.8609496    0.6016738  38.28  0.006375934    1.640    0.390
        56  -8.6258     23.6770    117.2943   1.1597905592e+02   4.8675484527e+01    0.1257605   0.08548943  73.27 0.0002616034    1.617    0.381
        57 -13.4262     44.2537    197.5746   1.1994784989e+02   2.8096959133e+01     2.798034      1.05013  64.73   0.01112419    3.498    0.714
        58  -7.9129    168.2178    113.4216   7.5042715853e+01   2.5349207183e+01    0.2214228    0.1525155  62.51 0.0009387496    1.715    0.417
        59  -8.4204    134.7578    111.9981   8.2756954601e+01   3.3170930054e+01    0.2213733    0.1309129 -44.62 0.0007957648    1.656    0.396
        60  -7.9031    205.5082    110.4603   6.6628410287e+01   1.7339202555e+01    0.1515409    0.1427305 -18.89 3.666903e-05    1.035    0.034
        61  -8.4643     32.5767    108.7784   1.1201540942e+02   4.9949735640e+01    0.1810204    0.1094069 -77.48 0.0003716075    1.587    0.370
        62  -8.4993    134.5190    103.4890   8.0509122241e+01   3.5073410662e+01     0.156804    0.1522117 -23.08 0.0001414254    1.021    0.021
        63 -11.6447     37.4040    208.6989   1.2221489467e+02   2.6563987132e+01     0.495819    0.4213252  40.60  0.001507498    1.447    0.309
        64 -12.9764      9.4233    207.3790   1.2736730875e+02   2.9702239313e+01     1.021284    0.8177335 -84.68  0.004511383    1.273    0.215
        65  -9.7202     13.4278     60.3494   1.0890535522e+02   6.2473510385e+01    0.2178091    0.1775007 -61.49 0.0005828305    1.168    0.144
        66 -10.7292      2.1890     54.4779   1.1207984017e+02   6.4337626865e+01    0.5573279   0.09353217 -61.76  0.002066701    3.582    0.721
        67  -9.4192    139.3779     45.2765   6.1017943057e+01   4.4691707035e+01    0.3034954    0.2428651 -80.82 0.0008100927    1.574    0.365
        68 -11.2708     82.8998    246.0712   1.1678764224e+02   1.3698763508e+01     0.714844    0.2444608  38.43  0.003342984    2.582    0.613
        69  -9.8237    119.3530    242.9665   1.0975429450e+02   8.9083511930e+00     0.222283    0.1469284 -50.08  0.001358842    1.897    0.473
        70 -10.8785    126.6141    241.8526   1.0825805187e+02   7.9726801520e+00    0.3779885    0.1692099  45.27  0.001823558    1.811    0.448
        71  -9.0046     40.1620    234.0736   1.2349226961e+02   2.1303987323e+01    0.1521994    0.1281354 -88.22 0.0004944823    1.308    0.235
        72 -10.5346      2.1438     37.7784   1.0780636582e+02   6.7758263374e+01    0.5152624    0.1011604 -58.44  0.002031901    3.381    0.704
        73  -9.4269    102.1736    240.8514   1.1275259352e+02   1.1848638916e+01    0.1879296      0.13641  61.35  0.001223963    1.200    0.167
        74  -8.8185     56.5003    234.9969   1.2064920465e+02   1.9163827167e+01    0.1532552   0.09946086 -78.47 0.0005018088    1.522    0.343
        75  -9.9892     64.0678    238.2081   1.1953235103e+02   1.7612033798e+01    0.3450588    0.1898194  39.60   0.00114101    1.696    0.410
