#   1 NUMBER                 Running object number                                     
#   2 MAG_AUTO               Kron-like elliptical aperture magnitude                    [mag]
#   3 X_IMAGE                Object position along x                                    [pixel]
#   4 Y_IMAGE                Object position along y                                    [pixel]
#   5 X_WORLD                Barycenter position along world x axis                     [deg]
#   6 Y_WORLD                Barycenter position along world y axis                     [deg]
#   7 A_WORLD                Profile RMS along major axis (world units)                 [deg]
#   8 B_WORLD                Profile RMS along minor axis (world units)                 [deg]
#   9 THETA_WORLD            Position angle (CCW/world-x)                               [deg]
#  10 FWHM_WORLD             FWHM assuming a gaussian core                              [deg]
#  11 ELONGATION             A_IMAGE/B_IMAGE                                           
#  12 ELLIPTICITY            1 - B_IMAGE/A_IMAGE                                       
         1 -12.8056    218.0619     53.9394   2.8383072014e+01   2.5085536784e+01     1.120161    0.9102451  87.76  0.007350268    1.233    0.189
         2 -13.0675    237.9778     40.5605   2.3786433511e+01   2.3018066040e+01      0.93793    0.8076769  53.46  0.006716121    1.614    0.380
         3  -9.6740      2.8974      2.8621   7.0684944443e+01   7.6409886995e+01    0.1884527    0.1282872  -8.81  0.001251401    1.295    0.228
         4  -9.3973     16.8040      2.3767   6.0445242921e+01   7.4826660166e+01    0.1640122   0.09165224  24.96 0.0004806958    1.655    0.396
         5  -9.3987    139.9828    249.5140   8.0986849625e+01   3.4994265585e+00    0.1756617   0.09635128   9.48 0.0008097783    2.484    0.597
         6 -10.7653    247.6242    249.7605   6.1161970247e+01  -9.0503215319e+00    0.2399042    0.2003971  -9.80  0.001981037    1.394    0.283
         7 -14.9676     23.3253    182.0774   1.0149341399e+02   3.3023219366e+01     7.021327     2.366579  84.41   0.02045671    5.161    0.806
         8  -9.8187    107.4987    223.4459   8.4803258091e+01   1.2775693438e+01    0.2252947    0.1331719 -76.49  0.001040755    2.451    0.592
         9  -8.9295    178.2053    222.9702   6.9375450093e+01   2.7707422798e+00    0.1720001    0.1609493  10.36 0.0004534525    1.220    0.180
        10  -9.4212    101.5020    223.5095   8.6202774721e+01   1.3614059171e+01    0.1333315    0.1181378  36.73 6.965808e-05    1.009    0.009
        11 -10.0471     96.6146    219.8595   8.6899171199e+01   1.5059749595e+01    0.2420013    0.1447558  37.61  0.001220328    1.464    0.317
        12 -10.5977     57.9004    219.8248   9.6112402000e+01   2.0227969734e+01    0.2414355    0.1750082 -88.37  0.001381495    1.443    0.307
        13  -9.4358     71.1522    213.1606   9.2246626824e+01   2.0009582490e+01    0.1979459     0.141793  58.05 0.0007502557    1.343    0.255
        14 -12.4319      2.9752    196.1571   1.0763734544e+02   3.1439230187e+01     0.352766    0.2876016 -77.83 0.0008098843    1.236    0.191
        15 -10.8025     78.7888    206.5826   8.9611022459e+01   2.0455790965e+01    0.3378486    0.2428436 -87.97 0.0004285398    1.575    0.365
        16 -14.0845     10.8705    190.5439   1.0535434375e+02   3.2102797519e+01     1.874026    0.8940443  80.44  0.004504744    2.084    0.520
        17  -9.2838    243.3303    171.6790   4.8971671118e+01   2.2544475593e+00    0.1106982   0.08959322 -58.98 0.0007048861    1.693    0.409
        18 -11.4810     46.6842    166.6125   9.3354060793e+01   3.4424621624e+01    0.3331594    0.2877486 -52.81 0.0004998681    1.239    0.193
        19  -8.0101    110.6900    167.3223   7.5400093706e+01   2.4731993070e+01    0.1537459    0.1154718  71.72 0.0004369096    1.649    0.394
        20 -10.5091     60.1756    157.6755   8.8125113898e+01   3.5024430169e+01    0.2767842    0.2733119  33.84 0.0004343608    1.107    0.096
        21 -12.8020     44.9927    153.4481   9.2138345544e+01   3.8052736835e+01    0.5948063    0.4080877 -29.76  0.001599582    1.889    0.471
        22 -12.0006     69.1631    152.0096   8.4502487328e+01   3.5233349342e+01    0.6932347    0.5488073  44.34  0.001887833    1.251    0.201
        23 -12.6105     68.1598    143.6348   8.3356996769e+01   3.7554157606e+01     1.180512    0.6562058  62.54  0.003067459    2.467    0.595
        24 -11.5027     74.2921    137.5475   8.0288873736e+01   3.8203050033e+01    0.4832742    0.3006629 -62.62 0.0003658126    1.594    0.372
        25 -10.2347     87.1916    140.2924   7.6845633187e+01   3.5408606565e+01    0.3107643    0.2746302 -66.55 0.0007254919    1.122    0.108
        26  -9.1095     91.1520    137.1211   7.4996584833e+01   3.5531222804e+01    0.2300656     0.210141 -18.14 0.0003718711    1.217    0.178
        27 -11.0546    243.7343    131.7142   4.1412238418e+01   8.5045760975e+00    0.2743605     0.189054 -10.66  0.001554445    1.928    0.481
        28  -9.2038    171.7420    241.0009   7.3368887720e+01   7.1424274005e-01    0.1440437    0.1006725 -38.27  0.000425544    1.531    0.347
        29 -11.5638     55.0124    125.5560   8.4321322068e+01   4.4129427727e+01    0.8271922    0.3683873 -78.09  0.002614087    3.579    0.721
        30 -11.2817     51.9996    113.3456   8.2938819341e+01   4.7697187124e+01     1.000074    0.2232741 -65.25  0.002248522    6.545    0.847
        31 -10.5744     65.3936    234.3610   9.5695342793e+01   1.6199948595e+01    0.2732159    0.1517073 -62.20  0.001436786    1.992    0.498
        32  -9.7210     88.8227    125.2118   7.3110724338e+01   3.8916516293e+01    0.3140914    0.2583834  17.76 0.0007102707    1.381    0.276
        33  -9.6791     67.5785    125.6775   8.0085872340e+01   4.2297826263e+01    0.3134052    0.1316335 -54.28  0.001149312    2.224    0.550
        34  -9.0045    101.9711    118.1422   6.7424886765e+01   3.8208079890e+01    0.2181254    0.2156365  82.37 0.0003065503    1.013    0.013
        35  -9.0505    204.4641    110.8783   4.2778500804e+01   1.8714077239e+01    0.2654396     0.178581  33.90  0.001341233    1.969    0.492
        36  -9.5108    129.7964    231.2079   8.0785598819e+01   8.0998084135e+00    0.2101961    0.1253285  61.72 0.0009091877    2.731    0.634
        37 -10.0862    104.7434    129.9806   6.9409565961e+01   3.4832553671e+01    0.5387822    0.3645111  46.98  0.002133144    1.507    0.337
        38 -11.6110    243.8117    101.7198   3.5511790913e+01   1.3217410501e+01    0.3178082    0.2668751 -35.87  0.002163041    1.159    0.137
        39  -8.5951     35.3850     98.1814   8.6065504430e+01   5.3575523013e+01      0.19693    0.1303045 -78.14 0.0004442957    1.678    0.404
        40  -8.8756     12.6553     93.7118   9.4526009488e+01   5.6745036758e+01    0.1429354   0.08729365 -37.31 0.0007023001    1.652    0.395
        41 -10.2273     52.9769     90.9636   7.7326200560e+01   5.3144045979e+01    0.3574466    0.1924581 -47.57  0.001493469    1.771    0.435
        42  -9.1257     41.5003     92.0080   8.2193051877e+01   5.4403869199e+01     0.245686     0.194857  -7.89 0.0004895705    1.415    0.294
        43 -13.6828      8.5491    208.1976   1.0695731473e+02   2.8164339314e+01     1.916101     1.358034 -28.02  0.009520968    2.138    0.532
        44  -8.8754    122.6733    230.6764   8.2291970272e+01   9.2051208538e+00    0.1316738   0.09615287  -6.74 0.0007048819    1.691    0.409
        45  -9.1706    184.6737     77.0097   3.7986472963e+01   2.8587381672e+01    0.2000917    0.1661455 -50.92 0.0005108506    1.103    0.093
        46  -9.9269     83.9929    229.8268   9.0990865894e+01   1.4727493518e+01    0.2081171    0.1474764  -1.45  0.001083152    1.985    0.496
        47 -10.3259      1.7714     61.6197   9.3328782278e+01   6.5132205540e+01    0.3308419    0.1525135 -70.31  0.001552402    2.112    0.526
        48 -11.8112     37.9764    172.3064   9.6520734588e+01   3.3965153501e+01    0.6978341     0.436927   7.85 0.0009364874    2.171    0.539
        49 -11.3278     80.7397    247.4904   9.3480498615e+01   1.1659971003e+01    0.4137682    0.3310865 -51.39  0.002678454    1.512    0.339
        50 -10.6205     13.4863     60.1687   8.6923105260e+01   6.4690243015e+01    0.2463609    0.2273444 -68.98 0.0004803609    1.209    0.173
        51 -10.3115      2.1514     49.9468   9.0297011448e+01   6.7712288047e+01    0.3121036    0.0790259 -64.92  0.001123258    3.640    0.725
        52  -9.8867      4.4605     40.5126   8.6203785412e+01   6.9560527167e+01    0.1238025    0.1021401 -30.92 0.0002414126    1.008    0.008
        53 -15.2957     10.1463    237.5469   1.0804612041e+02   2.1638258279e+01     10.92558     5.786448 -82.26   0.05632851    1.852    0.460
