#   1 NUMBER                 Running object number                                     
#   2 MAG_AUTO               Kron-like elliptical aperture magnitude                    [mag]
#   3 X_IMAGE                Object position along x                                    [pixel]
#   4 Y_IMAGE                Object position along y                                    [pixel]
#   5 X_WORLD                Barycenter position along world x axis                     [deg]
#   6 Y_WORLD                Barycenter position along world y axis                     [deg]
#   7 A_WORLD                Profile RMS along major axis (world units)                 [deg]
#   8 B_WORLD                Profile RMS along minor axis (world units)                 [deg]
#   9 THETA_WORLD            Position angle (CCW/world-x)                               [deg]
#  10 FWHM_WORLD             FWHM assuming a gaussian core                              [deg]
#  11 ELONGATION             A_IMAGE/B_IMAGE                                           
#  12 ELLIPTICITY            1 - B_IMAGE/A_IMAGE                                       
         1 -15.1788    244.1290     15.0589   7.7667414846e+00   2.2843354220e+01     2.724275    0.9666332 -41.60   0.01240276    2.336    0.572
         2 -12.0243      1.7785     25.1709   7.4092896138e+01   7.0198069476e+01    0.5771115    0.1171163 -55.89  0.002291252    3.829    0.739
         3 -13.0825     25.0552      4.0548   5.2655023265e+01   7.1593047670e+01    0.5785466    0.2929797  13.22  0.003192589    2.180    0.541
         4 -13.3394      6.4923     10.8037   6.5964387953e+01   7.2319400818e+01    0.8187525    0.3872405 -30.00  0.004883558    1.728    0.421
         5 -12.1294     10.2234      2.1690   5.9771106411e+01   7.3309832647e+01    0.5867889      0.21488  18.47  0.002928641    3.108    0.678
         6 -12.2768     13.5589     12.7521   6.2959565095e+01   7.1475604811e+01    0.3442243    0.1761627 -25.49  0.001674026    1.706    0.414
         7 -12.4539     15.8903      6.7383   5.8877641821e+01   7.2163297155e+01    0.4869881    0.2204777 -26.05  0.002646635    2.038    0.509
         8 -13.5624     12.1525     23.2700   6.8085217019e+01   6.9878587676e+01    0.6901972    0.2440448 -36.92  0.003414178    2.312    0.568
         9 -12.3881     19.7622     13.9332   6.0212109083e+01   7.0750421169e+01    0.3523269    0.1587429 -30.77  0.001921221    1.928    0.481
        10 -10.8508     33.6170      8.1515   5.0464263982e+01   7.0055519790e+01    0.1682708   0.08896974 -22.28 0.0009472846    1.744    0.427
        11 -10.9328      2.6298      2.0664   6.4153267499e+01   7.3916491189e+01    0.2066823    0.1685762  -8.77  0.001311854    1.266    0.210
        12 -10.0993     49.5913    243.7001   9.2795306728e+01   1.8450068651e+01    0.1509677   0.08862865  84.97 0.0006984511    1.585    0.369
        13 -11.5303    249.9924    232.9371   5.3285958713e+01  -1.0704878869e+01    0.3616972    0.2135776 -17.51  0.001897428    1.645    0.392
        14 -12.4066    243.1623    245.4646   5.6562465303e+01  -1.1242799710e+01    0.6134429     0.314315 -10.65  0.003193819    2.459    0.593
        15 -11.9138    247.3506    239.2807   5.4815243069e+01  -1.1096726528e+01    0.4044191     0.239754  -6.26  0.001778175    1.739    0.425
        16 -11.3984    249.0116    249.9391   5.6275708148e+01  -1.2542485499e+01    0.4684286    0.1764314  31.94  0.002384658    2.249    0.555
        17 -11.0956    248.8569    244.9112   5.5486028181e+01  -1.1955831175e+01    0.2880242     0.191892  -5.35  0.001914313    1.355    0.262
        18 -10.9220    233.5231    250.5056   5.9061373441e+01  -1.0487146225e+01    0.2800837   0.09220942  35.47  0.001290408    2.522    0.603
        19 -12.0040    248.7919    225.0934   5.2136022381e+01  -9.5673220036e+00     0.395705    0.2207801 -19.79  0.001723991    1.787    0.440
        20 -12.7308    234.2908    244.3377   5.7939492261e+01  -9.8654325920e+00    0.5038049    0.2898525  -2.88  0.002176175    2.042    0.510
        21 -11.4798    244.9094    230.4411   5.3743406543e+01  -9.6821736329e+00    0.2713067    0.1480923 -14.38  0.001461242    2.019    0.505
        22 -12.0348    240.0371    239.4508   5.6122180172e+01  -1.0093850959e+01    0.2911487     0.192586  -4.53  0.001441459    1.445    0.308
        23 -11.8017    243.7609    235.3232   5.4776738437e+01  -1.0120253100e+01    0.2943437    0.1731613 -10.47  0.001239416    1.786    0.440
        24 -12.1514    225.7100    248.3445   6.0111293780e+01  -9.1139131908e+00    0.3588795    0.2241045  22.41  0.001704241    1.330    0.248
        25 -12.7695    212.6430    247.9342   6.2418079334e+01  -7.1283283274e+00    0.4772344    0.2801347  13.69  0.002635936    1.877    0.467
        26 -11.3145    202.8089    249.5426   6.4476248091e+01  -5.8373793280e+00    0.2383107    0.1614356  10.72  0.001277815    1.519    0.342
        27 -11.8861    169.0887    250.1823   7.0920457412e+01  -5.9726235113e-01    0.3571337    0.1322028  36.14    0.0015741    2.305    0.566
        28 -13.1812    143.1466    247.4379   7.5546930514e+01   4.0231094029e+00    0.5468856    0.2576285  44.27  0.002770818    1.707    0.414
        29 -11.5735     88.3722    250.1194   8.6259051944e+01   1.2053937529e+01     0.388182    0.1828093  33.36  0.001930239    2.355    0.575
        30 -11.2509     74.5940    250.2849   8.8799259634e+01   1.3971450553e+01    0.3342619    0.1077544  44.57  0.001579475    2.324    0.570
        31 -11.6998     65.2689    249.0410   9.0383867583e+01   1.5456962996e+01     0.399764    0.1843571  52.22  0.002251787    1.688    0.408
        32 -11.3481     50.1046    250.1228   9.3143663801e+01   1.7218257230e+01     0.380598     0.129006  41.35  0.001931447    2.365    0.577
        33 -11.3298     44.6988    245.0392   9.3750023865e+01   1.8806389256e+01     0.349171    0.1738355  61.06  0.001789752    1.624    0.384
        34 -11.8507     36.7705    248.6623   9.5346857229e+01   1.9093855626e+01    0.4284739    0.1848537  58.00  0.002490049    1.812    0.448
        35 -10.9415     27.2466    248.8811   9.6962871716e+01   2.0143924410e+01    0.2862077    0.1253826  61.15   0.00138449    1.784    0.439
        36 -11.8981     20.4362    249.0538   9.8096561417e+01   2.0860215291e+01    0.3525406    0.1764907  52.27  0.001810941    1.497    0.332
        37 -12.0903      2.3112    211.1415   9.9295317106e+01   2.9892727786e+01    0.6877353    0.1890842 -85.74  0.002952263    3.497    0.714
        38 -12.4564     16.0891    240.4636   9.8387361556e+01   2.2885542970e+01    0.5685995    0.2265595  55.39  0.002709381    1.880    0.468
        39 -11.9350     12.1605    248.9492   9.9433675173e+01   2.1751617254e+01    0.3745552    0.1548199  52.83  0.001737098    1.750    0.428
        40 -11.8539      2.2254    220.9780   9.9794582611e+01   2.7955214599e+01    0.3517698    0.1629167  89.64   0.00172925    1.759    0.432
        41 -12.1340      6.7020    236.3224   9.9751038683e+01   2.4604543689e+01    0.4900169     0.216605  61.32  0.003057248    1.713    0.416
        42 -12.0041      4.8651    228.3033   9.9688081266e+01   2.6294158045e+01    0.4486843    0.1961245  73.82  0.001944781    1.900    0.474
        43 -11.3650      3.5863    250.3083   1.0085004261e+02   2.2374578489e+01    0.2767395    0.1430006  35.66   0.00175783    2.155    0.536
        44 -12.6251      3.3425    243.1405   1.0059567894e+02   2.3680935014e+01    0.5090135    0.2312661  76.72  0.003234305    1.758    0.431
        45 -11.8143     29.6148    240.6931   9.6103647916e+01   2.1376359439e+01      0.41899    0.2010253  68.19  0.001991909    1.759    0.431
        46 -12.4884    226.0972    240.8917   5.8849282162e+01  -8.2497584064e+00    0.3092113    0.1921355  -1.84  0.001776904    1.791    0.442
        47 -11.5101     72.7059    240.4075   8.8315208120e+01   1.6021646259e+01    0.3667229    0.1766322  56.12  0.001929079    1.766    0.434
        48 -12.0123    107.8362    240.1531   8.1558874874e+01   1.0893182115e+01    0.4040758    0.1651774  50.21  0.001874375    2.117    0.528
        49 -10.8767     38.1771    240.4365   9.4597046277e+01   2.0438613703e+01    0.2849301    0.1356556  60.88  0.001342266    1.706    0.414
        50 -11.3168     77.1852    246.6913   8.8023214186e+01   1.4252582605e+01    0.2003908        0.112  55.55   0.00116525    1.440    0.305
        51 -11.9312    128.8067    239.9921   7.7423603654e+01   7.5825502141e+00    0.3268537     0.133357  51.68  0.001416014    2.417    0.586
        52 -10.5552     64.7462    239.8750   8.9753973852e+01   1.7202779645e+01    0.2440514    0.1059077  58.31  0.001236327    2.074    0.518
        53 -11.0441    220.0686    238.6796   5.9588471813e+01  -7.0622123162e+00    0.1790378    0.1337062  20.72 0.0008442664    1.071    0.066
        54 -11.1306     45.2212    237.4147   9.3141062856e+01   2.0162254566e+01    0.3074935    0.1585392  63.09  0.001589679    1.622    0.384
        55 -12.3809    115.9393    244.3043   8.0443783163e+01   8.8989004091e+00    0.3787822    0.1704202  48.57  0.001874331    1.840    0.457
        56 -11.3644     82.0892    236.4140   8.6171140993e+01   1.5441738753e+01    0.3400361    0.1445101  57.22  0.001596004    2.288    0.563
        57 -12.1037    231.4504    234.8587   5.6887304228e+01  -8.2786651000e+00     0.302117     0.196795 -10.57   0.00182053    1.569    0.363
        58 -11.3809     95.2649    235.3422   8.3503299122e+01   1.3696915942e+01    0.3284948    0.1422722  50.34  0.001584113    1.954    0.488
        59 -10.9427    207.0185    233.9668   6.1252478073e+01  -4.3946177536e+00    0.2082363    0.1347884   8.09  0.001141122    1.744    0.427
        60  -9.9485     67.3228    234.6253   8.8832153249e+01   1.7845389740e+01    0.1325757   0.07047467  66.87 0.0007029222    1.817    0.450
        61 -11.6037     14.3157    232.0709   9.8261401953e+01   2.4641763915e+01    0.3715189    0.1761812  65.59  0.001982294    1.674    0.403
        62 -11.3849     11.0976    225.7419   9.8490380489e+01   2.6180057672e+01    0.3728626    0.1619742  62.23   0.00156757    1.849    0.459
        63 -10.9894     59.7229    232.1957   9.0067233926e+01   1.9324980261e+01    0.3725391    0.1306221  54.94  0.001681991    2.583    0.613
        64 -11.1195     39.7940    230.9973   9.3682330725e+01   2.2042237221e+01    0.3243471    0.1660186  78.40  0.001848454    1.849    0.459
        65 -10.8355    214.7759    239.4256   6.0684369361e+01  -6.3507846261e+00    0.1782255   0.09543221  27.93 0.0009466226    1.646    0.393
        66 -10.9245     48.7376    230.6709   9.2008842883e+01   2.1021916517e+01    0.3165091    0.1583365  76.31  0.001703554    2.028    0.507
        67 -11.9540     25.6388    228.8118   9.6097991796e+01   2.4073422832e+01    0.5058892    0.2415359  77.15  0.002896496    1.899    0.473
        68 -11.8304    236.9913    228.1336   5.4748917687e+01  -8.2366012975e+00    0.3101336    0.1608463 -25.77  0.001658974    2.002    0.500
        69 -10.5217     32.4823    229.4723   9.4909724508e+01   2.3184819505e+01    0.2667385    0.1088079  64.90  0.001357479    2.291    0.563
        70 -10.4072     32.8593    236.1332   9.5263716490e+01   2.1864396555e+01    0.2609761    0.1027084  64.92  0.001320901    2.381    0.580
        71 -10.1320    229.4930    227.0036   5.5908602164e+01  -6.9596188484e+00    0.1776215    0.1129856 -27.35  0.001036749    1.610    0.379
        72 -11.3596     18.8875    221.9710   9.6902920815e+01   2.6129220306e+01    0.3352242    0.1717534  71.80  0.001564985    1.627    0.385
        73 -12.0089     12.2043    217.0363   9.7826817928e+01   2.7782103443e+01    0.4749616    0.2285489  64.57  0.002093438    1.700    0.412
        74 -10.2231     55.1570    222.1641   9.0109040038e+01   2.1891760689e+01     0.179443    0.1136013  67.43  0.001084943    1.348    0.258
        75 -10.7976     43.7424    221.3478   9.2244877518e+01   2.3474595623e+01    0.2739046    0.1427626  66.50  0.001533661    1.724    0.420
        76 -12.2230    248.4742    215.0215   5.0394967493e+01  -8.2203325201e+00    0.4820108     0.225292 -21.65  0.002298509    2.399    0.583
        77 -11.8814    239.2721    219.2574   5.2783925292e+01  -7.4100199748e+00    0.2947838    0.1767773 -14.68   0.00162512    1.749    0.428
        78 -11.2335     34.9345    217.2559   9.3621761914e+01   2.5332292417e+01    0.3226945    0.1697592  72.58  0.001838201    1.720    0.418
        79 -10.4956     24.3191    217.4623   9.5633189725e+01   2.6458763515e+01    0.2437762    0.1222597  71.84  0.001358172    1.747    0.428
        80 -10.8823     21.6326    211.2564   9.5736321181e+01   2.8001526086e+01    0.2904608    0.1614712  88.96  0.001777438    1.517    0.341
        81  -9.9570     44.3512    212.6604   9.1440933498e+01   2.5173965810e+01    0.1342256    0.0693769  66.23 0.0001099316    1.798    0.444
        82 -10.7809     28.8377    211.3740   9.4370177449e+01   2.7213760222e+01    0.2651455    0.1339706  73.40  0.001471591    1.812    0.448
        83 -10.1413    233.5737    211.2018   5.2358044151e+01  -5.4207425066e+00    0.1796781    0.1080258 -19.15 0.0009498201    1.735    0.424
        84 -12.4192     12.6514    205.6183   9.7080415401e+01   3.0056491138e+01    0.5196778    0.2631744  66.10  0.002726405    1.663    0.399
        85 -10.2376     36.1850    207.7681   9.2668149765e+01   2.7147805487e+01    0.2172546   0.08547406  65.33 0.0009523338    2.796    0.642
        86 -10.2691    239.7018    206.5283   5.0387295511e+01  -5.7243625101e+00    0.2196174     0.105731 -34.11  0.001075399    2.053    0.513
        87 -10.0444    246.9868    205.7476   4.8949191695e+01  -6.7423294229e+00     0.179061    0.1439748   0.74  0.001101345    1.017    0.017
        88 -10.2193    250.5597    200.2751   4.7296027974e+01  -6.5271787577e+00    0.2297838     0.110696 -36.65  0.001136606    2.053    0.513
        89  -9.7960     31.3327    201.6707   9.3163380063e+01   2.8975439597e+01    0.1304531   0.06882689  67.15 0.0007051914    1.720    0.419
        90 -10.1079     18.6999    201.3427   9.5644289021e+01   3.0358332828e+01    0.1949391   0.09688152  66.63  0.001091104    1.777    0.437
        91 -10.2859    243.4993    199.9886   4.8479485641e+01  -5.3902243640e+00    0.1896814     0.114181 -29.28 0.0006815924    1.580    0.367
        92 -11.1561      9.3965    198.1924   9.7248843154e+01   3.1908011468e+01    0.2926022    0.1248899  81.02  0.001221766    2.194    0.544
        93 -12.1129      4.1169    188.6995   9.7697631933e+01   3.4384275889e+01     0.625125    0.2228281  69.49   0.00281935    3.001    0.667
        94 -12.2218      3.5521    196.9632   9.8298512934e+01   3.2687459166e+01    0.4151227     0.204257  75.18  0.001981867    1.720    0.418
        95 -11.8454     16.3501    196.2262   9.5760434565e+01   3.1671020419e+01    0.3105438    0.1407124  56.63  0.001704865    1.940    0.484
        96 -10.8374     11.3875    190.9077   9.6391312645e+01   3.3272177728e+01    0.2551659    0.1114586  88.78  0.001263029    2.061    0.515
        97 -11.4757     17.2077    189.9435   9.5148027064e+01   3.2938099955e+01    0.3005519    0.1435009  83.83  0.001588954    1.941    0.485
        98 -10.3798     24.1975    186.3128   9.3421260477e+01   3.3049581470e+01    0.2486117       0.1181  76.75  0.001236444    2.140    0.533
        99 -12.0930     11.6716    184.2719   9.5879739343e+01   3.4681351797e+01    0.3548518    0.1628866 -85.44  0.001799527    1.846    0.458
       100 -11.0958     17.1074    181.4121   9.4534088757e+01   3.4814164294e+01    0.2994925    0.1266716  86.69  0.001412094    2.387    0.581
       101 -11.6184      5.5212    183.1584   9.7064105432e+01   3.5456819910e+01    0.2794057    0.1461636  79.14 0.0009520779    1.637    0.389
       102 -11.7923      1.9484    178.1114   9.7467193757e+01   3.6845823876e+01     0.432913    0.1623881 -82.89  0.001997627    2.204    0.546
       103 -10.4832     23.2881    179.8668   9.3087254811e+01   3.4569620281e+01    0.2044996    0.1213884  80.60  0.001075702    1.494    0.331
       104 -11.7202      9.0351    177.9639   9.5981897525e+01   3.6293284973e+01    0.2425387     0.131958 -81.01  0.001160401    1.473    0.321
       105 -10.8481     18.5348    174.5043   9.3676562887e+01   3.6221345018e+01    0.2095986   0.08166687  44.58  0.001036361    2.387    0.581
       106 -11.1003     11.3038    172.4425   9.5088538106e+01   3.7323893549e+01    0.2130647    0.1115373  79.43  0.001123075    1.743    0.426
       107 -12.0911      6.5007    171.5364   9.6057894678e+01   3.7925193433e+01    0.3430118    0.1571051 -88.10  0.001818794    1.869    0.465
       108 -10.8152      1.4958    170.4300   9.7050424335e+01   3.8565109154e+01    0.3622653   0.09286474 -78.75  0.001469588    3.217    0.689
       109 -11.8163      2.2967    165.7396   9.6548771014e+01   3.9544038085e+01    0.3539976    0.1788059  65.19  0.002001479    1.872    0.466
       110 -11.8255     10.8195    166.6465   9.4740643525e+01   3.8665007383e+01    0.2448048    0.1364142  66.29  0.001394667    1.688    0.407
       111 -10.0827     19.6783    164.3453   9.2539963351e+01   3.8422719445e+01    0.1314649   0.07392356  70.21 0.0007049863    1.733    0.423
       112 -11.7005      5.8451    161.2975   9.5429544762e+01   4.0269091032e+01    0.2187573    0.1295379  88.10  0.001319694    1.391    0.281
       113 -12.4873     10.4949    155.7036   9.3900125606e+01   4.1178327364e+01    0.3128076    0.1660677 -83.70  0.001748334    1.557    0.358
       114  -9.8828     20.3221    155.6509   9.1566123760e+01   4.0371639458e+01    0.1323058   0.07610045  70.88 0.0007048899    1.744    0.427
       115 -12.1622      3.9500    153.2332   9.5217303586e+01   4.2236952823e+01     0.316955     0.157071 -73.20   0.00159959    1.574    0.365
       116 -11.5608      5.3864    147.1840   9.4364868060e+01   4.3514922842e+01    0.2295413    0.1160465  59.57  0.001170612    2.056    0.514
       117 -11.1984      2.3199    143.4041   9.4774634999e+01   4.4593378046e+01    0.2544946    0.1305857 -86.29  0.001326905    1.634    0.388
       118 -12.2838      7.4409    143.2489   9.3507742658e+01   4.4273377144e+01    0.4681974    0.1770246  75.96   0.00175896    3.999    0.750
       119 -11.7420      4.1508    136.9341   9.3733278577e+01   4.5957723365e+01    0.3018847    0.1372146 -86.76  0.001393797    1.999    0.500
       120  -9.9746    243.6962    139.3549   3.5932341484e+01   4.1223197638e+00    0.1383462    0.1052692 -61.83 0.0007040024    1.712    0.416
       121 -10.1235    248.6277    135.2142   3.4218906646e+01   3.8824935410e+00     0.199869    0.1183008 -27.44 0.0009472716    1.643    0.391
       122 -10.5807    247.9963    129.5191   3.3060798009e+01   4.9459877651e+00     0.279629    0.1759739 -48.34  0.001373685    1.641    0.391
       123 -11.6770      3.0269    127.8773   9.3133972812e+01   4.8120384815e+01    0.4446884    0.1599926  87.95  0.001685096    3.732    0.732
       124 -11.0965    241.6104    125.2686   3.3126104773e+01   6.9007948666e+00    0.2872745    0.1188318 -40.36  0.001140724    2.177    0.541
       125 -11.7047    248.6564    118.8516   3.0577479793e+01   6.5906088290e+00    0.4070784    0.1593353 -39.11  0.001538301    2.234    0.552
       126 -11.0032    247.6168    112.2259   2.9241498289e+01   7.8948951002e+00    0.1984751    0.1219933 -28.53  0.000946885    1.603    0.376
       127 -10.6678    248.3862    107.1309   2.7974369398e+01   8.5829733493e+00    0.2416827    0.1525137 -48.39 0.0008253334    1.523    0.343
       128 -11.8113    247.4660    102.9624   2.7160960604e+01   9.4547342282e+00    0.3685656    0.1577744 -48.88  0.001444576    2.457    0.593
       129  -9.8153    238.7591    103.0012   2.8455870532e+01   1.1251083471e+01     0.195748    0.1098998 -36.92 0.0008847976    1.614    0.381
       130 -11.4265    249.2356     98.0835   2.5800598773e+01   9.8912508279e+00    0.2685571     0.166163 -49.96 0.0009179236    1.557    0.358
       131 -10.1155    235.7002     95.3531   2.7122595588e+01   1.3184305162e+01    0.1498594    0.1021122 -62.86 0.0007037194    1.698    0.411
       132 -10.1832      1.6907     94.5215   8.9533361117e+01   5.5850597991e+01    0.2222979   0.08570611 -70.35  0.001074312    2.007    0.502
       133 -11.7684    242.6284     92.9155   2.5545018287e+01   1.2105277565e+01    0.2931821    0.1499641 -47.76  0.001285715    1.868    0.465
       134 -12.3742    248.8465     75.2764   2.0666550312e+01   1.3590528044e+01    0.6491579    0.1415136 -44.58  0.001975452    4.068    0.754
       135 -12.0365    249.4034     87.7164   2.3422171217e+01   1.1524037263e+01    0.4521327    0.1770735 -36.62  0.001820105    2.256    0.557
       136 -11.6006    246.5198     84.5385   2.3079827579e+01   1.2632759615e+01    0.2173006    0.1533891 -62.53   0.00112934    1.500    0.333
       137 -11.0485    243.4282     76.7512   2.1693372252e+01   1.4520541250e+01    0.1911544    0.1269741 -27.41 0.0007101678    1.608    0.378
       138  -9.9659    239.3162     76.6377   2.2207445769e+01   1.5433566430e+01    0.1512247     0.095909 -63.08 0.0007041682    1.763    0.433
       139 -10.8504    239.3971     72.2091   2.1160529125e+01   1.6107545362e+01    0.2063541    0.1115465 -45.95   0.00081524    1.671    0.402
       140 -11.9954    249.5459     66.5031   1.8596039575e+01   1.4774493001e+01     0.526223    0.1402828 -49.60  0.001581161    4.427    0.774
       141 -10.5002    239.2928     67.6456   2.0107599871e+01   1.6832198746e+01    0.1481002   0.09321835 -61.83 0.0007030292    1.684    0.406
       142 -11.8478      2.0053     59.7293   8.3381242034e+01   6.3450669070e+01    0.4214652    0.1298607 -70.94  0.001640004    3.677    0.728
       143 -12.4589    249.9188     53.6808   1.5679183844e+01   1.6566801473e+01    0.6559895    0.1051549 -41.33  0.002020639    4.223    0.763
       144 -12.1562      2.9233     49.9637   8.0763311485e+01   6.5416133418e+01      0.48801    0.1850901 -56.46  0.002548655    1.888    0.470
       145 -11.2958      8.3836     43.9929   7.6789096317e+01   6.6318080746e+01    0.2663259   0.09005503 -58.53  0.001245241    2.416    0.586
       146 -12.2373    127.1019    247.8756   7.8696217239e+01   6.5304528064e+00    0.3350485    0.1898718  55.32  0.001823842    1.674    0.403
       147 -11.8883     12.0988     37.6299   7.3168630037e+01   6.7310721328e+01    0.3634246    0.1164774 -49.32  0.001743306    2.234    0.552
       148 -12.0489      2.5737     40.3295   7.8396739441e+01   6.7337872661e+01    0.4225802    0.1364201 -54.95  0.002096425    2.172    0.539
       149 -11.7755     19.0778     30.1360   6.7249109901e+01   6.8163097917e+01    0.3078327     0.116894 -41.09  0.001539769    2.068    0.516
       150 -11.6750    120.3453    248.8921   8.0108193859e+01   7.4292701387e+00    0.2557523    0.1560465  38.13  0.001475941    1.427    0.299
       151 -11.2296    110.1147    248.5217   8.2019444421e+01   9.0820161531e+00    0.2047689    0.1449269  64.56  0.001150304    1.333    0.250
       152 -12.2714    194.5721    245.8251   6.5457130529e+01  -4.0561980159e+00    0.3422039    0.2063875   1.39  0.001720941    2.463    0.594
       153 -12.3949    158.0444    245.6792   7.2433388904e+01   1.8709841068e+00    0.3502623      0.13089  34.49  0.001466268    2.546    0.607
       154 -10.8918    183.7540    250.3955   6.8167154674e+01  -2.9726973968e+00    0.1806342   0.09460366  31.34 0.0009480986    1.656    0.396
       155 -12.1788    178.0866    243.9019   6.8312608087e+01  -1.1375291778e+00    0.3120784    0.1960651  17.84   0.00168336    1.844    0.458
       156 -12.4204     97.2866    245.0318   8.4101528568e+01   1.1636904905e+01    0.4502058    0.1639513  48.40  0.002076683    2.220    0.550
       157 -11.6332      3.0116     33.8019   7.6280940293e+01   6.8557756574e+01    0.2992693   0.09810024 -47.84  0.001523324    2.066    0.516
       158 -11.6753     26.3864     15.8807   5.7725065854e+01   6.9805125327e+01    0.2424363    0.1148496 -28.75  0.001304387    1.905    0.475
       159 -12.0792     84.4449    244.5904   8.6485989253e+01   1.3601221394e+01     0.358851    0.1738009  58.27  0.001884584    1.892    0.471
       160 -11.7694     57.4196    242.1879   9.1279008639e+01   1.7736003998e+01    0.4458059    0.1998467  58.46  0.002214533    1.910    0.476
