#   1 NUMBER                 Running object number                                     
#   2 MAG_AUTO               Kron-like elliptical aperture magnitude                    [mag]
#   3 X_IMAGE                Object position along x                                    [pixel]
#   4 Y_IMAGE                Object position along y                                    [pixel]
#   5 X_WORLD                Barycenter position along world x axis                     [deg]
#   6 Y_WORLD                Barycenter position along world y axis                     [deg]
#   7 A_WORLD                Profile RMS along major axis (world units)                 [deg]
#   8 B_WORLD                Profile RMS along minor axis (world units)                 [deg]
#   9 THETA_WORLD            Position angle (CCW/world-x)                               [deg]
#  10 FWHM_WORLD             FWHM assuming a gaussian core                              [deg]
#  11 ELONGATION             A_IMAGE/B_IMAGE                                           
#  12 ELLIPTICITY            1 - B_IMAGE/A_IMAGE                                       
         1  -8.7816     96.9497     14.9759   5.3691980133e+01   5.7559867133e+01    0.2191661     0.174319 -23.47  0.000723445    1.371    0.271
         2  -7.8354     83.4242     11.2371   5.5856985313e+01   6.0764480326e+01     0.163037    0.1152992 -31.64 0.0009393822    1.608    0.378
         3  -8.5292     55.7930     10.1240   6.4601986691e+01   6.6058301233e+01    0.1695848    0.1556176  -2.88 0.0006655169    1.318    0.241
         4  -8.1150     47.4603     10.2770   6.8019578124e+01   6.7399853371e+01    0.1548607    0.1061169 -31.68 0.0007630425    1.610    0.379
         5  -8.4040     90.9705      8.9825   5.2835576314e+01   5.9404829160e+01    0.1835668    0.1544188 -65.83 0.0006041888    1.662    0.398
         6  -7.4627     12.7131      8.7018   8.4279853221e+01   7.2013557543e+01    0.1168339    0.0674761 -13.48  0.000265304    1.552    0.356
         7  -8.5473     33.4978      5.1883   7.1671495270e+01   7.0042193045e+01     0.268054    0.1723133 -48.58  0.001342094    2.914    0.657
         8  -8.4408     79.2089      4.2580   5.4067265218e+01   6.2253550509e+01    0.2222186    0.1559151 -28.87 0.0007796544    1.622    0.384
         9  -7.6919     44.7080      3.3291   6.5696286290e+01   6.8589772838e+01    0.1006537   0.09376419 -32.29 0.0007020012    1.625    0.385
        10  -7.8725     15.5315      3.4425   8.0010682414e+01   7.2450837812e+01     0.115712   0.08346083  -6.57 5.781047e-05    1.022    0.022
        11  -8.3158     62.3920      1.4461   5.8047445937e+01   6.5742633923e+01    0.1843026    0.1127361  60.09 0.0005786914    2.055    0.513
        12  -7.8547     39.4070      1.4846   6.7023354871e+01   6.9598179953e+01    0.1180091    0.0910815   7.59 9.841791e-05    1.032    0.031
        13  -9.1633    120.1565    245.6626   1.0422012610e+02   7.2167290237e+00    0.3120099     0.201416  82.90   0.00147072    2.474    0.596
        14  -9.9886    248.7581    243.7582   7.9193825337e+01  -1.0929664846e+01    0.7395463     0.184639 -36.08  0.002964434    3.924    0.745
        15  -8.8248    247.9420    234.5679   7.7785917178e+01  -9.6827139877e+00    0.2229366    0.1414043 -17.32 0.0009150053    1.359    0.264
        16  -8.6977    232.8009    247.7596   8.2649468329e+01  -9.4285868038e+00    0.2543039    0.1800274 -47.77  0.001560036    2.332    0.571
        17  -8.2963    191.5252    249.6976   9.0611326448e+01  -4.0560200207e+00    0.1973229     0.129207  45.59 0.0007674709    1.765    0.433
        18  -8.3079     93.8591    249.4885   1.0987864415e+02   1.0327200090e+01    0.2276915    0.1237516  66.20  0.001141137    2.325    0.570
        19  -8.5822     67.5619    245.2817   1.1460325239e+02   1.4624423348e+01    0.2030791    0.1098083 -77.06  0.001131298    2.043    0.510
        20  -8.7812    201.9964    243.4732   8.7646857078e+01  -4.6770888748e+00    0.1950733    0.1686985 -45.39 0.0007406053    1.623    0.384
        21  -8.8272    168.9364    243.3481   9.4081777330e+01   2.2201544102e-01    0.1782178    0.1760188 -65.46 0.0005443922    1.336    0.252
        22  -8.4169    139.4401    244.2706   1.0014584125e+02   4.5582233613e+00    0.1555298    0.1226566 -76.24 0.0009443313    1.716    0.417
        23  -9.1879     77.8781    243.2462   1.1241153696e+02   1.3654006633e+01    0.2920488    0.1576334  73.10  0.001465055    2.368    0.578
        24  -7.8010     57.6920    244.3136   1.1641343971e+02   1.6049118857e+01    0.1235476   0.07028255  63.17 0.0002998863    1.626    0.385
        25  -8.2847     34.3774    244.2271   1.2075041003e+02   1.8794315459e+01    0.1548762   0.08806564  85.92  0.000947632    1.664    0.399
        26  -8.7876      9.3634    243.8230   1.2515612737e+02   2.1462045824e+01    0.2175138   0.08020523  89.46  0.001103485    2.701    0.630
        27  -8.9038    214.0496    242.4242   8.5206174496e+01  -6.2283518173e+00    0.2722014    0.1645924 -32.44  0.001120462    1.715    0.417
        28  -9.0713    194.3759    240.7731   8.8683430784e+01  -3.1865496667e+00    0.3722703    0.2060215 -49.56  0.001194995    2.510    0.602
        29  -9.7393    160.2706    240.6812   9.5431287695e+01   1.9668703181e+00    0.3887638    0.2719141  89.77  0.001691389    3.087    0.676
        30  -9.3488    183.2298    239.9879   9.0739410801e+01  -1.4156048545e+00    0.3873307    0.3372148  80.20  0.002137282    1.856    0.461
        31  -8.1668    153.3819    242.1983   9.7040704530e+01   2.7755757561e+00     0.155659    0.1225669 -66.52 0.0007545853    1.736    0.424
        32  -7.9367     88.1857    242.2485   1.1027004710e+02   1.2437150496e+01    0.1660083    0.1216536  69.06 0.0005567877    1.354    0.262
        33  -9.1654    241.5456    238.3048   7.9536411115e+01  -9.3498409046e+00    0.4813009    0.2125038 -13.20  0.001971467    3.687    0.729
        34  -8.6412    146.2562    239.9495   9.8175243947e+01   4.2440659172e+00    0.2253706    0.1557337  52.32 0.0008703594    1.555    0.357
        35  -9.2512    135.8550    239.2677   1.0021328273e+02   5.9604891621e+00    0.2692449    0.1642404  52.10  0.001089299    1.725    0.420
        36  -9.1655    230.7706    236.9968   8.1236869906e+01  -7.7733700362e+00    0.2911805    0.2465083 -59.60  0.001560951    2.258    0.557
        37  -8.5231    129.0843    238.9735   1.0156664074e+02   7.0479603847e+00    0.2007006    0.1390516  62.38 0.0007493622    1.718    0.418
        38  -8.2076    208.9985    238.3591   8.5493609935e+01  -4.9538528698e+00    0.1706439    0.1354803  15.79 0.0005099202    1.066    0.062
        39  -8.5491    170.9518    237.0031   9.2728443558e+01   9.1713324923e-01    0.2993388    0.2095223 -85.48  0.001368616    3.471    0.712
        40  -8.4472     25.8018    237.2204   1.2187841468e+02   2.1065173807e+01    0.2129975   0.07592424  62.60 0.0009698939    2.892    0.654
        41  -9.8499    214.8337    233.2372   8.3542730658e+01  -5.0584532655e+00    0.4661558    0.3635145 -81.89    0.0023201    3.586    0.721
        42  -8.8913    203.0620    234.6295   8.6014371031e+01  -3.5593126943e+00    0.2404726    0.1765168 -52.70 0.0009866565    2.029    0.507
        43  -9.8129    175.8506    233.6722   9.1225952846e+01   6.9470356285e-01    0.4510133    0.2533897 -55.14  0.002196303    2.592    0.614
        44  -9.0785     78.7551    234.7005   1.1140983746e+02   1.5168286788e+01    0.2653979    0.1656057  79.82  0.001235117    1.856    0.461
        45  -7.8939    153.2870    235.6411   9.6122215886e+01   3.8824758207e+00    0.1233327   0.09697926  66.01 0.0005651449    1.682    0.405
        46  -9.2933    108.6993    234.4152   1.0521511862e+02   1.0955441204e+01    0.3457806    0.2116216  59.91  0.001033382    1.810    0.448
        47  -8.3138     99.8145    234.6508   1.0708573849e+02   1.2217202757e+01    0.2406452      0.14923  76.75  0.001220879    2.179    0.541
        48  -8.0677    122.8450    234.0644   1.0222253765e+02   8.8847424327e+00     0.199545    0.1383569  75.63 0.0006521564    1.989    0.497
        49  -9.2121     68.2850    232.5348   1.1331976942e+02   1.6984851867e+01    0.4440377    0.1890519  64.47  0.001807331    3.320    0.699
        50  -8.5313    194.2398    232.8352   8.7433378090e+01  -1.9821644852e+00      0.17663    0.1592349  23.39   0.00054915    1.238    0.192
        51  -8.2321    144.9985    233.4863   9.7524430348e+01   5.5495824069e+00    0.2150202    0.1423203  57.92  0.001004672    1.867    0.464
        52  -8.7411    140.1220    230.2561   9.8081605454e+01   6.8883731335e+00     0.334932    0.1895155  57.04  0.001544584    2.340    0.573
        53  -8.4269    132.7971    233.0743   1.0001087050e+02   7.5288216725e+00      0.19882    0.1638129  59.02  0.001219698    1.294    0.227
        54  -9.4508    186.4413    230.7033   8.8627352985e+01  -4.6698483592e-01    0.3067292    0.2485361 -82.72  0.001241486    2.270    0.560
        55  -8.1294    157.7155    232.1682   9.4696156996e+01   3.7773630661e+00    0.1834902    0.1637124  79.30 0.0007170279    1.482    0.325
        56  -8.5061     92.1774    231.6223   1.0832748047e+02   1.3899727749e+01    0.2646846    0.1684504  70.87  0.001000365    1.831    0.454
        57  -7.6086     43.5375    232.5103   1.1821496932e+02   2.0033641608e+01    0.1201982    0.0915686  67.22 7.578675e-05    1.064    0.060
        58  -9.2184    236.1890    229.8362   7.9040388334e+01  -7.5374025054e+00    0.4479197    0.1716553 -29.19  0.002046377    2.668    0.625
        59  -8.6298      1.8756    231.1203   1.2585321002e+02   2.4596327183e+01    0.1779251    0.1044595  67.34 0.0006936297    1.329    0.247
        60  -9.5367    246.7744    228.4382   7.6930216009e+01  -8.7400182513e+00    0.4873131    0.1959762 -26.93  0.002153262    2.480    0.597
        61 -10.0244    149.6582    226.2746   9.5488574091e+01   6.0845782101e+00    0.5803069    0.3695858 -85.29  0.002356494    3.796    0.737
        62  -8.1548    229.8115    229.0213   8.0050353451e+01  -6.5620640706e+00    0.1641677    0.1401369 -51.24 0.0007095266    1.902    0.474
        63  -8.8793    162.3651    227.9128   9.3082496704e+01   3.7669435937e+00     0.304259     0.218181  65.63  0.001202778    2.128    0.530
        64  -8.9055    128.1524    227.5527   1.0023191480e+02   9.2669120872e+00    0.2742569      0.19138  64.83   0.00109995    1.768    0.434
        65  -8.5318    120.0162    227.9567   1.0201666667e+02   1.0457649320e+01     0.204779    0.1450303  66.50 0.0006778369    1.679    0.404
        66  -7.8197    223.3589    227.1930   8.0918511040e+01  -5.4072646656e+00    0.1594409    0.1087931 -39.01 0.0005987547    1.683    0.406
        67  -9.0240    205.9867    225.9826   8.3997291244e+01  -2.7039948273e+00    0.3398976    0.1994745 -50.67  0.001610715    2.472    0.596
        68  -8.1983    202.7038    220.2204   8.3638440472e+01  -1.3198471101e+00     0.175821    0.1634126 -37.65 0.0006907227    1.408    0.290
        69  -8.2249     49.0345    226.7412   1.1667732950e+02   2.0549782262e+01    0.2160762    0.1302546  83.51 0.0008579157    1.656    0.396
        70  -8.2300    200.1989    226.2143   8.5161773839e+01  -1.8686471017e+00    0.1562101    0.1512204   9.02 0.0005882878    1.360    0.265
        71  -9.0702     94.2784    224.4806   1.0706682166e+02   1.5006726242e+01    0.4365852    0.2096465  58.53  0.001886014    2.559    0.609
        72  -8.7372    180.8065    224.4702   8.8737923761e+01   1.4149288723e+00    0.2492668    0.2040793  62.02  0.001038202    1.734    0.423
        73  -8.9561    104.6727    223.6388   1.0473844017e+02   1.3636753488e+01    0.3378475    0.2170413  79.22  0.001639599    2.147    0.534
        74  -7.9787     38.7097    225.1176   1.1859854024e+02   2.2075190826e+01    0.2201537    0.0874364  63.72 0.0009619391    2.870    0.652
        75  -8.9998    216.5364    223.6684   8.1580996531e+01  -3.9166175994e+00    0.2175859    0.2023917 -25.18 0.0009410682    1.418    0.295
        76  -8.5946    173.0753    223.1721   9.0107603547e+01   2.8629003073e+00    0.2497065    0.1858077 -46.87 0.0006242832    1.566    0.361
        77  -8.2745    113.9702    224.1942   1.0281126280e+02   1.2112747201e+01    0.1834499     0.137837  76.29 0.0007355929    1.589    0.371
        78  -8.0603    140.5418    222.8360   9.6909162031e+01   8.1750566110e+00    0.1664901    0.1297167 -75.07 0.0006860133    1.697    0.411
        79  -9.0725    239.2046    221.1329   7.6973880035e+01  -6.7507856289e+00    0.3389686    0.1901965 -29.43  0.001507268    1.637    0.389
        80 -10.4159    225.4564    218.9150   7.9072359108e+01  -4.5106440200e+00    0.3880982    0.2123782 -35.28  0.001214558    1.797    0.443
        81  -9.1066    160.0888    221.1008   9.2481746843e+01   5.3210425247e+00    0.4831882    0.2408974  54.28  0.001853906    3.069    0.674
        82  -8.2246     27.4947    221.5206   1.2053772136e+02   2.4031186787e+01    0.1932982   0.08731692 -63.82 0.0009469223    2.191    0.544
        83  -9.2671    120.6754    219.5552   1.0072880386e+02   1.1974671283e+01    0.4801897    0.2577076  63.50  0.001934691    3.028    0.670
        84  -8.7568     82.8929    220.4327   1.0903433737e+02   1.7455515651e+01    0.3120188    0.1826706  79.89  0.001247322    2.253    0.556
        85  -8.1884     73.2538    220.9597   1.1114570087e+02   1.8670110060e+01     0.272892     0.115044  55.87  0.001156086    2.628    0.619
        86  -8.3199      5.5121    220.5280   1.2466202506e+02   2.6378041207e+01      0.11332   0.08372373  74.26 5.896757e-05    1.023    0.022
        87  -8.3972    210.0630    219.0638   8.2005883259e+01  -2.2610485988e+00    0.1928721    0.1639359   2.06 0.0004605159    1.066    0.062
        88  -8.5610    248.7975    217.9220   7.4716828027e+01  -7.5923313239e+00    0.2696299    0.1954171  60.89  0.001364942    3.492    0.714
        89  -8.1084    135.3330    218.6568   9.7407693810e+01   9.8029060491e+00    0.2083176    0.1156262  42.27 0.0009316529    1.634    0.388
        90  -9.0354    132.1657    215.4684   9.7620172955e+01   1.0932378069e+01    0.3249331    0.2234535  88.17  0.001086955    2.337    0.572
        91  -8.3031    112.1534    217.7229   1.0233914711e+02   1.3673204153e+01    0.2238833    0.1260487  66.47 0.0008405864    2.705    0.630
        92  -8.2920     61.9017    217.2305   1.1316982578e+02   2.0936354441e+01    0.2747842     0.147453  66.85  0.001353757    2.064    0.516
        93  -9.0717     51.6532    217.1654   1.1531515324e+02   2.2221347634e+01    0.2945974    0.1649117  89.90  0.001175772    1.893    0.472
        94  -8.6228    143.0057    216.6512   9.5434948627e+01   8.9329235628e+00     0.272407    0.2012991  79.08  0.001167187    2.032    0.508
        95  -8.7818     18.4548    215.7718   1.2191680915e+02   2.6140446159e+01    0.2217668   0.09687302 -83.58   0.00114729    2.109    0.526
        96  -8.6972    232.2803    214.8572   7.7089501145e+01  -4.8943180487e+00     0.205937    0.1845498 -36.36 0.0009694768    1.522    0.343
        97  -8.4873    185.4499    214.2118   8.6041517133e+01   2.3865589699e+00    0.2207978    0.2014969 -86.07 0.0007347417    1.604    0.376
        98  -8.1484    154.2454    215.1985   9.2773450595e+01   7.3504240458e+00    0.1764099    0.1572563  69.83 0.0006364601    1.374    0.272
        99  -9.0004     93.2127    214.1416   1.0604069955e+02   1.7278283128e+01    0.3991016    0.1922442  57.17   0.00165355    2.485    0.598
       100  -9.5268    213.9193    212.3317   8.0056741279e+01  -1.8030649519e+00    0.3216185    0.2973387  80.25  0.001537651    1.770    0.435
       101  -8.3279    195.0641    214.2979   8.4108699482e+01   8.2615825530e-01    0.1902054    0.1758637  29.22  0.000411331    1.265    0.210
       102  -8.3446    192.5508    210.7579   8.3982870225e+01   1.8189658724e+00    0.2284181    0.1871072 -78.86  0.001003165    2.110    0.526
       103  -8.2486     76.6410    214.3213   1.0969764267e+02   1.9600021055e+01    0.2106432    0.1280835  62.82  0.001086307    1.713    0.416
       104  -9.2870     72.1347    211.2077   1.1033444087e+02   2.0877430618e+01    0.4692698    0.2290806  68.95  0.001539534    2.981    0.665
       105  -9.3273    192.3687    221.2464   8.5861511977e+01   1.1996506850e-01    0.2800031    0.2488801 -63.05  0.001218375    1.634    0.388
       106  -8.6982    161.5650    212.5219   9.0758509751e+01   6.6259895641e+00    0.2424377    0.2060623  62.11 0.0006755803    1.455    0.313
       107  -8.4863    106.3971    213.1539   1.0298931145e+02   1.5494598372e+01    0.1752956    0.1256715 -79.49 0.0006658306    1.649    0.393
       108  -8.8880    204.3165    211.0612   8.1689696069e+01  -1.1131780633e-01    0.2481674    0.2085714 -52.35 0.0008084497    1.622    0.383
       109  -9.1535    116.3203    210.5158   1.0040271113e+02   1.4480033485e+01    0.3509523    0.2429615  80.52  0.001182223    1.993    0.498
       110  -9.2792      6.8507    209.9105   1.2381359450e+02   2.8453805292e+01     0.463554    0.1506444  75.34  0.001744068    4.244    0.764
       111  -9.3330    175.3505    209.9998   8.7397837477e+01   4.7802033858e+00    0.3615503    0.2666449  68.90   0.00150229    2.252    0.556
       112  -8.9151    148.1376    210.6574   9.3358334890e+01   9.2228048174e+00    0.2697612    0.2118304  80.59  0.001089659    1.815    0.449
       113  -8.3398     32.9040    210.7810   1.1865888647e+02   2.5717905967e+01    0.3277106    0.1218521  60.60  0.001374206    3.053    0.672
       114  -9.0993    236.3862    208.3723   7.5157641341e+01  -4.5286842562e+00     0.289519    0.2102522 -48.81 0.0009601372    1.963    0.490
       115  -8.6828     85.6171    209.4084   1.0713859582e+02   1.9386109553e+01    0.3477208    0.1951492  70.65  0.001546924    2.419    0.587
       116  -8.6374    169.4337    216.1786   8.9704088662e+01   4.6642399539e+00    0.2684874    0.2168758 -84.01  0.000824511    1.962    0.490
       117  -8.5065    139.1879    208.3298   9.4955388785e+01   1.1174557623e+01    0.2560239    0.1935929  65.14 0.0007140522    1.636    0.389
       118  -9.3888    246.4088    207.2903   7.3187728365e+01  -5.7793795979e+00    0.2613475     0.184629 -27.75 0.0006655848    1.291    0.226
       119  -9.6037    249.9728    201.6898   7.1527071090e+01  -5.4632579965e+00    0.4855505    0.2000947 -40.89  0.002233943    2.492    0.599
       120  -9.6275    245.4380    193.4098   7.0730026160e+01  -3.5952807699e+00     0.238771    0.1991165 -41.51 0.0007330891    1.514    0.340
       121  -9.1999    124.5241    206.4564   9.7948541021e+01   1.3985215354e+01    0.3647253    0.2333611  69.27  0.001638532    2.303    0.566
       122  -9.2537     99.4223    206.2621   1.0361752308e+02   1.8013450909e+01    0.3835896    0.2421708  76.73  0.001217622    2.173    0.540
       123  -8.6425     11.5970    206.7997   1.2269092798e+02   2.8685344581e+01    0.1656101   0.08850633  86.55 0.0009446383    1.638    0.390
       124  -8.5668     56.3992    205.4070   1.1316920450e+02   2.4176532277e+01    0.2885476    0.1475057  67.42 0.0009504543    2.298    0.565
       125  -9.3596    194.8155    203.6595   8.2227994434e+01   2.6553870314e+00    0.3803221    0.2948073 -41.10  0.001206154    1.414    0.293
       126  -9.2951    192.3625    197.1969   8.1514744047e+01   4.1922441858e+00    0.3321388    0.2216141 -42.98 0.0008734807    1.591    0.372
       127  -8.9213    183.7934    204.0648   8.4567479916e+01   4.4212931766e+00    0.3175167    0.2415091  67.15  0.001069284    2.103    0.525
       128  -9.9968    163.3403    203.4713   8.8814013762e+01   8.0103412909e+00     0.360595      0.30401  47.78 0.0009882605    1.277    0.217
       129  -8.7269    131.3952    204.4512   9.6079634965e+01   1.3256842544e+01    0.3040463    0.2021973  64.38 0.0009328792    1.998    0.500
       130  -8.3728    108.9493    205.1735   1.0129488074e+02   1.6764851563e+01    0.2152478    0.1723038  66.79 0.0008696042    1.316    0.240
       131  -8.1747     24.8450    205.0131   1.1987724273e+02   2.7800375005e+01    0.2099189    0.1038593  72.06 0.0007794971    2.047    0.511
       132  -8.0315     34.4949    203.9789   1.1777097431e+02   2.7023917218e+01    0.1768663   0.08420292  77.15 0.0008086631    2.415    0.586
       133  -8.3677    211.0836    202.1592   7.8718331381e+01   2.6714827966e-01      0.21763    0.1749015 -62.71 0.0005955376    1.977    0.494
       134  -9.2416    243.0904    200.8410   7.2557739175e+01  -4.3714961213e+00    0.3040895     0.175982 -37.33 0.0008914027    1.678    0.404
       135  -7.9981    221.9830    201.4976   7.6512158727e+01  -1.3350650877e+00    0.2123548    0.1318416 -42.42 0.0005146444    1.763    0.433
       136  -8.8155    140.5403    201.0927   9.3459472439e+01   1.2391914389e+01    0.3791097     0.258722  74.03  0.001136077    2.362    0.577
       137  -8.7994     80.4685    201.6807   1.0734009948e+02   2.1804290992e+01    0.3811161      0.18092  59.20    0.0015533    2.661    0.624
       138  -8.5120     48.4538    202.1835   1.1459189449e+02   2.5849572056e+01    0.2565951    0.1245626  62.53  0.001035716    2.265    0.559
       139  -9.4693    113.0412    198.8404   9.9407717465e+01   1.7462427878e+01    0.4878649    0.2935969  70.55  0.001800761    2.600    0.615
       140  -9.5268    149.6527    198.7562   9.1005615266e+01   1.1290389889e+01    0.4189994    0.3029302  84.92  0.001465621    2.321    0.569
       141  -8.9061    124.0190    199.3765   9.6950133016e+01   1.5541298752e+01    0.3079752    0.2186076  89.76  0.001199534    2.009    0.502
       142  -9.1316     88.7377    198.7735   1.0505382511e+02   2.1252170786e+01    0.3624848    0.2348146  83.23  0.001735142    1.955    0.489
       143  -9.6267    237.1038    197.6080   7.3000700413e+01  -3.0140652710e+00    0.5193102    0.1824974 -33.55  0.002134074    2.682    0.627
       144  -8.0237    156.4124    208.1865   9.1138702796e+01   8.2994468652e+00    0.1774092     0.134776 -60.85 0.0008007169    1.639    0.390
       145  -8.3896    176.9800    199.1133   8.5090257984e+01   6.4769180468e+00     0.197486    0.1860021  53.75 0.0004092618    1.282    0.220
       146  -8.4366    202.3579    197.6799   7.9584500609e+01   2.4341174128e+00    0.2453318    0.2029993 -41.31 0.0007939526    1.368    0.269
       147  -9.0379     61.4454    197.1689   1.1115288166e+02   2.5379297996e+01    0.4019574    0.2236085  72.56  0.001627549    2.173    0.540
       148  -8.2173     29.5730    197.7700   1.1830174924e+02   2.8915072877e+01    0.1711461   0.09906964  88.29 0.0006110832    1.615    0.381
       149  -7.9933     12.8464    197.9998   1.2185361911e+02   3.0476520826e+01     0.210758   0.09892459  71.42  0.001067301    2.111    0.526
       150  -8.6743    215.8328    195.5798   7.6545551942e+01   5.9010713090e-01    0.2423888    0.1704711 -51.81 0.0008535597    1.914    0.478
       151  -8.9307    185.2766    195.0071   8.2566885293e+01   5.7980205085e+00    0.2444055    0.2352191 -68.51 0.0006744492    1.336    0.251
       152  -8.1564    133.1767    196.1579   9.4306801999e+01   1.4667798870e+01    0.1896535    0.1639941  80.10 0.0005010139    1.356    0.263
       153  -7.8838     53.3720    196.1594   1.1287953528e+02   2.6613327660e+01    0.1861003    0.1086094 -87.20  0.000561183    1.794    0.442
       154  -8.7734    224.5120    194.1555   7.4630383399e+01  -5.5407688821e-01    0.2741494    0.1916222 -50.54  0.001005782    1.914    0.477
       155  -7.3921    209.3048    195.6906   7.7830370918e+01   1.6291792892e+00    0.1195322    0.1115739 -88.73 0.0004004156    1.610    0.379
       156  -8.9216    160.7966    194.2475   8.7707634418e+01   1.0230547496e+01     0.302366    0.2461465  78.37 0.0009046928    1.742    0.426
       157  -8.3607    230.7191    194.2176   7.3499151911e+01  -1.5257751091e+00    0.1936152    0.1527598 -37.96 0.0006556425    1.398    0.285
       158  -8.6766     76.7894    193.9505   1.0720666030e+02   2.4055771592e+01    0.2352654    0.1700643  82.66 0.0006473758    1.475    0.322
       159  -9.0473     43.5684    193.3360   1.1480663444e+02   2.8404814348e+01    0.3588824    0.1904672  75.49  0.001709442    2.157    0.536
       160  -8.1460    198.9529    191.9487   7.9161999721e+01   4.0009988576e+00     0.193414    0.1748371 -81.25 0.0005816749    1.627    0.385
       161  -7.9837    179.3673    192.1110   8.3262396219e+01   7.3632000885e+00     0.190142    0.1316347 -53.30 0.0006758226    1.745    0.427
       162  -8.4726    172.3358    191.8723   8.4729839056e+01   8.6493865083e+00    0.2467361     0.216342 -84.32 0.0009476476    1.567    0.362
       163  -9.0554    139.4913    190.5660   9.1874671856e+01   1.4742882252e+01    0.3549638    0.2681978  85.24  0.001070824    1.910    0.476
       164 -10.5049     92.2642    188.8109   1.0281144203e+02   2.2965936537e+01     0.985026    0.2848435  47.55  0.003056582    3.989    0.749
       165  -8.9532    185.1116    189.1768   8.1476936937e+01   6.8998253173e+00    0.2290388    0.2028857   6.88 0.0002576006    1.026    0.026
       166  -8.5989    148.6328    189.5200   8.9578953443e+01   1.3341439341e+01    0.2370502    0.1787332 -73.72 0.0008692108    1.807    0.447
       167  -8.3321      6.0000    190.0397   1.2273865708e+02   3.2827082586e+01    0.1953056   0.05528084 -76.76 0.0008038055    2.952    0.661
       168  -8.8628    237.2222    188.3867   7.1191540827e+01  -1.5991753250e+00    0.2817766    0.1574048 -30.34 0.0009932731    1.603    0.376
       169  -8.7545    216.5220    188.1295   7.4955294660e+01   1.7212269271e+00    0.2216453     0.213836 -63.70 0.0006618492    1.446    0.308
       170  -9.0541    191.5583    187.5867   7.9818305158e+01   6.0606219612e+00    0.3090893    0.2357193 -66.43  0.001095971    2.000    0.500
       171  -9.2230    155.9283    187.5321   8.7546968622e+01   1.2440777371e+01    0.3690611    0.2450285 -62.21 0.0009294601    1.968    0.492
       172  -8.9013    129.2554    188.6058   9.3923780027e+01   1.6948678165e+01    0.2970116    0.2241613  74.67 0.0009461399    1.731    0.422
       173  -9.7532    120.9991    186.8078   9.5575476795e+01   1.8761699520e+01    0.5553178    0.3242983 -76.91  0.002159027    2.847    0.649
       174  -8.8667     34.0730    188.1678   1.1645217799e+02   3.0622198228e+01    0.3024459    0.1693726  83.78  0.001161141    1.823    0.452
       175  -9.2312    109.5381    186.3260   9.8252295058e+01   2.0790582726e+01    0.3786325    0.2635798  81.89  0.001181352    1.950    0.487
       176  -9.0854     54.6130    186.9011   1.1156624201e+02   2.8588540366e+01     0.430534    0.2250214  75.86   0.00184463    2.525    0.604
       177  -8.0108    230.5345    187.1067   7.2140351923e+01  -3.6068720730e-01    0.1988439     0.117225 -35.58  0.001018325    1.566    0.361
       178  -8.6341    164.8136    186.8912   8.5429920597e+01   1.0966711570e+01    0.2413865    0.2022568 -72.75 0.0006499984    1.572    0.364
       179  -9.2292    248.9615    185.8014   6.8648785614e+01  -2.9511361250e+00     0.274316    0.2215841  31.07  0.001742315    1.412    0.292
       180  -8.6812    210.3407    184.4745   7.5419729430e+01   3.3771887318e+00    0.2303282    0.1963612 -27.72 0.0005912078    1.158    0.137
       181  -8.8914    202.5960    184.7068   7.6997029182e+01   4.6603475641e+00    0.2477681    0.2270626 -56.18 0.0007361009    1.406    0.289
       182  -8.7575    183.0168    184.9064   8.1079586664e+01   8.0726671110e+00    0.2397687     0.199091 -37.33 0.0005688953    1.231    0.188
       183  -8.9945     66.7292    184.6822   1.0840361650e+02   2.7565595894e+01    0.3858562    0.2139727  58.12  0.001127561    1.977    0.494
       184  -8.4809    224.1640    183.6982   7.2631935741e+01   1.2157620015e+00    0.2254759    0.1638684 -38.66 0.0006059928    1.392    0.282
       185  -8.8659    174.1359    183.6002   8.2733419943e+01   9.9259923842e+00    0.2682205    0.2209144 -74.42  0.000785348    1.704    0.413
       186  -7.9510      1.7961    183.7842   1.2321020676e+02   3.4561345776e+01    0.1675551    0.1078054  68.02  0.001052259    1.368    0.269
       187  -8.9737     44.3679    182.3563   1.1347672236e+02   3.0853153484e+01    0.3323937     0.197344  72.45 0.0009563434    1.815    0.449
       188  -8.2181     19.3911    182.5862   1.1926665168e+02   3.3345042228e+01    0.2531952   0.09334523  89.23  0.000953768    3.444    0.710
       189  -8.2986    235.2592    181.9527   7.0265193669e+01  -2.6942475436e-01    0.1701873      0.10162 -34.54 0.0007369175    1.508    0.337
       190  -9.2762    147.5891    180.7738   8.8177233760e+01   1.5355211700e+01    0.3836208    0.2891764 -86.98  0.001230543    1.990    0.498
       191  -8.4898     90.9946    181.7394   1.0205449290e+02   2.4789751570e+01    0.3097034    0.1764216  18.01  0.001256893    2.634    0.620
       192  -7.6969     83.2900    182.6123   1.0408278487e+02   2.5739639514e+01    0.1485698    0.1003686  74.67 0.0007010967    1.761    0.432
       193  -9.6419     25.6301    179.0974   1.1753597883e+02   3.3568773842e+01    0.6512455    0.2591276  79.10   0.00233713    3.960    0.747
       194  -8.0286    240.4825    179.9798   6.8951509688e+01  -7.6595726641e-01    0.2067088    0.1135808 -34.17  0.001038242    1.607    0.378
       195  -8.5365    137.5184    179.2938   9.0269951804e+01   1.7503360660e+01    0.3038669    0.2270607  82.28 0.0009009567    1.936    0.484
       196  -9.3085    191.5852    178.4152   7.7968443561e+01   7.7546349015e+00    0.3024897    0.2676802  72.23 0.0007374893    1.549    0.354
       197  -7.9992    169.4644    178.9307   8.2830158180e+01   1.1704921171e+01    0.2140338    0.1421732 -44.96 0.0006903688    1.546    0.353
       198  -9.0705     36.1234    177.1479   1.1487750683e+02   3.2975341410e+01    0.5172766    0.2189596  76.97   0.00180666    4.030    0.752
       199  -9.5257    248.3609    176.5488   6.6918591974e+01  -1.4274924324e+00    0.4204797    0.2599525 -46.74  0.002199575    1.897    0.473
       200  -8.7528    250.5022    172.9235   6.5834831316e+01  -1.1819753155e+00    0.2683995    0.1558975 -33.75 0.0007426828    1.475    0.322
       201  -8.6832    231.2022    176.9282   6.9977780111e+01   1.1988353946e+00    0.2727473    0.1636894 -44.22 0.0008672358    1.768    0.435
       202  -8.5720    217.7576    177.2743   7.2531930356e+01   3.3689476112e+00    0.2308224    0.1752132 -42.29 0.0007333253    1.399    0.285
       203  -8.4382    205.1145    177.6496   7.5062098456e+01   5.4851016763e+00    0.2376182    0.1810082 -42.68 0.0006031393    1.382    0.276
       204  -8.7075    129.2329    177.6017   9.1944777845e+01   1.9363575348e+01    0.2997237    0.2246161  89.49 0.0009917921    1.846    0.458
       205  -7.7789    112.5607    178.4852   9.6187466132e+01   2.2064664429e+01    0.1407742    0.1400543  32.26 3.861909e-05    1.043    0.042
       206  -8.5887     97.4908    177.8411   9.9822535106e+01   2.4686578075e+01    0.2782072    0.1936128  14.01  0.001228369    1.928    0.481
       207  -9.0994    183.2345    176.4328   7.9321441969e+01   9.6542463355e+00     0.276297    0.2444622 -78.16 0.0007526466    1.525    0.344
       208  -8.7159     88.9782    176.8932   1.0180154950e+02   2.6233249780e+01    0.2945634    0.2142268  82.67  0.001112465    1.609    0.378
       209  -9.9522     57.3045    173.2366   1.0923332552e+02   3.1491354987e+01    0.8388407     0.389491  79.83  0.002666302    4.568    0.781
       210  -8.9776     12.8718    176.7798   1.2025739960e+02   3.5256241119e+01    0.2404332    0.1224117  73.34 0.0008050256    2.000    0.500
       211  -8.2960    211.5273    176.0251   7.3469431889e+01   4.6556646125e+00    0.2110862    0.1279442 -37.44  0.001009704    1.560    0.359
       212  -9.0329    158.8794    175.2273   8.4472358039e+01   1.4430501596e+01    0.3413254    0.2641219  82.87   0.00121578    1.960    0.490
       213  -9.4989    104.4239    174.7886   9.7572164028e+01   2.4277004441e+01    0.5308346    0.3098198  64.77  0.001898805    2.493    0.599
       214 -10.7398     75.8376    170.1218   1.0408640701e+02   2.9782488857e+01     1.294246    0.4957085 -74.12  0.003836155    4.540    0.780
       215  -8.5621     79.2615    158.5601   1.0132126293e+02   3.2103268573e+01     0.341644    0.1912433  13.53  0.001301509    2.999    0.667
       216  -8.5891    224.3716    174.4032   7.0705508293e+01   2.7475602020e+00    0.2608636    0.1513065 -38.89 0.0006923333    1.621    0.383
       217  -9.1908    175.8193    172.4617   8.0104596690e+01   1.1812975491e+01    0.3278161    0.2646233 -55.70  0.001037516    1.440    0.305
       218  -8.4059    143.0114    172.9475   8.7730576855e+01   1.7877765635e+01    0.2280838    0.1832965  78.90 0.0005729741    1.643    0.391
       219  -8.6952    134.7903    171.9438   8.9514604847e+01   1.9615871684e+01    0.2652753    0.2132999 -78.88  0.000823061    1.543    0.352
       220  -9.6278    121.3941    170.4945   9.2538069821e+01   2.2362473225e+01    0.4272739    0.3151941 -88.44  0.001025232    1.842    0.457
       221  -9.3354     44.9832    170.5459   1.1197363720e+02   3.3591460303e+01    0.5008425    0.2293181 -80.95  0.001701197    2.443    0.591
       222  -8.5076    205.7711    170.1599   7.3373720357e+01   6.7255948082e+00    0.2831746    0.1794278 -47.88 0.0008284982    1.742    0.426
       223  -8.5548    244.3530    169.4243   6.6153764270e+01   3.2574840303e-01    0.2529925    0.1396831 -36.96 0.0005961413    1.599    0.375
       224  -8.4514    237.1229    169.6539   6.7440899221e+01   1.4432020032e+00    0.2276224    0.1640947 -39.49 0.0006680635    1.364    0.267
       225  -8.8269    230.3722    170.1161   6.8729246762e+01   2.4736640022e+00    0.2450441     0.189665 -21.85 0.0007721751    1.129    0.114
       226  -7.8000    229.2956    166.6401   6.8199192119e+01   3.2429368005e+00    0.1302784    0.1064777 -60.64 0.0007032393    1.704    0.413
       227  -8.2857    198.6068    170.1928   7.4815652461e+01   8.0176745264e+00    0.2175157    0.1745214 -51.30 0.0007435972    1.445    0.308
       228  -8.5160    149.7943    169.6842   8.5461758510e+01   1.7313562988e+01    0.2638214    0.1974682 -80.55 0.0007777637    1.962    0.490
       229  -7.5272     68.3398    170.6678   1.0608801621e+02   3.0685507931e+01    0.1489796   0.09818641  69.62 0.0007051639    1.746    0.427
       230  -9.1455    167.1895    168.6584   8.1228345491e+01   1.4218922205e+01    0.3367669     0.250469  67.10   0.00109909    1.901    0.474
       231  -8.7552    111.9088    167.8209   9.4427076270e+01   2.4641821924e+01    0.4096982    0.2424648  70.14  0.001495108    2.974    0.664
       232  -8.1762     88.5824    168.7419   1.0058227125e+02   2.8233682556e+01    0.1967231    0.1344503 -75.49 0.0005933567    1.604    0.377
       233  -8.1961    218.8954    168.3826   7.0472080264e+01   4.7229283013e+00    0.1856429    0.1653821   6.62 0.0004136455    1.097    0.088
       234  -8.8873    191.9183    166.6985   7.5447360705e+01   9.9165195390e+00    0.2712503     0.202219 -44.54 0.0005670654    1.382    0.276
       235  -8.3915    185.0552    166.6521   7.6881926967e+01   1.1218411320e+01    0.2422102    0.1958999 -48.67  0.000558058    1.341    0.254
       236  -9.1641     20.5438    166.3356   1.1752932614e+02   3.7042518614e+01    0.3383422    0.1578187  61.68  0.001512603    2.437    0.590
       237  -9.8579    136.9643    164.5770   8.7508870873e+01   2.0856332107e+01    0.6851112    0.3233986  54.75  0.002192386    3.078    0.675
       238 -10.0760     95.0444    163.0320   9.7912879298e+01   2.8591718256e+01    0.8168184     0.451421  74.28  0.002647492    3.943    0.746
       239  -8.5870    233.9114    165.0788   6.7054291205e+01   2.7337679299e+00    0.1995437    0.1721413 -42.78 0.0006419151    1.313    0.238
       240  -8.5654    159.5683    164.5542   8.2103665361e+01   1.6540466560e+01    0.2750054    0.2146295  85.64 0.0008019128    1.912    0.477
       241  -9.4781     33.4972    163.4901   1.1402526964e+02   3.6509788611e+01    0.5363725    0.2249978  56.40  0.002193482    2.932    0.659
       242  -8.8038    246.0754    163.2520   6.4599380684e+01   1.0530832980e+00    0.2491915    0.1668831 -37.68 0.0005651942    1.356    0.262
       243  -8.3991    239.9259    164.1619   6.5822460137e+01   1.8954799878e+00    0.1959869    0.1733134 -39.69 0.0005160663    1.284    0.221
       244  -8.6323    212.9444    163.6485   7.0595721544e+01   6.6177314029e+00    0.2658203    0.1894834 -43.26 0.0007282324    1.421    0.296
       245  -8.7044    204.8195    162.8953   7.2013831203e+01   8.2348823934e+00    0.2480704    0.1805583 -39.90 0.0003508987    1.333    0.250
       246  -9.4876      3.5674    162.5169   1.2125082242e+02   3.9303322744e+01     0.384832    0.1888804  54.02  0.001950226    2.083    0.520
       247  -9.0285    177.6444    160.9184   7.7243689104e+01   1.3782416667e+01    0.3170479    0.2429937 -62.10  0.001037385    1.650    0.394
       248  -9.0057    151.5508    161.0919   8.3248097914e+01   1.8836505025e+01    0.3421989    0.2563639 -77.69  0.000923597    1.917    0.478
       249  -8.9005     60.5507    160.1839   1.0657672913e+02   3.4259848618e+01    0.3813057    0.2209265  77.16  0.001416537    2.379    0.580
       250  -8.6184    242.2257    159.9758   6.4562224922e+01   2.2120963530e+00    0.2954265    0.1815358   2.22 0.0007890232    2.318    0.569
       251  -9.8441    250.1592    157.8434   6.2814764210e+01   1.2796253223e+00     0.349045     0.172814 -36.33 0.0007846534    1.719    0.418
       252  -9.1762    246.5557    155.5072   6.2913234083e+01   2.2411106992e+00    0.4091059    0.2011338 -24.62  0.001783218    2.218    0.549
       253  -8.6075    227.5118    159.3237   6.6974540738e+01   4.8058436487e+00    0.2742903    0.2001511 -58.77 0.0009255042    1.899    0.473
       254  -9.7517    105.8844    158.0771   9.4134393714e+01   2.7982025574e+01    0.4940448    0.3292783  73.19  0.001162111    2.183    0.542
       255  -8.8330    237.0994    158.6897   6.5161560812e+01   3.2764777851e+00    0.2404284    0.1624517 -40.14 0.0007052796    1.392    0.282
       256  -8.3184    127.9631    158.9624   8.8598330251e+01   2.3815824528e+01     0.242114    0.1872653  77.94  0.000709122    1.706    0.414
       257  -8.7408    196.3387    157.8214   7.2610662262e+01   1.0782915470e+01    0.2600143    0.2185172 -65.64 0.0008483287    1.538    0.350
       258  -8.4999    188.0222    157.8313   7.4336199295e+01   1.2381693861e+01    0.2598383    0.1847712 -53.15  0.000671859    1.610    0.379
       259  -9.1715    167.6134    157.3910   7.8705408793e+01   1.6474740182e+01    0.3330663    0.2780766 -82.20  0.001117798    1.613    0.380
       260  -8.3580    218.0509    156.5981   6.8113515190e+01   6.9645411355e+00    0.2697301     0.178003 -49.06 0.0008573229    1.680    0.405
       261  -8.9036    157.4550    156.1104   8.0769106324e+01   1.8756079901e+01    0.3105185    0.2324492 -67.43 0.0008935168    1.728    0.421
       262  -9.2171    119.5391    155.3182   9.0004909675e+01   2.6216959401e+01    0.4010525    0.2893484 -84.94  0.001570683    1.942    0.485
       263  -9.5122     81.6583    154.7401   1.0000987742e+02   3.2686699399e+01    0.5255887     0.338621  85.14  0.001572433    2.181    0.542
       264  -9.4437     49.9567    155.5253   1.0872333386e+02   3.6690961787e+01    0.4456164    0.2367801  63.34   0.00161523    2.458    0.593
       265  -8.9098     23.0536    156.3191   1.1587589117e+02   3.9224133238e+01    0.2826473    0.1443949 -38.33  0.001287437    2.702    0.630
       266  -8.5088    237.4466    150.5152   6.3367049381e+01   4.6000441606e+00    0.1668633    0.1364934  56.15 6.478584e-05    1.594    0.373
       267  -8.4769    242.8302    155.1682   6.3454557382e+01   2.9094822967e+00    0.1967932    0.1663423 -39.23 0.0004277981    1.228    0.186
       268  -8.6615    239.9945    153.0234   6.3473759366e+01   3.7422715401e+00    0.2009156     0.171073 -41.29 0.0004223383    1.241    0.194
       269  -7.9387    204.7999    155.3758   7.0378330806e+01   9.6392188416e+00    0.1963674    0.1707506 -36.34 0.0004985783    1.139    0.122
       270  -8.8456    144.5808    154.9195   8.3595103440e+01   2.1552486183e+01    0.3249592    0.2464071  64.75 0.0009903829    1.659    0.397
       271  -9.6690    132.7782    152.9689   8.6109279771e+01   2.4280702327e+01    0.4650684    0.3464235  76.09  0.001299457    1.884    0.469
       272  -9.5039    133.5879    148.2177   8.4860773076e+01   2.5211599397e+01    0.3400248    0.2609562 -34.51  0.001111681    1.354    0.261
       273  -9.6623     68.0290    153.8084   1.0356625201e+02   3.4854537180e+01     0.481937    0.2991166  75.03  0.001432842    2.188    0.543
       274  -8.1226    232.9692    154.0059   6.4878196266e+01   4.7765808747e+00    0.2040327    0.1651074 -62.70 0.0006648594    1.686    0.407
       275  -7.9887    151.6039    152.8139   8.1428110109e+01   2.0631847738e+01    0.2181269    0.1452169 -56.67 0.0009422145    1.696    0.411
       276  -9.4226     20.1599    152.5759   1.1621218226e+02   4.0378818590e+01    0.2490843    0.1657996  74.37 0.0007189384    1.516    0.341
       277  -8.4017      8.2375    153.5860   1.1934153303e+02   4.1072680310e+01    0.1473752    0.1205119  -8.70 0.0009551987    1.670    0.401
       278  -9.7151     29.3727    150.7143   1.1358407853e+02   4.0017653242e+01    0.5162414    0.2460136  74.38  0.002057769    3.071    0.674
       279  -9.6532    248.8177    149.3955   6.1268605392e+01   2.8743312482e+00    0.3665076    0.1858196 -37.50 0.0007836886    1.681    0.405
       280  -8.8933    246.9667    143.8508   6.0390806881e+01   4.0975321178e+00    0.2599606    0.1599219 -34.71 0.0005042298    1.380    0.276
       281  -8.7619    243.0511    149.9765   6.2321866550e+01   3.7374835846e+00    0.2793263    0.1615089 -36.09 0.0009139711    1.489    0.328
       282  -8.7371    189.2946    150.1621   7.2353994090e+01   1.3642400430e+01    0.3092426    0.2188543 -47.83 0.0008039551    1.466    0.318
       283  -8.0741    182.2373    151.2384   7.4093575522e+01   1.4830668963e+01    0.1987623    0.1807663 -77.22 0.0007866378    1.354    0.261
       284  -8.0488    162.5654    150.7129   7.8369450406e+01   1.8890648936e+01    0.2062325    0.1457839 -54.66 0.0006710869    1.565    0.361
       285  -8.7582     98.3257    150.7046   9.4712880207e+01   3.1037157129e+01    0.3152962    0.2335259  79.86 0.0009658967    1.740    0.425
       286  -8.2003    212.7830    149.9442   6.7639681871e+01   9.1424754138e+00    0.2020636    0.1715846 -27.34 0.0004174194    1.065    0.061
       287  -8.7103      2.6169    149.8794   1.2040769625e+02   4.2347792838e+01    0.1829568   0.09362819 -89.83 0.0007532284    1.788    0.441
       288  -8.2423    198.8899    148.9256   7.0111545190e+01   1.1995311445e+01    0.2144752    0.1785021 -70.37 0.0004908793    1.594    0.373
       289 -10.1990     89.2151    146.2988   9.6351733978e+01   3.3597690278e+01    0.6717384     0.393881 -87.50  0.002292023    3.110    0.678
       290  -9.9149     39.8542    147.9273   1.1039356335e+02   3.9675167222e+01    0.5294695    0.2608471  62.06  0.002041193    2.789    0.641
       291  -8.9174    233.3985    147.5134   6.3406898133e+01   5.8182998452e+00    0.2759466    0.1464893 -38.54 0.0007984094    1.665    0.399
       292  -8.9577     78.2509    147.4087   9.9624168024e+01   3.4999973089e+01    0.3190243    0.2137175  71.21  0.001004823    1.960    0.490
       293 -10.3053     57.3423    135.4244   1.0345014806e+02   4.0811415946e+01    0.5747017    0.2566917  17.62  0.002085923    3.492    0.714
       294 -10.4385     54.8537    144.7997   1.0575369795e+02   3.8775537043e+01     0.798834    0.4081652  69.74  0.002503828    3.485    0.713
       295  -8.3640    223.4097    146.7659   6.4986593030e+01   7.7447916989e+00    0.2484726    0.1584762 -30.36 0.0006717406    1.446    0.309
       296 -10.2753    148.8541    144.8491   8.0287629059e+01   2.2935515685e+01    0.5854466    0.4108928 -83.29  0.001455228    2.421    0.587
       297 -10.0388    139.1156    144.8831   8.2708882983e+01   2.4883000522e+01    0.5975512    0.3610728 -67.98  0.001517282    2.557    0.609
       298  -9.3875    139.8349    137.4055   8.0785678102e+01   2.6426196690e+01    0.3384563    0.2404523  -9.39  0.001021047    1.981    0.495
       299 -10.3812    106.7219    144.3177   9.1109202897e+01   3.1138715680e+01    0.7745696     0.527115 -88.80  0.002431331    2.263    0.558
       300  -9.3254     13.2661    146.3610   1.1733876814e+02   4.2432582725e+01    0.3371562    0.1856342  61.97  0.001512425    2.025    0.506
       301  -9.5231    240.2111    145.2154   6.1771362248e+01   5.0218365670e+00    0.2614973    0.1724045 -39.42 0.0005662158    1.356    0.262
       302  -8.0723    206.9311    146.5283   6.7990885214e+01   1.0888851211e+01    0.2009094     0.144359  43.61 0.0005815819    1.501    0.334
       303  -8.3840    175.4995    146.2075   7.4410873192e+01   1.7211651146e+01    0.2350214    0.2105439  77.80 0.0006832571    1.374    0.272
       304 -10.0070    125.0598    142.0294   8.5678892337e+01   2.8291042871e+01    0.7803475    0.4094967 -56.07  0.002294492    2.077    0.519
       305  -8.9141    165.3858    144.0743   7.6192445954e+01   1.9725932856e+01    0.2705994    0.2251399  51.49 0.0006039753    1.302    0.232
       306 -10.5652     69.5698    141.4118   1.0098072303e+02   3.7723885400e+01    0.5782905    0.3817688 -70.94  0.001905815    1.541    0.351
       307  -9.7006     70.0310    134.2695   9.9497372460e+01   3.9437311630e+01    0.5766647    0.3374385  -7.24  0.002069784    3.533    0.717
       308  -7.6198    194.2913    143.7152   6.9851529884e+01   1.3910387895e+01    0.1396296    0.1191142 -76.05 0.0002404567    1.536    0.349
       309  -9.2695      2.8664    141.7268   1.1958861128e+02   4.4273053926e+01    0.4128681    0.1754677  70.58  0.001678957    3.134    0.681
       310  -8.6527    235.4454    142.4673   6.1966098918e+01   6.3247530917e+00    0.1388445    0.1191211 -26.59 0.0001429903    1.016    0.016
       311  -8.3770    182.1123    141.7079   7.1926832347e+01   1.6776848110e+01    0.2580377    0.1995828 -50.57 0.0005969094    1.363    0.266
       312  -8.2003    250.4984    140.9599   5.9225512235e+01   3.9816105968e+00    0.2053802    0.1127865 -36.30 0.0004917878    1.534    0.348
       313  -9.9164    242.7804    143.0410   6.0886656287e+01   4.9455173299e+00    0.4178856    0.1925327 -29.19  0.001769138    2.177    0.541
       314  -9.9011     23.3909    137.9808   1.1362038797e+02   4.3669992640e+01    0.5671782    0.2893254  74.21  0.002004928    2.669    0.625
       315  -8.5556    172.1553    138.2367   7.3283700968e+01   1.9547071905e+01    0.2783602    0.1945542 -65.40 0.0006045764    1.959    0.490
       316  -8.2568    207.6392    138.1026   6.5937399609e+01   1.2327299138e+01    0.2314268    0.1683333 -51.13 0.0008244629    1.482    0.325
       317  -8.7193    197.5396    137.6552   6.7793862273e+01   1.4430353637e+01    0.2752481    0.2233815 -55.54 0.0007071798    1.378    0.274
       318  -8.4000    162.6409    136.5526   7.5045750326e+01   2.1891093421e+01    0.2593756    0.1849958 -61.51 0.0008028314    1.721    0.419
       319  -9.0038    150.8880    136.1551   7.7743286855e+01   2.4431727395e+01    0.4061058    0.2412189  21.48  0.001497272    2.491    0.599
       320  -9.3784     39.1658    136.4063   1.0891459908e+02   4.2603392758e+01    0.2601112    0.1878521  75.43 0.0008802679    1.543    0.352
       321  -8.9608    250.7135    130.1994   5.6900526099e+01   5.7158713643e+00    0.3971015    0.1096394 -35.36  0.001352188    3.267    0.694
       322  -9.1264    248.2279    135.3353   5.8376936827e+01   5.2952100679e+00    0.3043453    0.1756287 -39.39 0.0009036761    1.486    0.327
       323  -8.6729    246.8474    130.3707   5.7519997070e+01   6.3594039168e+00    0.2565477    0.1603715 -46.98 0.0006491017    1.560    0.359
       324  -7.5467    192.3103    136.6379   6.8606787219e+01   1.5692562899e+01    0.1520721     0.119206 -72.35 0.0007040586    1.747    0.428
       325  -8.1164    187.8454    135.9362   6.9358316085e+01   1.6749925629e+01    0.2446678     0.165367 -60.47 0.0005857542    1.927    0.481
       326  -8.5183    179.6590    134.2724   7.0691147912e+01   1.8789136254e+01    0.2597941     0.225159 -62.44 0.0008417461    1.313    0.239
       327 -10.1892    132.5768    132.3880   8.1447587145e+01   2.9032331347e+01    0.6519662    0.4362333 -71.83  0.002605463    2.201    0.546
       328  -9.3889    133.6205    125.0697   7.9371173201e+01   3.0476573497e+01    0.5285478    0.2508764  27.25    0.0016308    3.439    0.709
       329  -9.8497    131.1709    118.9657   7.8459904015e+01   3.2350889714e+01    0.6003556    0.4062279  88.76  0.002057487    2.857    0.650
       330 -10.4521     83.4582    132.8324   9.5255918175e+01   3.7816907475e+01    0.6429664    0.3625241 -68.74  0.001262258    2.112    0.527
       331  -8.8516     83.8220    123.7667   9.3166834122e+01   3.9981029744e+01    0.4161636    0.2627211 -19.44  0.001672035    2.414    0.586
       332  -8.2545    237.5545    133.3251   5.9620411514e+01   7.5147290092e+00     0.259636    0.1163456 -41.02  0.001106064    1.964    0.491
       333  -8.1054    231.5870    134.1372   6.0778147179e+01   8.4641010047e+00    0.1988629    0.1199587 -27.09 0.0009342498    1.634    0.388
       334  -9.2172    112.7349    133.3136   8.7002493397e+01   3.2676801322e+01    0.3329093    0.2502613  75.91 0.0009692155    1.816    0.449
       335 -10.4352     98.1270    130.3580   9.0446480851e+01   3.6011518479e+01    0.6723619    0.3581451 -55.99  0.001574582    1.868    0.465
       336  -9.1550    143.0466    131.7157   7.8604352296e+01   2.7040183317e+01    0.3124208    0.2515321 -68.56 0.0007550694    1.482    0.325
       337  -9.1764    168.3878    129.6425   7.2049159446e+01   2.2127970380e+01    0.3359016    0.2525585 -62.39 0.0009577802    1.608    0.378
       338  -9.9577     73.5265    129.5823   9.7519954152e+01   4.0105802226e+01    0.4685063    0.3088186  85.02  0.001327896    2.262    0.558
       339 -10.0689     12.9411    129.4118   1.1549381487e+02   4.6568906222e+01    0.4559066    0.2480362  73.56  0.001951584    2.260    0.558
       340  -8.1130    204.6639    130.4052   6.4712186777e+01   1.4366304381e+01    0.2156395    0.1750212 -73.74 0.0007313512    1.625    0.384
       341  -8.3480    192.8852    130.1573   6.6952017890e+01   1.6837678956e+01    0.2239086    0.2014482 -65.44 0.0004996238    1.267    0.211
       342  -9.4084    152.7959    128.9407   7.5517933732e+01   2.5602111815e+01    0.4608011    0.2679651 -56.23  0.001021993    2.055    0.513
       343  -7.8502    218.5918    138.7836   6.4070310465e+01   1.0077656733e+01    0.1960246    0.1242267 -45.75 0.0004196902    1.558    0.358
       344  -8.0901      1.9815    130.4862   1.1869238053e+02   4.7019531565e+01    0.1678533   0.07871561  51.01 0.0008099672    2.502    0.600
       345  -7.6968    220.4710    129.5816   6.1646345786e+01   1.1375043982e+01     0.142527    0.1279665 -24.51 7.867632e-05    1.023    0.022
       346  -7.9324    211.5403    129.4655   6.3213296414e+01   1.3156150997e+01    0.1458851    0.1323848 -40.66 0.0008066641    1.091    0.083
       347 -10.4193     59.9529    125.3034   1.0077221649e+02   4.3004257835e+01    0.6703615    0.4035347  84.31  0.002199674    2.734    0.634
       348 -10.6688     45.0579    123.7738   1.0506722409e+02   4.5128153035e+01     1.078678    0.5654791  76.90  0.003753452    3.948    0.747
       349 -10.0792    118.0212    125.3110   8.3624164133e+01   3.3548982833e+01     0.624467    0.4194055 -73.47    0.0015003    2.175    0.540
       350  -7.8661    228.5022    125.4921   5.9351747168e+01   1.0552436748e+01    0.1418103    0.1245016 -39.26 0.0008095029    1.076    0.070
       351  -8.8047    179.2806    124.8893   6.8485652579e+01   2.0762053075e+01    0.2739712    0.2484871  87.74 0.0006844971    1.303    0.233
       352 -10.1923     28.3220    122.4541   1.0998134020e+02   4.7073171841e+01    0.6574054    0.3359353  74.76   0.00258631    3.285    0.696
       353  -8.2447    188.4512    124.2639   6.6422272383e+01   1.8921395763e+01    0.2111259    0.1387719 -48.49  0.000496225    1.548    0.354
       354  -9.1348    158.7935    121.6754   7.2261737883e+01   2.5864734861e+01    0.3722658    0.2887188 -70.67  0.001041643    1.655    0.396
       355  -9.7871     71.3019    120.1299   9.6188056255e+01   4.2752251987e+01    0.5463343    0.3447317 -88.01  0.002041691    2.557    0.609
       356  -7.8842    203.0000    121.9576   6.3020289865e+01   1.6293900822e+01    0.2423766   0.07929527 -38.97 0.0004219032    2.831    0.647
       357  -7.9439    194.9906    122.2045   6.4614939375e+01   1.7930063179e+01    0.2203679    0.1517733 -54.18 0.0004511586    1.609    0.378
       358  -8.3661    172.0654    121.8207   6.9282681975e+01   2.2944319374e+01    0.2318311    0.2054337 -75.13 0.0005460014    1.318    0.241
       359  -8.9994    101.1709    119.5272   8.6993206001e+01   3.8065416961e+01     0.578322    0.3019856  16.33  0.001755864    4.047    0.753
       360 -10.0015    141.4855    118.0935   7.5560654370e+01   3.0370040210e+01    0.5801271    0.3106345 -54.16  0.001373673    2.158    0.537
       361  -9.7645      3.0642    117.3828   1.1689516874e+02   5.0099945818e+01    0.4733921      0.22874  71.85  0.002114433    2.873    0.652
       362  -7.8263    231.4967    117.5140   5.7058640349e+01   1.1363040961e+01    0.1410943    0.1227761 -42.13 -2.009168e-05    1.074    0.069
       363  -8.5569     59.4936    115.6042   9.8927478281e+01   4.5453704881e+01    0.5032461    0.2699977 -10.44  0.001647517    4.320    0.769
       364  -7.4416    219.3001    116.3109   5.8777221350e+01   1.3978863732e+01    0.1417407    0.1092621  -1.23 0.0007013956    1.603    0.376
       365  -7.9707    185.6467    115.8350   6.4904343782e+01   2.1168912539e+01    0.2190684    0.1334524 -47.35 0.0005690365    1.646    0.392
       366 -10.0907    109.2273    114.1186   8.3276516608e+01   3.7834178137e+01    0.5414453     0.372845 -76.43  0.001423953    2.201    0.546
       367 -11.0546    248.5878    107.3273   5.2253796615e+01   9.8451521831e+00     0.685759    0.2709921 -43.06   0.00288717    2.178    0.541
       368 -10.1197     92.7906    112.6218   8.7773999584e+01   4.1172913116e+01    0.5273805    0.3812902 -73.31  0.001361178    1.771    0.435
       369  -9.0003     93.0953    105.1425   8.5739804589e+01   4.2861698271e+01     0.491356    0.2852304  11.96  0.001751448    3.028    0.670
       370  -7.9080    167.4730    114.5236   6.8437783452e+01   2.5435968043e+01    0.1545489    0.1491417 -39.92 0.0001736796    1.036    0.035
       371  -9.9667     78.8946    112.4214   9.2033847903e+01   4.3493975705e+01    0.5105317    0.3662718  86.30  0.001849585    2.089    0.521
       372  -8.6014     26.8469    113.6806   1.0902333314e+02   4.9348672868e+01    0.1974573    0.1534916 -28.87 0.0008121146    1.410    0.291
       373 -10.0138    133.7220    109.4610   7.5272252756e+01   3.3903165269e+01    0.6622102    0.3200004 -51.12  0.002056594    2.263    0.558
       374  -9.9729    121.8869    112.5359   7.9283786559e+01   3.5696332452e+01    0.3891474    0.3171699 -57.58 0.0007345002    1.306    0.234
       375  -9.0422    108.9450     92.1336   7.7275156211e+01   4.2763507600e+01    0.5908677    0.2626829  31.03  0.001962676    3.044    0.671
       376  -9.7684    118.3643    105.1692   7.8272027674e+01   3.8047484663e+01    0.6540082    0.4434722 -89.80  0.002398088    2.927    0.658
       377 -10.4046    108.8023     98.9109   7.9273628441e+01   4.1334059285e+01    0.6610592    0.4474216  72.58  0.001255303    2.519    0.603
       378  -8.4165    174.8573    112.0305   6.6182525347e+01   2.4294084168e+01    0.2359022     0.204993 -66.56 0.0005858382    1.289    0.225
       379  -8.6482    159.2749    111.8146   6.9593411063e+01   2.7809926476e+01    0.2819101      0.22674 -64.16 0.0006743766    1.445    0.308
       380 -10.2473     66.4790    110.0482   9.5440019995e+01   4.5879373938e+01    0.5847371    0.3243101 -62.64  0.001892918    1.860    0.462
       381  -7.6976    150.2551    110.6085   7.1410588107e+01   3.0060422220e+01    0.1599749    0.1221363 -69.95 0.0006961374    1.687    0.407
       382  -9.0587     42.9472    109.4836   1.0302721841e+02   4.8865370992e+01    0.2951941    0.1430417  13.45  0.001210768    2.911    0.657
       383  -8.2162    189.0614    107.8400   6.2207381067e+01   2.1948049677e+01    0.2784575    0.1756139 -50.69 0.0007984221    1.661    0.398
       384  -9.7142     14.0878    111.2469   1.1268612819e+02   5.0897562398e+01    0.4503052    0.2478328  80.16   0.00197322    2.442    0.591
       385  -9.2433    139.7934    104.5717   7.2368675359e+01   3.3629250805e+01    0.3726137    0.2854706 -70.95  0.000900668    1.700    0.412
       386  -8.9379     78.4017    105.1442   9.0385383031e+01   4.5297636350e+01    0.3063294    0.2219693  -9.84 0.0009050861    1.750    0.428
       387 -10.5709     45.5245    102.2426   1.0064278965e+02   5.0340129572e+01    0.7576964    0.4573547  72.42  0.003108645    3.034    0.670
       388  -9.5557     45.5822     92.9503   9.8491989846e+01   5.2532577230e+01    0.5283765    0.2720529   2.28  0.002059961    3.275    0.695
       389 -10.6185     22.8098    102.4829   1.0840276905e+02   5.2381638594e+01    0.7575086    0.4117965  80.67  0.002836052    3.098    0.677
       390  -8.6118    166.8372    104.3690   6.5910457101e+01   2.7607915422e+01    0.2948402    0.2043213 -54.71 0.0009633399    1.595    0.373
       391  -9.5258    150.7099    103.1745   6.9289529415e+01   3.1492225391e+01     0.510401    0.3140464 -63.82  0.001390172    2.422    0.587
       392  -9.6951    128.3572    102.1525   7.4685197133e+01   3.6616290617e+01    0.3430222    0.2736127 -67.57 0.0006775482    1.526    0.345
       393  -8.9176      6.5527    102.8889   1.1385837437e+02   5.3365280885e+01    0.2345813    0.1761553  76.53  0.001093151    1.516    0.340
       394  -7.5521    175.5208    102.4577   6.3546047175e+01   2.6008664948e+01    0.1522661    0.1462064 -49.69 0.0001067921    1.042    0.040
       395  -8.3222    159.7133    100.9886   6.6590763831e+01   2.9893311920e+01    0.2263111     0.188352 -39.86 0.0004456578    1.173    0.147
       396  -9.2790     82.0389     99.9932   8.7863484155e+01   4.5916093076e+01     0.364862     0.271717 -80.23 0.0009213564    1.892    0.472
       397 -10.4409     64.1204     94.5514   9.2402709854e+01   4.9864314671e+01     1.092402    0.4485103 -53.13  0.003200458    2.218    0.549
       398  -9.5233     95.0957     96.9677   8.2877193182e+01   4.4354847191e+01    0.4219244    0.2492373 -54.96  0.000713574    1.828    0.453
       399  -9.5674     97.8454     88.0037   7.9414500037e+01   4.5793148572e+01    0.4332205    0.2385004 -31.89 0.0006763243    2.036    0.509
       400  -8.1814    164.8880     94.1510   6.3570417567e+01   3.0030571450e+01    0.2328351    0.2020252 -71.61 0.0005513984    1.300    0.231
       401  -8.2422    192.9453    115.2089   6.3296826171e+01   1.9702776909e+01    0.2284947    0.1943181 -63.52 0.0005352271    1.313    0.238
       402  -7.9813      4.9699    109.0000   1.1523305637e+02   5.1998723185e+01    0.1707105   0.07293551  15.73 0.0008018771    2.939    0.660
       403  -8.2249    176.2592     93.2393   6.0942577460e+01   2.7573567887e+01    0.2112963    0.1717775 -64.46 0.0006873277    1.375    0.273
       404  -9.6096    139.0938     91.7922   6.8935938349e+01   3.6393667107e+01    0.5228234    0.2798194 -44.44  0.001200275    1.875    0.467
       405 -10.3756    124.0168     91.2229   7.2723490380e+01   3.9825496945e+01    0.5729985    0.4465148  31.23  0.001415836    1.340    0.254
       406  -9.5292      4.9275     92.0082   1.1270917497e+02   5.6016409011e+01    0.3453674    0.2036293  78.20  0.001335617    2.312    0.567
       407  -7.9718    157.9478     92.0055   6.4508650333e+01   3.2043374213e+01    0.2409158    0.1859546 -72.58  0.000500933    1.657    0.397
       408  -9.7063     34.8302     89.8917   1.0163544704e+02   5.4340837403e+01     0.478798    0.2797102 -82.60  0.001780425    2.596    0.615
       409  -9.0673     23.1698     90.1659   1.0591113386e+02   5.5271457863e+01    0.3055049    0.2107389  15.95  0.001291854    1.700    0.412
       410  -8.2547    150.9860     88.8719   6.5215134754e+01   3.4249588475e+01    0.2821783    0.1884575 -51.37 0.0007360416    1.622    0.383
       411 -10.2657     86.5845     85.9429   8.2396177154e+01   4.8274640190e+01    0.6972336    0.4164239 -51.82  0.002051028    1.737    0.424
       412  -9.9182     48.4090     83.7952   9.5156005388e+01   5.4313988923e+01    0.5612548    0.3869745 -74.90  0.002219106    1.931    0.482
       413  -7.7195    179.2745     85.6507   5.8306522846e+01   2.8246257022e+01    0.1542087    0.1130568 -65.68 0.0002925724    1.633    0.388
       414  -9.7221    104.7682     83.1850   7.5827577803e+01   4.5452291648e+01    0.4499536    0.3255384 -67.88  0.000923679    1.969    0.492
       415  -8.8610    105.3087     76.8710   7.3687608446e+01   4.6600475105e+01    0.3884329    0.2374681  21.08  0.001577503    2.207    0.547
       416  -8.6688    157.9795     83.9131   6.2213207978e+01   3.3547772292e+01    0.2628362     0.216303 -36.04 0.0004185892    1.205    0.170
       417  -8.9939    140.8671     83.0288   6.5927163350e+01   3.7685105163e+01    0.3479466    0.2036766 -49.22 0.0006112605    1.865    0.464
       418  -7.4167    170.3040     83.6232   5.9527265770e+01   3.0705814435e+01    0.1600482    0.1153587 -68.61 0.0007027925    1.769    0.435
       419  -8.7893     63.8606     82.3855   8.9143363374e+01   5.2637654832e+01    0.2778595    0.2173899 -78.73 0.0009136458    1.787    0.441
       420  -7.9981    153.3128    115.6668   7.2010392286e+01   2.8326494228e+01    0.1589482    0.1263738 -80.85 0.0007044984    1.681    0.405
       421  -9.6935     24.6011     80.5709   1.0329270044e+02   5.7370311772e+01    0.4110309    0.2532685 -85.53   0.00137636    2.403    0.584
       422  -9.2869      9.8284     81.0141   1.0896814454e+02   5.8283458142e+01    0.3477598    0.2047394  58.04   0.00173767    2.609    0.617
       423  -8.4252    150.4879     80.6702   6.2955729818e+01   3.5893211315e+01    0.3018034    0.1987192 -65.26 0.0007949106    2.155    0.536
       424  -8.6557    119.2695     80.4012   7.0764141344e+01   4.2999072835e+01    0.2910446    0.2220209 -66.99 0.0007298306    1.740    0.425
       425  -8.7995     74.5165     80.3860   8.4791532768e+01   5.1470154877e+01    0.3188282    0.2249012 -63.67 0.0008543193    1.808    0.447
       426  -8.1176    166.9077     79.5098   5.9070812270e+01   3.2233427545e+01    0.2314557    0.1892944 -35.05 0.0004952775    1.217    0.178
       427  -7.7836    184.2642     78.3690   5.5416355572e+01   2.8341076712e+01    0.1467598     0.115728   4.72  0.000566637    1.655    0.396
       428  -9.4042    128.1526     75.5096   6.6852470433e+01   4.1969558671e+01    0.3976862    0.2681657 -57.08 0.0008965816    1.851    0.460
       429  -8.8262    140.7273     75.6730   6.3754544435e+01   3.9069870821e+01    0.2959509    0.1989301 -48.59 0.0007659352    1.596    0.373
       430  -9.8761     63.1467     73.7466   8.6813819577e+01   5.4589150470e+01    0.4336531    0.2760614 -60.57  0.001160103    1.946    0.486
       431  -9.7529     82.4652     72.9129   7.9713085662e+01   5.1689131052e+01    0.4234016    0.3050047 -67.97 0.0009907091    2.088    0.521
       432  -8.0509    163.4020     73.2339   5.8003971726e+01   3.4148182825e+01    0.2139032    0.1340022 -46.88 0.0007548829    1.648    0.393
       433  -8.0424    151.5169     73.4868   6.0607286224e+01   3.6927848327e+01    0.1483024    0.1460508 -78.82 0.0008099151    1.044    0.042
       434  -8.5832    115.7230     72.9821   6.9417959722e+01   4.5166869290e+01    0.2680798    0.2020799 -52.43 0.0007070878    1.504    0.335
       435  -9.1164    105.9527     71.8691   7.1884782678e+01   4.7426254209e+01    0.3061448    0.2147271 -50.45 0.0006737984    1.598    0.374
       436  -8.4421     42.8354     73.0888   9.4316823963e+01   5.7307688850e+01    0.1938184    0.1794556 -70.26 0.0006910127    1.315    0.240
       437  -9.3123     29.5054     70.3667   9.8832094643e+01   5.9226106367e+01    0.5920908    0.2532334 -18.03   0.00194257    4.901    0.796
       438  -7.8723    175.4986     72.5304   5.5440473994e+01   3.1386051623e+01    0.1446974    0.1423347 -68.99 4.907649e-05    1.013    0.013
       439  -9.2998     95.1596     71.1809   7.4978600860e+01   4.9701967146e+01    0.3397053    0.2363326 -55.12 0.0008052606    1.748    0.428
       440  -9.3826     51.5048     69.8070   8.9981413698e+01   5.6982178006e+01    0.4394897     0.263659 -67.17  0.001528211    2.530    0.605
       441  -8.9218     16.7011     70.1194   1.0392071804e+02   6.0290258909e+01    0.2427519    0.1751209 -78.56  0.001059587    1.669    0.401
       442  -8.8373    147.0239     68.0504   5.9978645700e+01   3.8918994341e+01    0.3545734    0.2040193 -39.67  0.001047535    1.748    0.428
       443  -8.8916    121.6085     66.1441   6.5598468850e+01   4.5106102880e+01    0.3109029    0.2364009 -63.26 0.0007813072    1.713    0.416
       444  -8.6234    138.5974     65.9723   6.1278723540e+01   4.1250889040e+01    0.2770402    0.1723832 -47.15 0.0007901014    1.746    0.427
       445  -8.7396     83.9891     65.0239   7.6573992871e+01   5.2947988244e+01    0.3829895    0.2170473   8.38  0.001356355    3.368    0.703
       446  -9.6830     97.6957     60.8511   7.0696323983e+01   5.1098862008e+01    0.3248042    0.3150073 -84.71  0.001016374    1.264    0.209
       447  -8.9180     64.3787     63.6900   8.3104435332e+01   5.6443608552e+01    0.4248959    0.2384531  -8.17  0.001619766    3.109    0.678
       448  -8.9103     37.2991     64.5504   9.4019500780e+01   5.9713403266e+01    0.2529497    0.2121288  85.64  0.001107706    1.792    0.442
       449  -8.9351    109.9741     63.6418   6.7987192543e+01   4.8075467376e+01    0.2708303    0.2092973 -44.07 0.0005698593    1.378    0.274
       450  -8.2483    158.2948     62.0162   5.5772263266e+01   3.7209404682e+01    0.2052585    0.1805777 -42.92 0.0004064803    1.153    0.132
       451  -8.5948     88.9026     59.5751   7.3052980339e+01   5.3035457029e+01    0.2310028    0.1634198 -40.53 0.0005558206    1.438    0.305
       452  -9.7007     73.2443     59.3886   7.8367557831e+01   5.5857279040e+01    0.4406683     0.232663 -49.29  0.001270692    2.145    0.534
       453  -7.9427    146.8645     58.8806   5.7208765350e+01   4.0443899029e+01     0.202448    0.1698276 -60.69 0.0006398044    1.328    0.247
       454  -9.8774     23.4256     56.3758   9.7402540432e+01   6.2700915683e+01    0.4058386    0.2796302 -87.68  0.002047141    2.710    0.631
       455  -8.2722    130.7477     57.9371   6.0601733498e+01   4.4391405936e+01    0.2294064    0.1601378 -59.70 0.0005992859    1.866    0.464
       456  -9.4553      7.5633     57.2754   1.0455419161e+02   6.3625023756e+01    0.2742359    0.2141491  86.76 0.0009956041    1.812    0.448
       457  -8.1567    139.9036     56.0881   5.7869686143e+01   4.2533508704e+01       0.2187    0.1934548 -64.43 0.0004656134    1.266    0.210
       458  -9.3896    119.0295     55.0958   6.2617750872e+01   4.7515074079e+01    0.4609075    0.2275666 -39.81  0.001350443    2.099    0.524
       459  -9.1323     54.0637     54.8603   8.4039362709e+01   5.9617814004e+01    0.3178021    0.2034407 -54.68  0.001008314    1.902    0.474
       460  -8.8579     44.0743     55.5665   8.8348563841e+01   6.0767121992e+01     0.237145    0.1769118 -57.81 0.0007977295    1.621    0.383
       461  -8.3483    105.7913     53.1968   6.5602679422e+01   5.0709687729e+01    0.2065869    0.1974362 -71.42 0.0005920758    1.265    0.209
       462  -9.4821     92.3528     50.6595   6.8748864540e+01   5.3876254017e+01    0.3713568    0.2347319 -46.79 0.0009809748    1.857    0.462
       463  -8.5038     75.3399     51.4278   7.4744154003e+01   5.6916011352e+01     0.270032    0.1140215  28.05  0.000952605    3.258    0.693
       464  -8.6576    129.8441     49.5362   5.8064220973e+01   4.5885490578e+01    0.2315743     0.170874 -37.87 0.0005821768    1.419    0.295
       465  -8.7811    144.8407     49.1141   5.4600106583e+01   4.2391835544e+01    0.2184171    0.1917836 -67.73 0.0005603986    1.265    0.209
       466  -8.6620    120.9995     47.5979   5.9562354052e+01   4.8209744381e+01    0.2525441    0.2037777 -16.54   0.00051644    1.305    0.234
       467  -9.1146     82.2022     46.8077   7.0635806785e+01   5.6443975133e+01    0.2935514    0.2365684 -55.82 0.0009206688    1.669    0.401
       468  -8.5055    112.1805     46.7774   6.1564692273e+01   5.0309906497e+01    0.2330681    0.1860476 -41.23 0.0005886025    1.370    0.270
       469  -8.6626     45.0279     44.8052   8.4091091241e+01   6.2652307327e+01    0.2221769    0.1640112 -35.81 0.0005291041    1.243    0.196
       470  -9.2697     16.4618     44.4949   9.6826552415e+01   6.5620755737e+01    0.2512493    0.1918655 -63.97 0.0008938463    1.614    0.380
       471  -8.8696    132.7415     43.5729   5.5427688593e+01   4.6052433489e+01    0.2632866    0.2210422 -54.17 0.0006869253    1.347    0.258
       472  -9.0216     58.1488     42.6163   7.7845473860e+01   6.1197980935e+01     0.306846    0.2052531 -55.41  0.001292133    2.211    0.548
       473  -9.3410     69.6427     41.5449   7.3030827720e+01   5.9519420673e+01    0.3726847    0.2596502 -53.68  0.001411588    2.060    0.515
       474  -9.5748      5.1680     41.9877   1.0138769160e+02   6.6865606178e+01    0.3205405    0.1965616 -70.46  0.001446829    2.113    0.527
       475  -8.9449    105.9260     41.5975   6.1412646629e+01   5.2424770159e+01    0.2569625    0.1975087 -36.37 0.0006430665    1.394    0.283
       476  -7.8978    140.4511     41.5069   5.3097235908e+01   4.4497255366e+01    0.1395106    0.1330515  58.28 0.0001239388    1.032    0.031
       477  -8.4783     36.8019     41.0741   8.6263585448e+01   6.4311935258e+01    0.1811756    0.1594995 -30.62 0.0005878664    1.250    0.200
       478  -7.4808    160.3452     39.6692   4.8756259892e+01   3.9923178616e+01    0.1484061     0.103318 -70.30 0.0001223979    1.757    0.431
       479  -8.7484     95.3643     38.0407   6.3118618749e+01   5.5159548427e+01    0.1918002    0.1661964 -21.33 0.0009359538    1.186    0.157
       480  -8.2949     80.7113     36.6192   6.7192469338e+01   5.8265127540e+01    0.2099685    0.1591329 -48.00 0.0006329896    1.692    0.409
       481  -9.4806     26.2035     35.5526   8.9032251475e+01   6.6421688948e+01    0.2988766     0.211769 -53.10  0.000958162    1.687    0.407
       482  -8.8501     92.8046     42.7547   6.5677590732e+01   5.5007505330e+01    0.2890075    0.1912981  -8.68  0.001402047    1.767    0.434
       483  -7.9233    125.9431     35.6831   5.4304006845e+01   4.8691041475e+01    0.1916802    0.1648129  49.30 0.0003410554    1.078    0.073
       484  -8.2753    158.9056     34.8525   4.7572543742e+01   4.0882217951e+01    0.2023032    0.1743837  41.13 0.0002777483    1.200    0.166
       485  -8.5947    111.9607     34.5969   5.7270530435e+01   5.2033282430e+01    0.2536676    0.1843721 -46.24 0.0006853612    1.626    0.385
       486  -9.0136     48.5115     33.0822   7.7941967582e+01   6.4144794404e+01    0.2964361     0.199573 -36.15  0.001111954    1.454    0.312
       487  -8.7069    119.1996     32.9840   5.4923622821e+01   5.0591849035e+01    0.2409702    0.1546712 -37.49 0.0007225401    1.690    0.408
       488  -8.7302     60.7403     32.6819   7.2797600963e+01   6.2349593158e+01     0.229494    0.1616045 -38.32 0.0003500255    1.546    0.353
       489  -8.8187     72.2204     31.3512   6.7978013845e+01   6.0573245810e+01    0.2187983    0.2018735 -78.96 0.0006319068    1.642    0.391
       490  -8.1066    138.9807     31.7273   5.0237222477e+01   4.6085628443e+01    0.1830241    0.1130669  59.06 0.0005800858    1.489    0.328
       491  -8.7631     13.0426     30.5897   9.3609621104e+01   6.8463648118e+01    0.2113917    0.1527355 -57.06 0.0009616854    1.695    0.410
       492  -7.8761    126.8278     29.8034   5.2097921082e+01   4.9201282540e+01       0.1811    0.1606686 -74.36 0.0005270741    1.316    0.240
       493  -7.6995     41.7072     30.2798   7.9717770216e+01   6.5510121804e+01    0.1028605    0.1013989 -11.49 0.0002556216    1.530    0.346
       494  -8.9318     81.4176     27.4139   6.3241728280e+01   5.9367216172e+01    0.2729818    0.2113462 -46.10 0.0009769148    1.670    0.401
       495  -8.7196      3.8301     27.7433   9.7321709722e+01   6.9618467815e+01    0.1823896    0.1468366 -76.80 0.0007509087    1.988    0.497
       496  -8.8352     91.7727     26.2721   5.9603893505e+01   5.7424297289e+01    0.2743078    0.1916662 -47.33 0.0009221734    1.866    0.464
       497  -8.9518    101.6493     29.5159   5.8089519414e+01   5.4939262006e+01    0.2085811    0.1588967 -49.25 0.0006709697    1.652    0.395
       498  -8.1879    104.2154     23.1101   5.4982364020e+01   5.5123532934e+01    0.1727832     0.159721 -86.11  0.000531616    1.343    0.255
       499  -8.2652     34.7936     23.2265   7.9798937190e+01   6.7470656231e+01    0.1621446    0.1378534  80.72 0.0008605234    2.677    0.626
       500  -8.9371     63.5743     21.0704   6.6703195741e+01   6.3450419253e+01    0.2702684    0.2053009 -50.01  0.001024302    1.969    0.492
       501  -8.7334     48.4441     21.7620   7.3027584035e+01   6.5809114417e+01    0.1983834    0.1900218   3.57  0.000668148    1.448    0.309
       502  -8.5341    232.1929     21.1715   3.5151044135e+01   2.5510961498e+01    0.1671004    0.1550249 -73.65 0.0007249829    1.181    0.154
       503  -7.8063    120.5425     21.0513   5.0410190163e+01   5.1642809925e+01    0.1786405    0.1029059 -51.33 0.0008056205    2.337    0.572
       504  -8.0353     19.5391     21.5375   8.6579076987e+01   6.9420097514e+01    0.1186746   0.09197096 -16.18  6.68065e-05    1.047    0.045
       505  -8.9106     74.2516     19.6892   6.2339309309e+01   6.1676095685e+01    0.2284697    0.2006182 -55.23 0.0006675838    1.639    0.390
       506  -8.3717     38.5323     18.0827   7.5698891022e+01   6.7721544896e+01    0.1773483    0.1054663 -31.57  0.001021804    1.575    0.365
       507  -7.7879    112.9973     16.9894   5.0602395901e+01   5.3794038134e+01    0.1604174    0.1392392  43.13 0.0004263578    1.009    0.009
       508  -8.4801     87.9490     17.3423   5.7101576287e+01   5.9220634007e+01    0.1840034    0.1507104  39.05 0.0005500638    1.099    0.090
       509  -7.9634     30.1917     16.1771   7.8750626892e+01   6.9057504987e+01    0.1472988    0.1308629  -4.11 0.0006898225    1.347    0.258
       510  -9.0150    175.7760    247.9174   9.3400149838e+01  -1.4997190048e+00    0.2704773    0.2235538  82.25  0.001215538    2.061    0.515
       511  -7.8547     17.4730     14.4633   8.4454173921e+01   7.0710630903e+01    0.1159349   0.08982232 -12.79 8.750066e-05    1.076    0.070
       512  -8.6343    156.1739    248.4136   9.7344299848e+01   1.3527226748e+00    0.2299152    0.1716423  62.93 0.0005767334    1.817    0.450
       513  -9.3122    147.4931    246.5964   9.8832048527e+01   2.9530052344e+00    0.4038098    0.2385343  65.14  0.001805786    3.193    0.687
       514  -8.2180    113.0343    248.7351   1.0600549927e+02   7.7277569350e+00    0.1995142    0.1486891 -87.59 0.0008603113    1.687    0.407
       515  -9.2580    103.9562    247.0003   1.0762192755e+02   9.3449157790e+00    0.4074974    0.2187471 -83.34  0.001871051    3.198    0.687
       516  -9.0608    242.9789    246.6941   8.0680004045e+01  -1.0578421562e+01    0.3181396    0.1456939 -31.43  0.001473263    2.107    0.525
       517  -7.9734      7.5338     15.5335   9.0390801355e+01   7.1429002487e+01    0.1138576   0.08675545 -20.09 0.0001518201    1.072    0.067
       518  -8.4398    218.4875    248.0860   8.5294171905e+01  -7.5906508409e+00    0.1627114    0.1077618 -29.73  0.001022875    1.569    0.363
       519  -8.7777    132.2203    247.8217   1.0205759096e+02   5.0494102105e+00    0.2186527    0.1677644  63.23 0.0006917528    1.498    0.332
       520  -7.9276     63.3455    248.3016   1.1566059842e+02   1.4598253744e+01    0.1022031   0.09116738  -8.61 0.0003934752    1.684    0.406
       521 -10.0711    223.9876    244.1741   8.3657021289e+01  -7.8153525447e+00     0.426848    0.2416158 -44.90  0.002352136    2.442    0.591
       522  -9.1404    210.9351    246.5801   8.6453573295e+01  -6.3613880154e+00     0.194231    0.1656659 -43.35 0.0008879546    1.683    0.406
