#   1 NUMBER                 Running object number                                     
#   2 MAG_AUTO               Kron-like elliptical aperture magnitude                    [mag]
#   3 X_IMAGE                Object position along x                                    [pixel]
#   4 Y_IMAGE                Object position along y                                    [pixel]
#   5 X_WORLD                Barycenter position along world x axis                     [deg]
#   6 Y_WORLD                Barycenter position along world y axis                     [deg]
#   7 A_WORLD                Profile RMS along major axis (world units)                 [deg]
#   8 B_WORLD                Profile RMS along minor axis (world units)                 [deg]
#   9 THETA_WORLD            Position angle (CCW/world-x)                               [deg]
#  10 FWHM_WORLD             FWHM assuming a gaussian core                              [deg]
#  11 ELONGATION             A_IMAGE/B_IMAGE                                           
#  12 ELLIPTICITY            1 - B_IMAGE/A_IMAGE                                       
         1 -14.1849     89.1321     37.7858   7.3129400059e+01   5.7134289881e+01     1.165986    0.6811652 -44.20  0.004784773    1.904    0.475
         2 -15.9116    192.5006     75.1567   6.0687678253e+01   2.6842313754e+01     3.240609     1.469576  37.72   0.01059982    3.323    0.699
         3 -16.0279    117.0514     33.3447   6.3283111100e+01   5.1885476598e+01     3.146813     1.614578 -24.52   0.01347793    2.094    0.522
         4 -14.6070     42.3368     29.7313   8.7677002444e+01   6.5815823491e+01    0.9698535    0.7382999 -24.27   0.00403915    1.076    0.071
         5 -16.3584     61.7201     48.2404   8.6967586723e+01   5.9957114520e+01     2.221813     1.507482  23.12  0.009480382    1.590    0.371
         6 -16.4463     70.6504     77.3211   9.3273316031e+01   5.2723077544e+01     2.339504     1.545737 -50.37   0.00826879    1.373    0.272
         7 -13.5325     28.1997     24.1113   9.1824846636e+01   6.8323160135e+01    0.8159716    0.5127777 -27.39  0.005011258    1.334    0.250
         8 -16.6659     18.5364      7.9962   8.9383850227e+01   7.1848515324e+01     1.911724    0.9091761 -19.36  0.009863771    2.361    0.576
         9 -15.9421      6.9546      6.6297   9.5159133196e+01   7.3024910258e+01     1.103323    0.4823205 -36.06  0.006375297    1.746    0.427
        10 -18.6002    235.8780     67.9230   5.2088264606e+01   1.7766165088e+01     10.08365     4.161595 -35.90   0.04078855    2.139    0.532
        11 -15.6343     54.4343      7.5786   7.2151288217e+01   6.7356280383e+01     1.707391    0.7273909  30.53  0.006177075    2.533    0.605
        12 -15.9588     96.7114     18.6996   6.2926049351e+01   5.8210516852e+01     2.741632     1.408685  55.20   0.01272473    1.975    0.494
        13 -12.0601    155.5894     12.9335   4.8105836341e+01   4.4899389654e+01    0.4388149    0.2502208  -3.92  0.001520809    2.409    0.585
        14 -16.7706    142.6537     49.0114   6.2711026862e+01   4.3538662731e+01     3.493998     2.566995 -20.31   0.01164948    1.474    0.321
        15 -10.8075    205.4156      8.3721   4.0482126028e+01   3.2855105141e+01     0.130286     0.112152  56.54 0.0007790494    1.263    0.209
        16 -11.7670    156.7073      5.4316   4.5497346794e+01   4.5339113958e+01    0.2337264    0.2114701  29.95 0.0007118509    1.186    0.157
        17 -14.8335     65.9909      2.9355   6.5418216781e+01   6.5923334112e+01     1.106301     0.415053  46.51  0.005058852    2.427    0.588
        18 -12.5236    157.4329    113.5825   7.8656958966e+01   2.7816954142e+01    0.3747381    0.2730422 -69.75 0.0007227907    1.786    0.440
        19 -14.8832    164.2225    246.4060   1.0247599658e+02   1.3392980532e+00     1.425111     1.021802  32.85  0.007380268    1.176    0.150
        20 -14.6841    136.5609    247.8133   1.0775559547e+02   5.4287799037e+00     1.393098    0.8145475  36.72  0.007187407    1.475    0.322
        21 -13.3502    151.5782    243.6105   1.0446226799e+02   3.7353540407e+00    0.6314077    0.4121164  63.15  0.003185272    1.902    0.474
        22 -11.6768    116.7785    250.2861   1.1164419805e+02   8.0328835357e+00     0.292771    0.1266879  42.38  0.001531106    1.821    0.451
        23 -14.1289      2.9534    159.3920   1.2618721890e+02   4.0266872978e+01    0.7947566    0.3137281 -87.57  0.003102071    2.190    0.543
        24 -14.3218     48.8902     70.8319   9.9142351517e+01   5.6971616641e+01     1.247288    0.6753166 -33.60  0.005564464    1.970    0.492
        25 -13.7618     74.9147     60.7982   8.6565270517e+01   5.5538248888e+01    0.9421466     0.461849 -33.46  0.003347449    2.161    0.537
        26 -11.6770    192.1124    193.6700   8.8781202493e+01   4.9306717861e+00    0.5689418     0.276613 -60.83  0.001615996    6.649    0.850
        27 -14.4458     39.6484     61.0562   9.9848518145e+01   6.0072896857e+01    0.8781529    0.6607645  -6.91  0.003937133    1.473    0.321
        28 -14.4809     85.2503     81.9850   8.9787099405e+01   4.9413327288e+01     1.450434    0.7141852 -31.66  0.005373063    2.702    0.630
        29 -11.6407    144.3142    103.4646   7.9118798045e+01   3.2923493223e+01    0.2782282    0.2533259 -27.89 0.0007235125    1.113    0.101
        30 -14.1126    153.3139     99.0165   7.5683636532e+01   3.1802672827e+01    0.9225385    0.4774445  49.98  0.003544256    1.989    0.497
        31 -14.5579    165.1700     91.2252   7.0743091157e+01   3.0568391305e+01    0.9621139    0.7258141  40.39    0.0044739    1.394    0.283
        32 -12.3591    171.4558     87.4846   6.8308599049e+01   2.9771650435e+01    0.3254739    0.2985084 -82.21 0.0002041796    1.175    0.149
        33 -12.1286    131.8816     98.7136   8.0984551295e+01   3.6689798732e+01    0.2781779    0.2050201 -60.02 0.0009156512    1.514    0.339
        34 -11.8453     90.9761     97.0631   9.2210519270e+01   4.5052868125e+01    0.5390235    0.3280438  31.70  0.002409698    1.872    0.466
        35 -12.4249    137.0784     93.5573   7.8157110108e+01   3.6639995270e+01     0.344976    0.2938743  62.40 0.0007531577    1.278    0.218
        36 -12.7028    149.4433     89.7045   7.3949180586e+01   3.4597411415e+01    0.3463074    0.2746001 -44.62 0.0007105388    1.244    0.196
        37 -11.4183     41.1170     89.0862   1.0641658237e+02   5.3643227343e+01    0.3795336    0.1823812 -66.25  0.001723072    1.964    0.491
        38 -10.6609     33.2721     87.6004   1.0875599472e+02   5.4724393177e+01    0.2419691    0.1428146 -72.03  0.001096177    1.644    0.392
        39 -14.4237    160.1917     78.7313   6.8204792216e+01   3.4151395932e+01    0.9453765    0.5387153  45.28  0.003649107    1.809    0.447
        40 -13.2853    225.1202    177.3649   7.9260031063e+01   1.6953480700e+00    0.4735849    0.2401054  44.95  0.001661449    2.071    0.517
        41 -13.2521     35.7694     76.2756   1.0535245215e+02   5.7102371415e+01    0.6177644     0.434904  86.54  0.003328831    1.963    0.491
        42 -11.8899      1.4853    205.9845   1.2920969268e+02   3.0513563547e+01    0.2736212   0.08328235 -80.20  0.001351208    2.684    0.627
        43 -11.7516    175.8900     53.1700   5.7312967846e+01   3.4575819034e+01    0.3702573    0.1855087 -46.65  0.001454725    2.104    0.525
        44 -11.4538    180.3757     52.7519   5.6390991158e+01   3.3504107729e+01    0.2690157    0.1553012 -26.09 0.0004779118    1.895    0.472
        45 -11.3578    200.2025     44.7032   5.0931746744e+01   2.9693674482e+01    0.2990549    0.1793591 -38.80  0.000772571    1.592    0.372
        46 -11.4008    191.2171     43.3243   5.1871848371e+01   3.2139487229e+01    0.2905804    0.1835364 -41.17 0.0005721019    1.537    0.350
        47 -10.8558    174.4042     43.6664   5.4697947723e+01   3.6356609314e+01    0.2573227    0.1352499 -35.78 0.0004985469    1.875    0.467
        48 -13.1794     55.4141    155.7028   1.1358342236e+02   3.6036050332e+01    0.3532989    0.3505487 -14.27 0.0009666454    1.300    0.231
        49 -13.0429     24.0024    177.3940   1.2304324968e+02   3.4454060567e+01    0.2422843    0.1497855 -81.05 0.0006932742    1.325    0.246
        50 -11.1952    200.9941     32.4525   4.7444408607e+01   3.1147268565e+01    0.2125724     0.181171 -28.47 0.0005882369    1.256    0.204
        51 -12.6142    204.7513     27.1400   4.5529723040e+01   3.0883581337e+01    0.3427102     0.277456 -21.12  0.001847462    1.399    0.285
        52 -12.5362     90.3577    167.6375   1.0679631796e+02   2.8382119073e+01    0.3817557    0.3325565  79.74   0.00128729    1.054    0.051
        53 -12.1546    198.7886    144.3484   7.7207552838e+01   1.2531298690e+01    0.2978953    0.2425654  79.28  0.001373972    1.683    0.406
        54 -12.0044     69.3784     28.6931   7.6217470983e+01   6.2077739397e+01    0.2901766    0.2242976  17.64  0.001070866    1.230    0.187
        55 -13.1465    229.5905    166.5886   7.6220408971e+01   2.6300008171e+00    0.3019386    0.2470856 -52.54  0.001616971    1.555    0.357
        56 -13.1253    161.0537    127.5379   8.1357724347e+01   2.4050005003e+01    0.4447394    0.3675557 -37.28  0.002152997    1.206    0.171
        57 -13.8057    101.0450    120.9226   9.5170629726e+01   3.7699405413e+01     1.236134    0.6153667 -43.59  0.004889654    2.075    0.518
        58 -12.9325    190.9745    124.9655   7.4179529896e+01   1.7934534933e+01     0.317691    0.2358031  57.66  0.001275915    1.501    0.334
        59 -15.0365     66.2981    147.9126   1.0973667712e+02   3.6516405729e+01     1.164511    0.9555559 -31.02  0.003991904    1.578    0.366
        60 -14.2606    183.0935    123.6863   7.5504883461e+01   1.9943089993e+01    0.6201245    0.3566513 -41.43  0.002579591    1.691    0.409
        61 -14.3159    185.2592    119.0972   7.3895365458e+01   2.0366001393e+01    0.6671446    0.4425214 -52.75  0.002018634    1.651    0.394
        62 -14.5071    166.8354    114.0419   7.6604128256e+01   2.5583921555e+01    0.9381709    0.6243008 -24.69  0.002351747    1.791    0.442
        63 -15.1401     28.1708    167.2921   1.2127007952e+02   3.6314105638e+01     1.247303     0.697629  73.34  0.005886051    1.721    0.419
        64 -12.7279    174.4701    114.2356   7.4955452921e+01   2.3796617713e+01    0.2937038    0.2590965  83.54 0.0007108913    1.308    0.236
        65 -12.9973    135.0000    108.5201   8.2861272719e+01   3.3876381886e+01     1.004261    0.2061932 -43.05  0.002409671    4.931    0.797
