#   1 NUMBER                 Running object number                                     
#   2 MAG_AUTO               Kron-like elliptical aperture magnitude                    [mag]
#   3 X_IMAGE                Object position along x                                    [pixel]
#   4 Y_IMAGE                Object position along y                                    [pixel]
#   5 X_WORLD                Barycenter position along world x axis                     [deg]
#   6 Y_WORLD                Barycenter position along world y axis                     [deg]
#   7 A_WORLD                Profile RMS along major axis (world units)                 [deg]
#   8 B_WORLD                Profile RMS along minor axis (world units)                 [deg]
#   9 THETA_WORLD            Position angle (CCW/world-x)                               [deg]
#  10 FWHM_WORLD             FWHM assuming a gaussian core                              [deg]
#  11 ELONGATION             A_IMAGE/B_IMAGE                                           
#  12 ELLIPTICITY            1 - B_IMAGE/A_IMAGE                                       
         1 -13.3260    164.2368     52.6634   5.2652727216e+01   3.7913148349e+01      13.2905     7.401685 -85.91   0.04544893    3.582    0.721
         2 -12.1333    222.4003     64.3913   4.6721754006e+01   2.2386151422e+01      1.16613     0.862304 -43.38  0.005773236    1.231    0.188
         3 -12.4836    219.6017     37.1873   4.0557048367e+01   2.6796835786e+01     1.673913    0.7194686 -52.95  0.005074544    2.368    0.578
         4 -12.8993    235.0646     58.6734   4.3826478615e+01   2.0476442129e+01     2.549972    0.7567247 -36.47  0.004591951    2.894    0.654
         5 -11.3423    247.8269     60.2470   4.2760136375e+01   1.7603371710e+01     1.381482     0.480426 -40.05  0.005858261    2.343    0.573
         6 -13.0583    243.1615     35.3847   3.7810106462e+01   2.1912235168e+01     2.944555     0.946392  59.10   0.01240741    3.200    0.687
         7 -13.1478    220.5301     78.5545   5.0393400079e+01   2.0605000788e+01     10.76005     2.695692 -49.78   0.02476634    7.165    0.860
         8 -11.3296    133.2039     19.5174   4.7975706185e+01   4.9668718880e+01    0.6362968    0.3960385  55.70  0.002883588    1.409    0.290
         9  -8.7007    223.7795     18.6536   3.5849111051e+01   2.8092980897e+01    0.3624836    0.1539545 -30.28  0.001554786    2.442    0.590
        10  -9.3673    203.2475     17.9116   3.7630858937e+01   3.2849314383e+01    0.6370311     0.310827 -79.70  0.002741801    2.596    0.615
        11  -8.1976    179.3474     16.0993   3.9838715159e+01   3.8741474501e+01    0.2600646    0.1240481 -26.99  0.001019406    2.307    0.567
        12  -9.6848    142.3616     15.2116   4.4893575702e+01   4.7878147591e+01    0.3774911    0.1901459 -31.09  0.001776394    2.122    0.529
        13  -9.7843    125.3014     14.1669   4.7652713565e+01   5.2087138439e+01     0.274694    0.2363516 -41.19  0.001672728    1.317    0.241
        14 -11.2054    119.5444      9.9705   4.7292630489e+01   5.3830024626e+01    0.7183246    0.4149435  51.58  0.002814168    1.473    0.321
        15  -8.3437    244.8952     13.6155   3.3071061378e+01   2.4139765990e+01    0.1802782    0.1545497 -33.34 0.0007356387    1.385    0.278
        16  -8.0644    205.4106     12.0625   3.5992439268e+01   3.2970937706e+01     0.318239   0.06468415 -38.23  0.001148802    3.680    0.728
        17  -9.0972    215.2625     10.6046   3.4756235843e+01   3.0872752877e+01    0.2950184    0.1722404 -72.23  0.001360724    1.681    0.405
        18  -9.0607    144.1009      3.7837   4.0943657394e+01   4.8476917076e+01    0.4727831    0.1925121 -14.54  0.001946147    3.273    0.694
        19  -7.6520    233.7387      5.9218   3.2266203778e+01   2.7308534983e+01    0.2814001   0.08485299 -33.29   0.00122355    2.974    0.664
        20  -8.3118    205.6272      5.9502   3.4508835331e+01   3.3540960771e+01    0.1623165     0.133921 -56.48 0.0004795754    1.160    0.138
        21 -10.2820    248.9905      2.4500   3.0541050350e+01   2.4504505105e+01    0.2294693    0.1820106  75.06 0.0006803245    1.358    0.264
        22  -8.2555    209.1119      2.7951   3.3468559081e+01   3.3052522609e+01    0.1989654    0.1337264 -45.00 0.0006586704    1.425    0.298
        23  -7.9206    250.5310     13.4631   3.2641215703e+01   2.3006084066e+01    0.1759228    0.1119413 -22.22  0.001016571    2.048    0.512
        24 -10.9306    202.5278     74.0846   5.1997944941e+01   2.5381440885e+01     1.275039    0.4327914  42.70  0.003465977    4.843    0.794
        25  -8.7389    238.0143    249.5046   8.2750173444e+01  -9.7857775071e+00    0.1769522    0.1508921 -19.49 0.0005602926    1.462    0.316
        26  -7.5429    182.3181    246.6873   9.2659770400e+01  -1.6912016852e+00    0.1148409    0.0912444  54.30 0.0007036156    1.646    0.392
        27  -9.7581     66.2563    143.2668   1.0340414894e+02   3.8335636902e+01    0.4717541    0.2958606 -71.22  0.001768875    1.578    0.366
        28  -9.5305    192.1218    132.8790   6.8669247299e+01   1.7005920395e+01    0.3069405    0.2290912 -38.46 0.0003400371    1.274    0.215
        29  -8.5351    135.7230    132.6843   8.1729053482e+01   2.8981252851e+01    0.2497568    0.2219345 -19.71 0.0005699401    1.195    0.163
        30  -8.7088    197.2060    129.5805   6.6860354187e+01   1.6579223195e+01    0.2486385    0.2339653 -28.84 0.0007082639    1.018    0.018
        31  -8.5272    160.7618    129.2232   7.4667726072e+01   2.4464557634e+01     0.261133    0.1240053 -33.50 0.0008962459    2.489    0.598
        32  -8.3826    204.5413    127.5404   6.4952007901e+01   1.5435995396e+01    0.1476945    0.1373064 -36.25 8.377102e-05    1.045    0.043
        33 -10.0634    188.5208    121.9172   6.6746573712e+01   1.9921865885e+01    0.3488268    0.3290581 -44.05 0.0009205586    1.057    0.054
        34  -8.4319     97.9492    244.1004   1.0921658834e+02   1.1369736830e+01    0.2708394    0.1307801  52.15 0.0007932587    1.932    0.483
        35 -10.9489    188.0043     98.9692   6.1022819744e+01   2.4418185783e+01     2.199134    0.3577307 -37.36  0.004875013    6.269    0.840
        36  -8.4774    126.5341    109.5080   7.8273175734e+01   3.6110617832e+01    0.2862772    0.1473465  54.00  0.001034494    2.362    0.577
        37  -8.3264    140.0307    107.0251   7.4006099555e+01   3.3750642895e+01    0.2307308    0.2290485  78.66 0.0003484479    1.048    0.046
        38 -12.4979    241.2457     74.7870   4.6752766640e+01   1.6802072157e+01     2.223661    0.7359868 -48.80  0.008095473    3.090    0.676
        39  -8.1218     82.5214    104.7559   9.0218845121e+01   4.5432424310e+01    0.2080895    0.1386418 -50.86  0.000539471    1.405    0.288
        40 -10.4481    207.0650    108.8433   5.9974890882e+01   1.8361445830e+01    0.5097908    0.4349455  24.08  0.002728933    1.330    0.248
        41  -8.6602    150.7161    101.0581   6.9690396359e+01   3.2601014366e+01    0.2885513    0.2289196  37.52 0.0006068815    1.306    0.235
        42  -8.2362    136.0904     97.3187   7.2316106375e+01   3.6662263450e+01    0.2133987    0.1964189  50.34 0.0003201116    1.116    0.104
        43  -9.3904    162.8595     94.8797   6.5149668377e+01   3.1023190288e+01    0.5924783    0.2961018  38.72   0.00218281    2.351    0.575
        44  -8.9590    144.8940     91.0065   6.8263194852e+01   3.5947609470e+01    0.2950807    0.2511435 -51.17  0.001104931    1.212    0.175
        45  -7.7675    115.4603     92.4781   7.6597369985e+01   4.2111575911e+01     0.152683     0.147916 -20.03 0.0007720035    1.015    0.015
        46  -8.3504      2.3285     88.6666   1.1474853473e+02   5.7444110131e+01    0.1197868   0.08437396  71.91 0.0005177012    1.720    0.418
        47  -8.8837    195.5415     85.8346   5.6206754294e+01   2.5033868714e+01     0.340449    0.2528588 -25.05  0.001104037    1.460    0.315
        48 -10.4156    161.1093     85.3246   6.2847845858e+01   3.3239884183e+01    0.3576171    0.2795661 -25.14 0.0005737035    1.375    0.273
        49 -10.2338     99.6646     85.1651   7.9183046245e+01   4.6803400015e+01    0.2515396      0.23883  17.17 0.0002442874    1.064    0.060
        50  -8.5586    209.0824    239.0482   8.6342349278e+01  -4.5123673616e+00    0.1785718    0.1471508  14.83 0.0002871756    1.088    0.080
        51  -8.6980    171.0491     74.9519   5.7817149640e+01   3.2706418383e+01     0.222863    0.2181372  74.22 0.0002935569    1.022    0.022
        52  -9.2748    120.5498     69.4854   6.7998378433e+01   4.5547383046e+01    0.4459851    0.2465988 -48.33  0.001829308    2.031    0.508
        53  -8.0312    247.5194    233.4455   7.8446545097e+01  -9.0027119813e+00    0.1183506    0.0902055   1.98 4.733702e-05    1.026    0.026
        54  -8.8774    208.2243    221.5868   8.3596525443e+01  -1.8352250692e+00    0.2384506    0.2101563  69.12 0.0009609778    1.839    0.456
        55 -10.6548    146.1581     61.6003   5.9078082448e+01   4.0946679210e+01    0.4527649     0.323047   4.78 0.0008477188    1.947    0.486
        56  -7.8932    196.7509     55.5927   4.8077012115e+01   2.9585047265e+01    0.1803281    0.1312627  79.62 0.0003757701    1.441    0.306
        57  -9.3598    134.9264     54.4722   5.9377182082e+01   4.4759002585e+01    0.2750482    0.1951256 -48.77 0.0008348423    1.563    0.360
        58 -11.1982    242.8739     47.2679   4.0427070980e+01   2.0419447982e+01     1.326096    0.6219382  69.33  0.006166292    2.281    0.562
        59  -8.0898    179.3359     43.1305   4.7332433367e+01   3.5539330836e+01     0.235651    0.1716121  55.43 0.0003533043    1.349    0.259
        60 -11.1589    181.1864     84.5047   5.8491245968e+01   2.8624666072e+01     1.311976    0.7511695  32.34  0.005078824    2.499    0.600
        61 -10.7409    132.6236     32.6458   5.2575460274e+01   4.8332696685e+01    0.3510322     0.310061  65.31  0.001628052    1.114    0.103
        62 -10.2678    128.4163     39.2252   5.5766768909e+01   4.8496093438e+01    0.2988322    0.2187685  65.98 0.0004175106    1.426    0.299
        63  -8.4102    188.4211     37.4117   4.4433693010e+01   3.4075679440e+01    0.3371698    0.2074012  17.78  0.001386482    3.040    0.671
        64 -10.2984    227.9422    215.0815   7.8732174943e+01  -3.8105345026e+00    0.2199031    0.1842584  -0.77 0.0003280354    1.079    0.073
        65  -7.5718     69.7122     36.3841   7.2221256690e+01   6.1165096498e+01    0.1233538    0.1066805 -64.75  0.000701264    1.746    0.427
        66 -11.5788    180.2500     72.0532   5.5253055501e+01   3.0978760628e+01    0.5771899    0.4491632 -11.95  0.001372257    1.573    0.364
        67  -8.0990    159.8901     31.9323   4.7196411005e+01   4.1753790540e+01    0.1974001    0.1733474  44.46  0.001140656    1.169    0.144
        68  -8.8861    196.2472    215.9516   8.4968207618e+01   9.1808371053e-01    0.2490809    0.1639784  33.70 0.0003265902    1.387    0.279
        69  -9.0798    197.4507    211.4064   8.3927565838e+01   1.4670222546e+00    0.2181799    0.1899551   1.57  0.000196347    1.047    0.045
        70 -10.0237    127.7874     27.0154   5.1664463378e+01   5.0154200751e+01    0.2383116    0.2029213  51.91 0.0002167324    1.065    0.061
        71  -9.0279    180.4968     24.3452   4.1949637508e+01   3.7571405051e+01    0.3113146    0.2623005  -0.33  0.001825856    1.496    0.332
        72  -7.9365    179.6700     20.6897   4.1053755116e+01   3.8176879079e+01    0.1804197    0.1593391  58.44 0.0005166235    1.165    0.141
        73  -8.5454    198.0253    206.8896   8.3000802741e+01   2.1225705069e+00    0.2004488    0.1722119   4.56 0.0004705183    1.021    0.021
        74  -7.4877    224.6968    203.2699   7.7169247614e+01  -1.5414093219e+00    0.1089804    0.1053303  58.06 0.0002092673    1.532    0.347
        75  -7.9971    232.7384     17.9861   3.4935803096e+01   2.6211925146e+01    0.1648994    0.1323999 -60.80 0.0002839745    1.070    0.066
        76 -10.1737    165.3455    201.3593   8.8843271621e+01   8.6529945958e+00    0.2438212    0.2269953  22.83 0.0002547961    1.051    0.049
        77  -8.0821    117.3524    199.0559   9.9302600800e+01   1.7342001443e+01     0.175638    0.1692972 -85.63 0.0003726583    1.087    0.080
        78  -9.0457    235.7440    196.6801   7.3904184581e+01  -2.2109547165e+00    0.2650965    0.2352774  47.28  0.001108565    1.578    0.366
        79  -9.0783     49.9098    190.2314   1.1396255801e+02   2.8991267260e+01     0.202588    0.1635765 -74.71 0.0002120789    1.180    0.153
        80  -8.5306    187.1331    186.5274   8.1399326016e+01   7.5837751373e+00    0.2017054    0.1885885 -40.77 0.0003235984    1.214    0.177
        81  -9.1068      1.5349    183.0586   1.2419858869e+02   3.5300406812e+01    0.3381417    0.1117062 -74.32   0.00158599    2.397    0.583
        82  -8.8526    237.3689    175.0154   6.9353727245e+01   9.5630072344e-01    0.2068875    0.1970087  88.63 0.0007668287    1.539    0.350
        83  -8.0112    195.4309     10.4744   3.6577709776e+01   3.5464536885e+01    0.2399597    0.1097257  87.85  0.001029028    2.462    0.594
        84  -8.4183     51.1407    174.8858   1.1197394101e+02   3.2446067920e+01    0.1893647    0.1679302 -76.86 0.0004278697    1.105    0.095
        85 -12.1051     30.3598    164.3668   1.1597998570e+02   3.7183399040e+01    0.6566357    0.6143169 -73.97  0.001436383    1.188    0.159
        86 -11.8415     42.0346    158.0339   1.1225914304e+02   3.7545883578e+01    0.8955481    0.7401834 -72.96  0.002792094    1.083    0.076
        87  -6.9518    207.4658    163.5429   7.2519598927e+01   8.1270315847e+00    0.1455047    0.1273943  -7.44 0.0008049852    1.062    0.059
        88  -7.2620    145.9538    157.0020   8.4676761287e+01   2.1440414620e+01    0.1778736    0.1677419  31.98 0.0003504298    1.050    0.047
        89  -9.3278     70.3968    145.6078   1.0262780987e+02   3.7193981202e+01    0.4819009    0.2749662  49.42  0.001913555    1.915    0.478
