#   1 NUMBER                 Running object number                                     
#   2 MAG_AUTO               Kron-like elliptical aperture magnitude                    [mag]
#   3 X_IMAGE                Object position along x                                    [pixel]
#   4 Y_IMAGE                Object position along y                                    [pixel]
#   5 X_WORLD                Barycenter position along world x axis                     [deg]
#   6 Y_WORLD                Barycenter position along world y axis                     [deg]
#   7 A_WORLD                Profile RMS along major axis (world units)                 [deg]
#   8 B_WORLD                Profile RMS along minor axis (world units)                 [deg]
#   9 THETA_WORLD            Position angle (CCW/world-x)                               [deg]
#  10 FWHM_WORLD             FWHM assuming a gaussian core                              [deg]
#  11 ELONGATION             A_IMAGE/B_IMAGE                                           
#  12 ELLIPTICITY            1 - B_IMAGE/A_IMAGE                                       
         1 -11.3733    211.4251      2.2198   6.4302114030e+01   3.1605929215e+01    0.7206127    0.3101087  71.97  0.002360362    2.360    0.576
         2 -12.7387    189.0910     27.4945   7.4110211503e+01   3.4633729449e+01     1.335535    0.9509767 -46.41  0.004123932    1.424    0.298
         3 -13.3054    197.9664     16.5036   6.9696196950e+01   3.3569587301e+01     2.917136      1.45331  21.19   0.01102369    3.159    0.683
         4 -11.1858      7.2977     10.5548   1.2806698519e+02   7.4329410144e+01    0.3896442     0.239334   5.68  0.002299484    1.862    0.463
         5  -9.4485    250.3537     42.3486   7.1675534925e+01   1.9260834835e+01    0.2174388    0.1455881 -19.84  0.001233729    1.311    0.237
         6  -9.7457    144.1397    249.2832   1.3022149564e+02   1.0032421291e+01    0.1547861    0.1305634   0.07 0.0007069423    1.368    0.269
         7 -10.8553     30.8260    250.1366   1.4969769056e+02   2.2393390926e+01    0.4644767    0.1674829  28.46  0.001420884    2.763    0.638
         8 -10.3695     31.2523    244.9764   1.4943255528e+02   2.3107319806e+01    0.2172068    0.1092364  48.95 0.0009891582    1.396    0.284
         9 -10.3276     28.1934    242.6038   1.4985651184e+02   2.3735661808e+01    0.1903018    0.1465053  40.41  0.001110106    1.256    0.204
        10 -14.0337     28.3342    184.5413   1.4713338166e+02   3.3571131701e+01     5.510407     1.635924  76.51   0.01636857    8.022    0.875
        11  -8.2609    103.5071    237.5025   1.3628867643e+02   1.6541353399e+01    0.1064225   0.07972404  42.89 0.0008102842    1.042    0.041
        12 -11.9904     48.9741    225.4466   1.4540398275e+02   2.4417312954e+01    0.3348045    0.3218349  -1.21 0.0009007694    1.465    0.318
        13 -10.6885     34.9509    229.8511   1.4816325644e+02   2.5074432182e+01    0.2811281    0.2495106 -76.26  0.001087409    1.442    0.307
        14 -10.4295     19.2573    228.6384   1.5088294315e+02   2.6672007265e+01    0.2558435    0.1330999  86.83  0.001593098    1.880    0.468
        15 -14.1039      8.4791    239.7104   1.5305148706e+02   2.5855423359e+01     2.965843    0.5972756 -71.35   0.01266929    4.922    0.797
        16  -9.9675     27.3141    221.9752   1.4918996109e+02   2.7038466334e+01    0.2910736    0.1231671  50.29  0.001166889    1.743    0.426
        17  -9.8088     68.3443    245.2637   1.4310211609e+02   1.9411089059e+01    0.1721739    0.1416727  41.41 0.0002314821    1.176    0.150
        18  -8.3842     97.3413    245.3225   1.3802720818e+02   1.6184869721e+01   0.09548771   0.07241116   9.00 7.951682e-06    1.725    0.420
        19  -9.0486     64.5829    200.2859   1.4066519790e+02   2.7003508313e+01    0.1374723   0.09953673 -61.20 0.0009469453    1.599    0.374
        20 -10.0518    188.8340    191.3758   1.1458422661e+02   1.1196044366e+01    0.3218803     0.240411  58.75  0.001911042    2.120    0.528
        21 -10.9213     72.0117    192.9794   1.3848756078e+02   2.7462390002e+01    0.3323706    0.2347014 -39.16  0.001336128    1.960    0.490
        22 -10.8875     76.5928    186.1377   1.3684495615e+02   2.8170575449e+01    0.2496823    0.2181962 -56.25 0.0005177711    1.336    0.252
        23  -9.8533    142.7392    242.2560   1.2974475700e+02   1.1058967279e+01    0.1418522    0.1344655 -37.52  0.000704183    1.416    0.294
        24 -10.3489      4.4534    182.5199   1.5202188672e+02   3.5902604254e+01     0.268821    0.1499276  29.95  0.001807713    1.796    0.443
        25 -12.6183     11.2803    207.4039   1.5157839088e+02   3.0861724386e+01    0.8291308    0.4887741  20.45  0.003350783    2.085    0.520
        26 -10.5573     84.7588    174.3017   1.3372731783e+02   2.9383659665e+01    0.2478145    0.2290034  62.90 0.0004430786    1.054    0.051
        27 -11.7758     55.7268    124.4943   1.3461246228e+02   4.3555698258e+01     2.016902    0.6135687 -75.54  0.005396793    6.464    0.845
        28 -12.4433     67.6353    144.9617   1.3420328725e+02   3.7568213937e+01       1.0791    0.6021976  80.12  0.003352656    2.536    0.606
        29  -9.9685    230.5791    168.7629   1.0328869529e+02   7.6517202207e+00    0.3106835    0.1081215 -29.88  0.001385059    2.769    0.639
        30  -9.5283      2.4826    167.9122   1.5188143796e+02   3.8880670861e+01    0.1633451   0.08806948 -88.40  0.001036185    1.604    0.377
        31 -11.3879     30.6687    159.6615   1.4497060298e+02   3.8331496306e+01    0.3966947    0.3198738  17.33  0.002755737    1.527    0.345
        32 -12.1921     49.7462    232.9619   1.4567733051e+02   2.3159185509e+01    0.6267141    0.2481258  40.63  0.003898735    1.809    0.447
        33  -9.9533     46.4847    151.4863   1.4038240469e+02   3.8543797032e+01    0.1933895    0.1745962 -52.01 0.0008699144    1.290    0.225
        34 -10.2706     46.7667    147.9601   1.3995035692e+02   3.9275844664e+01    0.2274354    0.1741769 -67.54 0.0008867992    1.286    0.222
        35 -10.2183     33.9367    151.3176   1.4350868136e+02   3.9801022183e+01    0.2106708    0.1443719  82.59 0.0007899114    1.342    0.255
        36  -9.3419    102.8410    149.8821   1.2600796883e+02   3.1688132545e+01    0.2712545    0.2339043 -60.25 0.0008432214    1.219    0.180
        37  -8.6037    105.0005    146.1856   1.2485750513e+02   3.2108767777e+01    0.2741154    0.1657719 -37.41  0.001208826    2.013    0.503
        38 -11.1807     91.6989    149.1859   1.2866291917e+02   3.3467489285e+01    0.2502301    0.2362921 -12.30 0.0004803739    1.199    0.166
        39  -9.5162    109.1605    247.8419   1.3615764423e+02   1.4463798433e+01    0.1603324    0.1098212  48.05 0.0007968944    1.242    0.195
        40  -8.7077     50.4856    247.4837   1.4629507996e+02   2.0917868239e+01    0.1558507    0.0888972 -82.01 0.0007402424    2.026    0.506
        41 -14.4109     57.5407    212.4646   1.4297769388e+02   2.5665907253e+01      6.60584          nan  39.37   0.02037856    6.563    0.848
        42  -8.9972    132.8785    138.1988   1.1657028110e+02   2.9078978459e+01    0.2016306    0.1864986 -31.71 0.0002375775    1.115    0.103
        43  -9.1073    112.5207    135.8324   1.2109671617e+02   3.3023947102e+01    0.2609192    0.2094093  -3.66 0.0008491312    1.535    0.349
        44 -12.4009     72.8333    171.5045   1.3614443310e+02   3.1429844674e+01    0.4279783    0.2600308 -42.32  0.001867806    2.168    0.539
        45  -9.7599    100.0161    132.9937   1.2378313985e+02   3.5625957984e+01    0.2612633     0.203903 -33.18 0.0005547326    1.454    0.312
        46 -12.2412     89.0383    165.6999   1.3166067964e+02   3.0493863305e+01      1.88302    0.5710865  48.40  0.002428174    3.809    0.737
        47  -8.0798    197.4961    127.0271   1.0035830923e+02   1.8913031804e+01    0.1913963    0.1265032 -26.84 -8.557574e-05    1.443    0.307
        48  -9.9011     41.8773    127.1226   1.3893020510e+02   4.4424202966e+01    0.2005341     0.154974  67.18 0.0005236787    1.250    0.200
        49 -10.1871     39.9728    240.9437   1.4778436921e+02   2.2896822277e+01    0.1802941    0.1223995  34.18 0.0008402092    1.367    0.269
        50  -8.5945    130.0970    123.1309   1.1403630234e+02   3.2517994072e+01    0.2022613     0.180801  -1.27 0.0002847071    1.161    0.139
        51  -8.5225    108.7710    123.3788   1.1956897540e+02   3.6239467035e+01    0.1847088    0.1624586  29.55 0.0004422482    1.147    0.128
        52 -10.5691    243.3345    118.3490   9.0820357442e+01   1.1712623051e+01    0.2444447    0.2043371  17.16   0.00026617    1.172    0.147
        53  -9.3914    167.9473    113.7289   1.0305132877e+02   2.6872169062e+01    0.2822874    0.2514126  71.18 0.0009764555    1.430    0.301
        54 -10.4994     39.9093    245.8090   1.4800978481e+02   2.2182477790e+01    0.2548862    0.1036336  52.11  0.001535976    1.830    0.454
        55  -7.8977     31.7632    108.0038   1.3955268674e+02   4.9825690317e+01    0.1687937   0.09386866 -72.30 0.0004922078    1.579    0.367
        56  -8.0602    189.0484    104.9602   9.6603297370e+01   2.3970984024e+01    0.1697285    0.1535544   6.84 0.0003905923    1.036    0.035
        57 -10.0509     68.8197    235.9260   1.4243198917e+02   2.0727042938e+01    0.2855243    0.1793626  72.45   0.00129394    1.703    0.413
        58  -7.6729    213.2913     78.2867   8.5473750226e+01   2.2721556475e+01    0.1400789    0.1006619  13.60 0.0002145134    1.539    0.350
        59  -7.6740    158.2964     61.3263   9.0157836747e+01   3.7781295967e+01    0.1565955    0.1136096  14.55 0.0007024147    1.628    0.386
        60  -8.7954    195.8369     56.8615   8.2117148353e+01   2.9478328124e+01    0.2054665    0.1805117   4.36 0.0002754774    1.130    0.115
        61  -8.6645    135.9850     47.0355   9.0121065010e+01   4.5367065841e+01    0.2196446    0.2083207 -16.36  0.001194918    1.039    0.038
        62  -9.8368    249.3825    248.0649   1.1311045701e+02  -2.6330659034e+00    0.2216457    0.1027478 -20.95  0.001516843    2.191    0.544
        63 -10.3129    243.5738    248.9632   1.1408962742e+02  -2.0502593827e+00     0.335594    0.1321532  44.23  0.001657303    4.139    0.758
        64 -10.1969    192.4680    249.6067   1.2214782592e+02   3.9788109564e+00    0.2666869    0.0728231  33.14  0.001266871    2.867    0.651
        65 -10.2526    144.8984     23.2572   7.9340901879e+01   4.6328356757e+01    0.2583071    0.2215161 -14.64 0.0002943691    1.153    0.133
        66  -8.7148     95.3336    249.3186   1.3868297624e+02   1.5873847377e+01   0.09329908   0.07114242  10.32  0.000704861    1.696    0.410
