#   1 NUMBER                 Running object number                                     
#   2 MAG_AUTO               Kron-like elliptical aperture magnitude                    [mag]
#   3 X_IMAGE                Object position along x                                    [pixel]
#   4 Y_IMAGE                Object position along y                                    [pixel]
#   5 X_WORLD                Barycenter position along world x axis                     [deg]
#   6 Y_WORLD                Barycenter position along world y axis                     [deg]
#   7 A_WORLD                Profile RMS along major axis (world units)                 [deg]
#   8 B_WORLD                Profile RMS along minor axis (world units)                 [deg]
#   9 THETA_WORLD            Position angle (CCW/world-x)                               [deg]
#  10 FWHM_WORLD             FWHM assuming a gaussian core                              [deg]
#  11 ELONGATION             A_IMAGE/B_IMAGE                                           
#  12 ELLIPTICITY            1 - B_IMAGE/A_IMAGE                                       
         1 -12.7514    195.8250     33.6872   5.3876584362e+01   3.1373606604e+01      1.65492      1.13278  23.12  0.007664547    1.834    0.455
         2 -12.5704    206.6581     20.8561   4.8755626032e+01   3.0061200514e+01     1.096031    0.8135732  20.71  0.005104196    1.632    0.387
         3 -11.1380     32.7470     15.3977   9.5180324623e+01   7.1972526665e+01    0.3385432    0.2774095 -61.65  0.002069545    1.357    0.263
         4 -10.0642     29.0162      2.8144   9.0452617785e+01   7.4844305172e+01    0.3341577    0.2107047 -57.14  0.001770968    1.915    0.478
         5  -9.8016     32.4794      2.4757   8.7830909807e+01   7.4454419219e+01    0.2105126    0.1816735 -11.21  0.001139867    1.065    0.061
         6 -10.7423     33.1657     10.4666   9.2261404947e+01   7.2892297528e+01    0.3012681    0.1931001 -44.30  0.001246671    1.376    0.273
         7  -9.1170     56.5186      6.5047   7.6516624765e+01   6.9911278265e+01    0.1353314    0.1210534  -7.37 7.095112e-05    1.009    0.009
         8 -10.0301     84.0400    233.3439   1.1734810977e+02   1.9253805233e+01    0.2480111    0.1699151  50.47  0.001023704    1.091    0.083
         9 -10.9101    114.4029    241.6086   1.1246063863e+02   1.4245370331e+01    0.4314941    0.1800632  34.08  0.002450476    1.907    0.476
        10 -12.1372    123.3470    244.3735   1.1110664913e+02   1.2720980347e+01    0.8283856    0.3847761  29.21  0.004764689    2.067    0.516
        11 -10.5121     97.8437    250.0187   1.1604900539e+02   1.5225911600e+01    0.8106082     0.184086  33.60  0.003215308    4.204    0.762
        12 -11.4659    110.5554    247.1714   1.1360141801e+02   1.4010422831e+01    0.8208594    0.2705936  30.42  0.003660419    3.434    0.709
        13 -15.0035     53.8725    203.9229   1.2122083490e+02   2.7606457122e+01     4.943758     3.121644 -72.67   0.03359181    1.787    0.440
        14 -11.0717     97.9790    226.5312   1.1421713856e+02   1.8499045175e+01    0.6812748    0.2026691  43.88  0.001921964    2.374    0.579
        15  -9.9139    161.3457    224.8516   1.0227003624e+02   9.9570936432e+00    0.2069872     0.159881 -69.88  0.001441087    2.163    0.538
        16 -12.0577     23.0632    194.2529   1.2702520518e+02   3.2551225207e+01    0.6304712    0.3850022  54.16 0.0004140369    1.203    0.169
        17 -16.3295      5.0256    238.8298   1.3165663129e+02   2.6707814901e+01     16.28085      1.13163 -82.96   0.01523887   13.007    0.923
        18  -7.4544    164.0000    214.9440   1.0055924825e+02   1.0814818743e+01    0.1502481   0.06693465 -44.14 0.0007967811    2.903    0.656
        19  -8.5821    164.3658    205.5225   9.9246218596e+01   1.1991157102e+01    0.2225676    0.1152319 -49.01  0.001222057    2.620    0.618
        20 -11.0209    124.3360    227.1189   1.0931496421e+02   1.4877828203e+01    0.4372832    0.3188316  81.22  0.003037941    1.917    0.478
        21  -9.0351    193.5829    192.9966   9.2027386293e+01   9.0726036582e+00     0.334727    0.2122032  48.56  0.001966748    1.748    0.428
        22  -8.9457    169.0352    233.4621   1.0192830166e+02   7.8509877193e+00    0.1718966   0.08037554  36.41  0.001017621    1.556    0.357
        23 -10.5258     71.9026    180.2371   1.1550373308e+02   2.9777508187e+01    0.3806193    0.2850802 -25.33  0.002250309    2.236    0.553
        24 -10.3166     76.0740    174.8808   1.1402568995e+02   3.0265511084e+01     0.292881    0.2420883 -42.58 0.0007675777    1.631    0.387
        25  -8.2204     99.2547    180.3773   1.0937166296e+02   2.5970576978e+01    0.1642217    0.1453989  54.23  0.001096344    1.082    0.076
        26  -9.8235    102.5689    172.2151   1.0761592387e+02   2.6992305747e+01    0.4156809    0.2135491  59.43  0.001924958    2.296    0.565
        27  -8.7709    195.6855    169.8258   8.7752337777e+01   1.1736182392e+01    0.2802641    0.1868618   1.96  0.001031901    1.733    0.423
        28 -11.9381     57.8498    130.2199   1.1357212949e+02   4.2147489163e+01     1.343857    0.4806699 -82.18  0.004194176    4.853    0.794
        29 -12.0093     72.6676    160.6174   1.1330807532e+02   3.3584225038e+01     0.658675    0.4462105 -58.12  0.001579718    1.664    0.399
        30 -11.4381     69.9899    144.7582   1.1210088525e+02   3.7316016177e+01     0.545504    0.4451863  87.82  0.001824462    1.172    0.147
        31 -11.2196     64.9589    142.0037   1.1309440895e+02   3.8587533231e+01    0.4625474     0.365905 -41.20 0.0009682023    1.634    0.388
        32 -10.4587     90.6896    158.0755   1.0857299568e+02   3.1554367078e+01    0.4789319    0.3692287 -25.21  0.001327494    1.924    0.480
        33  -9.9706     43.1276    148.8824   1.1958146693e+02   3.9665172414e+01    0.2954802    0.1668923  45.50 0.0009490139    1.533    0.348
        34 -10.3084    109.3042    228.3340   1.1224034616e+02   1.6744137734e+01    0.2638844    0.2067684  17.13  0.001928478    1.557    0.358
        35  -9.1843    103.9792    141.8556   1.0281435745e+02   3.2803249585e+01    0.4784499    0.2944926 -28.59  0.002049753    2.818    0.645
        36 -10.6269     91.6908    142.2506   1.0604768911e+02   3.4702966309e+01    0.2493382    0.2391122  33.28 0.0003867855    1.184    0.156
        37  -9.7276     73.4540    134.5573   1.0978831198e+02   3.9097983856e+01    0.2159557    0.1718943 -65.17  0.001258382    1.294    0.227
        38  -8.8155    112.9128    131.5361   9.8672870227e+01   3.3416132011e+01    0.3392423    0.2443307  10.40  0.001213294    2.046    0.511
        39  -9.4174     99.9961    128.0368   1.0143472588e+02   3.6419959230e+01    0.2786937    0.2451352 -15.77 0.0007260107    1.438    0.305
        40 -11.2101     44.5331    127.4952   1.1706853227e+02   4.4325631105e+01    0.4399617     0.281747  71.01   0.00210734    1.506    0.336
        41  -8.5145    105.9110    130.7189   1.0034952863e+02   3.4824930149e+01    0.2678748    0.2083602 -74.82  0.001432307    1.418    0.295
        42  -8.2910    108.6525    120.0436   9.7522372902e+01   3.6631172859e+01    0.1921476    0.1779449 -58.08 0.0004212176    1.134    0.118
        43 -11.0197     32.5578    118.3472   1.1962855808e+02   4.7678318430e+01    0.3497656    0.2245608  78.94  0.001456695    1.449    0.310
        44  -8.4103    167.8306    112.5824   8.1352778853e+01   2.6057582169e+01    0.2737092    0.1971699 -76.59  0.001198623    2.277    0.561
        45  -9.4759     39.4273    112.7855   1.1688179371e+02   4.8324345074e+01    0.1834587    0.1065452 -63.57 0.0007236889    1.612    0.380
        46 -13.5075     10.6005    206.5364   1.2991849856e+02   3.1480953535e+01    0.8208712    0.5842242  25.89  0.003079152    1.680    0.405
        47 -11.2767     84.1590    164.4344   1.1096203454e+02   3.1220339241e+01     0.839851    0.3830839  51.06 0.0006942496    2.035    0.509
        48  -8.7425    135.0000    112.0385   8.8835679920e+01   3.3154003215e+01    0.2427276   0.08504459 -45.27 0.0008085869    2.985    0.665
        49  -8.2244    114.6472    104.6934   9.2443807739e+01   3.8810877629e+01    0.1497552    0.1190347   1.20 0.0007042243    1.714    0.416
        50  -8.5396    205.8682    109.9317   7.3358692524e+01   1.8364578428e+01    0.2213261    0.1778021  11.59  0.001215406    1.247    0.198
        51 -10.9588    115.3426    230.3732   1.1129882069e+02   1.5648166716e+01    0.3580996    0.2712859  67.03  0.002670971    1.478    0.323
        52  -8.2875     86.3139     99.1862   9.9536254732e+01   4.5254972856e+01    0.2709734    0.1689134  63.04 0.0008112868    1.973    0.493
        53  -9.3424    238.8293     98.4024   6.5462307489e+01   1.3280872296e+01    0.1825721     0.113573  37.81 0.0009458881    1.680    0.405
        54  -8.8727    134.5095    102.9907   8.6736443538e+01   3.5072701398e+01    0.2313741    0.1490336 -42.60 0.0007291535    1.609    0.378
        55  -8.2342    115.0000     83.9721   8.6884156682e+01   4.3173543889e+01    0.2500351   0.08626574 -45.49  0.000689287    2.915    0.657
        56  -7.9282    156.6521     80.3263   7.5177061157e+01   3.4339399442e+01    0.1595325    0.1219456 -76.76 0.0007049555    1.752    0.429
        57  -8.7117     62.1408     68.9376   1.0047541127e+02   5.6191585337e+01    0.2194407    0.1877117  77.75 0.0008196757    1.270    0.213
        58  -8.5710    156.3383     58.8933   6.8590438809e+01   3.8083798225e+01    0.2546177    0.2134893  76.20 0.0006251938    1.305    0.234
        59 -10.5843    120.7827    229.9366   1.1024907396e+02   1.4974483707e+01    0.2925647    0.1765277  55.74  0.001400983    1.655    0.396
        60  -8.5383    158.7341     52.7490   6.6067538737e+01   3.8445730364e+01     0.302285    0.2050843 -67.49  0.000664321    1.951    0.487
        61 -11.6361    186.5296     40.7728   5.7357966334e+01   3.2890774864e+01    0.5972525     0.534585  42.55  0.002157118    1.163    0.140
        62 -11.3666    134.9969    240.7659   1.0870833126e+02   1.1633374301e+01    0.5173177    0.1495791  35.74  0.002424632    2.649    0.623
        63 -11.4814     97.7824    245.6612   1.1574569742e+02   1.5815151320e+01    0.7571657     0.341472  29.35  0.004313675    2.231    0.552
        64 -10.9339     32.5441     30.8243   1.0209438478e+02   6.8710107532e+01    0.7211501    0.1154192 -57.14  0.002087762    4.762    0.790
        65  -9.6851     40.4002     16.9072   9.1306307300e+01   7.0695046584e+01     0.274496    0.1425566 -36.73  0.001288603    1.855    0.461
        66 -11.6510    134.7042    232.5515   1.0794964073e+02   1.2721582171e+01    0.4182538     0.353636 -63.55  0.003337952    1.644    0.392
        67 -11.7567    143.9317    230.7171   1.0608279057e+02   1.1681411731e+01    0.5110775    0.3067464  36.93  0.003417737    1.220    0.180
        68 -10.3611     92.2606    234.7827   1.1593713024e+02   1.8022674023e+01    0.2074538    0.1614331  54.07 0.0005627882    1.136    0.120
        69  -8.5373     77.4861    236.6249   1.1877367876e+02   1.9565212133e+01    0.1758755   0.07480939  37.50 0.0009874878    1.727    0.421
