#   1 NUMBER                 Running object number                                     
#   2 MAG_AUTO               Kron-like elliptical aperture magnitude                    [mag]
#   3 X_IMAGE                Object position along x                                    [pixel]
#   4 Y_IMAGE                Object position along y                                    [pixel]
#   5 X_WORLD                Barycenter position along world x axis                     [deg]
#   6 Y_WORLD                Barycenter position along world y axis                     [deg]
#   7 A_WORLD                Profile RMS along major axis (world units)                 [deg]
#   8 B_WORLD                Profile RMS along minor axis (world units)                 [deg]
#   9 THETA_WORLD            Position angle (CCW/world-x)                               [deg]
#  10 FWHM_WORLD             FWHM assuming a gaussian core                              [deg]
#  11 ELONGATION             A_IMAGE/B_IMAGE                                           
#  12 ELLIPTICITY            1 - B_IMAGE/A_IMAGE                                       
         1 -10.7630    110.7721     40.2623   3.2518105177e+01   5.1237101974e+01    0.8849544    0.6894732  -9.53  0.004254698    1.380    0.275
         2 -12.2832    164.3146     27.6738   1.7744988482e+01   4.0163705861e+01    0.5294972    0.3708341  37.83   0.00131967    1.616    0.381
         3 -12.4807    104.7852     13.4144   2.4261333458e+01   5.5623030054e+01    0.5464897    0.5284767  78.12  0.002227898    1.213    0.175
         4 -12.7561    105.4595     20.3292   2.6661857849e+01   5.4788306058e+01    0.3264799    0.3138829  68.20 0.0002275037    1.194    0.163
         5 -10.3026     12.8689      8.8103   5.5416534894e+01   7.1367583332e+01    0.3840392    0.1988459 -45.11  0.001335193    2.236    0.553
         6 -11.8241     26.3645     28.5364   5.7541587684e+01   6.7099070103e+01    0.4921697    0.3336112 -23.45  0.002404204    1.224    0.183
         7 -11.9404     20.2139     22.1048   5.7742247815e+01   6.8727956306e+01    0.6435539    0.2977268 -30.80  0.001748109    1.918    0.479
         8 -11.3546      6.3387     10.5930   5.9664480699e+01   7.1710618043e+01    0.4582174    0.3901362   5.52  0.003419506    1.389    0.280
         9  -9.9817     25.9614      3.7413   4.6448708264e+01   7.0550744599e+01    0.1602777    0.1207384  -1.30 0.0002001725    1.016    0.016
        10 -10.5898     22.1120      3.1856   4.8005279657e+01   7.1084360745e+01    0.2273351    0.1609502 -15.11  0.001618427    1.167    0.143
        11 -11.8828     15.8860     14.5226   5.6536602128e+01   7.0274709439e+01    0.6770595    0.2948502 -22.01  0.003304344    2.664    0.625
        12 -10.0038    120.8023     11.6287   2.0222839269e+01   5.2186139594e+01    0.9839612    0.1590405  58.71  0.003078773    4.112    0.757
        13 -11.1322    122.2457      5.5371   1.7865602828e+01   5.2378928504e+01    0.3345242    0.2166839 -27.70  0.001206932    1.730    0.422
        14 -11.0945    135.6006     21.4213   2.0674069495e+01   4.7772721043e+01    0.4906101    0.4896489 -31.99  0.002563093    1.112    0.101
        15 -11.3286    127.2725     16.5909   2.0654975821e+01   5.0220557552e+01    0.5492767    0.3394887  16.19  0.001775284    2.123    0.529
        16 -11.3397    134.7846     14.9270   1.8725172017e+01   4.8614962771e+01    0.6172821    0.2458008  54.92  0.002598095    2.079    0.519
        17 -10.9064    178.8618     20.7828   1.3798076469e+01   3.7403118722e+01    0.4938855    0.2326065  42.97  0.002089584    2.664    0.625
        18 -12.2058     47.7171     12.7162   4.1419768492e+01   6.6493427325e+01    0.6002088    0.4452422  32.65   0.00398073    1.310    0.237
        19 -11.7196     35.5327     18.0802   4.8950697287e+01   6.7544104267e+01    0.6422083    0.2384107 -29.52  0.002935537    2.708    0.631
        20 -12.0560     22.3737     11.3471   5.1882735034e+01   7.0029952395e+01    0.4794412    0.2915938   5.80  0.002317369    1.586    0.369
        21 -12.7988    164.1918     18.6638   1.5197167861e+01   4.1174531152e+01    0.5278618    0.2743975  42.78  0.002420778    2.171    0.539
        22 -11.4825     67.6657     18.3258   3.6649416994e+01   6.2550761108e+01    0.4425092    0.4226524  83.03  0.002600933    1.531    0.347
        23 -11.7569    238.6810     16.2908   6.6579528480e+00   2.4234840897e+01    0.3814349    0.2133999  88.18  0.001882047    1.747    0.428
        24 -12.3760    227.7346     15.1967   7.3276935806e+00   2.6710473093e+01    0.5301404    0.3101774 -80.75  0.001405188    1.685    0.407
        25 -11.5349     85.8471     14.1194   2.9328853954e+01   5.9543340008e+01    0.4956369    0.3131276  -5.16  0.001668236    1.751    0.429
        26 -10.5362     87.8111      7.8330   2.6260756972e+01   5.9734257291e+01    0.6424557    0.3441893  57.02  0.003308951    1.761    0.432
        27 -11.2710    192.2432      8.6070   9.1291508748e+00   3.5474588945e+01    0.6438947    0.4156136   8.75   0.00324653    2.610    0.617
        28 -11.6681    206.5524      2.8906   6.4132912907e+00   3.2723547157e+01    0.6712567    0.2491472  70.74  0.003059106    2.334    0.572
        29 -11.7947    212.2514      8.8345   7.2659820573e+00   3.0836034590e+01    0.5727711    0.3785136  -3.78  0.003058895    2.470    0.595
        30 -10.8952    218.4697      3.7709   5.6112438166e+00   2.9958691759e+01    0.2773961    0.2521378 -86.78  0.001298912    1.170    0.145
        31 -11.5532    223.8976      2.7134   4.9557130417e+00   2.8870207966e+01    0.4924563    0.2318674  85.74 0.0002710598    2.055    0.513
        32 -10.5185    148.1787     15.9947   1.6816767720e+01   4.5313434860e+01    0.5570617    0.2187373  40.94  0.002106841    3.151    0.683
        33 -10.7392    169.2988      9.4326   1.1947439704e+01   4.0854490335e+01    0.4930979    0.1571758  57.34  0.001903037    2.600    0.615
        34 -10.1200    163.2832      6.3610   1.1857669592e+01   4.2581113259e+01     0.435259    0.2329344  23.09  0.001872308    3.165    0.684
        35 -10.4956    145.5301      9.3985   1.5221974142e+01   4.6568068217e+01    0.2394994    0.1889101  42.14 0.0002170117    1.271    0.213
        36 -11.8132    246.2344      5.7244   3.9590294789e+00   2.3822954503e+01     0.668225    0.3443702 -81.91   0.00335445    1.899    0.473
        37 -10.2906    245.9317      1.4381   3.1367648885e+00   2.4336183339e+01    0.2736583    0.1536948 -86.62 0.0003447302    1.624    0.384
        38 -10.6757    232.7926      7.3212   5.2491022266e+00   2.6470273434e+01    0.2719026    0.1883489  88.14  0.001079238    1.276    0.216
        39 -11.6887    233.4912      2.7084   4.2425299998e+00   2.6801747089e+01     0.538279    0.2440664 -71.70   0.00262396    2.344    0.573
        40 -10.8968    184.8475      6.4768   9.3732897240e+00   3.7423687465e+01     0.395461    0.2285917 -63.52  0.001219554    1.852    0.460
        41 -10.8961      2.1531      2.1285   5.7925501511e+01   7.3244319988e+01    0.3371592    0.1917387  -2.28  0.002218719    1.649    0.393
        42  -9.4663     69.2430      5.2610   3.0456043905e+01   6.3598600772e+01    0.2842133    0.1148503  57.17  0.001252516    2.804    0.643
        43  -9.7237     78.1957      7.4237   2.8721885348e+01   6.1696346145e+01     0.223011    0.1415033  55.59 0.0008432938    1.581    0.367
        44 -10.7074     74.2218      3.3431   2.8124269002e+01   6.2825004534e+01    0.4063379    0.2859335  61.05  0.002074366    1.620    0.383
        45 -10.0753     62.0714      6.7857   3.3453161323e+01   6.4755682569e+01    0.2598861    0.1572488  34.84  0.001366342    1.418    0.295
        46 -10.7550    176.9458      5.8481   1.0079875729e+01   3.9358692338e+01    0.3356206    0.1866818  83.83 0.0006395683    1.760    0.432
        47 -11.1251    105.6096      2.3423   1.9975879829e+01   5.6389983117e+01    0.5143946    0.3372248 -76.47  0.002625293    2.405    0.584
        48 -11.6087    113.4333      2.9012   1.8606339062e+01   5.4600373691e+01     0.442605    0.2772206  62.73  0.002465682    1.420    0.296
        49 -10.4159     41.2659      4.2514   3.9982480446e+01   6.8398694887e+01    0.3619728    0.2126773  12.84   0.00213356    1.684    0.406
        50 -11.0957    141.7829      3.6299   1.4020834134e+01   4.7955636790e+01    0.7231001    0.2818138  78.13  0.002727014    3.208    0.688
        51 -11.6127    133.9210      2.7371   1.4952331041e+01   4.9884970453e+01    0.4541268    0.2782568  69.00  0.001920586    1.459    0.314
        52  -9.3123    128.6519      1.2829   1.5334418826e+01   5.1231817853e+01      0.17419    0.1209876  84.01 0.0005650842    1.541    0.351
        53  -9.8163    157.3620      3.6786   1.1862604942e+01   4.4234602422e+01    0.2429164    0.1436123  85.51  0.001238697    1.739    0.425
        54 -10.3848    153.1089      1.4263   1.1771841595e+01   4.5438964817e+01    0.4331238    0.1628867  76.96  0.001103706    2.865    0.651
        55 -10.2817     12.9264      2.0610   5.2057844300e+01   7.2242350737e+01    0.2156075    0.1403536   9.40 0.0005091557    1.326    0.246
        56 -10.1561      1.0000      7.1150   6.0956184069e+01   7.2643090764e+01    0.2315025   0.08268208 -45.38 0.0009300998    2.552    0.608
        57  -9.1745     33.7290      1.4740   4.1778991292e+01   6.9775919443e+01    0.1508661   0.08801723  24.34 0.0007729944    1.511    0.338
        58 -11.4442     12.3422    136.0908   8.7738865427e+01   4.5519824389e+01    0.5577649    0.3368895 -57.69  0.002814932    1.433    0.302
        59 -10.5751     50.9882    249.7596   9.0032657942e+01   1.6774516358e+01    0.1663724    0.1236253  59.07  0.001176557    1.072    0.068
        60  -9.3667    217.3203    138.9941   3.7326315688e+01   9.9786736662e+00    0.2024944    0.1729328 -34.39 0.0004394873    1.084    0.078
        61 -10.3387     80.1966    138.2753   6.9343168744e+01   3.7257332807e+01    0.3235738    0.2629163  74.52  0.001089848    1.377    0.274
        62 -10.3443     40.3725    138.2004   8.0414903647e+01   4.2459917093e+01    0.2467933    0.1989673 -85.92 0.0008279545    1.181    0.153
        63 -10.0807     32.0602    137.8162   8.2641674173e+01   4.3401094928e+01    0.3208182    0.2161854  40.57 0.0009332214    1.642    0.391
        64 -11.5951     23.7211    136.6393   8.4750269170e+01   4.4455344210e+01    0.4851326     0.364664  58.85 0.0006092458    1.443    0.307
        65 -10.8565     30.1392    132.9335   8.2460003466e+01   4.4751572252e+01    0.3485685    0.2754765 -44.31  0.000877941    1.322    0.244
        66 -10.0382     73.5479    133.1131   7.0179164423e+01   3.9493652850e+01    0.3744134    0.1969507 -30.42  0.001349259    3.242    0.692
        67  -9.9315     39.3111    133.4366   7.9964239317e+01   4.3716285178e+01    0.2034178    0.1349629  21.43  0.000501643    1.853    0.460
        68  -9.1066    103.8239    130.8970   6.1234197084e+01   3.5045736502e+01    0.1987005    0.1720553 -83.30 0.0005088984    1.273    0.215
        69 -10.1243     30.4024    152.0522   8.4996148276e+01   4.0170686129e+01    0.2216031    0.1823016 -17.74   0.00136707    1.635    0.389
        70 -10.8782     10.4661    127.2041   8.7148332622e+01   4.7741165100e+01    0.5438311    0.2122807 -59.53  0.001956373    1.971    0.493
        71 -10.0572     13.0035    122.3367   8.5789805410e+01   4.8696017480e+01    0.4260836    0.1132367 -55.81  0.001726418    2.743    0.635
        72  -9.1327     93.1766    129.4105   6.3847231421e+01   3.7266226193e+01    0.2113103    0.1358071  50.14 0.0009489871    1.709    0.415
        73  -9.1179     26.5545    127.5118   8.2663897138e+01   4.6372212667e+01    0.1296838    0.1073324 -67.19 0.0001243592    1.017    0.017
        74 -10.1008     22.9020    127.0557   8.3636241021e+01   4.6799508161e+01     0.186919    0.1533325 -68.68 0.0003363967    1.011    0.011
        75  -9.4686     47.4601    134.6536   7.7865863310e+01   4.2527926888e+01    0.2839245    0.1181204 -63.11 0.0009689698    2.105    0.525
        76 -10.0728      2.1325    125.9235   8.9285955658e+01   4.8602436620e+01    0.2268798    0.1648348  89.14  0.001201773    1.276    0.216
        77  -9.5969     82.8490    124.5151   6.5696684184e+01   4.0123013070e+01    0.3992386    0.2405044  -8.26   0.00136428    3.802    0.737
        78 -11.5430    104.3971    122.3496   5.9069972881e+01   3.6919734561e+01     0.354528    0.3286645  54.38 0.0006308614    1.129    0.114
        79  -9.9032     49.6238    123.0882   7.5182394403e+01   4.5053964333e+01    0.2570524    0.1830159  -8.91  0.001317724    1.938    0.484
        80  -8.8781    221.3358    120.6616   3.2454706125e+01   1.2439843727e+01    0.1471667    0.1084605 -68.56 0.0007051488    1.752    0.429
        81 -10.1050     48.6640    112.1059   7.3313726422e+01   4.7771135482e+01    0.3660897    0.2457526 -48.12  0.001949586    1.339    0.253
        82 -10.0708     44.9977    120.0089   7.5987146743e+01   4.6315851264e+01    0.2461088    0.2198521  82.64 0.0006561353    1.198    0.165
        83 -10.1562     43.5297    116.4848   7.5765922077e+01   4.7314255381e+01    0.2665208     0.243017 -62.25 0.0009058664    1.050    0.047
        84 -10.0277     37.2387    115.9581   7.7588293691e+01   4.8099251432e+01    0.3153316    0.1660076 -37.58  0.001455948    2.177    0.541
        85 -10.3981      7.2791    115.4331   8.6496399364e+01   5.0701891644e+01    0.3922936     0.167702 -56.36  0.001650023    1.826    0.453
        86 -12.3189      2.5402    111.9792   8.7419193316e+01   5.1795888771e+01    0.4049271     0.250286 -69.01 0.0007549958    1.271    0.213
        87 -11.5159      5.1324    105.2531   8.5685305447e+01   5.3181918815e+01    0.3851244    0.3410534  -7.44  0.002756546    1.382    0.276
        88  -9.8109     79.0807    114.7138   6.4563520488e+01   4.3017180983e+01    0.2871214    0.1980834 -45.42  0.001198823    1.367    0.269
        89  -8.9033     67.4868    114.9637   6.8124286396e+01   4.4682194104e+01    0.1947253     0.122217 -83.07 0.0008082347    2.412    0.585
        90  -9.0750     57.9872    115.0076   7.1037804892e+01   4.5950035495e+01    0.2468695    0.1457192 -82.81  0.001015076    2.578    0.612
        91 -11.9743      9.8468     97.0128   8.2876725111e+01   5.4762428556e+01    0.5379048    0.4415018 -16.05  0.003653286    1.408    0.290
        92 -10.4775     30.3031     97.4791   7.6212668594e+01   5.3064101728e+01    0.6363204    0.3965092 -41.85  0.003491686    1.480    0.324
        93 -11.0920     26.8878     86.0649   7.4928580382e+01   5.5933691481e+01    0.7697449    0.5282198  20.44  0.004549399    1.692    0.409
        94 -10.4701     35.2702     92.3889   7.3442864837e+01   5.3747255744e+01    0.3622068    0.2442322 -70.64  0.001285433    1.566    0.361
        95 -11.8086     43.0656     84.9956   6.8973569449e+01   5.4573754250e+01    0.8352943    0.3626095  18.03  0.002889057    3.243    0.692
        96 -11.9776     28.1131    105.8142   7.8559639198e+01   5.1341644799e+01     1.217533     0.678823  -5.23  0.005673695    2.822    0.646
        97 -12.6900     17.8007    100.5400   8.0908428234e+01   5.3401813219e+01    0.3195913     0.291899 -56.50 0.0005317884    1.115    0.103
        98 -11.8481     21.3477     93.6560   7.8440552869e+01   5.4695029692e+01    0.7889107    0.4888437  75.08  0.002985941    2.527    0.604
        99 -11.3627     21.6609    114.6056   8.2090471916e+01   4.9838074474e+01    0.4560743    0.2639518  -2.71  0.002208835    2.598    0.615
       100 -11.6115     28.6764    112.4593   7.9586813696e+01   4.9740213312e+01    0.4170675    0.2732477 -35.53  0.002302359    1.648    0.393
       101  -9.8724    105.6796    112.6333   5.6292658848e+01   3.8886378630e+01    0.4039287    0.1832315  38.32   0.00151396    2.334    0.572
       102 -11.1864     80.0080    108.3197   6.2739789371e+01   4.4346690864e+01    0.4375077     0.323864  24.55  0.001058168    1.519    0.342
       103 -10.9646     16.4903    109.5283   8.2847853743e+01   5.1426599700e+01    0.2864089    0.2246109  64.61 0.0004802484    1.492    0.330
       104  -9.4065    120.6106    108.7702   5.1168643843e+01   3.6787549959e+01    0.2532303    0.1866952  -8.66  0.001109387    1.853    0.460
       105 -10.1464    182.1814    104.7722   3.5733233247e+01   2.3880980486e+01    0.3474923     0.276753  18.54  0.001366388    1.546    0.353
       106  -9.4459    143.0123    105.9605   4.4679122237e+01   3.2571636839e+01    0.2511681     0.195047 -83.88  0.001132404    1.732    0.423
       107 -10.5828     87.7880    104.4773   5.9403568127e+01   4.3935931943e+01     0.457841     0.250407  50.97 0.0008163641    2.238    0.553
       108  -8.8548     45.4988    105.5565   7.2942240160e+01   4.9662030750e+01    0.1350491    0.1170909 -49.79 2.942935e-05    1.023    0.023
       109  -9.7301     50.7117    101.6545   7.0396091722e+01   4.9960685615e+01    0.2725737    0.1695861 -53.96 0.0009794381    1.403    0.287
       110 -10.0052     52.8118     97.7710   6.8800942905e+01   5.0592280826e+01    0.4198876    0.1840961 -50.88  0.001076031    1.954    0.488
       111  -8.8577    120.4530    101.5012   4.9238587376e+01   3.8369899748e+01    0.1524218    0.1460016 -15.38 7.179652e-05    1.040    0.038
       112 -11.4648     68.1397     96.2168   6.3397245828e+01   4.8886371245e+01    0.5948713    0.4226549  -7.62  0.002672655    1.828    0.453
       113  -8.7471    158.6846     99.7516   3.9349182441e+01   3.0253940434e+01    0.1495422    0.1193049  18.09 0.0001356153    1.520    0.342
       114 -10.9190     89.9007     88.4018   5.4333871954e+01   4.7051332545e+01    0.7741698    0.3891834 -39.91  0.003214657    1.959    0.489
       115 -10.2880     79.0352     97.3814   6.0228150014e+01   4.6961752758e+01    0.4651617    0.2465164  51.66  0.001622337    2.503    0.600
       116 -10.7417     80.9251     92.9725   5.8433912614e+01   4.7617845424e+01    0.8369273    0.4367784  42.79  0.003615934    2.077    0.519
       117 -10.1384     79.7021     84.2123   5.6327382499e+01   4.9676253558e+01    0.4527314    0.3562345 -36.82  0.002068394    1.190    0.159
       118 -10.2477     76.5769     79.7520   5.6020411785e+01   5.1105884449e+01    0.6116022    0.2455356 -46.76  0.002385902    2.356    0.575
       119 -10.5042     72.8614     78.3161   5.6819563955e+01   5.1992696849e+01    0.4280949    0.3269669 -32.26  0.002325134    1.232    0.188
       120 -10.9930     42.8338     93.7055   7.1173899952e+01   5.2667343658e+01    0.4811321    0.3735325 -64.05  0.002809516    1.263    0.208
       121 -12.2739    125.2054     94.4041   4.5980156184e+01   3.8828065307e+01    0.5474007    0.3927413  70.01  0.002430652    1.863    0.463
       122 -11.3248     98.9039     91.1990   5.2420175411e+01   4.4816188395e+01    0.4269473    0.2461627  47.63  0.001850722    1.881    0.468
       123 -10.4927     49.6763     91.1743   6.8241998370e+01   5.2452763807e+01    0.3179655    0.2839455  69.67  0.001757606    1.379    0.275
       124 -11.7651      6.9668     88.7989   8.2394889711e+01   5.6788018336e+01       0.4997    0.3577505  10.41  0.002417948    1.707    0.414
       125  -8.9925    156.2534     89.6498   3.7116465354e+01   3.2738577471e+01    0.1536341     0.116821 -67.41 0.0002929991    1.595    0.373
       126  -9.7158     66.4286     88.6261   6.1933363965e+01   5.0800160648e+01    0.2850507     0.183476 -18.22 0.0008531453    2.046    0.511
       127  -9.4772    104.0003     87.7027   4.9903048342e+01   4.4554665017e+01    0.2088548    0.1975233   3.64  0.001157328    1.044    0.043
       128 -10.2936    143.2579     84.4935   3.8616316374e+01   3.6716839893e+01    0.2614857    0.2522867 -35.27 0.0003905566    1.039    0.037
       129  -9.7743    120.3897     85.1819   4.4573847319e+01   4.1688482274e+01    0.3676004    0.1900622  34.09  0.001397911    2.327    0.570
       130  -9.0827    133.3309     84.6851   4.1079067634e+01   3.8941786794e+01     0.153493    0.1214142 -82.02 0.0003356718    1.680    0.405
       131 -10.2503    113.4212     83.3259   4.5918997860e+01   4.3519996471e+01    0.3257441    0.2621855  65.48  0.001323737    1.486    0.327
       132  -9.9547     67.0091     81.5995   5.9758477947e+01   5.2209297275e+01    0.3474574    0.2667179   0.64  0.001871552    1.476    0.323
       133  -9.1281     46.4558     75.7760   6.5299845167e+01   5.6157677479e+01    0.2519806    0.1721516 -34.71  0.001038859    1.339    0.253
       134 -11.9400     53.1775     74.4111   6.2482452377e+01   5.5611686147e+01    0.6158397    0.3141365 -53.40 0.0009168424    1.913    0.477
       135 -12.8885      6.4538     61.3445   7.6807996693e+01   6.2697423627e+01    0.6995416    0.4537986 -29.04  0.002160351    1.428    0.300
       136  -9.7150      1.2604     78.8689   8.2552300988e+01   5.9292455919e+01    0.3873307   0.09248076 -65.58  0.001484451    3.299    0.697
       137 -10.9102      1.9799     71.6564   8.0864531835e+01   6.0801867595e+01    0.3638283    0.1593113 -59.36  0.001391052    1.720    0.419
       138  -9.3942    103.5031     80.0556   4.7747099015e+01   4.6171077705e+01    0.2185912    0.1412642 -41.39 0.0004167975    1.520    0.342
       139  -8.8870     88.6029     73.4812   5.0207321039e+01   5.0273404301e+01    0.1924545    0.1339269  27.53 0.0002120855    1.531    0.347
       140 -10.0652     92.8653     72.5397   4.8581933944e+01   4.9664364291e+01    0.2670904    0.2212996 -69.60 0.0007636225    1.584    0.369
       141 -10.0621     87.9767     77.4864   5.1659618285e+01   4.9609130311e+01    0.5155269    0.3074541  51.91  0.002301713    2.043    0.511
       142  -9.5638     94.2046     76.5941   4.9451298721e+01   4.8638474571e+01    0.4752411    0.2824826  39.63   0.00200242    1.715    0.417
       143  -9.7205     14.8741     67.5231   7.5005848538e+01   6.0867403611e+01    0.3861631    0.2174998   7.78  0.002152805    2.131    0.531
       144  -8.6497    134.6826     77.3443   3.8565329009e+01   3.9990720185e+01    0.1539641    0.1192037 -76.24 0.0007048792    1.719    0.418
       145  -9.0726    158.7667     76.4367   3.2847530345e+01   3.4513286971e+01    0.1977074    0.1383834  43.40 0.0003324973    1.470    0.320
       146  -9.1468    112.2457     75.3952   4.3814431022e+01   4.5271257925e+01    0.1937397    0.1402715  56.16  0.000420552    1.534    0.348
       147 -11.8136     13.6459     74.2583   7.7066063140e+01   5.9533125635e+01    0.4501437    0.3450136 -73.85  0.002002987    1.413    0.293
       148 -10.2210     24.8466     73.9641   7.2803960505e+01   5.8731843176e+01     0.667402    0.3187499  -6.38  0.002732409    3.680    0.728
       149 -11.9016     40.8887     70.1102   6.5740166585e+01   5.7965619428e+01    0.4955601    0.3724329 -31.41  0.001427757    1.182    0.154
       150 -10.3098     32.9850     74.0287   6.9778666944e+01   5.7974600816e+01     0.288501    0.2352816 -75.58 0.0008844002    1.502    0.334
       151 -10.4052     35.6937     71.6918   6.8134383777e+01   5.8192788036e+01    0.2655778    0.2161342  25.45  0.001354914    1.396    0.284
       152 -10.5457    186.9585     72.3031   2.6360377144e+01   2.8457227936e+01    0.4182593    0.3310098 -42.50  0.002136918    1.236    0.191
       153  -9.1048     19.4701     71.9880   7.4340779215e+01   5.9588099033e+01    0.1799984    0.0696956 -41.18 0.0005724376    2.281    0.562
       154 -11.3776    123.3063     68.9044   3.8820601456e+01   4.4043776439e+01    0.5058692    0.2846558  45.92  0.001931645    1.738    0.424
       155 -10.5409     78.9537     68.1106   5.1589878465e+01   5.2992550159e+01    0.4300183    0.3487081  84.40  0.002231379    1.938    0.484
       156  -9.1235    217.4972     66.4959   2.0227096793e+01   2.2273837538e+01    0.1369279    0.1254873 -63.26 -6.231901e-05    1.021    0.020
       157  -9.9057    153.3116     72.9010   3.2984048057e+01   3.6416852701e+01    0.3712827    0.1800395  39.50  0.001377185    2.459    0.593
       158 -10.4657     88.0968     56.2032   4.4617130867e+01   5.3470909655e+01    0.5165926    0.2253144 -35.02  0.001507285    2.315    0.568
       159  -9.7437     91.7496     57.5438   4.3947015113e+01   5.2551780641e+01    0.2437021    0.1814014  57.23 0.0006844195    1.624    0.384
       160  -9.9279     96.3430     65.1041   4.5103530304e+01   5.0358084607e+01    0.2814816    0.2220194  18.38 0.0008747745    1.330    0.248
       161 -10.7865     91.8915     62.4587   4.5577009679e+01   5.1682103708e+01    0.4562571    0.2835997  52.28  0.002145976    1.850    0.460
       162 -10.8994     58.1807     78.0653   6.1773001616e+01   5.4195694387e+01    0.4338974    0.2782833 -63.11  0.001161469    1.911    0.477
       163  -9.5988    201.9603     64.5482   2.1957809553e+01   2.6131499880e+01    0.2098181    0.1352632  63.45  0.000474015    1.567    0.362
       164 -11.0469    157.6343     63.4628   2.9336673125e+01   3.6926238732e+01     0.487337    0.2526357  41.27 0.0009204394    2.178    0.541
       165  -9.8833     58.6922     63.1902   5.7010345570e+01   5.7087449367e+01    0.3124081    0.2904108 -60.33  0.001215652    1.339    0.253
       166 -10.1656     64.9641     61.2938   5.4127983457e+01   5.6521064038e+01    0.3333097    0.3033036 -10.48  0.001201613    1.062    0.058
       167 -11.0085     52.0780     48.3490   5.4381068092e+01   6.0699806592e+01    0.8244502    0.3240345  26.26  0.002999693    3.271    0.694
       168  -9.2351     60.7616     48.0070   5.0986958869e+01   5.9499351431e+01     1.032631    0.5756345 -16.65  0.004664364    2.376    0.579
       169  -9.8360     55.6821     50.4639   5.3770093279e+01   5.9828838590e+01    0.2041715    0.1683212 -12.40 0.0003271804    1.067    0.062
       170 -11.3411     40.2944     56.9134   6.1930327190e+01   6.0635531297e+01    0.5010161    0.3114384 -12.43 0.0006935859    1.883    0.469
       171 -11.2912     43.0657     62.2244   6.2545798788e+01   5.9293958690e+01    0.3107592     0.218375 -40.98 0.0007076077    1.236    0.191
       172 -10.5059     50.5305     61.4723   5.9468991333e+01   5.8520152132e+01    0.2978311    0.2586417  27.13  0.001202817    1.287    0.223
       173 -11.1499     46.1996     59.1850   6.0372004733e+01   5.9502545141e+01    0.4187791    0.2965282  -0.75  0.001644534    1.531    0.347
       174 -11.4221     44.0538     43.9643   5.5937869533e+01   6.2512618866e+01    0.5458761    0.2746687 -46.90 0.0003293059    2.022    0.505
       175 -11.6543     40.0227     44.0063   5.7591770122e+01   6.3003907302e+01    0.5136136    0.3523289   9.78 0.0003568918    1.494    0.330
       176 -10.8368    234.3300     61.9163   1.7024234922e+01   1.9258896145e+01    0.2300099    0.1758593 -87.06  0.001226516    1.357    0.263
       177 -10.0884    124.9900     56.4973   3.4431181969e+01   4.5704634189e+01    0.2902237     0.245654  -7.65  0.000960874    1.269    0.212
       178 -11.1600    117.8942     55.8178   3.5989722135e+01   4.7401443065e+01    0.9150145    0.5525463 -66.17  0.003445362    3.249    0.692
       179  -8.9474    113.4719    249.4796   7.8319969635e+01   8.1525366027e+00    0.1219632    0.1016299  47.68 0.0004478806    1.035    0.034
       180 -10.5657    112.4863     50.5254   3.5619416489e+01   4.9400194007e+01    0.2911326    0.2508842  40.55 0.0007543271    1.104    0.094
       181 -10.8174    116.1496     48.8518   3.4104996354e+01   4.8843297034e+01    0.3384272    0.2493726  42.12 0.0007803062    1.285    0.222
       182 -11.6645    118.0491     44.7222   3.2229831716e+01   4.9011315744e+01    0.6674905    0.4069655  60.71  0.002719393    1.755    0.430
       183 -11.8480    120.1720     40.8823   3.0411794529e+01   4.9057947856e+01    0.5244395    0.3135424  41.87 0.0007394106    1.610    0.379
       184 -11.8586    119.5021     37.4859   2.9413026893e+01   4.9655558204e+01    0.4067965    0.3502294 -41.73  0.001587022    1.285    0.222
       185  -9.5186    113.7652     60.8688   3.8740833781e+01   4.7493041099e+01     0.288446    0.1739334 -38.38  0.001324898    1.687    0.407
       186  -9.4952     84.1747     61.4087   4.7654913451e+01   5.3298713823e+01    0.1893574    0.1308604  51.32 0.0007716811    1.691    0.409
       187 -12.6107     74.3394     51.7824   4.7550695681e+01   5.6677856268e+01    0.8704876    0.3976941 -47.80  0.002547591    2.632    0.620
       188 -11.1172     25.0537     55.9920   6.7772577159e+01   6.2372122477e+01    0.5395115      0.33215  15.43  0.002606619    1.793    0.442
       189  -9.7381     30.6886     53.3628   6.4642899222e+01   6.2339690044e+01    0.2096691    0.1673276  50.25 0.0007545368    1.812    0.448
       190 -10.1806     33.7064     51.6586   6.2850502616e+01   6.2347715434e+01    0.2929454    0.1981712 -16.96 0.0008939535    1.459    0.315
       191  -8.8426    135.4890     59.0450   3.2752532903e+01   4.2889148224e+01    0.2031209    0.1288984  -2.04 0.0008091483    2.515    0.602
       192 -11.3404     83.1230     47.1945   4.2982365030e+01   5.5852493338e+01    0.4255519    0.2983035   9.85  0.002211233    1.617    0.382
       193 -10.3012    105.1492     57.8231   4.0095202492e+01   4.9820530239e+01    0.3592201    0.1923206  58.53  0.001477478    2.351    0.575
       194 -10.8405    157.7990     54.9830   2.6821400868e+01   3.8181103476e+01    0.4846801    0.4014059 -80.26  0.002036998    1.349    0.259
       195  -9.7587    154.4558     51.0489   2.6300648403e+01   3.9562789761e+01     0.338421    0.2033211  -6.01  0.001085427    2.739    0.635
       196  -9.3717    219.9521     56.2526   1.7469325155e+01   2.3229510686e+01     0.178554    0.1630656 -81.91 0.0002020727    1.060    0.057
       197 -10.0736     24.8757     59.6429   6.8928096720e+01   6.1671231942e+01    0.6656606    0.2160828  25.97  0.002860013    3.365    0.703
       198 -10.0830     95.4069     52.9643   4.1249056785e+01   5.2586398359e+01    0.4893174    0.2525051  60.73  0.001881291    3.031    0.670
       199  -9.5926    212.2117     53.6096   1.7824565239e+01   2.5362462389e+01    0.1911374    0.1188351  55.01 0.0008794959    1.680    0.405
       200  -9.6630    201.2882     53.2018   1.9193601316e+01   2.7957666053e+01    0.2252129    0.1796631  53.36 0.0005544921    1.327    0.246
       201 -10.3002    145.5636     49.4779   2.7590090808e+01   4.1930455869e+01     0.556839    0.2846117 -12.64  0.001953845    3.506    0.715
       202 -10.1780    240.1979     50.6001   1.3851674059e+01   1.9611180989e+01    0.2229947    0.1876798  36.36 0.0009098144    1.592    0.372
       203 -10.1313    172.4105     49.3405   2.2580285133e+01   3.5436737705e+01    0.3686813    0.2985863  34.23  0.001987116    1.407    0.289
       204  -9.8013     13.4305     46.7375   6.9851084692e+01   6.5101309688e+01    0.3132339   0.09066357 -38.87  0.001283512    3.066    0.674
       205 -11.0175    137.1824     45.1144   2.7972654010e+01   4.4537204362e+01    0.8407522    0.3136894  41.43  0.002862127    3.211    0.689
       206  -9.7684      1.9048     49.1350   7.5555373224e+01   6.5396744438e+01    0.3042919    0.1659307 -60.35  0.001411905    1.661    0.398
       207  -9.5751      7.9722     30.2426   6.6832668367e+01   6.8472152665e+01    0.5594994    0.2745785   5.67  0.003092487    2.356    0.575
       208  -9.9022      5.1313     42.7478   7.2302263030e+01   6.6422901855e+01    0.3646451    0.1119414 -46.72  0.001710208    2.283    0.562
       209 -11.1685      4.2162     36.1593   7.0649972009e+01   6.7691042949e+01    0.4068646    0.2798527 -26.60  0.002057789    1.188    0.158
       210 -10.2394     20.3465     46.2819   6.6702164070e+01   6.4628816656e+01    0.4171267     0.240842 -24.66  0.002379988    1.670    0.401
       211 -10.4996     26.2260     42.6043   6.2910887946e+01   6.4754166909e+01    0.2861248    0.2511991 -49.51  0.001290201    1.394    0.283
       212 -10.5893    200.5378     45.2736   1.7300922422e+01   2.9231710483e+01    0.3701508     0.201033  75.54  0.001682036    1.988    0.497
       213 -10.0989     23.3620     37.2514   6.2252863405e+01   6.5966541203e+01     0.362847    0.1795126  39.13  0.001869098    2.727    0.633
       214  -9.1225    161.4674     43.9792   2.2925234548e+01   3.8836902192e+01    0.3181834    0.1785128  82.85  0.001278923    2.505    0.601
       215 -10.4971    155.8716     42.5579   2.3505863775e+01   4.0387989436e+01    0.3255437    0.2922604  -8.94   0.00138035    1.249    0.199
       216 -10.7110    153.1023     36.3943   2.2160003699e+01   4.1851839522e+01    0.2817301    0.2144009 -37.75  0.001528331    1.389    0.280
       217  -9.6807     91.5678     41.7558   3.8370364436e+01   5.5044819549e+01    0.2946505    0.2267209  81.91  0.001504174    2.097    0.523
       218  -9.1921    149.2918     41.3214   2.4354260216e+01   4.2145725878e+01    0.1423271    0.1039603  27.90 0.0002229642    1.608    0.378
       219 -10.7186     79.9861     39.1352   4.0984617765e+01   5.7637387998e+01    0.4075127    0.3021236  73.07  0.002072461    2.283    0.562
       220 -11.2702     79.0093     33.6966   3.9201124065e+01   5.8576076884e+01    0.5534079    0.3022259  30.80  0.002672136    1.897    0.473
       221 -10.2600     26.2383     48.6442   6.4958844033e+01   6.3657373869e+01    0.2509686    0.1534108 -33.55  0.001301784    1.386    0.279
       222  -9.2448     70.6906     34.3112   4.2203671062e+01   5.9987183392e+01    0.2161586    0.2012006  58.59 0.0008570267    1.443    0.307
       223 -11.0885     61.4261     35.8371   4.6095891236e+01   6.1312470314e+01    0.4658947    0.2819207  -9.53  0.001996705    1.973    0.493
       224  -9.8655     67.0316     32.4790   4.2741998314e+01   6.0870904994e+01    0.3414521    0.1916516  24.84   0.00168922    1.936    0.483
       225  -9.1617     13.1949     38.0077   6.7116542490e+01   6.6719395368e+01    0.1638207    0.1284149 -76.02 0.0006828635    2.048    0.512
       226  -9.7626    231.5237     37.4380   1.1849566559e+01   2.3220399776e+01    0.1267648    0.1099353 -71.13 5.518335e-05    1.029    0.028
       227  -8.9840    206.5150     37.4653   1.4612584756e+01   2.8855934034e+01    0.1332818    0.1179277 -78.38 0.0002403716    1.005    0.005
       228 -11.0917    176.2760     34.6312   1.7898953031e+01   3.6427920659e+01    0.6361987    0.2984432 -42.01  0.002187151    2.145    0.534
       229 -10.1443    170.7098     30.7973   1.7662470686e+01   3.8244157909e+01    0.4053361    0.2568163 -51.22  0.001283186    1.682    0.406
       230  -9.6159    132.2562     36.9242   2.6378246882e+01   4.6778257880e+01    0.2852491    0.1761506 -86.84  0.001158305    2.809    0.644
       231  -9.0788     94.3821     36.1584   3.5473961984e+01   5.5252812199e+01    0.1759653    0.1205738 -40.18 0.0004828229    1.632    0.387
       232  -9.3683    198.3045     34.8548   1.4972812320e+01   3.1111372043e+01    0.2672603   0.09728851 -39.08  0.001040338    2.542    0.607
       233  -9.3345    138.6497     34.1104   2.4163678680e+01   4.5612901643e+01    0.2834823    0.1105285 -37.28  0.001115752    2.650    0.623
       234 -12.0334    160.0725     29.6819   1.8989998449e+01   4.0964659906e+01    0.3912746    0.3690258   2.66 0.0004234618    1.202    0.168
       235 -10.0241    213.9067    248.3247   5.9026068111e+01  -7.0641774007e+00    0.1772018     0.128141  21.90  0.001157039    1.126    0.112
       236  -9.8554    174.5120    246.7872   6.6151943337e+01  -9.2110078816e-01    0.2526121    0.1751377  16.03  0.001487224    1.510    0.338
       237 -11.8997    126.4802    241.6051   7.4832491099e+01   7.5093321718e+00    0.3623138    0.3047032  84.29  0.001559766    1.363    0.266
       238 -11.5870    106.4148     32.5484   3.0887430555e+01   5.3184369761e+01    0.6615654    0.3727208  13.65  0.002733624    2.788    0.641
       239 -12.3555    114.6066     25.0495   2.6223543874e+01   5.2250664303e+01    0.7585456     0.291029  53.26  0.002112145    2.235    0.553
       240 -10.1761     59.9412     23.7229   4.1660275113e+01   6.3219839458e+01    0.3478644    0.1583667 -29.66   0.00118784    2.162    0.537
       241 -10.5199     43.0024     28.0738   5.0112837486e+01   6.5161187381e+01    0.1801189    0.1436465  -5.65  0.001193806    1.022    0.021
       242 -11.2664     56.8600     30.9823   4.5837122434e+01   6.2732931841e+01    0.4197372    0.3059615 -17.78  0.001010929    1.253    0.202
       243 -11.1571     47.4809     30.8467   4.9435866471e+01   6.4138840307e+01    0.5391328    0.2670228  26.50  0.001835266    2.132    0.531
       244 -10.0686     52.6798     30.6875   4.7316086234e+01   6.3410334105e+01    0.2418943    0.1450447 -15.07 0.0005101329    1.777    0.437
       245  -9.9141    240.6753     32.3381   9.8631358270e+00   2.1903760128e+01    0.2792178    0.1520438  58.29  0.001458294    1.998    0.499
       246 -10.8597    188.8775     28.5909   1.4566494389e+01   3.4114312346e+01    0.5090777    0.3235523   2.70   0.00232468    2.709    0.631
       247  -9.1134    183.2929     32.3274   1.6282618204e+01   3.5010220525e+01    0.1329325    0.1007755  33.85  0.000273736    1.624    0.384
       248 -10.8965     32.5196     30.9911   5.5785861908e+01   6.6030856536e+01    0.2504377    0.1926852 -34.31 0.0003514315    1.273    0.215
       249 -10.8956    167.3638    237.7368   6.6200464988e+01   1.6092487964e+00     0.234215    0.1983335  14.49 0.0008239774    1.149    0.130
       250 -11.1694     67.8182    240.8596   8.6197741218e+01   1.6265873181e+01    0.2513927    0.2135354  37.56  0.000935289    1.362    0.266
       251  -9.7430    244.4577    235.5016   5.1512568415e+01  -9.6708830280e+00    0.1187114   0.09178859   3.74  6.89113e-05    1.004    0.004
       252  -9.1580     15.4068    233.7862   9.5290687959e+01   2.3834193077e+01    0.1438706   0.08533439 -71.12 0.0009414624    1.653    0.395
       253 -11.2444    147.2115    237.8805   7.0212379967e+01   4.8405003528e+00    0.4697212    0.3273287  50.24   0.00236392    1.379    0.275
       254 -10.7420    197.4837    231.9914   5.9453184553e+01  -2.3094141671e+00    0.2554373    0.1788278   9.33  0.001264746    1.478    0.323
       255  -8.8728    181.3021    228.3184   6.1988416240e+01   8.5181345792e-01    0.1301251    0.0925606   4.77 0.0005497606    1.623    0.384
       256 -10.3031    198.1237     28.2348   1.3340999458e+01   3.1959074341e+01     0.343213    0.2885103  -1.99  0.001777328    1.568    0.362
       257 -12.0388    125.9108     28.4076   2.4897957029e+01   4.9286319956e+01    0.5364121     0.388472  62.05  0.002920081    1.325    0.245
       258  -9.0372     99.6230     30.3150   3.1846126400e+01   5.4911599677e+01    0.1306513    0.1058933 -78.28 0.0007028554    1.801    0.445
       259 -10.1471    247.1921    231.3986   5.0342586985e+01  -9.5172922287e+00    0.1521705    0.1008429  37.62 0.0003727388    1.653    0.395
       260  -9.1045    166.6794    225.6641   6.4475924092e+01   3.7035659776e+00    0.1335198   0.09658561   3.76 0.0006944179    1.706    0.414
       261 -10.0518    148.2244     28.4346   2.0605987735e+01   4.3982639662e+01    0.3729498    0.2219136  56.84  0.001066971    1.503    0.335
       262 -11.5318    145.1811     24.3545   1.9881025301e+01   4.5170636651e+01    0.7518598    0.3671316  58.93  0.003442847    1.791    0.442
       263 -10.0369    233.8631    223.4787   5.1285816402e+01  -6.6025423485e+00     0.201635    0.1429328  -3.14 0.0005079446    1.303    0.233
       264  -9.3119     75.5138    224.4757   8.3087490925e+01   1.8407447315e+01     0.124986    0.1051756  66.02 0.0002448689    1.010    0.010
       265  -8.9593    120.6810    223.3162   7.3604864515e+01   1.1768935693e+01    0.1347276   0.09327164  66.64 0.0007039895    1.656    0.396
       266 -10.8119    183.4796     25.9088   1.4560173862e+01   3.5720832255e+01    0.3367192    0.3052301 -45.54  0.001948549    1.176    0.150
       267  -9.3568    187.4902     22.9711   1.3288802814e+01   3.5091293100e+01    0.1771089    0.1652292 -71.71 0.0004801294    1.095    0.087
       268  -9.0104     65.6758     28.1572   4.1461239525e+01   6.1686529185e+01    0.1797686    0.1060244 -19.68 0.0009362675    1.740    0.425
       269  -9.6954    230.6790     26.9884   9.6300819241e+00   2.4703767935e+01    0.1779998     0.145902 -60.10 0.0005903427    1.079    0.073
       270  -9.4847     97.0315     26.2818   3.1029097466e+01   5.5936277715e+01    0.2204852    0.1423179 -23.48  0.001155351    1.627    0.385
       271 -10.2080    154.9785     24.3518   1.8240237166e+01   4.2803570231e+01    0.4272591    0.2286073  86.46   0.00177267    2.573    0.611
       272  -9.3911    155.3299     20.6947   1.7101567821e+01   4.3110021600e+01    0.1708058    0.1317577  -8.34 0.0004762303    1.575    0.365
       273  -9.5647    212.9280     24.5090   1.0807554659e+01   2.8959371959e+01    0.1979461    0.1160545  74.29   0.00103786    1.608    0.378
       274 -10.2718     90.7767     23.0401   3.1495884687e+01   5.7599259383e+01    0.2822459    0.2275968  14.60  0.001148695    1.174    0.148
       275  -9.7121     49.6547    222.6906   8.8091545814e+01   2.2179757621e+01    0.1069857   0.09318051 -35.44 0.0005797565    1.702    0.412
       276  -9.0636    153.2989    219.3264   6.6208645682e+01   7.0659862868e+00    0.1318311    0.1009011   1.20  0.000305385    1.634    0.388
       277  -9.9947     38.7532     22.0394   4.9317297184e+01   6.6584548922e+01    0.2187025    0.1487421 -22.18 0.0005577354    1.286    0.222
       278  -9.1990    144.4966    214.9962   6.7368078909e+01   9.3652988927e+00    0.1923325    0.1350566 -51.13  0.001031451    1.587    0.370
       279  -9.6886    223.4742     22.0630   9.2149678077e+00   2.6869698165e+01    0.2327091    0.1503617 -83.30 0.0006288342    1.498    0.332
       280  -9.6231    164.6148    211.8839   6.2641690551e+01   6.4589006739e+00    0.2259877    0.1686729  29.19 0.0005260801    1.259    0.206
       281  -9.1677      5.2375     22.1608   6.5134315975e+01   7.0020769169e+01    0.1312919     0.116204 -24.89 0.0004826635    1.327    0.246
       282  -9.5281    216.4548     20.7070   9.5776005470e+00   2.8596954874e+01    0.1538803    0.1237023 -21.48 0.0009387962    1.541    0.351
       283  -8.7399     89.6493    210.6726   7.8528904022e+01   1.9185978067e+01    0.1253435    0.1039901 -15.79 0.0007048314    1.762    0.433
       284  -9.6525    152.8772    207.5471   6.4379260088e+01   9.3120172415e+00    0.2659542    0.1898811 -71.70  0.001331043    1.960    0.490
       285 -11.1097    246.3600     19.6497   6.7415638731e+00   2.2244780989e+01    0.2394368    0.1468422 -28.29  0.001370295    1.881    0.468
       286 -10.3553    236.0062     19.9991   7.6548393717e+00   2.4379167090e+01    0.1948046    0.1778107 -40.88 0.0003433677    1.297    0.229
       287  -9.4265     61.1597    206.5174   8.4158406729e+01   2.4102145580e+01    0.1791752    0.1151856  41.08  0.001005138    1.510    0.338
       288 -10.3325     75.2672     19.1065   3.4507027076e+01   6.1075036356e+01    0.3990101    0.2052345  23.58  0.001835787    2.357    0.576
       289  -8.9029      1.4731     20.5185   6.6410274058e+01   7.0554560962e+01    0.1141466   0.08010768 -25.76 0.0003263992    1.060    0.057
       290  -9.7608     16.7711    205.7248   9.3209972208e+01   2.9377682385e+01    0.2007885   0.09515066  67.10  0.001058382    2.028    0.507
       291  -9.2846     80.8940     19.4756   3.2931702278e+01   5.9961725574e+01    0.1961096    0.1133376  47.57  0.001031578    1.590    0.371
       292  -9.5255     89.5172     16.5236   2.9282472092e+01   5.8556503316e+01    0.2515603    0.1581593  42.33  0.000961339    1.386    0.278
       293 -10.8319      6.1273    198.4210   9.4796569687e+01   3.1927888068e+01    0.3161095    0.1105486 -65.99  0.001566107    2.444    0.591
       294  -9.6507     78.6072    203.9995   8.0095448165e+01   2.2235843377e+01    0.2252285    0.1576744  55.39 0.0006670513    1.316    0.240
       295  -9.9879    120.3084     16.1841   2.1892260755e+01   5.1872783336e+01    0.2561268    0.1793133  23.92  0.001135233    1.564    0.361
       296  -9.7439    186.9685     15.0746   1.1324580620e+01   3.6066944357e+01    0.1975001    0.1736841  83.04  0.000625957    1.037    0.036
       297  -9.7726    233.9147    196.7950   4.6377036007e+01  -2.7220743291e+00    0.2305767    0.1688173 -27.14 0.0009696667    1.261    0.207
       298  -8.9619     83.5149    195.5557   7.7912512222e+01   2.3358736668e+01    0.1342212    0.1189302  72.30 0.0001902136    1.011    0.011
       299  -9.1740    172.2986    190.3129   5.7154680936e+01   9.0750261166e+00    0.1426047    0.1076252  -0.11 0.0005149551    1.604    0.377
       300 -11.5030      5.0723    185.7678   9.4122244609e+01   3.4752923563e+01    0.4127609    0.3307829 -75.54  0.002646701    1.216    0.178
       301 -10.9154      2.9992    181.8053   9.4264307594e+01   3.5796122465e+01    0.3513791    0.1899116 -49.99  0.001975245    2.261    0.558
       302  -9.3330     28.2045    175.8072   8.8212958192e+01   3.4838556675e+01    0.1642796    0.1312689 -60.86 0.0006140366    1.307    0.235
       303  -9.1851     74.8387     13.5938   3.2328305927e+01   6.1746181665e+01    0.1686141    0.1144031  59.26 0.0009451128    1.749    0.428
       304  -8.7385    198.7233     17.6430   1.0662847876e+01   3.3019320421e+01    0.1228561   0.09541213  35.81 0.0007008241    1.655    0.396
       305  -9.9815     51.5272    172.8589   8.2399340914e+01   3.2917028709e+01    0.4932737    0.2101246 -85.60  0.001694495    3.891    0.743
       306  -9.2727     39.5058    173.9291   8.5388800503e+01   3.4071210227e+01    0.1950728    0.1109374 -71.76 0.0006353346    1.551    0.355
       307 -10.2585     14.1715    159.4580   8.9840120085e+01   3.9917163544e+01     0.289787     0.193754 -69.22  0.001031724    1.257    0.205
       308  -9.4502     65.9278     10.4979   3.3828472193e+01   6.3703076521e+01    0.1803314    0.1072374  45.17 0.0005997281    1.546    0.353
       309 -11.7302      9.0801    166.9517   9.1733969252e+01   3.8622276632e+01    0.3704028     0.311404  65.38  0.001796088    1.207    0.172
       310 -11.2775     11.1194    162.4572   9.0852147023e+01   3.9481428124e+01     0.388291    0.1758911 -84.42  0.001899588    2.053    0.513
       311  -8.7534    198.3027    167.6892   4.7223181971e+01   8.4276814298e+00    0.1358294     0.116301 -82.05  0.000370507    1.609    0.378
       312 -10.4251     18.8599    164.8166   8.9267636668e+01   3.8266871675e+01    0.2479876    0.2156098  24.71  0.001641002    1.470    0.320
       313  -9.9696    205.0679    163.2910   4.4958682222e+01   7.9449365598e+00    0.2586623    0.1994224 -37.84 0.0006543186    1.258    0.205
       314 -10.8175     28.2169    161.4476   8.6665490478e+01   3.8169056781e+01    0.3646693    0.2245759 -60.30  0.001824644    1.473    0.321
       315  -9.4251     38.0115    160.3067   8.4115893634e+01   3.7429923028e+01    0.1763268    0.1616689  80.72  0.001156798    1.117    0.105
       316 -12.6392     22.7119    149.4004   8.6632845969e+01   4.1523058621e+01    0.6531145    0.3653745 -46.06  0.001421233    1.972    0.493
       317 -11.0410     16.5362    147.7328   8.8008528918e+01   4.2451909639e+01    0.2981251     0.186777 -74.57 0.0003665036    1.312    0.238
       318 -10.6731      9.3059    155.5565   9.0618423039e+01   4.1218214894e+01    0.2468985    0.1816254 -80.21  0.001028915    1.087    0.080
       319  -9.9973    104.3938    154.7108   6.6128103211e+01   2.9361323970e+01    0.2886608    0.2639361 -38.56  0.001587558    1.163    0.140
       320 -10.1550      4.1806    153.6684   9.1665891280e+01   4.2046132156e+01    0.2369376    0.1200705  43.21  0.001036247    2.087    0.521
       321  -9.8398     62.4688    151.5017   7.6549274040e+01   3.6605478327e+01    0.3325949    0.2276557 -11.98  0.001544647    2.414    0.586
       322 -11.1625     47.3643    146.9741   7.9857557712e+01   3.9571599481e+01    0.6442928    0.3647589 -42.84  0.003080704    2.022    0.505
       323 -10.8822      2.9769    147.8202   9.1400245172e+01   4.3479508360e+01    0.6905442    0.1789064  31.15  0.002980402    3.773    0.735
       324 -11.2988      5.7302    142.5910   9.0186246054e+01   4.4492250046e+01    0.4299926    0.2343887  70.86  0.001135634    2.044    0.511
       325 -10.9228      2.1608    140.8433   9.0909474157e+01   4.5146851291e+01    0.4520601    0.1419976 -71.88  0.001978387    2.448    0.592
       326  -9.6369    104.4742    147.6295   6.4685529502e+01   3.1008068263e+01    0.2606015     0.211244 -85.63 0.0005499941    1.398    0.284
       327  -8.6529    239.6813    146.6793   3.5184733567e+01   4.4242319986e+00    0.1385541   0.09993923  -2.16 0.0007042984    1.665    0.400
       328  -9.0178     74.3927    145.8375   7.2375597096e+01   3.6308824039e+01     0.201043    0.1195708 -49.59  0.000477473    1.635    0.388
       329 -10.9764     33.0497    144.3308   8.3291632113e+01   4.1746809379e+01    0.3135209    0.2624985  67.58  0.001369514    1.231    0.187
