#   1 NUMBER                 Running object number                                     
#   2 MAG_AUTO               Kron-like elliptical aperture magnitude                    [mag]
#   3 X_IMAGE                Object position along x                                    [pixel]
#   4 Y_IMAGE                Object position along y                                    [pixel]
#   5 X_WORLD                Barycenter position along world x axis                     [deg]
#   6 Y_WORLD                Barycenter position along world y axis                     [deg]
#   7 A_WORLD                Profile RMS along major axis (world units)                 [deg]
#   8 B_WORLD                Profile RMS along minor axis (world units)                 [deg]
#   9 THETA_WORLD            Position angle (CCW/world-x)                               [deg]
#  10 FWHM_WORLD             FWHM assuming a gaussian core                              [deg]
#  11 ELONGATION             A_IMAGE/B_IMAGE                                           
#  12 ELLIPTICITY            1 - B_IMAGE/A_IMAGE                                       
         1 -15.2245     11.5201    209.5248   1.5242843436e+02   2.9667806406e+01     1.842766     1.567639   4.25   0.01555146    1.732    0.423
         2 -15.0241     68.7828    166.3046   1.3752060912e+02   3.2242320106e+01     1.673379     1.236866  -6.48  0.001730384    2.021    0.505
         3 -14.4778    165.2222     79.1647   9.4951554947e+01   3.3025012149e+01     2.577171     1.433343  14.37  0.008486346    3.442    0.709
         4  99.0000    191.8970     54.1415   8.2362192641e+01   3.0543796884e+01     1.987859     1.191937 -63.91  0.007934262    2.628    0.619
         5 -16.4502    161.0147     49.0723   8.6166104840e+01   3.8774170564e+01     15.76745      5.40371 -47.45   0.04250409    4.662    0.785
         6 -17.8258    248.5549     68.7459   7.8692460544e+01   1.6404696652e+01      11.2832     2.204059 -25.25   0.03317192    4.540    0.780
         7 -17.3064    221.1929      9.8100   6.5803124485e+01   2.8542728064e+01     10.21696          nan  63.52   0.02444174    8.254    0.879
         8 -14.2714    229.0284     35.4367   7.2149704375e+01   2.4236645527e+01     3.066383     0.755771 -37.08   0.01062204    3.200    0.688
         9 -12.7043    111.3845     15.7947   8.3989791807e+01   5.5622986157e+01    0.3766345     0.247041  -1.06  0.001457784    1.673    0.402
        10 -12.3563    108.0463     14.5245   8.4245933110e+01   5.6588087979e+01     0.271343    0.2322758  18.19 0.0006202466    1.099    0.090
        11 -12.4814    113.5190      6.1493   7.8983203032e+01   5.6146112598e+01    0.4304722     0.225103 -32.49  0.001857249    1.919    0.479
        12 -12.4872    145.2473      2.0618   7.1471021865e+01   4.8303482108e+01    0.4839803    0.3440469 -66.43   0.00236323    1.670    0.401
        13 -11.9186    154.2510      3.4452   7.0739379362e+01   4.5820965671e+01    0.4443862    0.3162571  31.21  0.001521376    1.461    0.316
        14 -11.9344    150.4619      1.9211   7.0675646719e+01   4.6943767863e+01    0.3960895    0.2966895  34.57 0.0009532737    1.344    0.256
        15  -9.7347    177.5386      4.5182   6.8286672939e+01   3.9671144187e+01    0.1363408    0.1344239 -23.94 0.0008091393    1.002    0.002
        16 -11.2642    135.0106    120.7795   1.1325075925e+02   3.1586942743e+01    0.5243089    0.1818948 -45.23  0.001766471    2.913    0.657
        17 -13.7223    179.8412     65.8613   8.8008670794e+01   3.1740278443e+01       1.0967    0.6030192  20.96  0.003964483    2.841    0.648
        18 -14.8469     44.8956    190.5374   1.4494536142e+02   3.0092636968e+01     1.687265     1.377604 -80.00   0.01275588    1.283    0.220
        19 -12.2194    134.6042    107.8464   1.1021700042e+02   3.4248917601e+01     1.036127     0.248225 -44.08  0.002924135    4.152    0.759
        20 -13.2016    167.1786    114.1238   1.0412504562e+02   2.6532333667e+01    0.4959689    0.4192606  -5.68  0.001716165    1.141    0.124
        21 -11.4114    246.9813    249.0208   1.1437022266e+02  -3.0395922712e+00    0.1565835     0.101488  15.50  0.000426641    1.036    0.034
        22 -10.5293    139.0279    103.0337   1.0785395957e+02   3.4322342701e+01     0.237411      0.17777   3.28 0.0005469472    1.624    0.384
        23 -15.0903     32.7448    200.2844   1.4799650084e+02   2.9467246486e+01    0.8176854    0.6479312  55.73  0.003676616    1.055    0.052
        24 -11.4359    161.2031     96.2012   1.0073908034e+02   3.0960640300e+01    0.2622704    0.1971846 -20.10 0.0003537343    1.333    0.250
        25 -11.6892    144.0182     98.3934   1.0537012907e+02   3.4199343670e+01    0.3539556    0.2852832  -3.16 0.0006542191    1.350    0.259
        26 -11.5261    160.5739     99.7506   1.0185070176e+02   3.0460098158e+01    0.3188076    0.2316831 -71.68  0.001098838    2.296    0.565
        27 -12.5558    216.1695     95.5929   9.0047450530e+01   1.9404327030e+01    0.4977781    0.3121619   5.75  0.002294917    1.923    0.480
        28 -10.9224    133.5600    145.9648   1.1891274765e+02   2.6919503420e+01    0.6001667    0.1415448 -53.34  0.001456502    7.380    0.864
        29 -10.8546    131.2133     95.2358   1.0774842072e+02   3.7457643417e+01    0.2637181    0.2298529 -52.15 0.0002063638    1.238    0.192
        30 -10.1009    215.9634    243.0302   1.1837190405e+02   1.1078237584e+00    0.1288756   0.08632345  20.06 0.0004128955    1.035    0.034
        31  -9.6509    113.3549     95.2527   1.1263964593e+02   4.0963088187e+01    0.1490746    0.1147773   2.84  0.000276424    1.603    0.376
        32 -11.3222    202.2912     89.5749   9.0793415596e+01   2.3153742753e+01    0.5715671    0.2624033 -37.03  0.002336329    2.065    0.516
        33 -11.8781    136.9279     87.7693   1.0414267755e+02   3.7741772792e+01    0.3267719    0.3120728 -75.30 0.0006724788    1.223    0.182
        34 -12.8492    149.0435     80.5976   9.9018235119e+01   3.6437549837e+01    0.3880777     0.281366 -32.93   0.00110707    1.325    0.245
        35 -10.5201    207.9871     77.5800   8.6582561810e+01   2.3649696390e+01    0.4234292    0.1918397 -14.68  0.001493585    2.904    0.656
        36 -12.3088    147.7878     68.5107   9.5515568054e+01   3.8862776977e+01    0.3585238    0.3256676 -63.06  0.001259217    1.294    0.227
        37 -11.5107    131.0054     65.1069   9.8532946261e+01   4.3320557378e+01    0.3762593    0.2214939 -26.49   0.00118948    1.784    0.439
        38 -12.3457     69.4856    145.5001   1.3484242693e+02   3.6549512838e+01    0.4158506     0.293098  71.62  0.001470959    1.533    0.348
        39 -11.0266    223.1266     53.4714   7.7767394356e+01   2.3474656284e+01    0.2954804    0.1994275 -61.45  0.001120748    1.921    0.479
        40 -10.9016    123.9212     53.9262   9.6472025462e+01   4.6931624820e+01    0.2465681    0.1954475 -75.02  0.001138397    1.780    0.438
        41 -13.4435    205.4099     43.6622   7.7252713205e+01   2.8678782183e+01     0.657544    0.4516458  64.64  0.002907851    1.612    0.380
        42 -11.9310    203.0124     50.3587   7.9560651710e+01   2.8414984516e+01    0.2865534    0.2511276 -43.20 0.0005008468    1.174    0.148
        43 -11.0203    206.7610     48.6270   7.8530585317e+01   2.7758504858e+01    0.2278887    0.1868095  35.40 0.0002278357    1.287    0.223
        44 -12.3218    177.1773     45.1321   8.1919752986e+01   3.5317615904e+01    0.7053463    0.3095192 -28.47  0.001575072    2.103    0.525
        45 -11.8718    179.0121     41.7101   8.0501965165e+01   3.5309443976e+01    0.4718007    0.2934385 -63.61  0.001959621    2.273    0.560
        46 -11.3947     67.5015     49.5090   1.1368857169e+02   5.8963019030e+01    0.2478388    0.1385439  22.11  0.001037754    2.337    0.572
        47 -10.3316    189.6918     36.2971   7.7151230054e+01   3.3338721759e+01    0.1534129    0.1378814  10.82 0.0003948984    1.120    0.107
        48 -12.7088    189.8447     42.3988   7.9048856095e+01   3.2558208457e+01    0.6076412    0.2590995 -41.82  0.002297089    2.387    0.581
        49 -11.3120    215.6811     41.7205   7.5391035596e+01   2.6529116302e+01    0.2409173    0.2161158  12.74 0.0004890809    1.147    0.128
        50 -12.1876     66.6505    144.3226   1.3542269307e+02   3.7151664045e+01     0.509255    0.2834369 -89.51  0.002124412    2.329    0.571
        51 -10.4374    214.8323     35.5334   7.3719785810e+01   2.7424996744e+01     0.478196    0.1110873 -35.00  0.001565162    3.292    0.696
        52 -11.9347    211.9350     27.5705   7.1740496638e+01   2.8961435644e+01    0.4872822      0.22823 -38.12  0.001365641    1.933    0.483
        53 -13.2700    201.3728     33.0068   7.4583397685e+01   3.0878349467e+01    0.5856574    0.3117132 -28.71  0.001782742    1.686    0.407
        54 -10.8596    196.3707     35.0744   7.5857156084e+01   3.1850679737e+01    0.2314281    0.2227238 -30.04  0.000718633    1.052    0.050
        55  -9.6247    206.9099     33.8269   7.4151870748e+01   2.9466152648e+01    0.1834206     0.138695 -40.23 0.0003160161    1.267    0.211
        56  -9.9672    217.7797     31.8684   7.2343900139e+01   2.7147914869e+01    0.1868292    0.1369422 -44.06 0.0004511814    1.322    0.244
        57 -10.3090    178.9557     26.7536   7.5573235846e+01   3.7119709723e+01    0.1812004    0.1765544 -11.91 0.0002127763    1.023    0.023
        58 -12.4260    101.4745     22.0891   8.9617014538e+01   5.7172302535e+01    0.3889549    0.2544076  -5.55  0.001228172    1.704    0.413
        59 -14.3569     64.5581    172.4601   1.3914289170e+02   3.1493385661e+01    0.7489916    0.5224881  54.94  0.002535149    1.303    0.232
        60 -13.7964     57.7210    178.6698   1.4126435671e+02   3.1029250697e+01    0.4829963    0.4366551 -53.31  0.001733449    1.336    0.251
        61 -11.9411    175.0971    138.7581   1.0818046092e+02   2.0778843526e+01    0.2850914    0.1890422  50.19  0.001411709    1.737    0.424
        62  -9.7357    101.4263    138.4332   1.2545232267e+02   3.3667510966e+01    0.1304279    0.1279648  42.06   0.00015306    1.018    0.018
        63 -10.9733    190.9154    191.7156   1.1511110818e+02   1.0235174270e+01    0.3892283    0.2260937 -60.04  0.001426509    6.242    0.840
        64 -10.7955    136.0000    129.6593   1.1499917933e+02   2.9650018620e+01    0.4480975   0.08025209 -46.05  0.001134016    5.714    0.825
        65 -10.9251     89.1446    170.8424   1.3330582430e+02   2.8783918931e+01    0.1882941    0.1508572  60.57 0.0003490812    1.216    0.178
        66  -9.7769    182.5390    233.3847   1.2268046840e+02   6.3213399236e+00    0.1094305   0.07912925  25.34 0.0001887032    1.042    0.040
        67 -10.5866    169.9340    228.1676   1.2422658652e+02   8.5897703904e+00    0.2405081    0.1189768  44.13  0.001049819    1.990    0.497
        68 -12.1351    160.5827    128.3682   1.0898557007e+02   2.5297227851e+01    0.3840121    0.3151876 -38.37  0.001537288    1.270    0.213
        69 -13.8363    161.3667     64.3052   9.1147678814e+01   3.6363995238e+01    0.5719884    0.3873324  -9.23  0.002524658    1.683    0.406
