#   1 NUMBER                 Running object number                                     
#   2 MAG_AUTO               Kron-like elliptical aperture magnitude                    [mag]
#   3 X_IMAGE                Object position along x                                    [pixel]
#   4 Y_IMAGE                Object position along y                                    [pixel]
#   5 X_WORLD                Barycenter position along world x axis                     [deg]
#   6 Y_WORLD                Barycenter position along world y axis                     [deg]
#   7 A_WORLD                Profile RMS along major axis (world units)                 [deg]
#   8 B_WORLD                Profile RMS along minor axis (world units)                 [deg]
#   9 THETA_WORLD            Position angle (CCW/world-x)                               [deg]
#  10 FWHM_WORLD             FWHM assuming a gaussian core                              [deg]
#  11 ELONGATION             A_IMAGE/B_IMAGE                                           
#  12 ELLIPTICITY            1 - B_IMAGE/A_IMAGE                                       
         1 -11.4050     58.1542    130.9853   1.0739036112e+02   4.2034788002e+01      1.00689     0.405578 -74.37  0.003453782    3.324    0.699
         2 -12.5563    212.1579     25.1937   4.2136129308e+01   2.9183391007e+01     1.033131     0.818839  22.45   0.00575884    1.757    0.431
         3 -12.6449    200.5738     37.5122   4.6724753817e+01   3.0456980729e+01     1.337493     1.047344  32.86  0.007126576    1.607    0.378
         4 -10.0826     32.7910      7.1421   7.9025208571e+01   7.0627425613e+01    0.3240524    0.1285994 -33.76  0.001617928    2.277    0.561
         5 -10.5475    236.6254      2.3364   3.4590508510e+01   2.6084793244e+01    0.6701735    0.2370806  75.00  0.002974625    2.637    0.621
         6 -10.1357     17.8015      2.7080   8.4583784458e+01   7.2931098112e+01    0.2859751    0.1250102 -29.43  0.001555102    1.992    0.498
         7  -8.6571    113.6863    207.5245   1.0536764186e+02   1.5989937184e+01    0.2514892    0.1618944 -79.61  0.001254722    1.962    0.490
         8 -12.4303     85.5033    229.2464   1.1377048284e+02   1.6058294516e+01     1.541725     1.142319  89.55  0.006089737    1.361    0.265
         9 -11.5907     13.2518    189.6097   1.2497555134e+02   3.2974299792e+01    0.5185179     0.328851 -76.23  0.002685773    1.365    0.267
        10 -12.4368     43.3598    202.8619   1.1982159925e+02   2.6973192601e+01     2.405278     1.009991  70.02  0.003193156    2.907    0.656
        11  -9.0026     65.7891    207.2622   1.1557469353e+02   2.3223342662e+01    0.2053791    0.1626076 -84.96 0.0006136622    1.189    0.159
        12 -12.2775     52.8015    193.0226   1.1692181487e+02   2.7975914140e+01     1.436106    0.7868217 -79.77  0.007569287    1.740    0.425
        13  -9.2638     64.0332    202.3656   1.1544947783e+02   2.4498605008e+01    0.2355066    0.1826122 -73.91 0.0003615964    1.280    0.219
        14  -8.1702    194.3325    197.6726   8.6648721348e+01   3.6265853056e+00    0.1295145    0.1098861  75.60 0.0007051555    1.715    0.417
        15 -13.9245     59.8451    246.9550   1.2012298025e+02   1.6255556878e+01     7.408862     2.356307  29.00  0.003489219   10.806    0.907
        16  -8.6285     99.4950    180.9686   1.0474552099e+02   2.3993755232e+01    0.2077934    0.1343897 -62.85 0.0009962894    1.569    0.363
        17 -10.3064     67.8982    177.0863   1.1169296382e+02   2.9627243134e+01    0.3859316    0.2627171 -40.96  0.001993995    1.963    0.491
        18 -10.4802     72.5960    171.9659   1.0989027781e+02   3.0169771653e+01    0.3701011    0.2696817 -48.00 0.0009858377    1.576    0.365
        19  -8.4826    114.4996    173.9924   1.0003531706e+02   2.3022493404e+01     0.222246    0.1410747 -57.74  0.001042382    1.618    0.382
        20  -7.8853     33.4574    227.7682   1.2357848351e+02   2.3025983100e+01    0.1393388   0.09280156 -72.75  0.000930339    1.534    0.348
        21  -7.6775     36.4238    167.3931   1.1802248999e+02   3.5708677054e+01    0.1278058    0.1013375  81.39 0.0001429083    1.074    0.069
        22 -12.8885     10.2820    206.4269   1.2658560447e+02   2.9698489983e+01    0.7064192    0.6266246  31.60  0.002661483    1.590    0.371
        23 -11.8723     69.2600    158.0723   1.0873301010e+02   3.3942416687e+01    0.6113581    0.4169816 -37.45  0.001256207    1.924    0.480
        24 -11.9632     68.7430    144.5004   1.0672951794e+02   3.7317382641e+01    0.8614749    0.5839149  80.41  0.002747926    1.708    0.415
        25  -9.6630     31.4278    156.9659   1.1812112052e+02   3.8676565166e+01    0.3094052    0.1999212  44.21  0.001790317    1.603    0.376
        26  -8.7064     39.1061    146.5903   1.1495663906e+02   4.0385456924e+01    0.2153574    0.1587905  89.23   0.00122177    1.233    0.189
        27 -10.4230     30.6827    144.5095   1.1689728642e+02   4.1727240876e+01    0.3669265    0.2134307  29.82   0.00197823    2.000    0.500
        28  -8.2047    159.0086    162.4887   8.7290606000e+01   1.7052758855e+01     0.224538    0.1986004 -49.38 0.0003887478    1.176    0.150
        29  -9.1163    101.8212    140.8293   9.7048727771e+01   3.3028145500e+01    0.4669924    0.2864833 -29.40  0.001853045    2.459    0.593
        30 -10.6147     89.4420    140.4630   1.0034519855e+02   3.5205706796e+01    0.2934008    0.2574068 -42.06  0.001597224    1.225    0.183
        31  -8.6686     83.7483    143.1285   1.0240608878e+02   3.5457529083e+01    0.2263867    0.1900951  80.19 0.0005271893    1.217    0.178
        32 -10.6831     87.6245    155.8097   1.0362937159e+02   3.1775698259e+01    0.5675065    0.3946771 -32.01  0.001542609    1.969    0.492
        33  -8.6633    111.4225    130.9804   9.2309198914e+01   3.3640213701e+01    0.2816962    0.2189794  17.72 0.0009080205    1.596    0.373
        34  -8.8799    105.8743    130.3724   9.3696741214e+01   3.4815217929e+01    0.3394969    0.2942498 -63.19  0.001764563    1.126    0.112
        35  -7.6888     83.4707    131.5029   1.0023687740e+02   3.8347031787e+01    0.1466112    0.1352299 -73.30 6.582797e-05    1.009    0.009
        36  -9.9903     33.0000    124.9926   1.1367993857e+02   4.6244591698e+01    0.3531626    0.1123405 -64.27   0.00140722    2.453    0.592
        37  -8.5944    134.4531    119.2537   8.3297204207e+01   3.1715899311e+01    0.2276373    0.1505407 -56.85 0.0008426501    1.636    0.389
        38  -8.1619    107.7738    119.2686   9.0567866170e+01   3.7105476899e+01    0.1996964    0.1770548  -7.74 0.0003897047    1.301    0.231
        39  -9.2215     98.4563    126.9099   9.4997245648e+01   3.6976855182e+01    0.2966679    0.2469781 -20.11 0.0008513746    1.448    0.309
        40 -12.3622     29.3104    248.0302   1.2549200069e+02   1.9702923825e+01    0.7586809    0.6031682  31.54  0.005120661    1.743    0.426
        41  -7.7745    168.6610    113.3274   7.3430337807e+01   2.5312572156e+01    0.1637094    0.1263881 -81.12 0.0007051667    1.731    0.422
        42  -8.5378    205.4941    110.4641   6.5158021082e+01   1.7395799823e+01    0.2575988     0.136746  40.42 0.0009124508    2.156    0.536
        43  -8.3407    115.3317    109.3325   8.5902998983e+01   3.7945294434e+01    0.1608781    0.1235984  -8.99 0.0003743637    1.726    0.421
        44 -10.7251     46.3819    221.7644   1.2073928447e+02   2.2707886838e+01    0.4956885    0.2279245  66.98  0.001541142    2.170    0.539
        45  -8.1691    134.4767    106.5014   7.9917522831e+01   3.4541992259e+01    0.1569921    0.1538771 -30.38 0.0008101971    1.013    0.013
        46  -9.6891     43.3374    104.9174   1.0709741439e+02   5.0110759758e+01    0.3765908    0.1526836  40.90    0.0015738    2.815    0.645
        47  -7.9012     41.4165     91.7932   1.0500655659e+02   5.3435639484e+01    0.1899342    0.1040499 -51.47 0.0004608966    1.526    0.345
        48 -11.0214     81.2396    162.0966   1.0629688080e+02   3.1249911763e+01    0.6581318    0.4041311  67.98 0.0006860053    1.946    0.486
        49  -7.7511     28.5451    210.5254   1.2335934304e+02   2.7021980507e+01    0.1189358   0.08763854  73.80 7.489644e-05    1.038    0.036
        50  -9.4067    178.1873    222.3027   9.4135918725e+01   2.3628358003e+00    0.2343235    0.1820799 -53.68 0.0008427774    1.639    0.390
        51  -8.7044     54.4294    222.6344   1.1925654561e+02   2.1545173754e+01     0.352019    0.1150615  55.63  0.001477609    3.001    0.667
        52  -7.7483     61.2739    220.2971   1.1771824673e+02   2.1137316881e+01    0.1015057   0.09347238 -49.27 0.0002367941    1.527    0.345
        53  -9.3687     61.1632    234.2610   1.1891205556e+02   1.8427328290e+01    0.2164834    0.1678281  79.96 0.0006824717    1.141    0.123
        54 -11.6341    191.1292     44.0203   4.9823825425e+01   3.1929649550e+01    0.5866494    0.4501484  45.04  0.002311821    1.431    0.301
        55  -8.3307     54.2148    231.4289   1.1999334142e+02   1.9852072474e+01    0.2080004    0.1123953  78.34   0.00116661    1.855    0.461
        56 -15.1494      8.1578    241.6285   1.2869219311e+02   2.3076398369e+01      16.3282     1.420606 -78.25   0.01982119   11.243    0.911
        57  -9.2702    143.4991     48.4131   5.9822080807e+01   4.3334541559e+01    0.2946756    0.2479245 -81.90 0.0007804414    1.382    0.276
        58 -10.7375     12.7230     44.0960   1.0418969661e+02   6.6224500235e+01    0.3642959    0.1956647 -59.07  0.002051388    1.659    0.397
        59  -8.4855    146.1113     42.8148   5.7407620630e+01   4.3499011233e+01    0.2207594     0.195087 -78.20 0.0005127354    1.246    0.197
        60  -8.5858     93.2273    218.2646   1.1104018581e+02   1.7057657405e+01     0.203812    0.1650741  89.64 0.0006607753    1.231    0.188
        61 -14.6663      2.5621    197.9228   1.2757822841e+02   3.2155311156e+01     12.86673          nan -74.60   0.02889773   12.235    0.918
        62  -7.7113     41.7116    231.7271   1.2233101874e+02   2.1312717339e+01   0.09183048    0.0867743 -72.62 0.0002359321    1.510    0.338
