#   1 NUMBER                 Running object number                                     
#   2 MAG_AUTO               Kron-like elliptical aperture magnitude                    [mag]
#   3 X_IMAGE                Object position along x                                    [pixel]
#   4 Y_IMAGE                Object position along y                                    [pixel]
#   5 X_WORLD                Barycenter position along world x axis                     [deg]
#   6 Y_WORLD                Barycenter position along world y axis                     [deg]
#   7 A_WORLD                Profile RMS along major axis (world units)                 [deg]
#   8 B_WORLD                Profile RMS along minor axis (world units)                 [deg]
#   9 THETA_WORLD            Position angle (CCW/world-x)                               [deg]
#  10 FWHM_WORLD             FWHM assuming a gaussian core                              [deg]
#  11 ELONGATION             A_IMAGE/B_IMAGE                                           
#  12 ELLIPTICITY            1 - B_IMAGE/A_IMAGE                                       
         1 -12.4055    228.9638     45.1563   6.8524583677e+01   2.2350725813e+01     2.305475    0.7033292 -28.66  0.008019901    2.771    0.639
         2 -14.0625    244.7007     18.6987   5.9535305963e+01   2.1502956029e+01     3.715704     2.769552  44.78   0.00909239    1.466    0.318
         3 -10.8618    231.8408     13.4056   5.9270479289e+01   2.5059585983e+01    0.3861917    0.2811968 -13.33 0.0009761915    1.371    0.271
         4  -7.2927    159.6232     16.2181   6.9329688962e+01   4.3439309564e+01    0.2071563    0.1385492  -2.84 0.0009348819    1.616    0.381
         5 -11.0485    233.2733      7.7013   5.7560791329e+01   2.5247306059e+01     0.526768    0.3003954 -32.67  0.001459984    1.584    0.369
         6  -9.3584    214.4338     12.1645   6.0631085076e+01   2.9486387897e+01    0.3285167    0.2417195 -52.55  0.000462067    1.408    0.290
         7  -9.0539    218.2010      8.0880   5.9049539229e+01   2.8917960511e+01    0.5029985    0.1495434 -38.12  0.001614544    2.975    0.664
         8  -6.9986    135.6285      5.2942   6.9362802886e+01   5.0777197940e+01    0.1485836    0.1100024 -61.76 0.0007026552    1.730    0.422
         9  -7.5091    206.1928      3.5897   5.8892180292e+01   3.2373152519e+01    0.1818945    0.1232094  55.73 0.0001591828    1.459    0.315
        10  -7.4024     28.3967    216.5064   1.4130486855e+02   2.8352632407e+01    0.0956009   0.06862098  67.38 0.0001252202    1.027    0.026
        11  -7.1143     52.9647    250.8223   1.3913009026e+02   2.0775570208e+01    0.1153282   0.05206412  41.61 0.0008092599    1.707    0.414
        12  -7.1555     50.4815    207.4056   1.3707521258e+02   2.7600938183e+01    0.1013206   0.07697272  63.09 7.846441e-05    1.031    0.030
        13 -10.0150    175.5969    202.6055   1.1385793420e+02   1.0966644488e+01     0.208931    0.1792198  27.44  0.000435494    1.082    0.076
        14 -11.2452     15.4971    187.2323   1.4211416446e+02   3.4468321791e+01    0.7270139    0.4175747  42.55  0.005365995    1.594    0.373
        15  -7.6109    176.2452    187.8511   1.1148965972e+02   1.2858946932e+01    0.1685589    0.1213496  24.10  0.000405129    1.328    0.247
        16 -10.4351    100.9974    176.0030   1.2454054270e+02   2.6783171656e+01    0.1679503    0.1446887  60.55  0.001159269    1.003    0.003
        17  -9.4239     55.0005    163.1898   1.3270379115e+02   3.5109623737e+01    0.4845962    0.3237689  79.38  0.003154937    1.393    0.282
        18  -9.5340     46.5731    169.0186   1.3497845340e+02   3.4890087304e+01    0.3003629    0.2449803  -7.41  0.001621613    2.041    0.510
        19  -8.9433     51.0197    165.9617   1.3379672809e+02   3.5006149068e+01    0.2120688    0.1903265 -67.29 0.0008536468    1.332    0.249
        20  -9.3491     59.6286    159.6256   1.3135895150e+02   3.5288097554e+01    0.3150897    0.1659398 -59.13  0.001786292    1.928    0.481
        21  -8.1104      4.1278    155.1369   1.4266029998e+02   4.1359915576e+01    0.1426004     0.117892 -77.77 0.0006254458    1.304    0.233
        22  -7.1628    190.7276    151.6905   1.0220308699e+02   1.5529068190e+01    0.1348586   0.09644175   9.92 0.0001775874    1.548    0.354
        23  -6.8901    149.6628    150.2839   1.1024902566e+02   2.3471277591e+01    0.1321891    0.1030278  71.60  0.000251671    1.626    0.385
        24  -7.4599      6.4462    148.8269   1.4183754421e+02   4.2433608960e+01    0.1390928   0.07847883 -72.32 0.0003865717    1.548    0.354
        25  -9.1855    121.7451    147.8266   1.1590124433e+02   2.8823981951e+01     0.213869    0.1893634  56.48 0.0002791178    1.073    0.068
        26  -8.5903    186.9513    139.2437   1.0032927218e+02   1.8177108593e+01    0.2140154    0.1881806 -13.25 0.0003627261    1.137    0.121
        27  -7.1215    132.3965    139.2966   1.1193842817e+02   2.8609540546e+01    0.1393282    0.1054464   6.39 0.0007003372    1.803    0.445
        28 -10.4264    232.9543    132.1091   9.0352833395e+01   1.0134892466e+01    0.2602242    0.2167065  25.65 0.0004206722    1.136    0.119
        29  -8.4942    119.1091    132.9727   1.1378906951e+02   3.2176973106e+01    0.1895848    0.1874141  81.32 0.0002647819    1.040    0.038
        30  -7.5112    162.1507    122.8535   1.0179159262e+02   2.5940350626e+01    0.1900768      0.15995  -1.46  0.001016345    1.278    0.217
        31  -7.8517    249.3366    118.2908   8.4562694829e+01   8.7443551143e+00    0.1419107   0.09025702  15.23 0.0006731308    1.639    0.390
        32  -7.1932    179.5277    117.0539   9.6730718729e+01   2.3317166077e+01    0.1969966    0.1408701 -30.82  0.000336791    1.411    0.291
        33  -7.2244     43.9981    116.7765   1.3003626261e+02   4.6009506352e+01    0.1349015    0.0984734  35.85 0.0003384499    1.543    0.352
        34  -8.8925    250.5055    113.2110   8.3196442514e+01   9.1478482923e+00    0.2116467    0.1479971 -18.05 0.0002993218    1.265    0.210
        35  -9.0052    236.7817    113.4600   8.5386961371e+01   1.1822873311e+01      0.26076    0.2008798 -41.94 0.0009805295    1.541    0.351
        36  -7.6691    167.7615    113.9670   9.8452231840e+01   2.6347407084e+01    0.2308551    0.1704274 -66.49  0.001065678    1.956    0.489
        37  -7.5713    183.7101    111.9531   9.4618460173e+01   2.3269015429e+01    0.2033149     0.178679 -10.44  0.000372939    1.101    0.092
        38  -7.2798     22.4685    111.6287   1.3508816914e+02   4.9052300581e+01    0.1133667   0.09251238 -87.85 0.0007952562    1.036    0.034
        39  -9.2682    250.3028     95.3154   7.8907307700e+01   1.1412346050e+01    0.3990609    0.1169008 -24.82  0.001346554    3.246    0.692
        40  -7.6949    204.8685     91.5086   8.5222378515e+01   2.1777261646e+01    0.2108825    0.1452459  50.35 0.0003753554    1.498    0.332
        41  -7.2565    214.3457     93.2771   8.4030289571e+01   1.9377760231e+01      0.15371     0.104358  19.90 0.0007005507    1.630    0.387
        42  -7.5423      7.5216     89.4941   1.3681983095e+02   5.4970483024e+01    0.1158901   0.08889859 -79.36 0.0001106672    1.007    0.007
        43  -8.2016    170.7212     85.6543   9.0267503847e+01   3.0612963307e+01    0.4141362    0.2370499  -5.05  0.001424624    3.047    0.672
        44  -8.7544    153.2592     84.5080   9.3811859283e+01   3.4814659124e+01    0.2863113    0.2510393 -29.02 0.0007811459    1.115    0.103
        45 -10.5629    242.7249     79.4068   7.5958602116e+01   1.4994613481e+01    0.4747007    0.3566649  84.49  0.002216539    1.962    0.490
        46  -8.1688    177.0136     80.0432   8.7330756335e+01   3.0071085728e+01    0.2323064     0.215144  -0.45 0.0004168173    1.016    0.016
        47  -9.9113    236.4061     73.4816   7.5295122119e+01   1.7130689835e+01    0.3089416    0.2474994 -25.71 0.0008629803    1.152    0.132
        48  -8.6946    185.6292     74.6383   8.4035254349e+01   2.8871726286e+01    0.3252826    0.2488169  21.03  0.001462264    1.395    0.283
        49  -9.2948    188.9743     70.2108   8.2089022642e+01   2.8738808447e+01     0.444061     0.344184 -59.59  0.001155411    1.618    0.382
        50  -9.6563    168.1182     70.4515   8.6290163257e+01   3.3764420930e+01    0.4735983    0.3226798   3.18  0.001456834    1.875    0.467
        51  -7.9041    150.8688     72.2074   9.0659392635e+01   3.7553517854e+01    0.2151952    0.2031923 -42.64 0.0006749174    1.127    0.113
        52  -7.1721     37.5229     71.3540   1.2436446746e+02   5.6877615152e+01    0.1217736    0.1037049 -58.34 -2.546986e-05    1.052    0.049
        53  -9.7308    203.8954     64.0035   7.7628386033e+01   2.5999943625e+01    0.6672937    0.4081704 -30.28  0.002992491    1.543    0.352
        54 -10.6658    228.2202     64.5562   7.4042858301e+01   2.0132573288e+01    0.8104762    0.4097651  -7.75   0.00306199    2.591    0.614
        55  -8.2999    149.0354     63.2692   8.8227024120e+01   3.9524240539e+01    0.2149429    0.2039212   5.91 0.0009124457    1.019    0.019
        56  -8.9962    223.6709    249.2276   1.1232104082e+02  -1.1664681688e+00    0.2221413     0.101462  32.40  0.001099044    1.587    0.370
        57 -11.2492    245.2030     55.7187   6.9397774256e+01   1.7353647100e+01    0.9394974    0.5588395  16.62   0.00146171    2.186    0.543
        58  -8.3485    239.4840    246.5273   1.0958084219e+02  -3.0726158599e+00    0.1049815   0.07083223  24.64 0.0002468021    1.015    0.015
        59  -7.8028    194.4892     59.4617   7.7859856014e+01   2.8950244805e+01    0.2483896    0.1444689 -26.67  0.000518831    1.649    0.394
        60  -8.8925    197.9663     54.0469   7.5624007876e+01   2.8831498049e+01    0.6166263    0.3274123  18.83  0.001478368    3.068    0.674
        61  -8.3254    170.4745     59.5011   8.2351324540e+01   3.4923634000e+01    0.2863171    0.1268883  44.43 0.0007474939    2.305    0.566
        62 -10.2252    217.1541     55.0874   7.2966007100e+01   2.3967902878e+01    0.4880751    0.4275922  14.02  0.001919986    1.133    0.117
        63  -8.7421    129.0215     56.9131   9.1011142808e+01   4.5238980003e+01    0.2943033    0.2481441  77.89 0.0003626038    1.517    0.341
        64  -9.7511    235.6096     51.0655   6.9330225177e+01   2.0087998445e+01    0.3760121    0.2345095 -49.71  0.001757534    1.810    0.447
        65  -7.2861    172.0077     49.7828   7.8877568046e+01   3.5983737509e+01    0.1916635    0.1251122  56.54            0    1.564    0.361
        66  -8.7735    157.7701     44.6143   7.9962164807e+01   4.0329561833e+01    0.2147961    0.1512398  69.09  0.000956543    1.673    0.402
        67  -8.0377    157.9679     34.9016   7.6477545822e+01   4.1630252742e+01    0.4510627    0.2322938  22.81  0.001055293    3.011    0.668
        68 -10.2932    139.6668     33.6150   7.9870798222e+01   4.6417181123e+01    0.2702657    0.2495051  -0.69 0.0002622159    1.021    0.021
        69  -7.7282    150.4906     29.0329   7.5818061277e+01   4.4309901319e+01    0.2213171    0.1464768 -21.92 0.0003751182    1.490    0.329
        70  -8.5083    201.9487     27.0523   6.6658019719e+01   3.1148552565e+01    0.2191406    0.2085484  -6.11 0.0003376082    1.016    0.016
        71  -8.3920    247.3127    245.6752   1.0829990042e+02  -4.0430600337e+00   0.08733845   0.07178104  37.23  0.000704096    1.661    0.398
        72  -7.2861     17.7177     20.6931   1.1860988117e+02   6.9477646609e+01    0.1243801   0.06899114 -36.68 0.0001932585    1.561    0.359
        73  -7.4431    186.3205    244.3507   1.1753427890e+02   4.4862946645e+00    0.1072324    0.0660402  18.96 0.0007048124    1.744    0.427
        74  -7.0562    120.4957    240.5475   1.2780863079e+02   1.4080143744e+01    0.1035632   0.07719742  45.37 0.0001179194    1.049    0.047
        75  -7.4927    125.6733    235.4477   1.2648247392e+02   1.4049254549e+01    0.1453272   0.09831606 -58.55 0.0008604305    1.927    0.481
        76  -7.6862    247.2846    231.6717   1.0631920792e+02  -2.9147912260e+00   0.08821537   0.07668627  31.14  0.000318865    1.608    0.378
        77  -7.0430    162.4870     60.4900   8.4324447444e+01   3.6738759779e+01    0.1565098    0.1449562   5.64 -1.94994e-05    1.032    0.031
        78  -8.4897     30.7394    229.4556   1.4151867242e+02   2.6111886490e+01    0.1459167    0.1088588  71.22  0.000288471    1.126    0.112
