#   1 NUMBER                 Running object number                                     
#   2 MAG_AUTO               Kron-like elliptical aperture magnitude                    [mag]
#   3 X_IMAGE                Object position along x                                    [pixel]
#   4 Y_IMAGE                Object position along y                                    [pixel]
#   5 X_WORLD                Barycenter position along world x axis                     [deg]
#   6 Y_WORLD                Barycenter position along world y axis                     [deg]
#   7 A_WORLD                Profile RMS along major axis (world units)                 [deg]
#   8 B_WORLD                Profile RMS along minor axis (world units)                 [deg]
#   9 THETA_WORLD            Position angle (CCW/world-x)                               [deg]
#  10 FWHM_WORLD             FWHM assuming a gaussian core                              [deg]
#  11 ELONGATION             A_IMAGE/B_IMAGE                                           
#  12 ELLIPTICITY            1 - B_IMAGE/A_IMAGE                                       
         1  -9.8269     97.7137     13.9563   5.3639742347e+01   5.9119407901e+01    0.4843725    0.1698776 -29.86  0.001769165    2.799    0.643
         2  -9.6395     40.9556     13.8941   7.5832488062e+01   7.1351968491e+01    0.2105351    0.1750288 -21.65 0.0003049454    1.118    0.106
         3  -9.9090    168.8802      2.3444   3.7787558440e+01   4.1460660290e+01    0.2813691    0.1208198  87.09  0.001100655    2.489    0.598
         4  -8.6760    107.2757    248.6288   1.0580968701e+02   1.2061279581e+01    0.1580034   0.08419541  28.99  0.000605126    1.613    0.380
         5 -11.7886    237.6385    240.9849   8.1874482669e+01  -3.5248815159e+00    0.3562481    0.2380213  17.51  0.001628572    1.110    0.099
         6 -11.4657    245.8660    247.9201   8.1587422711e+01  -5.0636391979e+00     0.516294    0.3238047  19.30  0.003244359    1.173    0.148
         7 -10.2645    250.3390    241.5096   8.0033584953e+01  -4.9733908577e+00    0.2406531    0.1526076 -22.71  0.001666585    1.614    0.380
         8 -10.6169    249.1576    237.1430   7.9589688556e+01  -4.4489351677e+00    0.2595764    0.1574155  26.50  0.001628208    1.392    0.282
         9 -11.1090    161.1012    243.6046   9.5159480284e+01   5.6887118103e+00    0.4984225    0.2043188  23.31  0.002296026    2.914    0.657
        10 -11.0373    166.1332    249.0255   9.4885931236e+01   4.3675260444e+00    0.3281328    0.2260251  25.20   0.00167457    1.088    0.081
        11 -10.7291    167.5802    242.7427   9.3877086447e+01   4.9419057145e+00    0.2179346    0.1832017   7.97 0.0009432966    1.203    0.169
        12 -10.7880    174.4453    245.1083   9.2933060750e+01   3.7602850000e+00    0.2481808    0.2110533  71.31  0.001820739    2.063    0.515
        13  -9.3722    107.9774    237.1754   1.0462453724e+02   1.3672562998e+01    0.2406295    0.1542086  81.76  0.001417789    2.432    0.589
        14  -9.4444    160.8310    234.6654   9.4125716328e+01   6.8714298916e+00    0.1748978    0.1392306  -3.29 0.0004875197    1.349    0.258
        15 -10.6760    168.3499    232.7049   9.2481957154e+01   6.1021911723e+00    0.4875672    0.3072053  10.11  0.002998733    1.738    0.425
        16  -9.5380    171.0422    225.6582   9.1055282429e+01   6.6493054992e+00    0.1622942    0.1170262  27.81 0.0003556942    1.085    0.078
        17 -11.1719    164.9965    226.1310   9.2250958150e+01   7.4301778690e+00     0.571533    0.2958157  23.91  0.003117803    1.854    0.460
        18 -10.0051    160.5284    227.4806   9.3272096636e+01   7.8723227583e+00    0.2064821    0.1554629  -2.46  0.001161817    1.458    0.314
        19  -9.7651    237.0554    231.7117   8.0644196168e+01  -2.5638609273e+00    0.1800678    0.1599528 -35.42   0.00144464    2.018    0.505
        20 -10.1655    249.9777    230.2851   7.8473995550e+01  -3.9017105374e+00    0.1678647    0.1176165 -26.60  0.001300019    1.677    0.404
        21 -11.1840     99.1817    226.5224   1.0538211111e+02   1.6529981329e+01     0.354937    0.2459288  27.23   0.00135611    1.364    0.267
        22  -9.4332     72.8070    228.9022   1.1102642893e+02   1.9520101495e+01    0.2121032    0.1324594  66.38  0.001281059    1.646    0.392
        23 -10.1929    117.4851    227.5249   1.0174276759e+02   1.3882193155e+01    0.3250639    0.1730497  43.64  0.001825731    1.539    0.350
        24 -11.2287     88.0433    225.3715   1.0758160842e+02   1.8191554978e+01     0.457682    0.2536897 -50.14  0.002632929    2.382    0.580
        25 -10.4558    128.2561    226.2270   9.9426976967e+01   1.2585791156e+01    0.2696176    0.2016652 -16.87  0.001734144    1.787    0.441
        26 -11.1670    125.4646    221.2230   9.9414029160e+01   1.3754544198e+01    0.3817198      0.29647   9.60  0.001287964    1.457    0.314
        27  -8.6831     39.6593    225.3258   1.1761008916e+02   2.3968586340e+01    0.1252703   0.05824271  55.34 0.0007051295    1.731    0.422
        28  -9.9220    108.7021    222.9299   1.0305316544e+02   1.5827211253e+01    0.2843716    0.2072021   7.55  0.001745444    1.779    0.438
        29  -9.4771     19.6043    223.1700   1.2158731908e+02   2.6389384375e+01    0.1815338     0.156036 -50.94  0.001400748    1.704    0.413
        30  -9.4068    115.0123    221.6232   1.0160735002e+02   1.5163986498e+01    0.2211485    0.1642941 -39.96  0.001250682    1.733    0.423
        31  -8.9997    157.5930    221.8548   9.3098264013e+01   9.0657645497e+00    0.1984232    0.1312602  25.77 0.0005080697    1.270    0.213
        32 -10.1467    131.8186    219.9856   9.7972344129e+01   1.3041333028e+01    0.3122949    0.2742275 -73.78  0.001429892    1.504    0.335
        33 -10.1643    131.2976    214.9159   9.7455569312e+01   1.3914078394e+01    0.5394072    0.3370108 -75.76  0.002811924    2.844    0.648
        34  -9.0916    148.5659    220.5405   9.4688178116e+01   1.0549147131e+01    0.1978482    0.1192602 -47.03 0.0005445273    2.062    0.515
        35  -9.5564     83.4990    219.9827   1.0805423269e+02   1.9709926663e+01    0.1556724    0.1161385 -79.85  0.001027202    1.589    0.371
        36  -9.4517     75.1354    219.9219   1.0982443590e+02   2.0792607148e+01    0.1920327     0.124891  51.56 0.0006844464    1.270    0.212
        37  -9.5192     98.8434    217.2654   1.0453364848e+02   1.8131965639e+01    0.2901366    0.1879118 -66.82  0.001761304    1.916    0.478
        38  -9.4785    185.1290    226.6763   8.8616140827e+01   4.5798930726e+00    0.1652133    0.1507094 -11.33  0.000653485    1.365    0.267
        39  -9.3437    191.4836    217.4585   8.6158699701e+01   4.8604707769e+00    0.1177448   0.09036373  17.19 0.0002438759    1.018    0.018
        40  -9.1305    143.7254    216.8023   9.5166979805e+01   1.1807558887e+01    0.1794099    0.1491154 -35.09 0.0008150193    1.447    0.309
        41  -8.4353    175.6382    216.2981   8.8895846907e+01   7.2491062036e+00    0.1126656    0.0851148  51.85 0.0007033931    1.715    0.417
        42 -10.8387     77.9230    212.2144   1.0855652567e+02   2.1824696893e+01    0.3368655    0.2874449  15.41  0.002298464    1.414    0.293
        43  -9.2550    135.8152    208.8650   9.5742634797e+01   1.4217497026e+01    0.1801433    0.1446907  23.79 0.0004402942    1.140    0.122
        44  -9.1349    202.9706    209.9847   8.2994078297e+01   4.1989962448e+00    0.1648464    0.1406094  51.04  0.001139323    1.747    0.427
        45  -8.3032    193.5626    207.5274   8.4285516732e+01   5.8416808768e+00     0.120178   0.09354367  13.80 0.0002204602    1.047    0.045
        46  -9.0638     99.6133    206.5233   1.0322161513e+02   1.9916197430e+01     0.262007    0.1495458  67.15  0.001271908    2.411    0.585
        47  -9.1734     56.8590    205.7564   1.1267248813e+02   2.5668796133e+01    0.2378924    0.1210958  66.75  0.001003423    2.099    0.524
        48  -8.0592    215.7154    204.2885   7.9904417181e+01   3.1344536783e+00   0.09567128   0.08836408  30.51 0.0003138487    1.531    0.347
        49  -9.6179     89.1809    199.4989   1.0478431859e+02   2.2682809873e+01    0.2928328    0.1803784  68.04  0.001363098    1.924    0.480
        50  -8.8388    250.5473    198.4280   7.3420143888e+01  -7.6215275917e-01    0.1954537   0.08483348 -19.19  0.001033912    2.381    0.580
        51  -8.7151    149.4889    199.0369   9.1529351357e+01   1.3715113684e+01    0.1594262    0.1138988 -84.28 0.0008085835    2.649    0.623
        52 -10.1980    126.3615    197.6412   9.6245487451e+01   1.7537365680e+01    0.3006566    0.2406269  22.95  0.001161803    1.215    0.177
        53  -8.8557    164.8553    198.3826   8.8312523262e+01   1.1428442000e+01    0.1844698    0.1008655  27.36 0.0004941751    1.730    0.422
        54  -8.9000    112.7716    197.9782   9.9286090717e+01   1.9544032665e+01    0.2066759     0.134687  68.17  0.001072619    2.038    0.509
        55 -11.2234    173.5372    195.2851   8.6115006723e+01   1.0546275535e+01    0.4325072    0.3790794 -19.26  0.002183514    1.237    0.191
        56  -9.0804     66.6631    194.7063   1.0949767782e+02   2.6633580381e+01     0.270132    0.1356835  60.46  0.001317626    2.085    0.520
        57  -8.4273    103.3028    194.6121   1.0099726246e+02   2.1577443868e+01    0.1353934   0.08778267  63.95 0.0007015753    1.797    0.443
        58  -9.1310     44.0107    193.7538   1.1471218258e+02   2.9542858386e+01     0.261395    0.1127389  69.19  0.001175188    2.683    0.627
        59  -8.6843    131.7058    195.6151   9.4801185247e+01   1.7061603617e+01    0.1826542    0.1027678  42.89 0.0006417109    1.552    0.356
        60  -8.7720     78.0512    193.0613   1.0666876361e+02   2.5464692226e+01    0.2216397    0.1195418  76.38  0.001009653    2.620    0.618
        61  -8.5906    124.3926    192.2317   9.5928761509e+01   1.8800982418e+01    0.1553348     0.125786 -76.72 0.0004043484    1.568    0.362
        62  -9.3144    138.9072    190.1777   9.2445139424e+01   1.6864314368e+01     0.203668    0.1645817  50.26  0.001234761    1.262    0.208
        63  -8.9019    129.7361    189.1365   9.4298454585e+01   1.8512792797e+01    0.2172769    0.1305534  66.71 0.0009493488    2.814    0.645
        64  -9.9916    203.6987    188.1072   7.9294360814e+01   6.9305655598e+00    0.2626036    0.1588933  47.69  0.001438656    2.012    0.503
        65 -10.6116     95.4502    187.2948   1.0191086430e+02   2.4148378389e+01    0.5604825    0.2095206  50.47   0.00217401    2.886    0.653
        66  -9.3228     55.2674    187.0858   1.1151459854e+02   2.9610420086e+01     0.345026    0.1400352  60.98   0.00143157    2.875    0.652
        67  -9.1636    120.8052    186.7505   9.5955587905e+01   2.0366388100e+01    0.2416117    0.1816821 -72.13   0.00101848    1.681    0.405
        68  -9.8381    108.8521    185.5292   9.8535268033e+01   2.2468604213e+01    0.4370903    0.2224569  62.55  0.001730451    3.179    0.685
        69  -8.9535     34.3821    187.1675   1.1652533659e+02   3.1951350935e+01    0.1755062   0.09601963  80.51 0.0009474466    1.815    0.449
        70  -9.0513    156.3551    187.9241   8.8391554532e+01   1.4428618057e+01    0.2216751    0.1613406  43.44   0.00106848    1.316    0.240
        71  -9.3404    197.5036    181.9943   7.9345336737e+01   8.7279417231e+00    0.1759746    0.1459033  -6.79 0.0006059952    1.121    0.108
        72 -11.0621     13.5552    183.1381   1.2123568327e+02   3.4809614771e+01    0.7022538    0.3662392  38.05   0.00293818    1.619    0.382
        73 -10.0006    210.9221    183.2119   7.7176545152e+01   6.4981655439e+00    0.3934951    0.2401508   8.58  0.002159054    1.833    0.454
        74  -8.5637     66.3312    185.6325   1.0870491449e+02   2.8528598314e+01    0.1423899   0.07923275  61.11 0.0007033526    1.822    0.451
        75  -8.7769     74.6327    184.3112   1.0655277736e+02   2.7703047019e+01    0.2126391    0.1271337  61.82  0.001095027    1.721    0.419
        76  -9.1317    174.3724    183.2476   8.3959246373e+01   1.2244362005e+01    0.1662658    0.1210615 -49.38 0.0008621061    1.722    0.419
        77  -9.9633    148.0384    181.4658   8.9101641432e+01   1.6882142380e+01    0.2180429    0.1887248 -79.44 0.0007176872    1.542    0.351
        78  -9.0374     44.4008    182.3017   1.1375435884e+02   3.1891642842e+01    0.1733466    0.1041164  82.86 0.0009469119    1.687    0.407
        79  -8.8162    183.2067    181.1274   8.1869687608e+01   1.1134195782e+01     0.162826    0.1453393  41.07  0.001052552    1.295    0.228
        80  -8.3935    156.9742    181.0076   8.7125370143e+01   1.5473512893e+01    0.1543787    0.1377248  20.23 0.0003640044    1.035    0.034
        81 -10.2675    204.7948    176.0797   7.6975491848e+01   8.4149167038e+00    0.3044758    0.2244616 -19.33 0.0009822282    1.299    0.230
        82  -8.9650     88.7898    177.2603   1.0224873571e+02   2.7163384043e+01    0.2464157    0.1461093  40.34 0.0008589954    1.460    0.315
        83 -10.2960     77.3311    176.1401   1.0495853882e+02   2.9045525971e+01    0.4188265    0.2238347  54.72  0.001617411    1.852    0.460
        84  -9.0687     60.1752    177.0957   1.0937110656e+02   3.1124807342e+01    0.2706993    0.1237251  53.88  0.001231435    2.102    0.524
        85 -10.0664     12.8443    175.1372   1.2102915036e+02   3.6583389259e+01    0.4797172    0.1467134 -77.73  0.002093152    3.009    0.668
        86  -9.7850    105.9354    175.4550   9.7810346957e+01   2.4910677529e+01    0.3494674    0.1944195  56.25  0.001374922    2.030    0.507
        87  -9.0352    182.7806    174.8956   8.0844620702e+01   1.2154635477e+01    0.2671423    0.1452243 -17.68  0.001169937    2.687    0.628
        88  -9.5392    149.0721    175.3120   8.7848670263e+01   1.7783211092e+01    0.1996084    0.1563914  33.32   0.00114865    1.133    0.118
        89  -9.1900     23.5838    174.2123   1.1832925722e+02   3.5812198425e+01    0.2730181    0.1080646 -82.95  0.001264382    2.484    0.597
        90  -9.3999      2.7270    173.3025   1.2340837458e+02   3.7807472513e+01    0.3841253    0.1102572  77.14  0.001490014    3.682    0.728
        91  -8.9942      2.7797    167.8090   1.2318307121e+02   3.8999371208e+01    0.1753214    0.1295759 -32.19   0.00109956    1.998    0.499
        92  -8.8348    193.3360    173.0924   7.8512880559e+01   1.0685920171e+01    0.1952942    0.1414322  -8.07 0.0006062677    1.427    0.299
        93  -9.3934    176.8766    169.9606   8.1102759170e+01   1.3925983047e+01    0.3257376    0.1407727 -32.86  0.001363047    2.703    0.630
        94  -9.8994    214.0036    168.0172   7.3881937798e+01   8.0816056953e+00    0.3236552    0.1889393  14.32  0.001434675    2.046    0.511
        95  -9.5579    219.4982    166.1488   7.2603641822e+01   7.4730123233e+00    0.2568666    0.2049401  49.10  0.001605318    1.622    0.383
        96 -10.0479    207.7921    170.3696   7.5396798891e+01   8.7405680375e+00    0.2799946    0.1677747  30.29  0.001223286    1.576    0.365
        97  -9.0331    210.2130    167.0353   7.4349421747e+01   8.8216058433e+00    0.2503067    0.1582891 -29.26 0.0007899221    1.529    0.346
        98  -9.4532    121.9152    169.9240   9.3125327887e+01   2.3403137093e+01    0.2806995    0.2019081  68.67  0.001000992    1.761    0.432
        99  -9.2672     55.1753    169.9090   1.0992366754e+02   3.3322229873e+01    0.3043267    0.1407653  60.64  0.001325142    2.370    0.578
       100  -9.4902    111.8052    166.2666   9.4978804498e+01   2.5827273878e+01    0.3936078     0.195593 -61.97  0.001549756    2.455    0.593
       101  -9.5411     99.6317    166.4989   9.8046379074e+01   2.7757791420e+01     0.397578    0.1764798  51.54   0.00156066    2.457    0.593
       102  -9.9603     79.9256    163.9583   1.0275414161e+02   3.1314985651e+01    0.4605916     0.242257  74.60   0.00179476    3.074    0.675
       103  -9.0423     19.5414    166.0429   1.1885419790e+02   3.7998088552e+01    0.2592936    0.1226617  75.18  0.001277248    2.045    0.511
       104  -9.5720    149.0446    164.4884   8.5943812178e+01   1.9729078136e+01    0.3024651    0.2158377  60.16  0.001397661    1.745    0.427
       105  -9.0545    139.6572    165.3174   8.8204729325e+01   2.1234112221e+01    0.2127812    0.1598467  69.43  0.001079232    1.772    0.436
       106  -8.9798     37.8509    164.7194   1.1397764762e+02   3.6487173005e+01    0.2565338    0.1290615  68.76 0.0008673604    2.063    0.515
       107  -9.1562    159.6361    164.3133   8.3607790085e+01   1.7880070772e+01    0.1347872    0.1066754  70.39 0.0007040204    1.760    0.432
       108  -8.7565     47.4695    163.9833   1.1136011069e+02   3.5577297063e+01    0.1918088   0.09227078  74.44 0.0008095684    2.551    0.608
       109  -8.4083     69.8361    163.2493   1.0532408277e+02   3.2901263843e+01    0.2369105    0.1131145  62.93  0.000937619    2.721    0.632
       110  -9.5018      9.4387    161.2904   1.2120029180e+02   3.9929434528e+01    0.3496423    0.1118029  64.88  0.001404317    3.136    0.681
       111  -9.4563     93.2930    160.6608   9.8789800402e+01   3.0011818384e+01    0.3165887    0.2023184  65.72  0.001504962    1.854    0.461
       112  -8.8796     31.5051    160.4940   1.1531886328e+02   3.8112862507e+01    0.2318421    0.1050139  85.58  0.001029194    2.401    0.584
       113  -8.6387    144.7114    159.4427   8.5983788335e+01   2.1438831829e+01    0.1857254    0.1256162  30.24 0.0007222419    1.453    0.312
       114  -9.7661    105.8384    158.1240   9.5150553322e+01   2.8522541617e+01    0.3651239    0.2080466  57.80  0.001464903    2.070    0.517
       115  -9.2030     22.8255    159.0267   1.1753535800e+02   3.9289500913e+01    0.2943143     0.131537  83.24  0.001170801    2.298    0.565
       116 -10.2740    219.1856    156.1706   7.0734287415e+01   8.8902472104e+00    0.2335614    0.1867541 -18.37 0.0004160585    1.136    0.120
       117 -10.1953    213.4042    155.3122   7.1535095083e+01   9.9603276389e+00     0.254945    0.2286169 -36.23  0.001059484    1.334    0.251
       118  -9.2981    119.8829    155.7378   9.1201307636e+01   2.6612475894e+01    0.2709194    0.1881492  86.74  0.001236922    2.185    0.542
       119  -9.8547     82.2281    155.0561   1.0088790829e+02   3.2961362446e+01    0.3557517    0.2273628  75.25  0.001671416    1.944    0.486
       120  -9.9679     49.5750    154.0621   1.0976302920e+02   3.7615596604e+01    0.5613865    0.2867568 -85.59  0.002559723    2.173    0.540
       121  -9.3910    133.6555    153.3622   8.7411937064e+01   2.4622447831e+01    0.3048278    0.1976013  74.91  0.001244332    2.754    0.637
       122  -9.7690     68.0620    153.5336   1.0455444577e+02   3.5357510478e+01     0.328856    0.1981918  77.89   0.00132375    2.017    0.504
       123  -8.6721     98.7972    151.1906   9.5827432492e+01   3.1199530332e+01    0.2445569    0.1394441  69.56 0.0008519397    2.789    0.641
       124  -8.5586     91.3102    151.6574   9.7909143162e+01   3.2315358556e+01    0.1490141     0.101631  68.31 0.0007045145    1.697    0.411
       125  -9.7775     28.4368    149.4503   1.1525706181e+02   4.0988792129e+01    0.3894404    0.1681988  73.03  0.001627479    2.662    0.624
       126  -9.1034    189.7634    148.3122   7.4364513677e+01   1.5134840000e+01    0.4143227    0.1047216 -40.87  0.001341892    4.026    0.752
       127  -8.5040    229.7643    149.0191   6.7617808226e+01   8.1601621065e+00     0.161229   0.09232347 -29.97 0.0006574485    1.582    0.368
       128  -9.8355     39.5585    147.6111   1.1191478886e+02   4.0281512975e+01    0.4519063    0.1890926  59.50  0.001834047    2.660    0.624
       129  -9.6506     39.6582    141.4552   1.1123618677e+02   4.1746875603e+01    0.3685549      0.20016 -36.01  0.001571311    2.942    0.660
       130  -8.5462    221.0020    148.4884   6.8907424513e+01   9.6632293026e+00    0.1717599   0.09628925  19.56 0.0005852928    2.273    0.560
       131 -10.4015     56.1566    145.3901   1.0686286023e+02   3.8851864263e+01    0.6493468    0.3284034  72.98  0.002570275    2.678    0.627
       132  -9.7015     57.0496    136.7829   1.0544292202e+02   4.0807123875e+01    0.3342155    0.2240664 -32.50  0.001598577    2.109    0.526
       133  -9.7830    149.5051    145.7080   8.2203708454e+01   2.3150292809e+01    0.4390572    0.2996553  81.24  0.001818924    2.785    0.641
       134 -10.0985    107.2984    145.0400   9.2484067333e+01   3.1102963893e+01     0.561924    0.3093103  69.49  0.001936857    3.547    0.718
       135  -9.7509     13.0609    146.0909   1.1935190165e+02   4.3142788233e+01    0.3260049    0.1682958  73.87  0.001273543    1.795    0.443
       136 -11.0449    197.0108    143.2067   7.1954428623e+01   1.4626361990e+01    0.3375749    0.2684967 -19.33 0.0005034994    1.201    0.168
       137  -9.8396     88.1949    143.8624   9.7478011014e+01   3.4583005088e+01     0.351328    0.2156381  75.82  0.001281411    2.319    0.569
       138 -10.0519      2.1495    140.5939   1.2212776700e+02   4.5242312829e+01    0.4586438    0.1524486  83.27  0.001849951    2.988    0.665
       139  -9.4664     69.5063    140.5009   1.0228482306e+02   3.8213217487e+01    0.3585247     0.208311  89.95  0.001548402    2.228    0.551
       140  -9.9986     68.5460    134.9840   1.0171008938e+02   3.9671747129e+01      0.39611    0.2688952 -45.65   0.00196141    1.690    0.408
       141  -9.2562    125.3673    143.2877   8.7483841540e+01   2.8203703692e+01    0.3613514    0.2377048  85.94  0.001445556    2.765    0.638
       142 -10.1036     23.1546    137.8818   1.1580351096e+02   4.4248422722e+01    0.4998672    0.2069977  64.94  0.002071714    2.664    0.625
       143 -10.0786     22.6594    131.5174   1.1538730160e+02   4.5841558060e+01    0.4634947    0.2007385 -45.43  0.001907156    3.089    0.676
       144  -9.3210    107.4212    137.8817   9.1092260248e+01   3.2660942045e+01    0.2795979    0.1960526  -3.78   0.00119432    2.365    0.577
       145 -10.0748     38.8374    135.9512   1.1086989932e+02   4.3172986328e+01    0.3341994    0.1999783  80.21   0.00106488    1.737    0.424
       146  -9.3295     40.2067    130.7874   1.0983609705e+02   4.4292140433e+01    0.4103405    0.2223719 -24.42  0.001543698    3.799    0.737
       147  -8.9573    113.1751    133.7675   8.8717731565e+01   3.2517992369e+01    0.2513348    0.1550147  73.88 0.0009456043    2.784    0.641
       148  -9.4505    132.7321    132.2642   8.3344577260e+01   2.9081835356e+01    0.3301955    0.2231787 -82.14  0.001353141    2.501    0.600
       149 -10.2939     83.6832    131.9904   9.6687401427e+01   3.8078018891e+01    0.4535596    0.3010225  69.77  0.001264336    1.828    0.453
       150  -8.4684    143.3171    131.6876   8.0647677773e+01   2.7093370260e+01    0.1458401    0.1171023  82.69 0.0003278797    1.643    0.391
       151 -10.1718     12.5951    129.0246   1.1829489410e+02   4.7271654750e+01    0.4983103    0.2103713  71.33  0.002147009    2.500    0.600
       152 -10.2091     13.5380    121.0776   1.1735433149e+02   4.9152004319e+01    0.5268108    0.1902841 -51.28  0.002116653    3.094    0.677
       153  -8.7631    153.3835    130.1586   7.7973442325e+01   2.5362358278e+01     0.206579    0.1360976 -54.07 0.0009429475    1.752    0.429
       154  -9.9706     99.3204    128.1215   9.1391245311e+01   3.6319085558e+01    0.4638832    0.3049277  82.93  0.001654134    2.287    0.563
       155 -10.3869     73.1682    127.9226   9.9120513817e+01   4.0696077694e+01    0.6334189    0.2692046 -64.15  0.002090374    2.436    0.589
       156 -10.5231     59.5277    124.1926   1.0276019238e+02   4.3563438417e+01    0.6803811    0.3510262  80.79  0.002472381    3.160    0.684
       157  -9.4764    118.2090    125.5392   8.5607822484e+01   3.3362294687e+01    0.4362521     0.250948  65.96  0.001596458    2.811    0.644
       158 -10.9312     43.2579    120.8491   1.0754088695e+02   4.6422239167e+01      1.16667     0.481813 -89.44  0.003794106    3.972    0.748
       159  -9.5328     84.3333    122.7571   9.4729222417e+01   4.0166209298e+01    0.4424964    0.2813568 -27.11  0.001816746    2.489    0.598
       160 -10.8083     28.1590    121.7923   1.1264180334e+02   4.7748944745e+01    0.8606748    0.3169266  68.16  0.002701457    4.547    0.780
       161  -9.6560    142.1544    119.9210   7.8214967196e+01   2.9686871527e+01    0.4091301    0.2419451 -62.48  0.001518895    2.420    0.587
       162  -9.5390     99.0612    120.1293   8.9774088575e+01   3.8208338732e+01    0.3281208    0.2295052 -13.61  0.001376315    2.336    0.572
       163  -9.7542     71.0443    120.0292   9.8345800394e+01   4.2938298431e+01    0.3834462    0.2301877  80.31  0.001350541    2.397    0.583
       164  -9.4145    131.0255    118.7395   8.0688446755e+01   3.2243474206e+01    0.3154378    0.1963844 -73.55  0.001176256    2.783    0.641
       165 -10.1882      2.7764    116.4525   1.2051498617e+02   5.1013975015e+01    0.6122031    0.2037752  78.32  0.002271172    3.392    0.705
       166  -9.7029      2.3124    110.3288   1.2024065472e+02   5.2548824643e+01    0.2942887    0.1571764 -51.13  0.001510514    1.983    0.496
       167  -9.4955    109.5521    114.4234   8.5443547851e+01   3.7519112094e+01    0.3402307    0.2396278  86.99  0.001452937    2.067    0.516
       168 -10.2780     79.6828    113.3569   9.4246484170e+01   4.3196400372e+01    0.5710244    0.3453186  75.44  0.002200909    2.571    0.611
       169  -9.5428     58.9482    114.6042   1.0130221750e+02   4.6022042597e+01    0.2812412    0.1968924   0.68   0.00130479    2.101    0.524
       170  -9.9508     92.8879    112.8255   8.9991592501e+01   4.1035776824e+01    0.4391905    0.3058898  85.82  0.001490842    1.969    0.492
       171  -8.6855    122.4470    112.9629   8.1530798559e+01   3.5242599849e+01    0.2101145    0.1338702 -73.15 0.0006325287    2.435    0.589
       172 -10.6170     66.6046    110.7169   9.7992302733e+01   4.5895753730e+01    0.4957833     0.293257  88.12  0.001992635    2.448    0.592
       173  -9.4710     66.3884    105.7862   9.7053622337e+01   4.7147460221e+01    0.3136622    0.2036575  12.23  0.001361176    2.204    0.546
       174 -10.9603     14.4057    109.1430   1.1595582596e+02   5.2060398723e+01    0.6262257    0.3104003 -76.70  0.002920242    1.760    0.432
       175  -9.6037    133.5278    106.4837   7.7004129311e+01   3.4263552296e+01     0.287046    0.1510674 -40.27 0.0008314596    1.978    0.494
       176  -8.9651     59.3163    109.6538   1.0025934534e+02   4.7206210705e+01    0.2022387    0.1353783  50.36 0.0006779192    1.518    0.341
       177  -9.8559     60.7842    106.3862   9.9113721151e+01   4.7815720854e+01    0.3055471    0.2221405  -5.88  0.001439088    1.992    0.498
       178  -9.1767    109.1865    107.0086   8.3738947025e+01   3.9255410216e+01    0.2547417    0.1783574 -22.00  0.001084517    2.014    0.503
       179 -11.1818     45.8527    102.5549   1.0370210206e+02   5.0729122857e+01     0.885735    0.4069983  65.95  0.002943969    3.831    0.739
       180 -10.3384     44.3262     92.6813   1.0239496762e+02   5.3404151731e+01    0.4844322    0.3117239 -14.00   0.00195893    2.373    0.579
       181 -11.1489     22.7582    102.3834   1.1217532979e+02   5.3113517729e+01    0.8300568    0.3445553  66.93  0.003024567    3.411    0.707
       182 -10.3450     21.1887     92.8046   1.1146987884e+02   5.5669870024e+01      0.54293    0.2269853 -41.28  0.002148854    2.984    0.665
       183  -8.6595    139.7807    105.1682   7.5105629059e+01   3.3166607528e+01    0.2518173    0.1676555 -86.06 0.0009361458    2.771    0.639
       184  -9.7566     93.8738    104.1311   8.7624662195e+01   4.2891207989e+01     0.439622    0.2844064  18.69  0.001801197    2.236    0.553
       185  -8.7810    150.3780    104.1338   7.2327177429e+01   3.1026008233e+01     0.222143    0.1365581 -52.06 0.0009393994    1.802    0.445
       186 -10.1062      6.6763    102.6437   1.1808642678e+02   5.4202418623e+01    0.4193025    0.1909819  86.46  0.001872121    2.134    0.531
       187 -10.3881      5.0032     91.6552   1.1766963119e+02   5.7049743537e+01      0.45034    0.1949617  66.46   0.00192677    2.627    0.619
       188 -10.7663      7.9242     83.4608   1.1559007792e+02   5.8941957466e+01    0.6396513    0.3662705 -49.19  0.001756212    1.711    0.415
       189  -8.9206    128.6384    102.3155   7.7168484845e+01   3.6189912388e+01    0.1599829    0.1220314  86.67 0.0007042045    1.760    0.432
       190 -10.1923    112.8052    101.5624   8.1297047752e+01   3.9725333383e+01     0.378458    0.2607635  66.83  0.001519185    1.822    0.451
       191  -9.8159    108.3510     98.6331   8.1809635622e+01   4.1294334944e+01    0.3754164    0.2842786  78.92 0.0008381556    1.691    0.409
       192  -9.4039     82.4263    100.4366   9.0405165140e+01   4.5840963358e+01     0.337951    0.2172032  75.84 0.0009921255    2.352    0.575
       193 -10.5908     63.8335     96.0147   9.5805553258e+01   4.9946059784e+01    0.6236106    0.3698089  87.34  0.002205519    2.683    0.627
       194 -10.2151     65.3060     87.1152   9.3103173985e+01   5.1901564983e+01     0.611124    0.3626934   7.75  0.002267572    3.121    0.680
       195  -9.0233    129.6199     97.6824   7.5663056145e+01   3.6935508005e+01    0.1616652    0.1225477   9.12 8.087617e-05    1.818    0.450
       196  -9.3728     95.1838     97.1217   8.5423644787e+01   4.4267829412e+01    0.2791537    0.2240813  61.70 0.0007557921    1.329    0.248
       197  -9.2378    124.5510     91.1696   7.5177964725e+01   3.9409494283e+01    0.3562846    0.2434369  79.61  0.001436565    2.212    0.548
       198  -9.0747    108.0430     92.0379   8.0087729319e+01   4.2814426594e+01    0.4633547    0.2121803  31.21  0.001463755    3.341    0.701
       199 -10.2658     34.6941     89.5697   1.0558047921e+02   5.5257530320e+01     0.546492    0.2804904 -88.68  0.001965072    2.494    0.599
       200  -9.9001     35.8186     82.1363   1.0366202511e+02   5.7014740925e+01    0.5034307    0.2461525 -37.10  0.002032163    2.642    0.622
       201  -8.7819     96.3993     90.8307   8.3329540987e+01   4.5467816908e+01    0.2271646    0.1397069 -38.65   0.00095103    1.796    0.443
       202 -10.0383     86.6641     86.8054   8.5393395585e+01   4.8277662560e+01    0.4853081    0.3213594  81.80  0.001675684    2.470    0.595
       203  -8.8237     19.4827     86.3040   1.1120025627e+02   5.7449983021e+01    0.2915418    0.1221774 -79.61  0.001194057    2.366    0.577
       204 -10.4516     48.3212     84.1278   9.8969352988e+01   5.5054357053e+01    0.5411111    0.3335505  77.56  0.002197704    2.310    0.567
       205 -10.0236     49.5511     77.0088   9.6722475766e+01   5.6650729506e+01    0.3634527    0.2483582  -6.58  0.001676505    2.101    0.524
       206  -9.8700    105.4863     84.0606   7.8537844227e+01   4.5093536169e+01    0.5035595    0.3175856  77.12  0.001826659    2.825    0.646
       207 -10.3331     24.5347     80.6424   1.0814776240e+02   5.8470287794e+01    0.4846196    0.2638453  77.98  0.001731525    2.367    0.578
       208 -10.1368     27.2444     71.6864   1.0519594916e+02   6.0474232077e+01     0.899411    0.3527376 -29.91  0.002561383    5.892    0.830
       209  -9.6399     87.7305     80.3618   8.3149506769e+01   4.9544035782e+01    0.6461402    0.2736332  27.94  0.001766218    4.780    0.791
       210  -9.1486     74.6239     80.9026   8.7954244329e+01   5.1843692583e+01    0.2846416    0.1843558 -69.73 0.0009441936    1.855    0.461
       211  -9.2656     61.6894     76.7344   9.1705656680e+01   5.4967438694e+01    0.4307876    0.1777777 -61.19  0.001548232    2.637    0.621
       212  -8.6552    127.6848     75.3721   6.9605416623e+01   4.1851594585e+01    0.1642576    0.1212628 -75.90 0.0007033694    1.788    0.441
       213 -10.0188     82.7418     73.2963   8.2703252092e+01   5.2094868750e+01    0.4451327    0.2968364 -84.02  0.001513225    2.486    0.598
       214  -9.2210      9.8929     74.8716   1.1359984415e+02   6.0980851493e+01    0.1958704    0.1541766 -52.04 0.0004299081    1.215    0.177
       215  -9.5129     42.4103     72.2160   9.8538952297e+01   5.8731045302e+01    0.3336328     0.138052 -72.12  0.001144489    3.232    0.691
       216  -8.6551     43.3457     68.3092   9.7089890612e+01   5.9566807958e+01    0.2447311     0.114607 -52.78 0.0008674727    1.920    0.479
       217  -9.9725      5.6562     70.2011   1.1484756603e+02   6.2379960164e+01    0.5514082     0.197289 -73.22  0.002335757    2.314    0.568
       218  -9.5508      9.4229     65.7952   1.1240429261e+02   6.3268413849e+01    0.3590048    0.1211161 -64.84  0.001500793    2.293    0.564
       219  -9.0982    105.9835     72.2074   7.4670285969e+01   4.7486173946e+01    0.2510421    0.1793293  80.18  0.000675727    1.977    0.494
       220  -9.1248     95.4974     71.5197   7.7754939754e+01   4.9905450274e+01    0.3513807    0.2114173 -71.28  0.001254496    2.883    0.653
       221 -10.1866     51.4173     69.6147   9.3918469560e+01   5.8185768810e+01     0.523232    0.2850315 -76.29  0.002029401    2.688    0.628
       222  -9.6492     16.4783     69.2833   1.0967984628e+02   6.1947791445e+01    0.4893404      0.19399 -74.18  0.001818963    2.358    0.576
       223  -9.2763     18.0274     62.4860   1.0759697121e+02   6.3517054929e+01    0.3490176    0.1723788 -44.94  0.001538047    1.952    0.488
       224  -8.7213      1.3235     69.3202   1.1672304412e+02   6.2804009947e+01     0.135389   0.07719807 -47.35 0.0006457427    1.675    0.403
       225  -9.5069     83.2642     64.9380   7.9742543725e+01   5.3819709022e+01    0.3780292    0.2478845  -7.22  0.001427281    2.825    0.646
       226  -9.7010     37.2559     63.8933   9.8667970250e+01   6.1360045179e+01    0.4817493    0.2425529 -76.30  0.001916707    2.626    0.619
       227  -9.1671     39.0283     58.4708   9.6266283748e+01   6.2447139277e+01     0.268343    0.1717911 -38.45 0.0009986951    1.607    0.378
       228  -8.8002    110.9356     64.4615   7.0592978575e+01   4.7903203943e+01    0.2197675    0.1373133  76.17 0.0008086962    2.554    0.608
       229  -9.1392    100.9703     61.2168   7.2458706377e+01   5.0818546237e+01    0.3180346    0.1854698 -63.41  0.001172015    2.599    0.615
       230  -9.7653     73.3417     59.8063   8.1665034198e+01   5.6835416897e+01    0.4369163     0.253162 -56.08  0.001297101    1.880    0.468
       231  -9.4843     24.7070     59.1672   1.0351200355e+02   6.3780648690e+01    0.2996717    0.1920923  65.70  0.001436654    2.035    0.509
       232  -9.1446     25.7823     55.1969   1.0193143748e+02   6.4639356669e+01     0.316442    0.1731018 -36.49  0.001219482    1.978    0.494
       233 -10.4278      7.3703     57.4004   1.1195960919e+02   6.5448344438e+01    0.3804264    0.2517329  76.87  0.001781617    1.684    0.406
       234 -10.0357      7.5260     51.9759   1.1083436603e+02   6.6758449144e+01    0.5620995    0.0709817 -51.61  0.001761222    4.385    0.772
       235  -8.6129    119.6492     56.3095   6.5321035485e+01   4.7329447056e+01    0.1601363     0.120258 -78.40 0.0007044313    1.716    0.417
       236  -9.6291     54.1766     53.6646   8.7547325589e+01   6.1462097219e+01     0.599881    0.2620248 -65.86  0.001834399    4.341    0.770
       237  -9.0959     44.9216     44.6532   8.8606911889e+01   6.4813684234e+01    0.3158905    0.1899155 -70.05 0.0009474623    2.349    0.574
       238  -9.2957     43.9148     55.0576   9.2833908660e+01   6.2625037662e+01    0.3564191    0.1948804 -71.20  0.001471457    2.439    0.590
       239  -9.5521     45.4164     49.4779   9.0170212930e+01   6.3683838367e+01    0.4117969    0.2163238 -26.20  0.001548656    3.070    0.674
       240  -9.4262    100.5023     54.4099   7.0114431821e+01   5.2231529354e+01    0.2512709    0.2450223  21.43 0.0001218252    1.037    0.036
       241  -9.0964     62.8509     55.1002   8.4245738547e+01   5.9731015469e+01    0.2220503    0.1962662 -82.98 0.0007898415    1.311    0.237
       242  -9.5725     31.6559     52.1815   9.8026422286e+01   6.4765533565e+01    0.4416253    0.2506872  53.23  0.001766033    2.374    0.579
       243  -8.9862     20.4823     52.9844   1.0411428208e+02   6.5633277187e+01     0.202445    0.1190182 -68.09 0.0006256535    1.572    0.364
       244  -9.2697     92.7527     51.2926   7.1420681967e+01   5.4569173944e+01    0.3565097    0.1936381 -54.30  0.001386016    2.278    0.561
       245  -9.1416     74.7962     50.8024   7.7718788759e+01   5.8433822554e+01    0.2503022    0.1620684  -2.63 0.0009520132    2.828    0.646
       246  -9.1665     63.2615     47.8540   8.1296592995e+01   6.1193746998e+01    0.2825553    0.1911878   8.29  0.001246899    2.154    0.536
       247  -9.4146     22.4502     47.1481   1.0142844717e+02   6.6848284071e+01     0.341827    0.2072228  -1.13  0.001694542    2.089    0.521
       248  -9.6430     16.7995     44.0631   1.0372209434e+02   6.8039199369e+01    0.5943644    0.2404849 -68.03  0.002526931    2.369    0.578
       249  -8.8273     82.1495     47.1873   7.3489496375e+01   5.7644778364e+01    0.2026238    0.1759922 -72.73 0.0005298159    1.347    0.257
       250 -10.1718      5.0590     41.3540   1.0993022522e+02   6.9424027039e+01    0.5407691    0.2208636 -83.12  0.002190075    3.000    0.667
       251  -9.3916      6.0416     34.0344   1.0744744260e+02   7.1077326759e+01    0.3054318    0.1358151 -42.77  0.001232234    2.004    0.501
       252  -9.1518     58.0738     42.5728   8.1440719357e+01   6.3181029951e+01     0.299006    0.1785085 -64.90  0.001236999    2.489    0.598
       253  -9.2666     69.4028     41.6197   7.6110360868e+01   6.1290977748e+01     0.300635    0.2287766  86.15  0.001232836    1.999    0.500
       254  -8.7087    113.9213     41.4846   6.1290277939e+01   5.1242183277e+01    0.2194878     0.143892  54.10 0.0003861508    1.475    0.322
       255  -9.2809     37.1272     40.9509   9.1230935218e+01   6.6669504148e+01    0.2698349    0.1942492  75.61   0.00113013    2.168    0.539
       256  -9.1738     83.9693     39.8590   6.9765508707e+01   5.8595516842e+01    0.2225422    0.1912132  15.37 0.0004208458    1.254    0.203
       257  -8.8709     95.8031     38.7958   6.5369321731e+01   5.6084789615e+01    0.2053601    0.1761389 -69.89  0.001060382    1.345    0.257
       258  -8.8879    106.0605     36.7539   6.1502452626e+01   5.3938013461e+01    0.2063507    0.1914872  54.23 0.0003407687    1.050    0.047
       259  -9.1434     26.2591     36.6116   9.5712811314e+01   6.8882209104e+01    0.2404878    0.1523034 -67.80  0.000916657    1.737    0.424
       260  -8.8999    111.8555     35.2488   5.9341268726e+01   5.2721261585e+01    0.2549205    0.1515942 -69.31 0.0006989552    2.767    0.639
       261  -8.6949    119.6149     33.7772   5.6847921475e+01   5.0957407275e+01    0.2118426    0.1337073 -41.81 0.0006807831    1.623    0.384
       262  -9.1462    222.4934     32.9469   4.1570059827e+01   2.5220389709e+01     0.198781    0.1129456 -32.85  0.000520975    1.536    0.349
       263  -8.7984     60.9174     32.9604   7.5862098696e+01   6.4527581203e+01    0.2156087    0.1765919 -87.67 0.0008417145    1.744    0.426
       264  -9.1264     49.9165     33.0044   8.1118566680e+01   6.6447617914e+01    0.2102477     0.173018 -88.78  0.001122746    1.748    0.428
       265  -9.5435     12.8089     30.7781   1.0200467585e+02   7.1380507388e+01    0.3139742    0.1692708 -73.68  0.001351904    2.096    0.523
       266  -9.1542     72.3926     31.2719   7.0218848084e+01   6.2555756441e+01    0.2046714    0.1294751 -46.96 0.0007613432    1.712    0.416
       267  -9.3537     27.3028     29.3880   9.2154482065e+01   7.0325835745e+01    0.4429003   0.08299681 -43.76  0.001196472    5.651    0.823
       268  -9.6211    148.0124     28.3566   4.9218193756e+01   4.4213027500e+01    0.2308594    0.1755391 -31.19  0.001160599    1.343    0.255
       269  -9.1272     81.4198     27.9156   6.5257967233e+01   6.1141026118e+01    0.2784617     0.177932 -81.32  0.001027725    3.316    0.698
       270  -9.7325      3.5428     27.0291   1.0707818073e+02   7.2804041531e+01    0.4007136     0.256181 -66.62  0.002335549    1.402    0.287
       271  -8.8699     91.6781     26.6519   6.1294182831e+01   5.8949788634e+01    0.2946003     0.153724 -50.76  0.001027038    2.455    0.593
       272  -8.6816    118.2505     24.9574   5.3607826906e+01   5.2507105652e+01    0.1823274    0.1260964 -29.60 0.0003946433    1.498    0.332
       273  -8.7882    110.3685     24.8139   5.5369859671e+01   5.4563721396e+01    0.2006174    0.1415534 -11.04 0.0004436936    1.666    0.400
       274  -8.5320     44.1587     25.6358   8.0536549220e+01   6.8774485827e+01    0.1780725     0.121377  23.22 0.0003693947    1.590    0.371
       275  -8.2247     58.5695     22.4753   7.1681055009e+01   6.6792347826e+01    0.1377078    0.1250748   0.65 1.964639e-05    1.038    0.036
       276  -8.9967     48.5307     21.7340   7.6172742320e+01   6.8750761894e+01    0.1772672      0.12546 -48.91 0.0004856102    1.554    0.357
       277  -9.6045     12.9152     21.3538   9.8306752448e+01   7.3425811347e+01    0.2364247    0.2026448  -1.39 0.0008189934    1.204    0.169
       278  -9.8843    188.4843     20.9472   4.1545986833e+01   3.4591301512e+01    0.2076491    0.1301366 -28.46 0.0008486892    1.564    0.361
       279  -9.1852     63.3993     20.7673   6.8634626960e+01   6.6110053661e+01    0.2743766    0.1924742 -55.44 0.0009674313    1.843    0.457
       280  -9.0791     40.5979     20.6808   7.9910066011e+01   7.0240438839e+01    0.2840352    0.1872205 -57.58 0.0005234493    1.952    0.488
       281  -8.9306     74.0070     19.9718   6.3989674685e+01   6.3979511652e+01     0.222441     0.173419 -71.49  0.001071422    1.768    0.434
       282  -9.6288     29.5074     17.9506   8.5168397305e+01   7.2337982341e+01    0.3471666    0.2518422  14.30  0.001095464    1.452    0.312
       283  -9.1520    214.3732    249.7033   8.6728244710e+01  -1.6866109595e+00   0.09379267   0.07127044  39.01 0.0007027306    1.740    0.425
       284  -8.4959     50.5041     15.5176   7.1681271233e+01   6.9423633731e+01    0.1369307    0.1187599   3.84  0.000808796    1.091    0.083
       285  -9.6104    195.4321    248.9201   8.9764129598e+01   6.7590557156e-01    0.2786467    0.1329188  18.74  0.001584131    2.117    0.528
       286  -8.5336     83.3287     10.6674   5.5998537248e+01   6.3035105450e+01     0.142667    0.1067856 -65.37 0.0007051807    1.718    0.418
