#   1 NUMBER                 Running object number                                     
#   2 MAG_AUTO               Kron-like elliptical aperture magnitude                    [mag]
#   3 X_IMAGE                Object position along x                                    [pixel]
#   4 Y_IMAGE                Object position along y                                    [pixel]
#   5 X_WORLD                Barycenter position along world x axis                     [deg]
#   6 Y_WORLD                Barycenter position along world y axis                     [deg]
#   7 A_WORLD                Profile RMS along major axis (world units)                 [deg]
#   8 B_WORLD                Profile RMS along minor axis (world units)                 [deg]
#   9 THETA_WORLD            Position angle (CCW/world-x)                               [deg]
#  10 FWHM_WORLD             FWHM assuming a gaussian core                              [deg]
#  11 ELONGATION             A_IMAGE/B_IMAGE                                           
#  12 ELLIPTICITY            1 - B_IMAGE/A_IMAGE                                       
         1  -8.2723     97.1244     14.8865   4.8061769847e+01   5.7345621116e+01    0.2134237    0.1395939 -33.08 0.0008515384    1.748    0.428
         2  -8.6112     55.6823     10.0229   5.8511025447e+01   6.6102093694e+01    0.1808284    0.1644956  59.96 0.0005928906    1.482    0.325
         3  -7.9953     47.5577     10.0467   6.1684173970e+01   6.7497680915e+01    0.1644304    0.1087686 -24.15 0.0009000144    1.579    0.367
         4  -8.4812     90.9599      8.7768   4.7272460659e+01   5.9235406297e+01    0.2042544    0.1529861 -40.44 0.0007016032    1.625    0.384
         5  -8.2923      5.6859      8.3049   8.2134172716e+01   7.3196228096e+01   0.09279244   0.08446259  17.47  0.000296753    1.620    0.383
         6  -8.6087     33.5245      5.3177   6.5509418279e+01   7.0206541025e+01    0.2355162    0.1731111 -56.17   0.00134802    2.906    0.656
         7  -8.4658     79.0165      3.7410   4.8354062537e+01   6.2168088629e+01    0.2222572    0.1447024 -43.98  0.001278131    2.040    0.510
         8  -8.2105     27.8839      9.8152   7.0512211350e+01   7.0487730090e+01    0.1430109    0.1261878  -0.37 0.0004881459    1.319    0.242
         9  -7.4560    115.6448      2.3294   3.9842853900e+01   5.4279701432e+01    0.1263237   0.08735897 -73.91 0.0007045373    1.780    0.438
        10  -7.8963     15.6952      2.6955   7.3354889897e+01   7.2876156287e+01     0.115518   0.06870563   0.45 0.0003415287    1.600    0.375
        11  -8.3606     62.4254      1.4435   5.2268228139e+01   6.5644154651e+01    0.1880522    0.1074294  63.21 0.0006072061    2.076    0.518
        12  -9.2316    210.8894    246.2402   7.9424638472e+01  -6.8221237095e+00    0.2492152     0.161832 -46.66  0.001051145    1.974    0.493
        13  -8.8266    247.8577    234.7278   7.0867525137e+01  -9.6607958061e+00    0.2129801    0.1713446 -50.74  0.001386731    2.033    0.508
        14 -10.0985    248.5224    242.1410   7.1981149643e+01  -1.0746945516e+01    0.3829353    0.1821658 -39.59  0.001425113    2.111    0.526
        15  -8.6207     94.0600    249.3049   1.0407857094e+02   9.2369179212e+00    0.2982246    0.1763979  70.20  0.001400485    2.263    0.558
        16  -9.6650    147.1165    246.0020   9.2288311623e+01   2.1264289934e+00    0.2745201    0.2212371  77.78  0.001292514    1.802    0.445
        17  -8.7389     67.6361    245.1953   1.0928673220e+02   1.3635287842e+01    0.2904994    0.1482009 -87.27  0.001357431    2.592    0.614
        18  -8.8392      9.7839    243.9662   1.2088073948e+02   2.0531567901e+01    0.3349754   0.09532982  77.61 0.0009621286    7.258    0.862
        19  -8.5863    201.9294    243.3098   8.0673691461e+01  -5.2125001670e+00    0.1912318    0.1567544 -34.40 0.0006337469    1.388    0.280
        20  -9.1342    169.0637    243.3093   8.7281376187e+01  -6.2490463891e-01    0.2077228    0.1884443 -44.81  0.000444537    1.354    0.261
        21  -9.3192     77.7325    243.1654   1.0693756445e+02   1.2703632021e+01    0.3226329    0.1804974  67.16  0.001394427    2.146    0.534
        22  -7.7672     58.3375    244.6526   1.1119430004e+02   1.4937233157e+01    0.1374793   0.07593317  61.60 -0.000134344    1.781    0.439
        23  -7.6690     34.6409    244.2987   1.1603300810e+02   1.7839821477e+01    0.1321753   0.06850377  59.42  0.000646396    1.710    0.415
        24  -8.7246     88.1106    242.1852   1.0458981462e+02   1.1472201607e+01    0.2579619     0.158883 -81.80 0.0006643162    2.030    0.507
        25  -9.3378    183.1078    239.9358   8.3874788234e+01  -2.0826588189e+00    0.3939328    0.2873994  60.93  0.001924213    2.326    0.570
        26  -9.4838    159.9516    240.0407   8.8697144651e+01   1.2725344124e+00    0.3394081    0.2642337 -84.17  0.001420346    2.133    0.531
        27  -7.8300    153.4945    242.0119   9.0359696608e+01   1.8853198675e+00    0.1627273     0.118328 -87.33 0.0008099094    2.508    0.601
        28  -8.0613    214.0054    241.0181   7.7992802392e+01  -6.4498980668e+00    0.1493923    0.1181293 -10.91 0.0005185792    1.093    0.085
        29  -9.3268    241.5028    238.1400   7.2530106695e+01  -9.4043581834e+00    0.4773801     0.199396 -19.91  0.002013505    3.381    0.704
        30  -9.0405    194.0598    239.5981   8.1622106428e+01  -3.5651390374e+00    0.1864494    0.1671222 -20.62 0.0005735284    1.250    0.200
        31  -9.3998    120.2171    245.3962   9.7986127628e+01   6.2143073369e+00    0.4038967    0.2588032  75.97  0.001927219    2.561    0.609
        32  -9.2800    135.6733    239.0754   9.3779795522e+01   5.0923400824e+00    0.2698144    0.1640194  47.87  0.001141129    1.690    0.408
        33  -8.4071    129.0945    238.6785   9.5164395510e+01   6.1603013868e+00    0.2165139    0.1446411  46.98  0.001050947    1.461    0.315
        34  -9.4288    231.1238    236.2093   7.4044964514e+01  -7.8940748057e+00    0.4020333    0.2127449 -33.75  0.001584984    1.727    0.421
        35  -8.2707    208.8467    238.0392   7.8485348587e+01  -5.3257097020e+00    0.1706466    0.1450115 -63.51 0.0007284684    1.964    0.491
        36  -7.9832     57.7808    237.0085   1.1064196327e+02   1.6590058873e+01    0.1939583    0.1051998  50.40 0.0008589622    1.613    0.380
        37  -8.3385     13.9428    238.0000   1.1975404888e+02   2.1344122949e+01    0.1760061   0.05955512  30.61 0.0007973909    2.908    0.656
        38  -9.8487    214.7433    233.1522   7.6552711766e+01  -5.3555978431e+00    0.4684455    0.3744201 -89.54  0.002462854    3.138    0.681
        39  -8.8306    203.0766    234.7159   7.9052060238e+01  -4.0313448178e+00    0.2419601    0.1758213 -53.44 0.0008642959    1.949    0.487
        40  -9.9258    175.6350    233.1909   8.4336605928e+01   1.3676284385e-01    0.4948821    0.2565448 -56.10  0.002209249    2.817    0.645
        41  -9.5566    108.8613    234.4327   9.9088749282e+01   1.0033086300e+01    0.4478795    0.2366175  52.47  0.001612872    2.050    0.512
        42  -8.6046     99.5763    233.9812   1.0111181455e+02   1.1496708285e+01    0.2949452    0.1846905  77.75  0.001371155    2.279    0.561
        43  -9.0171     78.6159    234.2546   1.0582022088e+02   1.4419932203e+01    0.2803985    0.1763932  83.55  0.001026474    1.942    0.485
        44  -8.2005    122.9125    233.9892   9.5890042374e+01   8.0037846181e+00     0.213899     0.150844  63.92 0.0009056994    1.757    0.431
        45  -9.6164     67.9868    231.4798   1.0788861908e+02   1.6444014266e+01    0.5816121     0.281767  78.14  0.002037684    3.381    0.704
        46  -8.3540    194.3124    232.4576   8.0407001696e+01  -2.4476210284e+00    0.1810273    0.1532123 -57.45 0.0004634956    1.679    0.404
        47  -8.1850    132.9220    232.9927   9.3523767325e+01   6.6675792402e+00    0.2164238    0.1533008  62.72  0.001012415    1.813    0.448
        48  -8.5550     92.7088    232.0865   1.0242584080e+02   1.2886914349e+01    0.3349694    0.1969125  75.55  0.001312803    2.481    0.597
        49  -9.5326    186.4379    230.6822   8.1702174462e+01  -1.0209953192e+00    0.3108249    0.2498976 -78.97  0.001275841    2.220    0.550
        50  -9.2316    236.1738    230.0623   7.2109715335e+01  -7.6176004549e+00     0.406898    0.1724523 -34.70   0.00100143    2.121    0.529
        51  -8.8722      1.6012    230.8040   1.2178695933e+02   2.4029699523e+01    0.2336752    0.1088354  79.08 0.0009795825    1.951    0.487
        52  -9.5421    246.5198    228.5537   7.0055044822e+01  -8.6378431674e+00      0.41392    0.1641905 -34.85  0.001658236    2.200    0.545
        53  -9.9451    149.5366    225.9425   8.8784508701e+01   5.4435830159e+00    0.6370693    0.3969452 -82.51  0.002419019    4.001    0.750
        54  -8.8045    140.0934    230.0640   9.1504845398e+01   6.1254708267e+00    0.2552026    0.1573095  54.71 0.0009722397    2.018    0.504
        55  -8.1877    229.7654    228.9739   7.3069860502e+01  -6.6612204484e+00       0.1669    0.1392262 -54.70  0.001006191    1.894    0.472
        56  -8.9245    162.0620    227.7736   8.6342122117e+01   3.1526660111e+00    0.2483062    0.2204657  78.83  0.001090924    1.547    0.354
        57  -9.0043    127.8889    227.2894   9.3829154329e+01   8.5678870714e+00    0.3369609    0.2218225  61.75  0.001159144    1.985    0.496
        58  -8.3680    120.1798    227.7836   9.5645573381e+01   9.6625238834e+00    0.2319561    0.1357091  67.00 0.0009503976    2.836    0.647
        59  -8.8230    205.9684    225.5324   7.6942567154e+01  -2.9572315751e+00    0.3266292    0.1758503 -52.40   0.00137971    2.654    0.623
        60  -8.1789     49.1897    226.8318   1.1159965445e+02   1.9841490570e+01     0.270207     0.154948  67.79  0.001165321    1.784    0.440
        61  -8.0983    199.8033    226.0593   7.8241391110e+01  -2.1735023001e+00    0.1668086   0.09502169 -40.30 0.0007663392    1.767    0.434
        62  -8.5519    177.2053    225.9361   8.2823761851e+01   1.1707323408e+00    0.2068572    0.1819037   4.62 0.0008896727    1.024    0.024
        63  -8.9089    180.2047    224.1901   8.1905510493e+01   1.0264175655e+00    0.2388603    0.2343305 -59.58  0.000423117    1.337    0.252
        64  -9.0078    104.7496    223.6143   9.8609915582e+01   1.2890102127e+01    0.3554629    0.2320804  78.93  0.001670696    2.172    0.540
        65  -9.0057     94.1310    224.2046   1.0113906294e+02   1.4349586757e+01    0.3891073    0.2047251  61.17  0.001636282    2.502    0.600
        66  -7.5890     72.6498    225.6694   1.0623475384e+02   1.7075074679e+01    0.1286044    0.1022274 -21.88 0.0007048062    1.770    0.435
        67  -8.2422     38.3468    224.6435   1.1378525035e+02   2.1600797471e+01     0.282787     0.128068  67.46  0.001241704    2.543    0.607
        68  -8.9800    216.4249    223.3991   7.4572994036e+01  -4.0549508139e+00     0.220627    0.2123491 -87.97  0.001051555    1.658    0.397
        69  -8.4206    173.0734    223.2080   8.3240140729e+01   2.2897053228e+00    0.2196299    0.1782235 -83.35 0.0006589697    1.997    0.499
        70  -7.9124    114.0983    224.1665   9.6529812328e+01   1.1344641485e+01    0.1897371    0.1490062  58.97 0.0004923088    1.340    0.254
        71  -9.1772    160.4476    221.3983   8.5657867134e+01   4.5924196997e+00    0.5420251    0.2779082  55.55  0.001787049    3.517    0.716
        72  -8.4451    140.4296    222.7072   9.0310975130e+01   7.5099124794e+00    0.2293241    0.1381342 -58.61 0.0006826352    1.992    0.498
        73  -8.5586     59.4229    223.2946   1.0898536704e+02   1.9344948828e+01    0.1794862    0.1154271  89.76 0.0009445804    1.648    0.393
        74  -9.2449    238.8817    221.5961   7.0179520285e+01  -6.6988418999e+00    0.2206589     0.155702 -36.19 0.0007674478    1.415    0.293
        75  -9.4608    225.6139    221.7833   7.2585640091e+01  -5.0290705267e+00    0.2231663    0.2125261  27.01  0.001292567    1.489    0.329
        76  -8.9746      5.7837    220.0663   1.2037131520e+02   2.5956978805e+01    0.2551803    0.1030692  79.34  0.001160899    2.566    0.610
        77  -9.2561    120.4992    219.2121   9.4341399812e+01   1.1383176931e+01    0.4836596    0.2651042  60.34  0.001920838    2.720    0.632
        78  -8.7287     82.4974    220.1731   1.0334120671e+02   1.6914021008e+01    0.3055501    0.1925882  76.12 0.0009500636    1.973    0.493
        79  -8.1271     27.5616    220.7845   1.1582305380e+02   2.3646584514e+01    0.2336605    0.1027655 -69.48  0.001138861    2.121    0.528
        80  -8.6363    202.7394    219.9591   7.6610474598e+01  -1.5768000688e+00    0.2303219    0.1496385 -41.20 0.0008253276    1.579    0.367
        81  -9.4823    248.1654    217.6047   6.7889830786e+01  -7.2432971862e+00    0.3575185    0.2877573 -69.37  0.002100784    2.668    0.625
        82  -8.3797    210.0737    218.8639   7.4991543750e+01  -2.4409995424e+00    0.2129097    0.1525828 -47.43 0.0005817303    1.667    0.400
        83  -9.0208    143.2234    217.1462   8.8800926895e+01   8.1737634962e+00    0.3228527    0.2454568 -81.17  0.001581304    1.889    0.471
        84  -9.3451    132.9291    215.9677   9.0969706365e+01   1.0075910457e+01    0.5112937    0.3221703  74.83  0.002048127    3.062    0.673
        85  -8.3579     62.0046    217.4268   1.0779382826e+02   2.0326312872e+01    0.3070945    0.1609056  67.31  0.001351863    2.322    0.569
        86  -9.0070     51.5516    217.5251   1.1020731093e+02   2.1627921649e+01    0.2854454    0.1744476  72.77 0.0007365595    1.710    0.415
        87  -8.7458    169.0707    215.9114   8.2863083599e+01   4.2645441308e+00    0.2851664    0.1922892 -66.68 0.0008889806    2.325    0.570
        88  -8.3238    111.8061    216.9987   9.6048827456e+01   1.3219069009e+01    0.2261315    0.1557585  77.37  0.001071597    1.998    0.500
        89  -9.2210    232.3988    214.6654   7.0108022084e+01  -4.8096164488e+00    0.3040792     0.192104 -49.13  0.001174001    2.026    0.506
        90  -8.5753     18.5253    216.0114   1.1742989570e+02   2.5643811104e+01    0.1887122    0.1059553 -80.46  0.001003255    1.606    0.378
        91  -8.5227    185.6691    214.3459   7.9075233348e+01   1.9517859420e+00    0.2227322    0.1627085 -52.68 0.0008416838    1.664    0.399
        92  -8.1589    154.6375    215.3207   8.5932861032e+01   6.6927117249e+00    0.2085977    0.1648785  69.12   0.00108736    1.760    0.432
        93  -7.8986     41.6212    215.2955   1.1225926296e+02   2.3321867169e+01    0.1427309   0.07915893  60.43 0.0007022403    1.752    0.429
        94  -8.9527     92.6892    213.7502   1.0012580524e+02   1.6858901506e+01    0.3150368    0.2114561  61.36  0.001330761    1.620    0.383
        95  -8.2851     77.0160    214.3328   1.0392698732e+02   1.8997759582e+01    0.2834588    0.1227151  48.75  0.001164873    2.279    0.561
        96  -9.2261     72.2704    211.2563   1.0468781837e+02   2.0360467869e+01    0.4745682    0.2328888  63.31  0.001758877    2.736    0.635
        97  -9.5671    213.8657    211.8235   7.3015234516e+01  -1.8099107003e+00    0.3943957    0.2865019 -40.10  0.001383043    1.416    0.294
        98  -8.6422    161.7846    212.4568   8.3861485058e+01   6.0962442054e+00    0.2384202     0.189177 -72.16  0.000830626    1.757    0.431
        99  -8.1262    106.4814    212.9214   9.6722538445e+01   1.4938085182e+01     0.197813    0.1396345 -64.55 0.0008964554    1.545    0.353
       100  -9.3236    192.3033    221.1814   7.8906357540e+01  -2.5909968186e-01    0.3024988    0.2475888 -62.22  0.001119352    1.766    0.434
       101  -7.5226    224.6931    212.3548   7.1089201095e+01  -3.4103763871e+00    0.1122565    0.1025915 -67.41 0.0004891828    1.719    0.418
       102  -9.0236    204.2218    210.9374   7.4719891358e+01  -2.5597436358e-01    0.2516834     0.203365 -52.56 0.0007211819    1.583    0.368
       103  -9.5077    175.5876    210.1685   8.0461074671e+01   4.3094986789e+00    0.3900489    0.2817531  67.38  0.001564462    2.361    0.577
       104  -8.4171    192.2795    210.5665   7.7043751373e+01   1.6133417916e+00    0.2271647    0.1599771 -51.63 0.0006833559    1.706    0.414
       105  -8.5890    147.9036    210.4345   8.6631265367e+01   8.7700035748e+00    0.2476333    0.2020695 -79.20 0.0009712236    1.634    0.388
       106  -8.8630    116.3036    210.4223   9.4012182687e+01   1.3934420917e+01    0.3023085    0.1991928  64.29 0.0007855751    1.957    0.489
       107  -9.2907      6.6999    209.4242   1.1954075714e+02   2.8244885462e+01    0.4663468    0.1488963  72.59  0.001555187    4.720    0.788
       108  -9.2022    236.6685    208.5353   6.8258613728e+01  -4.4077975617e+00    0.2784678     0.220677 -53.23  0.001211168    1.787    0.441
       109  -8.2699     32.2316    210.2231   1.1394888130e+02   2.5539967581e+01    0.2034029   0.09197056 -89.21 0.0008763485    2.465    0.594
       110  -8.6243     85.7076    209.6268   1.0125628060e+02   1.8825415754e+01    0.3677733    0.1864015  61.70  0.001380538    2.703    0.630
       111  -8.2652     46.3704    209.2221   1.1059705957e+02   2.4163418100e+01    0.1902041    0.1119902 -89.02 0.0009428521    1.763    0.433
       112  -9.6040    246.3794    207.1449   6.6342126660e+01  -5.4449469650e+00     0.272683    0.1801684 -38.78 0.0008386065    1.449    0.310
       113  -8.3271    139.0102    208.0234   8.8274916714e+01   1.0738732101e+01    0.2204548    0.1702047  67.92 0.0006970915    1.676    0.403
       114 -10.1189    124.2655    206.2086   9.1453674033e+01   1.3563354150e+01     0.313172    0.2229454  62.90  0.001515368    1.722    0.419
       115  -9.3176     99.3015    206.1119   9.7471559859e+01   1.7580637883e+01    0.3938339    0.2591372  80.69   0.00136411    2.092    0.522
       116  -9.0556     11.7153    206.9740   1.1829061806e+02   2.8347576871e+01    0.1780346    0.1376003  87.20 0.0008220766    1.086    0.079
       117  -8.5367     56.4673    205.4535   1.0781211374e+02   2.3805132318e+01    0.3080869    0.1594403  64.74 0.0007111009    2.290    0.563
       118  -8.9668    183.7308    203.9975   7.7622800041e+01   4.1659286654e+00    0.2838148    0.2287515  64.15 0.0008842865    1.798    0.444
       119  -8.7295    131.2878    204.0635   8.9430512275e+01   1.2867587156e+01    0.3378165    0.2335406  81.69    0.0010264    2.334    0.572
       120  -8.1066    109.1600    205.2237   9.4939602941e+01   1.6231310540e+01    0.2038935     0.160844  67.42 0.0007139847    1.412    0.292
       121  -9.3024    194.8310    203.3630   7.5214234365e+01   2.5201585411e+00    0.3595133    0.2430882 -38.98   0.00108858    1.436    0.303
       122  -9.3005    192.3806    197.4940   7.4620813439e+01   3.9928006361e+00    0.3447603    0.2842593 -72.70  0.001205033    1.800    0.444
       123  -9.6109    163.8697    203.1255   8.1759429011e+01   7.5960568427e+00    0.4380199    0.2799695  56.22  0.001085304    2.162    0.538
       124  -9.5978    250.1110    201.6083   6.4725058579e+01  -5.0638735812e+00    0.4402629    0.1665406 -40.58  0.001688736    2.320    0.569
       125  -9.4475    245.7200    193.6711   6.4004036035e+01  -3.2437512880e+00    0.3410319    0.2608819 -70.43  0.001019587    2.553    0.608
       126  -9.2421    242.9681    200.8527   6.5782354748e+01  -4.0228564432e+00    0.3206777    0.1575072 -39.07 0.0009575226    1.788    0.441
       127  -8.2696    221.9720    201.4999   6.9614631984e+01  -1.2376717973e+00     0.202208     0.151785 -30.84 0.0004166462    1.196    0.164
       128  -8.3355    210.9354    201.9511   7.1773628738e+01   3.0373341091e-01    0.1899363    0.1672664 -77.53 0.0006618206    1.770    0.435
       129  -8.9155    140.2536    200.8463   8.6763411112e+01   1.2053094254e+01    0.3447064     0.244374 -87.95  0.001535029    2.278    0.561
       130  -8.5725     79.7252    201.0503   1.0158524105e+02   2.1691852337e+01    0.3041514    0.1809925  88.15  0.001016935    2.265    0.558
       131  -7.7605     73.6022    202.3140   1.0326480899e+02   2.2262657913e+01    0.1555619   0.09355685  62.26 0.0003763646    1.860    0.462
       132  -8.5079     48.3722    201.6244   1.0935138748e+02   2.5713065940e+01    0.2590231    0.1128277 -87.90 0.0009503455    3.206    0.688
       133  -7.8456     41.2977    202.6629   1.1115237775e+02   2.6297781119e+01    0.1414076   0.08592472  66.69 0.0004087747    1.655    0.396
       134  -7.9659     10.3138    202.3327   1.1828246707e+02   2.9544687800e+01    0.1195241   0.08556632 -50.40 0.0007045509    1.682    0.405
       135  -9.5375    149.4529    198.5466   8.4209374289e+01   1.0975240362e+01    0.4368153    0.3088877 -86.32  0.001195848    2.424    0.587
       136  -8.7721    124.1981    199.5282   9.0376320591e+01   1.5048708616e+01    0.3081236    0.2264583  73.84  0.001092436    1.818    0.450
       137  -9.3543    112.9429    198.5816   9.2973709887e+01   1.7126531630e+01    0.4729698    0.2855352  62.80   0.00197222    2.271    0.560
       138  -9.2746    236.9715    198.1836   6.6321141768e+01  -2.7911423086e+00    0.2923895    0.1812708 -46.23  0.001163464    1.751    0.429
       139  -8.3505    177.1119    198.9301   7.8095389574e+01   6.2183512106e+00    0.1966076    0.1913631 -87.24 0.0004455947    1.281    0.220
       140  -7.9298    132.6649    199.6676   8.8360635121e+01   1.3593473585e+01    0.1508066    0.1119043 -10.40 0.0007052201    1.734    0.423
       141  -8.9971     88.7567    198.5912   9.8993284363e+01   2.0940207653e+01    0.3611093    0.2382438  77.34  0.001654352    1.940    0.484
       142  -9.1037     28.5649    198.4645   1.1378209636e+02   2.8686906789e+01    0.3197927    0.1741424 -53.29  0.001138393    2.009    0.502
       143  -8.3313    202.4439    197.7808   7.2649291605e+01   2.3427471341e+00     0.240753    0.1855493 -61.19 0.0009313178    1.814    0.449
       144  -8.9470     61.1882    196.9599   1.0567876959e+02   2.5223193101e+01    0.4265222    0.2325852  74.18  0.001785128    2.432    0.589
       145  -9.0043     12.8492    197.7299   1.1738026376e+02   3.0389222761e+01    0.2632673    0.1251866  72.13  0.001236126    2.177    0.541
       146  -7.8826     53.7641    196.4024   1.0745952807e+02   2.6305924348e+01     0.300874    0.1342378  75.46 0.0009521812    4.292    0.767
       147  -8.5830    215.8384    195.5656   6.9648551797e+01   6.8235625138e-01    0.2453233    0.1644559 -53.97 0.0007882699    1.928    0.481
       148  -8.9124    185.4025    194.8714   7.5572233159e+01   5.6295794881e+00     0.265117    0.2246027 -56.36 0.0006587679    1.418    0.295
       149  -7.9565    132.9795    195.9946   8.7650357714e+01   1.4347821170e+01    0.2206463    0.1748858  75.96 0.0004807351    1.626    0.385
       150  -7.3004    209.2982    195.6493   7.0909266596e+01   1.6625624826e+00    0.1235707    0.1085612 -74.21 0.0007035857    1.688    0.408
       151  -9.0176    160.7848    194.2874   8.0834651452e+01   9.9179147499e+00    0.3048321    0.2335401  63.79 0.0008750336    1.753    0.430
       152  -8.3055    230.8244    194.3110   6.6678467181e+01  -1.2961344020e+00    0.1784464    0.1383906 -33.12 0.0005305262    1.183    0.155
       153  -8.7384    224.2453    193.6240   6.7729011235e+01  -2.3009730994e-01    0.2711017     0.150192 -43.67  0.001285287    1.756    0.430
       154  -8.5648     76.9084    194.0259   1.0133967794e+02   2.3776400981e+01    0.2272807     0.172754  68.18 0.0005652822    1.364    0.267
       155  -9.0383     43.4767    193.4524   1.0968339532e+02   2.8257944538e+01    0.3824774    0.2115087  70.51  0.001688341    2.056    0.514
       156  -8.0757    205.2497    191.9548   7.0992496434e+01   2.9600071758e+00    0.1749296    0.1074679 -40.27 0.0004318963    1.532    0.347
       157  -8.3322    198.8761    191.4189   7.2150404288e+01   4.0776940814e+00     0.226742    0.1748321 -44.97  0.000529909    1.354    0.262
       158  -8.2765    178.8582    191.5894   7.6336380557e+01   7.3667242542e+00    0.2219963    0.1663897 -47.04 0.0004457809    1.390    0.281
       159  -8.4511    172.4774    191.8076   7.7762188124e+01   8.4120399372e+00    0.2562375    0.1988516 -70.11 0.0009907471    1.790    0.441
       160  -9.4477      6.5143    190.5204   1.1831456068e+02   3.2644338009e+01    0.3418794    0.1500969  74.25  0.001527892    2.445    0.591
       161  -9.0478    139.4205    190.5197   8.5123415113e+01   1.4444008072e+01    0.3313017    0.2530997  71.97  0.001128155    1.759    0.432
       162 -10.4071     92.2312    188.8046   9.6648169212e+01   2.2745953300e+01    0.9971534    0.2954491  46.23  0.003013641    3.782    0.736
       163  -8.4107     21.5311    191.0428   1.1480898562e+02   3.1168533473e+01    0.2889216   0.09860089  57.14  0.001044836    3.538    0.717
       164  -8.2944    237.2865    188.6282   6.4487109231e+01  -1.2637198921e+00    0.2208365     0.133475 -44.79 0.0005714635    1.651    0.394
       165  -8.8568    216.5766    188.0675   6.8082917666e+01   1.8908592180e+00    0.2662505    0.2125193 -60.83   0.00073253    1.717    0.417
       166  -9.2433    156.0212    187.5891   8.0662323744e+01   1.2157103014e+01    0.3784504    0.2342604 -57.05 0.0009570491    1.871    0.466
       167  -8.3386    148.4576    189.2852   8.2746696327e+01   1.3127779421e+01    0.2373955    0.1776099  60.38 0.0007615517    1.662    0.398
       168  -8.9915    129.1056    188.6033   8.7284137946e+01   1.6672288536e+01    0.2908745    0.2274757  87.59 0.0009251498    1.681    0.405
       169  -9.6075    120.6979    186.3553   8.8973401874e+01   1.8643287223e+01    0.5416918    0.3106799 -75.11  0.002016352    2.826    0.646
       170  -8.9535     34.3147    188.0708   1.1139987720e+02   3.0592062426e+01    0.3581966    0.1780332  73.61  0.001294439    2.460    0.593
       171  -9.5762    249.3433    185.4391   6.1883618929e+01  -2.4061037851e+00    0.4054736    0.2351069 -28.15  0.001602525    1.512    0.339
       172  -8.3628    230.3291    187.4405   6.5470118078e+01  -6.4598365938e-02     0.211387    0.1476691 -52.37 0.0009142081    1.755    0.430
       173  -8.8259    191.3361    187.3338   7.2890357022e+01   6.0917466257e+00    0.2873862    0.2328449 -74.94 0.0007985903    1.832    0.454
       174  -9.1393     54.6419    186.8690   1.0610617170e+02   2.8528272311e+01    0.4373447    0.2233331  67.06  0.001497367    2.599    0.615
       175  -8.6348    164.7915    186.8599   7.8521153419e+01   1.0762317425e+01    0.2540592     0.202554 -70.02 0.0007775771    1.634    0.388
       176  -9.1758    109.5900    186.1267   9.1749163418e+01   2.0582108839e+01    0.4034767    0.2713909  69.89  0.001282761    2.010    0.503
       177  -8.8594    210.1368    184.1954   6.8548081780e+01   3.5993217377e+00    0.2758815    0.1738412 -42.80 0.0006729971    1.513    0.339
       178  -8.7407    202.7643    184.4878   7.0034234918e+01   4.7382495825e+00    0.2539403    0.1712353 -54.71 0.0008030757    1.806    0.446
       179  -8.5491    182.9015    185.0554   7.4206915953e+01   7.9699359595e+00    0.2087978    0.1963726 -70.89   0.00070545    1.306    0.235
       180  -9.0415     66.6925    184.5904   1.0267748778e+02   2.7518073332e+01    0.3701499    0.2216199  66.11 0.0009915724    2.003    0.501
       181  -8.0981     11.9757    184.9757   1.1660116257e+02   3.3506228373e+01    0.2809179   0.09359983  61.59 0.0009567661    4.115    0.757
       182  -8.6843    224.2098    183.5699   6.5817409878e+01   1.5160047675e+00    0.2428346    0.1605269 -37.70  0.000537209    1.348    0.258
       183  -8.0413    197.4333    183.4735   7.0894633136e+01   5.8109685771e+00    0.2451069    0.1267497 -52.68 0.0009653806    2.343    0.573
       184  -8.9837    174.3023    183.5495   7.5763444847e+01   9.7704156533e+00    0.2747552    0.2399717 -76.83  0.000538833    1.482    0.325
       185  -8.9218     44.2927    182.2204   1.0822314967e+02   3.0929026940e+01    0.3551871    0.2004352  74.08  0.001071074    2.101    0.524
       186  -8.5271     30.5066    183.4980   1.1189202176e+02   3.2115406532e+01    0.2105404    0.1384603  68.59 0.0008628649    1.505    0.336
       187  -9.7482     25.9289    179.5497   1.1265680337e+02   3.3549681570e+01    0.6941609    0.2850187  77.17  0.002380157    3.874    0.742
       188  -7.9976      1.7765    183.6200   1.1893058304e+02   3.4668652784e+01    0.1703196   0.09740148  43.83 0.0009451065    1.718    0.418
       189  -8.4031    235.4520    181.0975   6.3370773225e+01   2.6628053070e-01    0.2030979    0.1097931 -37.29 0.0008399128    1.588    0.370
       190  -9.0583    147.5058    180.5974   8.1315307812e+01   1.5200021354e+01    0.3302477    0.2584167  72.65  0.001066367    1.715    0.417
       191  -7.8495     90.6185    181.6761   9.5937629218e+01   2.4733674831e+01    0.1542445    0.1140005 -19.73 0.0007019553    1.842    0.457
       192  -8.6579    137.5515    179.3288   8.3479540454e+01   1.7284449730e+01    0.3116616    0.2330448  83.25  0.001014495    1.940    0.485
       193  -9.3929    191.5202    178.4171   7.1090068236e+01   7.7917552739e+00    0.2800905    0.2487984  63.20 0.0006025978    1.434    0.303
       194  -8.2518    169.4510    178.5288   7.5837453126e+01   1.1671857064e+01    0.2417643    0.2014435  86.79 0.0006256734    1.673    0.402
       195  -9.0587     36.0422    177.0177   1.0977709870e+02   3.3146581061e+01    0.5733335     0.247417  79.91  0.001893772    4.001    0.750
       196  -8.5219    244.5860    169.3236   5.9592794641e+01   9.2473186743e-01    0.2222155    0.1581926 -64.38  0.000761858    2.176    0.540
       197  -8.4947    250.5109    172.8481   5.9327698176e+01  -5.1210824318e-01    0.1875969     0.103881 -37.93 0.0006677139    1.489    0.329
       198  -9.1380    249.0058    177.4921   6.0445968065e+01  -1.0655841756e+00    0.2418866    0.1767623 -37.67 0.0006052837    1.206    0.171
       199  -8.6665    247.2479    173.9887   6.0061571210e+01  -2.3980339040e-01    0.3110083    0.1877381 -21.98 0.0009142652    1.695    0.410
       200  -8.8789    231.2364    176.7804   6.3261922545e+01   1.6348329231e+00    0.2865453    0.1571307 -43.22  0.001040295    1.672    0.402
       201  -8.6591    217.6273    177.2466   6.5779701879e+01   3.6669164282e+00    0.2874015    0.1890098 -54.59  0.001047735    1.866    0.464
       202  -8.7534    205.1106    177.6963   6.8233123193e+01   5.6242615039e+00    0.2454881    0.1729018 -47.84 0.0006616421    1.467    0.318
       203  -8.4923    129.1166    177.2030   8.5168077850e+01   1.9291517834e+01    0.2770452    0.1994734 -87.84 0.0007289863    2.026    0.506
       204  -9.2296    183.2282    175.9572   7.2323144040e+01   9.7333119927e+00    0.4135791    0.2398562 -49.88  0.001299606    1.805    0.446
       205  -8.1633     97.8870    177.4722   9.3312362045e+01   2.4604982197e+01    0.2228213     0.145637  34.07 0.0006005417    1.538    0.350
       206  -8.7600     89.0642    176.8205   9.5555919780e+01   2.6175436146e+01    0.3161133    0.2119678  76.70  0.000943206    1.964    0.491
       207  -9.9531     57.4054    173.2698   1.0359077581e+02   3.1587734959e+01    0.9129502    0.4296081  78.83  0.002711544    4.721    0.788
       208  -9.0728     12.5060    176.3171   1.1574683537e+02   3.5568673368e+01    0.3221528    0.1570572  71.65  0.001185223    2.256    0.557
       209  -8.0073    211.7636    176.5616   6.6735034517e+01   4.7385880404e+00     0.173656    0.1320421  49.30  0.000672152    1.617    0.381
       210  -9.2633    158.9788    175.2307   7.7552840195e+01   1.4280923234e+01    0.3966759    0.2866421  77.11  0.001338029    2.251    0.556
       211  -9.4690    104.2424    174.7089   9.1140078443e+01   2.4228847437e+01    0.5633224    0.3116288  61.18  0.001677555    2.661    0.624
       212  -7.8001     79.4985    158.4398   9.5040296891e+01   3.2286235199e+01    0.2498649     0.187802 -49.19 0.0006896697    1.322    0.244
       213  -9.2697     81.8218    155.0384   9.3752101585e+01   3.2797199522e+01     0.497297    0.3008882  71.10   0.00137802    2.541    0.606
       214 -10.6323     76.0252    171.1364   9.8169198894e+01   2.9575934401e+01     1.156828    0.4915734 -78.30  0.003235043    4.792    0.791
       215  -9.2636     74.0327    160.4895   9.6962477249e+01   3.2576326566e+01    0.3881912    0.2320213  -0.13  0.001416444    3.148    0.682
       216  -8.6216    224.4173    174.2634   6.3964078523e+01   3.1280805775e+00    0.1853364    0.1153577 -46.82 0.0007369592    1.605    0.377
       217  -9.4699    175.8002    172.1510   7.3142819207e+01   1.1848898593e+01    0.3733176    0.2392413 -43.60 0.0009860138    1.510    0.338
       218  -8.6819    143.1050    172.8711   8.0851010859e+01   1.7734942435e+01    0.2324668    0.2061008  77.17 0.0008132449    1.325    0.245
       219  -7.7517    126.6613    173.2930   8.5036686551e+01   2.0647223996e+01    0.1550998    0.1187591  70.52 0.0002198016    1.649    0.393
       220  -9.3934    121.4224    170.5508   8.5850226223e+01   2.2239982234e+01    0.4261399    0.3097752  86.39   0.00107036    1.949    0.487
       221  -8.8344    134.7289    171.8203   8.2710268050e+01   1.9520431690e+01    0.2807038    0.2125167 -73.68  0.001069041    1.643    0.391
       222  -9.1431     45.0636    170.8719   1.0662901615e+02   3.3696450731e+01    0.4114221    0.2225399 -89.89  0.001350352    2.218    0.549
       223  -8.3268    237.0497    169.4794   6.0853099617e+01   2.0192995936e+00    0.2046873    0.1500124 -35.72  0.000628706    1.162    0.140
       224  -8.9061    230.4412    168.9895   6.1871852555e+01   3.1197864167e+00    0.3889191    0.1947623 -50.05    0.0017445    2.210    0.547
       225  -8.4105    205.7527    169.9653   6.6551395037e+01   6.9771454050e+00    0.2538733    0.1814828 -53.97 0.0009573029    1.586    0.369
       226  -8.3927    198.3811    170.0285   6.8003706627e+01   8.2369983754e+00     0.226003    0.2018935  89.04 0.0007489045    1.499    0.333
       227  -9.2491    167.0816    168.6433   7.4350353176e+01   1.4196366416e+01    0.3758763    0.2686078  66.64  0.001132746    2.022    0.505
       228  -8.6753    149.8464    169.5716   7.8551442800e+01   1.7222265956e+01    0.2860031     0.201809 -68.54 0.0006971882    1.846    0.458
       229  -8.3866    218.8556    168.3430   6.3781185842e+01   5.0879837396e+00    0.2263402    0.1662754 -44.65 0.0005019624    1.314    0.239
       230  -8.2363    211.4375    168.2202   6.5119329928e+01   6.3425417183e+00    0.1946832    0.1219906 -50.86 0.0009332903    1.714    0.417
       231  -8.6150    111.9752    167.6076   8.7762343305e+01   2.4629863775e+01    0.3300722    0.2311323  83.93  0.001391021    2.065    0.516
       232  -8.0546     88.7198    168.5955   9.4249343258e+01   2.8282869567e+01    0.2079252    0.1334958  46.42 0.0007137233    1.586    0.370
       233  -8.8362    191.9007    166.6855   6.8616370695e+01   1.0041480944e+01    0.2720236    0.1982557 -47.64 0.0005712621    1.371    0.271
       234  -8.8574    185.0320    166.5054   6.9997917610e+01   1.1321947562e+01    0.2744087    0.1945208 -58.06   0.00070013    1.662    0.398
       235  -9.0781     20.4799    166.1659   1.1271854422e+02   3.7397938832e+01      0.37136    0.1625126  56.51  0.001549611    2.650    0.623
       236  -9.8574    136.9131    164.4902   8.0675534953e+01   2.0812128039e+01    0.6565047    0.3316029  57.19  0.002066462    3.080    0.675
       237  -9.8444     94.8916    162.1946   9.1382774896e+01   2.8890270658e+01    0.9373547    0.5886908 -87.95  0.003120654    2.445    0.591
       238  -8.3167    233.8915    165.1011   6.0518793762e+01   3.2651596988e+00    0.1955064    0.1621782 -45.61 0.0005551882    1.241    0.194
       239  -8.6213    159.4846    164.1908   7.5155186762e+01   1.6591897997e+01    0.2825198    0.2352429  75.84  0.000824458    1.541    0.351
       240  -9.3922     33.5582    163.4292   1.0885274668e+02   3.6840785496e+01    0.5772129    0.2347648  53.26  0.002195429    3.001    0.667
       241  -8.8529    246.0536    163.1431   5.8163498071e+01   1.7525416308e+00    0.2285751    0.1548762 -36.42 0.0004099237    1.220    0.181
       242  -8.1080    240.1563    164.1733   5.9304864060e+01   2.4624392272e+00    0.1737492    0.1389873 -48.47 0.0004461663    1.317    0.241
       243  -8.5728    212.9685    163.5351   6.3879191789e+01   6.9597842646e+00    0.2581042    0.1748948 -51.78 0.0005614449    1.586    0.369
       244  -8.3636     56.5679    163.9885   1.0248705652e+02   3.4062420158e+01    0.3804106    0.2038368   1.79  0.001292513    3.975    0.748
       245  -8.4039    205.0641    162.7384   6.5198464590e+01   8.4756967970e+00    0.2458729    0.1761781 -48.68 0.0004856778    1.405    0.288
       246  -9.5046      3.2211    162.2552   1.1690377197e+02   3.9755315865e+01    0.4220249    0.1916657  57.75  0.001676112    2.406    0.584
       247  -8.6613    151.7909    161.2651   7.6347959769e+01   1.8712414403e+01     0.300391    0.2344267 -80.54 0.0009312298    1.724    0.420
       248  -8.9925    177.3839    160.5668   7.0370366370e+01   1.3966260794e+01    0.2941286    0.2430984 -71.17 0.0009406061    1.507    0.336
       249  -8.8096     60.6476    160.1562   1.0073989923e+02   3.4519385257e+01    0.3761873     0.221074  69.16  0.001471226    2.300    0.565
       250  -8.7203    242.3512    159.8444   5.8103395808e+01   2.8720225978e+00    0.3039295    0.1705985  23.92  0.001433371    2.581    0.613
       251  -9.3428    243.2214    150.2998   5.6081717100e+01   4.3791787918e+00    0.3305207    0.1435396 -41.04  0.001188388    1.920    0.479
       252  -9.6824    242.8598    155.0277   5.7074264223e+01   3.6215784485e+00    0.4338787    0.2573122 -63.59  0.001894858    3.013    0.668
       253  -9.8211    250.1826    157.8083   5.6490616652e+01   2.0395693742e+00    0.3339194    0.1653342 -42.39 0.0008216412    1.698    0.411
       254  -8.5056    246.7179    155.6630   5.6601416953e+01   2.9216465265e+00    0.2809323    0.1311481 -32.02 0.0004962036    2.051    0.513
       255  -8.7568    227.5266    159.2296   6.0419598185e+01   5.3216244315e+00    0.2970788    0.1876781 -56.71  0.001001844    1.973    0.493
       256  -8.7753    237.1341    158.8957   5.8753446436e+01   3.8434677706e+00    0.2022006    0.1629211 -51.28 0.0007783145    1.330    0.248
       257  -8.2188    128.0485    158.9993   8.1793850667e+01   2.3770433197e+01    0.2419093    0.1896949  79.65 0.0005048998    1.656    0.396
       258  -9.5746    105.8392    157.9512   8.7527739940e+01   2.8079544783e+01    0.4854454    0.3218141  72.03  0.001209221    2.216    0.549
       259  -8.6087    196.6205    157.9223   6.5828995827e+01   1.0923841298e+01     0.249741    0.2111593 -63.22 0.0009498592    1.384    0.278
       260  -8.2987    188.0978    157.6919   6.7497257921e+01   1.2543962329e+01     0.258602    0.1879442 -51.02 0.0006434721    1.411    0.291
       261  -9.1595    167.6696    157.3077   7.1808998592e+01   1.6514586635e+01    0.3488981    0.2756403  83.21  0.001061139    1.789    0.441
       262  -8.5950    217.9770    156.4861   6.1521957753e+01   7.4178885237e+00    0.2613949     0.171678 -51.03 0.0006491473    1.581    0.367
       263  -9.0560    157.5959    156.3490   7.3913096587e+01   1.8681559491e+01    0.3052881    0.2576186  77.81 0.0008684003    1.482    0.325
       264  -9.2156    119.4720    155.3279   8.3283047078e+01   2.6254435020e+01    0.4190445    0.2931914 -84.42  0.001477041    2.079    0.519
       265  -9.5894     49.8306    155.2976   1.0311645628e+02   3.7128619627e+01    0.4784826    0.2667198  65.36  0.001831754    2.390    0.582
       266  -8.1844    204.8708    155.3860   6.3696699799e+01   9.9242934728e+00    0.2440779    0.1751132 -48.59 0.0005637406    1.375    0.273
       267  -8.7601    144.8949    154.8589   7.6640205407e+01   2.1498424434e+01     0.316637    0.2524073 -78.44  0.001026694    1.586    0.369
       268  -9.2842     67.9212    153.7668   9.7572175493e+01   3.5175888035e+01    0.4584688    0.2877342  68.75  0.001419065    2.121    0.528
       269  -9.6420    132.7150    152.8820   7.9277955339e+01   2.4324947972e+01    0.4342881    0.3238403  74.83  0.001096945    1.833    0.455
       270  -9.3853    133.5771    148.2197   7.8027801772e+01   2.5250845788e+01    0.4905079    0.2463358 -37.04  0.001778474    2.328    0.571
       271  -9.1645     20.0287    152.5634   1.1135100396e+02   4.0873224833e+01    0.2179371    0.1562729 -76.67 0.0007942972    1.208    0.172
       272  -8.0983      8.6657    153.3016   1.1461234515e+02   4.1587760001e+01    0.1347805   0.08501086  65.47 0.0005422356    1.658    0.397
       273  -7.5861    228.3086    152.6915   5.8959826042e+01   6.3682833076e+00    0.1288247    0.1022009 -66.40 0.0004170796    1.616    0.381
       274  -8.6457    175.1060    151.9709   6.8999000750e+01   1.6206294113e+01     0.221591     0.209651 -38.07 0.0003583372    1.040    0.038
       275  -8.4022    151.7994    152.0041   7.4333092502e+01   2.0787738671e+01    0.3210223    0.1694391 -31.47  0.001157834    2.467    0.595
       276  -9.6686     29.3607    150.5951   1.0842415266e+02   4.0534102050e+01    0.5193091    0.2490883  68.34  0.001973466    3.095    0.677
       277  -8.8104      3.2900    150.7938   1.1584930939e+02   4.2592094383e+01    0.3078596   0.09142438 -72.23  0.001173476    2.651    0.623
       278  -9.7208    248.8058    149.4359   5.5063988283e+01   3.6603759616e+00    0.3609784    0.1768605 -40.56 0.0008353259    1.677    0.404
       279  -9.1623    247.0746    143.7634   5.4202452723e+01   4.8942408443e+00    0.2435783    0.1568638 -36.77 0.0004973903    1.292    0.226
       280  -8.3248    250.4867    140.9406   5.3145870365e+01   4.8383410533e+00    0.1901076    0.1424241 -40.10 0.0007849281    1.096    0.088
       281  -8.8683    189.3816    150.1532   6.5605876407e+01   1.3827368997e+01    0.3001422    0.2302766 -51.98 0.0008463467    1.330    0.248
       282  -8.1460    182.1047    151.0646   6.7305855137e+01   1.5037616403e+01    0.2275347    0.1828299 -83.96 0.0006932383    1.707    0.414
       283  -8.7918     98.2570    150.7909   8.8202969942e+01   3.1180618028e+01    0.2934685    0.2311355  85.04    0.0011153    1.543    0.352
       284  -9.0238    237.1964    150.2315   5.7011129915e+01   5.3497175095e+00    0.1762907    0.1416365 -53.67 0.0005037625    1.326    0.246
       285  -8.2270    212.7389    149.9359   6.1092897857e+01   9.5565708365e+00    0.1983743    0.1628833 -38.19 0.0004182474    1.088    0.081
       286  -8.1829    162.4767    150.5232   7.1497361708e+01   1.9000565796e+01    0.1511445    0.1465396 -56.32 0.0008086861    1.074    0.069
       287 -10.0523     39.7965    147.7953   1.0495585045e+02   4.0199362460e+01    0.5601633    0.2902617  66.81  0.002104845    2.817    0.645
       288  -8.3817    198.8504    149.0576   6.3495756814e+01   1.2259090626e+01    0.2173819    0.1875985 -64.37 0.0005803845    1.320    0.242
       289  -9.9681     89.3444    146.4240   8.9886674579e+01   3.3781638982e+01    0.7134759    0.4197773 -89.29  0.002411592    3.291    0.696
       290  -9.6102    233.4257    147.3994   5.7041337535e+01   6.4653020585e+00    0.3143809    0.1396486 -36.97  0.001161654    2.000    0.500
       291 -10.0290     56.1741    135.8043   9.7925456635e+01   4.1373916369e+01    0.6003529    0.3143806  -0.89  0.001942471    4.212    0.763
       292  -8.2679    223.2575    146.9047   5.8619128729e+01   8.2741466785e+00    0.1934666    0.1573688 -34.33 0.0004283674    1.074    0.069
       293 -10.2342    148.9702    144.8820   7.3415825539e+01   2.2953896223e+01    0.5751704    0.3971031 -83.55  0.001579397    2.414    0.586
       294  -9.9835    139.0958    145.0410   7.5901594435e+01   2.4898423222e+01    0.5382993    0.3385099 -65.82  0.001630838    2.094    0.523
       295  -9.3854    139.4467    137.8834   7.4160269851e+01   2.6472673576e+01    0.4336924    0.2647321 -21.47  0.001576242    2.608    0.617
       296 -10.2013    106.6816    144.6195   8.4509737158e+01   3.1222792669e+01    0.7005181    0.4273033  74.03  0.002194392    3.149    0.682
       297  -9.7123     13.4346    146.1622   1.1250612341e+02   4.3026403918e+01    0.4158558     0.251936  77.05  0.001848723    1.786    0.440
       298  -8.9221    241.4109    136.4019   5.3570746280e+01   7.0736407273e+00    0.2889874    0.1071123 -35.39  0.001132789    2.601    0.616
       299 -10.3937    241.1773    144.2490   5.5187502485e+01   5.7510009580e+00    0.4303703    0.2873056  -6.95  0.001372414    2.183    0.542
       300  -7.8923    206.8220    146.3535   6.1409442860e+01   1.1308201806e+01    0.1963594    0.1629021 -47.90 0.0006302118    1.168    0.144
       301  -8.4781    175.3614    146.0247   6.7622986658e+01   1.7407138475e+01    0.2539561    0.2138738  86.68 0.0007512792    1.514    0.340
       302  -9.7518    124.9450    142.6044   7.9031096994e+01   2.8263963247e+01    0.5779681    0.3831037 -85.72   0.00175483    2.627    0.619
       303  -7.7121    194.3788    144.1256   6.3289666131e+01   1.4080382786e+01    0.2072085     0.127555 -51.70 0.0005983013    1.673    0.402
       304  -8.7087    165.6541    144.0852   6.9325820940e+01   1.9761511468e+01    0.2453924    0.2136884  67.66 0.0006476582    1.320    0.243
       305  -8.6599    117.9985    148.2468   8.2162479086e+01   2.8242225532e+01    0.2136907    0.1998175  39.25            0    1.084    0.077
       306 -10.6629     69.5631    141.0289   9.4749317763e+01   3.8216571180e+01    0.6730575    0.4897299  88.52  0.002345131    1.677    0.404
       307 -10.0390     69.3248    134.3297   9.3499635706e+01   3.9962144045e+01    0.3868515    0.2623095   4.74  0.001707632    2.013    0.503
       308  -9.5467      2.5740    141.7214   1.1515777658e+02   4.4898968944e+01    0.3834536    0.2000293  74.44  0.001289544    2.189    0.543
       309 -10.4341     55.1748    145.0839   9.9884369846e+01   3.9111198244e+01    0.8162912     0.469323  69.96  0.002704816    2.579    0.612
       310  -8.5150    182.0954    141.6741   6.5220092490e+01   1.6975135407e+01    0.2522151    0.1967442 -55.52 0.0005426321    1.337    0.252
       311  -7.6909    238.3204    140.6594   5.4901367470e+01   6.8433447863e+00    0.1321095   0.09647346 -64.59 0.0007050065    1.718    0.418
       312  -9.9149     23.5141    138.1800   1.0851267290e+02   4.4236592068e+01    0.5426784    0.2650726  62.04  0.002198379    2.859    0.650
       313  -8.7832    172.1751    138.4461   6.6592061243e+01   1.9642569653e+01    0.3130979    0.2250121 -68.59 0.0007823182    1.806    0.446
       314  -7.9351    218.4903    138.5117   5.7664467644e+01   1.0660747709e+01    0.1395429    0.1225915 -41.14 0.0003399985    1.035    0.033
       315  -8.2817    207.2388    137.8709   5.9499457656e+01   1.2855409211e+01    0.2151926    0.1802095 -59.65 0.0007788857    1.273    0.215
       316  -8.7152    197.4288    137.5250   6.1241952299e+01   1.4796672070e+01    0.2764853    0.2204138 -57.98 0.0007375253    1.328    0.247
       317  -8.9185    150.5914    136.2985   7.1033476782e+01   2.4544576578e+01    0.5155555    0.3222095  13.04  0.001838925    2.904    0.656
       318  -8.8342     78.0830    146.9254   9.3313462435e+01   3.5443724910e+01    0.3171764    0.2066769  73.31 0.0008814307    2.182    0.542
       319  -9.2658     38.9931    135.8116   1.0334813828e+02   4.3367661953e+01    0.3516809    0.2144252  88.77  0.001043022    2.021    0.505
       320  -8.6451    246.8826    130.1644   5.1519156853e+01   7.2432262112e+00    0.2319962     0.155014 -42.27 0.0005567201    1.234    0.190
       321  -9.4063    248.2397    135.0631   5.2304359927e+01   6.1902997104e+00     0.339699     0.186024 -38.64 0.0007519757    1.515    0.340
       322  -9.5111    250.7988    129.8470   5.0907543616e+01   6.6598987601e+00     0.654047    0.1296748 -45.12  0.001985392    4.536    0.780
       323  -7.7296    192.3197    136.3144   6.1955675367e+01   1.6035070902e+01    0.1474209    0.1139083  -4.70 0.0005763025    1.653    0.395
       324  -8.2673    162.5038    136.1991   6.8220936350e+01   2.2104988050e+01    0.2395716    0.2087957  86.66 0.0006624128    1.357    0.263
       325 -10.4050     83.5949    132.9493   8.8773830583e+01   3.8118518690e+01    0.5814261    0.4064979 -78.68  0.001383017    1.790    0.441
       326  -7.9012    237.6029    133.7191   5.3596685758e+01   8.1774316164e+00    0.1880901    0.1064472 -48.26 0.0009105053    1.613    0.380
       327  -8.6550    179.3921    133.7975   6.3986241444e+01   1.9139152284e+01    0.2786956    0.2284483 -75.37 0.0007210829    1.473    0.321
       328  -9.1253    112.7011    133.3437   8.0257584561e+01   3.2845649578e+01    0.3653957    0.2789695 -88.69 0.0008276191    1.755    0.430
       329  -9.3469    143.0320    131.4628   7.1733451444e+01   2.7191089935e+01    0.3956453    0.2594554 -60.33  0.001115616    1.763    0.433
       330 -10.0787    132.1015    130.7332   7.4349812662e+01   2.9611296639e+01    0.6661829    0.3523023 -61.04  0.001157531    2.510    0.602
       331 -10.4154     98.0341    130.1608   8.3770279018e+01   3.6339756113e+01    0.7552444    0.3286012 -54.36  0.001630598    2.294    0.564
       332  -8.5622     24.5959    130.5871   1.0709522642e+02   4.6075576873e+01    0.3461717    0.1744451  -9.03  0.001354561    3.391    0.705
       333 -10.3136     13.0340    128.9749   1.1052764571e+02   4.7390849099e+01    0.6254725    0.3321612  80.50  0.002784489    2.395    0.583
       334  -8.6911      1.9628    130.7495   1.1416594287e+02   4.7667980331e+01    0.2112148    0.1210928  56.93  0.001076482    2.022    0.505
       335  -7.8381    204.5789    130.4772   5.8354069966e+01   1.4775888500e+01    0.1439373    0.1276293 -49.75 0.0001798031    1.074    0.069
       336  -8.1829    192.7094    130.0079   6.0454930569e+01   1.7206850126e+01    0.2089353    0.1752117 -45.28 0.0004069849    1.109    0.098
       337  -9.2090    168.2708    129.4687   6.5347208532e+01   2.2338785081e+01     0.301138    0.2409472 -68.51 0.0005179772    1.444    0.308
       338  -9.3904    152.9897    128.6325   6.8629836181e+01   2.5732203654e+01    0.5246494    0.2300376 -50.46  0.001590985    2.383    0.580
       339  -9.7830     73.2649    129.2453   9.1197201341e+01   4.0668062708e+01     0.406228    0.2840229 -89.36 0.0008678897    1.939    0.484
       340  -7.6594    220.5085    129.5848   5.5421981221e+01   1.1935019090e+01    0.1369741    0.1216437 -41.77  0.000112639    1.015    0.015
       341  -8.3933    211.4496    129.2010   5.6862631306e+01   1.3699070077e+01      0.20208    0.1206438 -50.97 0.0009360627    1.646    0.392
       342 -10.4472     59.8273    124.8347   9.4601465300e+01   4.3691130583e+01    0.7878398    0.4731073  82.27  0.002420631    2.954    0.662
       343  -8.9707     58.8557    115.3852   9.2899759668e+01   4.6182021380e+01    0.3780217     0.223821 -11.86  0.001295854    2.762    0.638
       344 -10.7991     44.8238    123.3090   9.9262608068e+01   4.5923284994e+01     1.142895    0.6078457  77.04  0.003803151    4.054    0.753
       345  -9.8765    117.9606    125.1773   7.6815595299e+01   3.3755541869e+01     0.569169    0.3952093  84.88  0.001486416    2.368    0.578
       346  -7.7953    228.5184    125.5037   5.3278796881e+01   1.1213977944e+01    0.1371644    0.1164725 -48.93 0.0001255644    1.074    0.069
       347  -9.0133    179.2627    124.6581   6.1880348020e+01   2.1030575101e+01    0.2967455    0.2314393 -77.48  0.000831995    1.615    0.381
       348 -10.3169     28.6169    122.4461   1.0450952921e+02   4.7782988554e+01    0.7246683    0.3815528  71.36   0.00280472    3.180    0.685
       349  -7.8946    243.6775    123.8482   5.0698566193e+01   8.8535519417e+00    0.1949363   0.09764419 -47.10 0.0007347168    1.740    0.425
       350 -10.9110    131.6989    119.2311   7.1605799248e+01   3.2303446194e+01    0.9002867    0.5438965 -76.53  0.002730264    3.493    0.714
       351  -9.0140    158.7131    121.6672   6.5600050292e+01   2.6011056023e+01    0.3618164    0.2567738 -74.23 0.0009878473    1.949    0.487
       352  -7.7148    202.7073    122.2843   5.6856684724e+01   1.6703036933e+01    0.1391088    0.1080197 -72.15  0.000174946    1.538    0.350
       353  -8.0493    195.1407    122.1485   5.8200033964e+01   1.8250816411e+01    0.2030181    0.1614723 -62.49 0.0004330643    1.341    0.254
       354  -8.7267    172.0141    121.5598   6.2650337633e+01   2.3189659041e+01    0.2798407    0.2008987 -57.81  0.000401478    1.492    0.330
       355  -9.7892     71.1564    120.0012   8.9834207827e+01   4.3293911012e+01    0.4463039    0.2795127 -77.33  0.001441859    2.202    0.546
       356  -9.8822    141.5503    118.6744   6.8946214351e+01   3.0337724664e+01    0.4398195    0.3108657 -68.91  0.001218975    1.820    0.451
       357  -9.6879      2.7953    117.0136   1.1224917911e+02   5.1018311053e+01    0.4947102    0.2416811  76.77  0.002101431    2.885    0.653
       358  -7.8535    231.4871    117.5193   5.1148483884e+01   1.2084982985e+01    0.1356582    0.1147106 -49.16 0.0001816221    1.045    0.043
       359  -8.5378    185.8531    116.0908   5.8544936303e+01   2.1350401956e+01    0.2293141    0.1927898 -68.45 0.0005370598    1.274    0.215
       360 -10.0902    109.2519    113.9494   7.6461442566e+01   3.8083186901e+01    0.5556133    0.3473628 -67.81  0.001193721    2.236    0.553
       361  -8.7401    250.1354    115.1379   4.8067196530e+01   9.2291404987e+00    0.1878032    0.1591279 -29.26  0.000932307    1.216    0.177
       362  -8.2120    193.1452    115.1799   5.6957213011e+01   2.0000882386e+01    0.2048547    0.1583214 -59.73 0.0004926544    1.335    0.251
       363  -8.9206     85.2424    122.4953   8.5890980930e+01   4.0439850141e+01    0.5027807    0.2661265  14.40  0.001641667    3.483    0.713
       364 -10.0917     92.7755    112.6380   8.1103385270e+01   4.1499135673e+01    0.5092936    0.3592905 -73.93  0.001280912    1.884    0.469
       365  -9.0689     93.6860    104.4995   7.8681706578e+01   4.3216932907e+01    0.5030092    0.3115978  -0.41  0.001761659    3.160    0.684
       366 -10.1759     78.6165    111.0564   8.5247833376e+01   4.4304622760e+01    0.9120697    0.4253836 -60.43  0.002849537    2.480    0.597
       367  -8.1525    167.3986    114.2749   6.1856540022e+01   2.5666944909e+01    0.2111588    0.1381239 -51.90 0.0004649316    1.548    0.354
       368 -10.1910    133.5930    109.3889   6.8565984423e+01   3.4059056021e+01    0.6726715    0.3286302 -51.79  0.002105435    2.215    0.549
       369 -10.0013    121.7787    112.3210   7.2486118703e+01   3.5917132921e+01    0.3951001    0.3281718 -74.02 0.0008328461    1.409    0.290
       370  -8.6119    174.7977    111.8777   5.9721667209e+01   2.4541771647e+01    0.2774158    0.1927296 -60.89 0.0006273717    1.618    0.382
       371  -8.7407    159.1866    111.7577   6.3024413276e+01   2.7973377616e+01    0.2671591    0.1955925 -53.54 0.0005181277    1.390    0.281
       372 -10.4117     66.4821    109.7492   8.8995248610e+01   4.6493459358e+01     0.671331    0.3389219 -57.77  0.002421696    1.954    0.488
       373 -10.0740     14.2283    111.2213   1.0756375510e+02   5.1729183616e+01     0.404653     0.236251  64.17  0.001343569    2.342    0.573
       374 -10.4623    248.6729    108.1307   4.6852773939e+01   1.0636745608e+01     0.476292    0.2478799 -32.86  0.002329846    1.933    0.483
       375 -10.8000    249.5401    102.5779   4.5629994082e+01   1.1395506380e+01    0.4466379    0.2861525 -38.11  0.002270995    1.369    0.270
       376  -7.6919     44.6536    109.3032   9.6497030448e+01   4.9435945316e+01    0.1410708    0.1068852  67.37 0.0006271034    1.690    0.408
       377  -8.3142      3.8214    109.3937   1.1087243336e+02   5.2826574826e+01    0.1695399    0.1140074 -16.22 0.0009532012    1.742    0.426
       378  -8.0872    189.3738    108.1478   5.5996396513e+01   2.2131377169e+01    0.2139479    0.1243644 -51.17 0.0005140111    1.710    0.415
       379  -9.6763    118.5290    106.0037   7.1706053557e+01   3.7986313747e+01    0.4253025    0.3082037 -62.93  0.001918641    1.617    0.381
       380 -10.7317    108.7851     98.7213   7.2493552475e+01   4.1569034768e+01    0.8734539    0.4983517  66.02  0.001227191    3.246    0.692
       381  -9.0643    108.3341     92.4426   7.0843251102e+01   4.2990958004e+01    0.5626183    0.2775818  27.45  0.001869235    3.181    0.686
       382  -9.7900    139.9529    104.0842   6.5553655201e+01   3.3794251279e+01    0.5595056     0.311545 -49.43  0.001428399    1.846    0.458
       383  -9.2343    110.9431    106.6225   7.4032534291e+01   3.9403044668e+01    0.3484221    0.1475983  41.91  0.001217337    2.385    0.581
       384 -10.4453     45.4303    102.0262   9.4603284639e+01   5.1113122635e+01    0.7627606    0.4637099  73.23   0.00300353    3.145    0.682
       385 -10.6300     22.7599    102.4585   1.0299897334e+02   5.3231481063e+01    0.7648489    0.4462298  77.84  0.002664315    2.767    0.639
       386  -9.0960     22.7797     90.3289   1.0053633743e+02   5.6117495850e+01    0.3357693    0.2444204 -13.83  0.001484253    1.471    0.320
       387  -8.6003    166.7824    104.4331   5.9527180230e+01   2.7767325298e+01    0.2758851    0.2019466 -47.21 0.0006990049    1.324    0.245
       388  -9.8820    128.3978    101.9464   6.7926267784e+01   3.6763138008e+01    0.3445747    0.2702091 -68.57 0.0007023534    1.515    0.340
       389  -8.9506      6.7103    102.8313   1.0887872835e+02   5.4253517064e+01    0.2644953    0.2050497  67.71  0.001139288    1.540    0.351
       390  -9.4087    150.4267    102.9641   6.2752691376e+01   3.1701921622e+01    0.4116636    0.2752554 -62.52  0.001062753    1.816    0.449
       391  -8.3273    159.8792    100.6471   6.0030689277e+01   3.0049297565e+01    0.3029708    0.1851373 -56.95 0.0006810336    1.863    0.463
       392  -9.1377     82.1215     99.9586   8.1195329206e+01   4.6308763702e+01    0.3823046    0.2585676 -69.66 0.0009827332    1.979    0.495
       393 -10.3937     63.7615     95.0090   8.6204953430e+01   5.0359932878e+01    0.8237547    0.4315921 -62.81  0.002735722    2.344    0.573
       394  -8.5324     69.0269     86.4767   8.1938384451e+01   5.1462857712e+01    0.4068355    0.1465334  28.38  0.001320619    3.545    0.718
       395  -9.5388     95.0577     96.9624   7.6174963979e+01   4.4644033274e+01    0.3521782     0.238858 -56.72 0.0005454618    1.623    0.384
       396  -8.7513    150.7666     95.5930   6.0721886899e+01   3.3088886656e+01     0.243509    0.1860718  13.08  0.001111124    1.802    0.445
       397  -8.3701    164.9539     94.3247   5.7321267282e+01   3.0122612717e+01    0.2664709    0.1977986 -66.36 0.0007387196    1.534    0.348
       398  -9.6843    139.0342     92.0002   6.2496946924e+01   3.6436358549e+01    0.4711212    0.2997378 -53.72  0.001323981    1.719    0.418
       399  -9.5655    181.8212    106.8307   5.7101096394e+01   2.4003089538e+01      0.51585    0.2515011 -52.01  0.002011648    2.204    0.546
       400  -8.2286    176.4048     93.2464   5.4781627530e+01   2.7746766573e+01    0.2093236    0.1286721 -51.62 0.0004761931    1.638    0.390
       401  -8.4804    157.7446     92.3149   5.8310082135e+01   3.2136788329e+01    0.2800402    0.1722809 -50.86  0.000805227    1.677    0.404
       402  -9.7790    124.4870     90.7133   6.5830384592e+01   3.9918123748e+01    0.3990741    0.3115254 -73.10 0.0008274529    1.615    0.381
       403  -9.3562    120.6843     92.6855   6.7416169669e+01   4.0344355759e+01    0.2957159    0.2379687  50.31  0.001468241    1.255    0.203
       404  -9.1148     46.0689     92.5451   9.2088099956e+01   5.3273723954e+01    0.3976347    0.2177185  10.78  0.001712267    2.377    0.579
       405  -9.1051      5.2083     92.0989   1.0765441101e+02   5.6895335201e+01    0.3737199    0.1899761  58.96   0.00139815    3.238    0.691
       406  -9.7176     34.9509     90.1698   9.5763990234e+01   5.5045357275e+01    0.4544089    0.2917698 -87.26  0.001659595    2.442    0.590
       407  -7.9101    188.6936     93.3431   5.2564608094e+01   2.5009098772e+01    0.1510434    0.1060782 -70.73 0.0007042477    1.689    0.408
       408  -7.7935    163.9957     87.0313   5.5615409804e+01   3.1691713401e+01    0.1768068    0.1667917 -61.50 0.0004470401    1.031    0.030
       409  -9.8323     48.5205     83.9504   8.8891553136e+01   5.4922858574e+01    0.5701228    0.4038024 -84.74  0.001894002    2.247    0.555
       410  -7.5913    179.2939     85.6526   5.2339201515e+01   2.8463640317e+01    0.1513832    0.1065565 -70.37 0.0007031049    1.671    0.401
       411 -10.0147    105.0350     82.1794   6.8788409400e+01   4.5748114260e+01     0.764761    0.3814938 -42.76  0.002075627    2.027    0.507
       412  -9.2701    105.9576     71.7436   6.5295713006e+01   4.7531381093e+01    0.3677597    0.2495849 -63.28  0.001284856    2.060    0.515
       413  -8.2111    157.9666     83.7548   5.5980854578e+01   3.3668576559e+01    0.1993446    0.1869876 -87.07 0.0002886878    1.051    0.049
       414  -8.9269    140.9743     82.8366   5.9475160975e+01   3.7739859319e+01    0.3214095    0.2117829 -52.74 0.0008044186    1.639    0.390
       415  -8.5848     64.2498     82.6213   8.2551970855e+01   5.3032887928e+01    0.2463714    0.1703254 -59.54 0.0005652115    1.657    0.397
       416  -7.9819    151.1703     89.1794   5.8905506567e+01   3.4226591513e+01    0.2086138    0.1721962 -73.00 0.0003961185    1.352    0.260
       417  -9.5882     24.7951     80.6773   9.7525606068e+01   5.8162711867e+01    0.4268287    0.2916707  80.96  0.001543896    2.370    0.578
       418  -9.1394     10.1355     81.1903   1.0363712694e+02   5.9132285347e+01     0.326582    0.1805064  56.86  0.001380726    2.999    0.667
       419  -8.5208    150.2769     80.6108   5.6758777341e+01   3.6007051366e+01    0.2719068    0.1679307 -50.56 0.0006515087    1.702    0.413
       420  -8.8479    119.4160     80.4197   6.4187407830e+01   4.3028447768e+01    0.3332868    0.2487592 -63.13  0.001166692    1.634    0.388
       421  -8.7036     74.5433     80.3971   7.8164696830e+01   5.1853114395e+01    0.3249131    0.2322483 -65.17    0.0010345    1.850    0.460
       422 -10.3829     86.7463     85.3575   7.5490842559e+01   4.8673967211e+01    0.7907335    0.5056474 -40.06  0.001994327    1.550    0.355
       423  -8.3378    166.8174     79.5316   5.3089572382e+01   3.2377434948e+01    0.2336012    0.1605393 -45.77 0.0005067613    1.429    0.300
       424  -8.0370    184.1930     78.0196   4.9578535616e+01   2.8672610017e+01    0.1943838    0.1058702 -39.27 0.0008151702    1.789    0.441
       425  -7.7985    174.6272     77.8353   5.1197133745e+01   3.0875714394e+01     0.205487    0.1241509 -49.44  0.000440015    1.641    0.390
       426  -9.3488    128.1429     75.4471   6.0441069736e+01   4.2003095993e+01    0.3423202    0.2517695 -65.26 0.0006712564    1.688    0.408
       427  -7.7871    157.4087     76.5198   5.4141164820e+01   3.5075351748e+01    0.1457499    0.1350987 -76.84 0.0001785714    1.062    0.059
       428  -8.4451    140.3956     75.3090   5.7468775852e+01   3.9229293499e+01    0.2510947    0.1758033 -49.95  0.000692073    1.497    0.332
       429  -9.9946     63.1851     73.2703   8.0105382447e+01   5.5143727811e+01     0.503785    0.2841545 -56.44  0.001173792    2.129    0.530
       430  -8.2853    163.4538     73.4110   5.2112289047e+01   3.4200625493e+01    0.2481105    0.1240074 -48.82 0.0009335959    2.087    0.521
       431  -9.6683     82.2818     72.5880   7.3030489780e+01   5.2054294937e+01    0.3900687    0.3019453 -74.70    0.0010178    1.920    0.479
       432  -8.0511    151.3873     73.1762   5.4461712455e+01   3.7049165046e+01    0.2110279    0.1294292 -50.10 0.0006724839    1.716    0.417
       433  -8.9511    115.6336     72.3986   6.2780887742e+01   4.5333309759e+01    0.4112546    0.2220024 -41.73  0.001753869    1.908    0.476
       434  -8.1764     42.5102     72.5098   8.8031580748e+01   5.8129500240e+01    0.2220469     0.129365 -63.58  0.000603078    2.173    0.540
       435  -7.6014    175.4826     72.5353   4.9686001477e+01   3.1565789277e+01    0.1413982    0.1313985 -79.65 5.836037e-05    1.002    0.002
       436  -9.3214     95.1293     70.9275   6.8301712393e+01   4.9905970386e+01    0.4159784    0.2382069 -54.52  0.001318589    2.243    0.554
       437  -9.4356     51.5091     69.6880   8.3520079657e+01   5.7563504333e+01    0.4303736    0.2729902 -70.22  0.001564812    2.670    0.625
       438  -8.9007     16.7750     70.1176   9.8292589696e+01   6.1137966088e+01    0.3061229    0.1951581 -78.45  0.001358874    2.142    0.533
       439  -7.5047    157.2441     69.6774   5.2307153905e+01   3.6269026800e+01    0.1427571    0.1060066 -68.07 0.0001781793    1.527    0.345
       440  -8.7078    147.0862     68.1263   5.3945868011e+01   3.8899674073e+01     0.296151    0.1984785 -46.51 0.0006270222    1.534    0.348
       441  -7.5080    203.2856     67.2917   4.4080995510e+01   2.6170752819e+01    0.1206421    0.1069324  19.02 0.0002686344    1.538    0.350
       442  -8.7849    121.4817     65.9444   5.9247959428e+01   4.5157692270e+01    0.2878936    0.2232072 -63.69 0.0008460596    1.556    0.357
       443  -8.8004    138.5762     65.9371   5.5162513084e+01   4.1243590205e+01    0.2692758    0.2025755 -65.76  0.000714443    1.566    0.361
       444  -9.0936    110.3231     63.4132   6.1409776545e+01   4.8053237145e+01    0.3990278    0.2317441 -45.40  0.001261819    1.870    0.465
       445  -8.7323     37.1470     64.0398   8.7715809250e+01   6.0498324578e+01    0.2930223    0.2046841 -78.31  0.001189376    2.460    0.594
       446  -8.6076     95.7630     64.2523   6.5930971319e+01   5.0977441486e+01    0.3191496    0.1564187  34.56  0.001266535    2.284    0.562
       447  -9.2245     97.6804     60.5874   6.4130191240e+01   5.1212218831e+01    0.3230603    0.2451288  62.16  0.001094105    1.542    0.352
       448  -8.8516     64.7084     62.9284   7.6151625749e+01   5.6915178974e+01    0.4862845    0.2582245  12.90  0.001800972    3.277    0.695
       449  -7.9145    158.0611     61.9314   5.0024281953e+01   3.7319484861e+01    0.1669801    0.1566213 -84.91 0.0003978093    1.023    0.023
       450  -9.0212     28.2014     71.2266   9.3660968144e+01   5.9931323844e+01    0.3622046    0.1514976 -21.07  0.001146798    4.837    0.793
       451  -9.6188     73.3822     59.5993   7.1808078478e+01   5.6054968475e+01    0.3722978    0.2551188 -54.26  0.001067591    1.842    0.457
       452  -8.1559     88.8123     59.3749   6.6482221313e+01   5.3208045016e+01     0.183895    0.1759288 -33.24 0.0005071284    1.150    0.131
       453  -9.4871      7.7044     57.2993   9.9047379834e+01   6.4466753344e+01    0.2962151    0.2150475  79.86  0.001168908    2.276    0.561
       454  -8.2134    130.5826     57.7324   5.4519082592e+01   4.4405998375e+01    0.1859895    0.1325926 -48.75 0.0003786482    1.518    0.341
       455  -9.8077     23.3474     56.2714   9.1446818811e+01   6.3466841405e+01    0.3952704    0.2866725  86.65  0.002039697    2.662    0.624
       456  -9.4252    119.0873     55.2241   5.6486642460e+01   4.7423269933e+01    0.4451122     0.221191 -42.06  0.001386853    2.150    0.535
       457  -7.8920    140.1069     56.1642   5.1954233944e+01   4.2425804381e+01    0.1930422    0.1606266 -72.11 0.0004565497    1.323    0.244
       458  -9.4119     62.7091     54.0522   7.3820869976e+01   5.8837606931e+01    0.4839337    0.1990328 -49.14  0.001544222    2.993    0.666
       459  -8.9287     43.9749     54.8985   8.1764174669e+01   6.1437669271e+01    0.3882147    0.1668666 -49.25   0.00154031    2.390    0.582
       460  -8.9239     54.2234     54.0926   7.7194603784e+01   6.0152995075e+01    0.3513038    0.2236777 -61.87  0.001224097    2.569    0.611
       461  -8.4349    105.6987     53.1157   5.9313683509e+01   5.0714999097e+01    0.2123365    0.1710827 -59.61  0.000564247    1.517    0.341
       462  -9.5907     92.4519     50.5572   6.2290275461e+01   5.3903795710e+01    0.3851372    0.2392153 -45.26  0.001166133    1.838    0.456
       463  -8.6167     92.5109     43.2908   5.9698352806e+01   5.4967844115e+01     0.376411    0.2150164  -4.03  0.001481489    3.147    0.682
       464  -8.1478    158.3814     50.8507   4.6916404433e+01   3.8895369441e+01    0.1909066    0.1350073 -19.05 0.0009528352    1.816    0.449
       465  -8.7939    150.1830     49.7598   4.8095739347e+01   4.0987162984e+01    0.2244179    0.1784985 -53.79   0.00053631    1.307    0.235
       466  -8.0592    144.7705     48.9866   4.8904331481e+01   4.2375028761e+01    0.1732002      0.11615 -34.64 0.0004882953    1.600    0.375
       467  -8.2238    129.9805     49.0021   5.1973378974e+01   4.5842608701e+01    0.2173011    0.1637476 -72.13  0.000551602    1.645    0.392
       468  -8.5118     75.6906     50.8291   6.7880420040e+01   5.7124567560e+01    0.3135579    0.1386559  31.51  0.001218247    2.667    0.625
       469  -8.9822    120.9302     47.4796   5.3561593779e+01   4.8146639951e+01    0.1961344      0.18862 -30.54 0.0005332687    1.122    0.109
       470  -8.5604    112.1727     46.7763   5.5481376114e+01   5.0227004958e+01    0.2299979    0.1836668 -49.87 0.0006681621    1.421    0.296
       471  -8.9767     82.2494     46.3744   6.4031941046e+01   5.6579922913e+01    0.2753252    0.2233296 -53.73 0.0006160872    1.562    0.360
       472  -8.2865     45.0985     44.6810   7.7569641311e+01   6.3096325303e+01    0.1987963    0.1678442 -39.57 0.0005262606    1.335    0.251
       473  -8.8229     16.8197     45.0128   9.0925096110e+01   6.6210360553e+01    0.1689302    0.1578652 -34.72 0.0005874491    1.309    0.236
       474  -9.8227      5.1404     41.8718   9.5805749209e+01   6.7675521543e+01    0.3608809    0.2083844 -69.29   0.00169048    2.458    0.593
       475  -7.9845    132.9312     43.4342   4.9626131274e+01   4.5924368125e+01    0.1864848    0.1162753  87.49 0.0004239236    2.316    0.568
       476  -9.3764     69.6175     41.4974   6.6566224338e+01   5.9678452296e+01    0.3816436    0.2633612 -56.14   0.00118292    2.176    0.541
       477  -8.9983     58.2392     42.5274   7.1277176379e+01   6.1469120408e+01     0.276299    0.2243464 -66.84   0.00140273    1.978    0.494
       478  -8.4070    105.9744     41.4707   5.5292165876e+01   5.2338326428e+01    0.2390113    0.1832743 -50.05 0.0005168488    1.533    0.348
       479  -8.0060    224.2184     41.1777   3.5844532975e+01   2.5467708589e+01     0.167377     0.116897 -69.79 0.0002290333    1.267    0.211
       480  -7.6655    140.2724     41.6081   4.7603465266e+01   4.4441205664e+01    0.1416899   0.09900338 -67.05 0.0006504622    1.727    0.421
       481  -8.4899     36.7797     40.8715   7.9833339307e+01   6.4837319141e+01    0.2032961    0.1721311 -50.03 0.0007403172    1.523    0.343
       482  -8.6260     95.5581     38.1718   5.6974547382e+01   5.5032318433e+01    0.2377045    0.2050476 -87.68 0.0007563772    1.504    0.335
       483  -8.3638     80.7822     36.8416   6.0962565398e+01   5.8235035263e+01    0.1665853    0.1572856 -62.01 0.0003985477    1.352    0.261
       484  -8.3877    236.4576     36.5280   3.3764547270e+01   2.3609558887e+01    0.1193973   0.09578107 -67.78 0.0001585077    1.028    0.028
       485  -8.2378    125.9721     35.6777   4.8663553967e+01   4.8548999754e+01    0.1911798    0.1570837  57.92  0.000418389    1.096    0.087
       486  -9.3754     26.0740     35.1163   8.2702068549e+01   6.7059515206e+01    0.3202093    0.2049105 -46.16  0.001247642    1.655    0.396
       487  -7.7628    133.3506     35.7294   4.7176082041e+01   4.6819463974e+01    0.1360206   0.09998753 -82.67  0.000480174    1.628    0.386
       488  -8.7010    111.7920     34.7088   5.1529869158e+01   5.1917797352e+01    0.2471572    0.1766724 -44.72 0.0006996538    1.594    0.373
       489  -7.4934    104.6391     34.3310   5.3167362440e+01   5.3560127315e+01    0.1351168    0.1039054 -80.14 0.0007040322    1.801    0.445
       490  -7.8740     88.5251     34.4935   5.7674540968e+01   5.6984657859e+01    0.1327698    0.1181665  32.25 5.403103e-05    1.021    0.021
       491  -8.9944     48.5045     33.1808   7.1544765534e+01   6.4418259357e+01    0.2553225    0.2055949 -33.76 0.0007464985    1.366    0.268
       492  -8.6747    119.1980     33.0277   4.9269253153e+01   5.0437580619e+01    0.2271137    0.1530772 -41.77 0.0006197446    1.650    0.394
       493  -8.7624     60.6222     32.5985   6.6401181969e+01   6.2538095974e+01    0.2210363    0.1909168 -43.77 0.0006462845    1.480    0.324
       494  -9.1652     72.1949     30.5304   6.1365424424e+01   6.0725227190e+01     0.358377    0.1912323 -43.08  0.001123769    2.319    0.569
       495  -9.1788     12.9508     30.2209   8.7557004077e+01   6.9170715181e+01    0.2513204    0.1579406 -55.35 0.0009129587    1.974    0.493
       496  -7.8237     41.9994     29.9847   7.3050587096e+01   6.5845785063e+01    0.1497283    0.1219641  -7.46  0.000479081    1.074    0.069
       497  -8.2900    101.3067     29.0478   5.2155106748e+01   5.4929870511e+01    0.1757865     0.168333   4.11 0.0005678702    1.131    0.116
       498  -8.9148     81.6209     27.3875   5.7061893277e+01   5.9273838256e+01    0.2441128    0.2034299 -75.60 0.0008452192    1.762    0.432
       499  -9.6185      3.6202     27.0473   9.1476027845e+01   7.0445398686e+01     0.341601     0.157096 -59.21  0.001683581    2.870    0.652
       500  -8.9102     91.8276     26.4019   5.3707576855e+01   5.7278878863e+01    0.2689461    0.1804922 -40.58 0.0009351647    1.744    0.427
       501  -7.3266    145.6780     25.3737   4.1877968111e+01   4.5125066675e+01    0.1399039   0.09152744 -69.42 0.0007030664    1.812    0.448
       502  -8.1910     34.0757     22.9871   7.3676768832e+01   6.7942290513e+01    0.1598233    0.1507564  51.00 0.0005663903    1.672    0.402
       503  -8.3616    104.4869     22.5317   4.9059388858e+01   5.4953758196e+01    0.1305698    0.1138788  49.20 2.255123e-05    1.014    0.013
       504  -9.0567     63.5128     20.9659   6.0471867151e+01   6.3506551452e+01    0.2582187    0.2029513 -54.93 0.0008948417    1.925    0.481
       505  -8.8171     48.3671     21.6828   6.6677303305e+01   6.6013254412e+01    0.2040834    0.1990264 -73.99 0.0008736483    1.581    0.367
       506  -8.2784    120.6103     20.8450   4.4989166610e+01   5.1472376238e+01    0.1729279    0.1149558 -43.65 0.0009372407    1.714    0.417
       507  -8.4887     19.5148     21.5084   8.0393641051e+01   6.9917010040e+01    0.1815711   0.09764329  35.48 0.0008720228    2.095    0.523
       508  -8.9372     73.9716     19.2048   5.6190630246e+01   6.1724401913e+01    0.2610905    0.1664722 -39.90 0.0008627971    1.915    0.478
       509  -8.2594     87.7393     17.5862   5.1484659422e+01   5.9092935350e+01    0.1898391    0.1478276 -51.41 0.0005279646    1.670    0.401
       510  -8.3437     38.8098     18.1893   6.9282510269e+01   6.7918603768e+01    0.1689071    0.1514981   8.11  0.000806759    1.268    0.211
       511  -7.9116    112.6184     16.8121   4.5272298734e+01   5.3705739688e+01    0.1597846    0.1169036 -41.25 0.0003224615    1.575    0.365
       512  -8.3628     30.3932     16.2738   7.2386345553e+01   6.9340798611e+01    0.1747131    0.1392318  41.78 0.0007104618    1.678    0.404
       513  -8.5284      7.8199     15.8398   8.4401093345e+01   7.1912057627e+01     0.140341    0.1230784  -1.50 0.0005472887    1.345    0.257
       514  -9.1856    232.9267    246.7289   7.5448691902e+01  -9.5933732805e+00    0.3943091     0.184989 -32.48  0.001752054    1.961    0.490
       515  -8.2111     17.3723     14.2486   7.8226117173e+01   7.1194478192e+01    0.1429289   0.09895994 -38.99 0.0004603965    1.616    0.381
       516  -7.3604    119.7056     11.3113   4.2055909510e+01   5.2599173913e+01    0.1231252   0.09184001 -74.08  0.000612994    1.593    0.372
       517  -8.0333    191.3647    249.7071   8.3745915348e+01  -4.7742157254e+00    0.1148909   0.09263524  48.97 0.0007028487    1.709    0.415
       518  -8.9621    132.3817    248.0249   9.5707485120e+01   3.9381183358e+00    0.3220311    0.2144635  68.80 0.0007632106    2.313    0.568
       519  -8.5390    113.1389    248.6699   9.9917809016e+01   6.6343043063e+00    0.2111162    0.1721617 -84.12  0.001297915    1.487    0.328
       520  -9.4229    103.7238    246.8365   1.0172840275e+02   8.3413965849e+00    0.4284138    0.2565266 -84.27  0.002075208    2.520    0.603
       521  -9.2825    243.1951    246.3125   7.3575822145e+01  -1.0712767520e+01    0.4034844    0.1609553 -30.05  0.002052197    2.331    0.571
       522  -8.9510    218.6945    246.8694   7.8062104081e+01  -7.8969950531e+00    0.3645168    0.1135685 -35.05  0.001532804    3.256    0.693
       523  -9.1080    175.4785    247.6023   8.6611190359e+01  -2.2501905457e+00    0.2635692    0.2113055  56.27  0.001203598    1.748    0.428
       524  -8.1972    156.0748    248.0552   9.0689758893e+01   4.5854701943e-01    0.1859874     0.146437  57.55 0.0005374536    1.631    0.387
       525 -10.0292    223.9609    244.0722   7.6639652402e+01  -8.1468024046e+00    0.4448414    0.2303751 -46.52  0.002331327    2.493    0.599
