#   1 NUMBER                 Running object number                                     
#   2 MAG_AUTO               Kron-like elliptical aperture magnitude                    [mag]
#   3 X_IMAGE                Object position along x                                    [pixel]
#   4 Y_IMAGE                Object position along y                                    [pixel]
#   5 X_WORLD                Barycenter position along world x axis                     [deg]
#   6 Y_WORLD                Barycenter position along world y axis                     [deg]
#   7 A_WORLD                Profile RMS along major axis (world units)                 [deg]
#   8 B_WORLD                Profile RMS along minor axis (world units)                 [deg]
#   9 THETA_WORLD            Position angle (CCW/world-x)                               [deg]
#  10 FWHM_WORLD             FWHM assuming a gaussian core                              [deg]
#  11 ELONGATION             A_IMAGE/B_IMAGE                                           
#  12 ELLIPTICITY            1 - B_IMAGE/A_IMAGE                                       
         1 -14.0589      5.3828     76.0024   1.1727358968e+02   5.9387889035e+01     2.131033     0.620734 -68.06  0.009172495    2.610    0.617
         2 -15.5228      9.1209     26.5490   1.0346654162e+02   6.9443867179e+01     2.710983     1.052978 -49.19    0.0144432    1.872    0.466
         3 -13.3022     30.5277     10.5465   8.5825711914e+01   7.0260664612e+01     1.626915    0.5111341 -38.16  0.007302757    2.736    0.634
         4 -14.9277     37.4071     80.9614   1.0700888334e+02   5.5962670005e+01     4.477248    0.9323089 -51.38   0.01560521    3.357    0.702
         5 -14.0072     68.9375     54.2813   8.7691171614e+01   5.7792634439e+01       1.3662    0.9563515  40.77  0.004731206    1.606    0.377
         6 -15.1742     96.7201     71.5356   8.4094382020e+01   4.9650485312e+01     2.534811     2.059551  20.75  0.007163163    1.327    0.246
         7 -14.4979     24.1654     49.6097   1.0398524570e+02   6.3889450093e+01     3.678324     1.585888 -20.46   0.01438517    4.045    0.753
         8 -15.4863     60.8350     71.3068   9.6138281291e+01   5.5465667557e+01      2.40045      1.85986  17.34  0.002504688    1.452    0.311
         9 -12.7064    138.3190      4.2300   4.9088014739e+01   4.9995961823e+01     1.140136    0.3274271  60.34  0.004177822    2.723    0.633
        10 -12.9364     80.3721     32.0033   7.4962460552e+01   5.9704768828e+01    0.7998968    0.6362655  45.80  0.002380329    1.395    0.283
        11 -11.9410     73.1834      1.5527   6.3559233588e+01   6.4799577962e+01    0.3288243    0.1658797  53.34 0.0005196317    2.017    0.504
        12 -13.4884     83.7385     22.5867   6.9812324811e+01   6.0395986991e+01    0.8657024    0.6009216  46.27 0.0005397561    1.459    0.314
        13 -14.2659    120.5427     10.7955   5.4963678440e+01   5.3723240074e+01     2.377792     1.061251  66.28  0.003856751    2.374    0.579
        14 -14.2877     86.0635     12.0218   6.4393453164e+01   6.1209141207e+01     1.953927    0.5689613  48.16  0.007454549    2.949    0.661
        15 -14.2425     86.3111      3.5299   6.0456056597e+01   6.2021009305e+01     2.268079     0.428069  55.06  0.007222563    4.460    0.776
        16 -11.6511    149.5309     21.4999   5.3105249272e+01   4.5453714468e+01    0.5312704    0.3770801  59.99  0.002052513    1.295    0.228
        17 -13.1026    185.8260     13.1456   4.5014845437e+01   3.7043162162e+01    0.9374939    0.7557417   4.48  0.005220825    1.553    0.356
        18 -11.6137    188.1020      5.3641   4.2532234302e+01   3.7248620360e+01    0.3624402    0.2619905  12.14 0.0007981176    1.869    0.465
        19 -11.1287    193.4942      8.4556   4.2792774762e+01   3.5578088781e+01    0.2667331    0.2028987  55.65 0.0008924667    1.326    0.246
        20 -11.6091    192.6249      4.7945   4.1877821470e+01   3.6160652915e+01    0.3229059    0.2771686 -73.83 0.0009514468    1.092    0.084
        21 -12.5781     75.7405     13.4298   6.8371511906e+01   6.3049994792e+01    0.4951532    0.3477912 -31.62   0.00148973    1.501    0.334
        22 -12.0264    175.3992     13.4930   4.6468202043e+01   3.9680231733e+01     0.490922    0.3323166  28.01  0.002105685    1.862    0.463
        23 -11.4831    169.4601     10.7663   4.6450668878e+01   4.1483538980e+01    0.3650356    0.2710952 -80.97  0.001888465    1.422    0.297
        24 -11.6922    149.8945      8.8429   4.8757352998e+01   4.6670665269e+01    0.6350545     0.355847  75.87  0.002908286    1.843    0.457
        25 -10.5478    155.9057     10.3021   4.8291094487e+01   4.5002025631e+01    0.2497022    0.1809115 -61.03 0.0008919551    1.565    0.361
        26 -11.9325     64.9198     17.6671   7.4244808038e+01   6.4433342226e+01    0.4550475    0.3074512  17.80  0.001483806    1.455    0.313
        27 -10.3916     48.9853      4.6328   7.4235859301e+01   6.8605134828e+01    0.3042167    0.1726798 -29.10  0.001745845    1.654    0.395
        28 -10.6954    168.1963      2.4462   4.4060609274e+01   4.2591132621e+01    0.2458138    0.1908075  61.57  0.001393815    1.168    0.144
        29  -9.8000    211.9660      1.5116   3.9123135877e+01   3.1685318023e+01    0.1972317     0.116694  77.94 0.0006421697    1.544    0.352
        30 -13.0029    141.0956     95.3551   7.8822088045e+01   3.5404438797e+01    0.9763439    0.8159472  70.25   0.00395857    1.360    0.265
        31 -10.7015     34.0819    177.2395   1.2181563565e+02   3.3860085318e+01    0.2324159    0.1750948  -2.17  0.001386875    2.346    0.574
        32 -10.3096    100.9896    175.9912   1.0660023946e+02   2.5140206792e+01    0.1919679    0.1708038  73.54            0    1.012    0.012
        33 -11.5325    215.7445    162.4743   7.9026365732e+01   5.9364775934e+00    0.5236405    0.2852829   2.85  0.001584712    4.878    0.795
        34 -11.4413    188.6916     94.1122   6.7774769512e+01   2.4301622710e+01    0.4960105    0.3605905 -52.30  0.002024177    1.451    0.311
        35 -13.8117     42.6171     42.3977   9.3782257466e+01   6.3545657530e+01     1.147496    0.5940674  12.17  0.003958228    2.670    0.626
        36 -11.0920    114.3149     97.1647   8.6528496891e+01   4.0784837082e+01    0.3443764    0.2679288 -45.86  0.001681553    1.241    0.194
        37 -12.1895    120.8426     90.4204   8.2769858639e+01   4.0896323241e+01    0.8444246    0.5957049  61.25  0.003789015    1.699    0.411
        38 -12.3751    117.6058     66.4541   7.6185618436e+01   4.6392617061e+01     1.098233    0.5652135 -17.47  0.003354708    4.005    0.750
        39 -12.8006    128.2399     82.0509   7.8240223567e+01   4.1020135881e+01     0.609075    0.4671805 -48.10  0.002915351    1.323    0.244
        40 -12.7635    126.4183     72.9990   7.5895312673e+01   4.3204655909e+01    0.7235969    0.4319202  60.90  0.002697499    2.076    0.518
        41 -12.5791    121.6634     80.9933   7.9710896495e+01   4.2676138361e+01    0.6266821     0.520485  17.38  0.001611778    1.349    0.259
        42 -12.7972    115.3784     78.1318   8.0593754537e+01   4.4594771676e+01     1.142275    0.7071703 -14.51  0.004327096    2.602    0.616
        43  -9.8579    152.2670     88.2564   7.4021044086e+01   3.4230702424e+01    0.2148153    0.1867513 -82.25 0.0007102358    1.330    0.248
        44 -10.7646    249.1228     86.0441   5.5787287847e+01   1.1807563158e+01     0.341231    0.2724603 -69.07  0.001533852    1.405    0.288
        45 -11.4013    143.1354     83.5184   7.4835865949e+01   3.7319596668e+01    0.4841692    0.2424334  32.68  0.001622968    2.870    0.652
        46 -10.6306    148.5061     80.5566   7.2629173458e+01   3.6619303789e+01    0.3164852    0.2631946  20.34 0.0009081205    1.360    0.265
        47 -13.0898    144.2086     75.8201   7.2219036749e+01   3.8542530602e+01    0.7817075    0.5990466  73.79  0.003040625    1.587    0.370
        48 -12.0508    153.0492     72.9997   6.9250681458e+01   3.6924357305e+01    0.6417592    0.5415275 -40.19  0.002161138    1.185    0.156
        49 -13.3557     42.3322     47.8519   9.5819294206e+01   6.2529707158e+01    0.6228741    0.4980549   3.01   0.00131616    1.308    0.235
        50  -8.9939    207.6864     77.6826   5.9880490407e+01   2.2567423254e+01    0.1507832    0.1174835  16.84 0.0007036469    1.646    0.393
        51 -10.0110    170.3249     72.8018   6.5425661556e+01   3.2671559753e+01    0.3857558    0.2221445  73.90  0.001418313    2.488    0.598
        52 -10.1328    182.6840     72.0576   6.2760416022e+01   2.9696388700e+01    0.2375046    0.2070599  80.63 0.0003137385    1.217    0.178
        53 -10.9075    146.4316     66.5746   6.8777162127e+01   3.9688477842e+01    0.3199013    0.2709879  12.65 0.0008198538    1.327    0.246
        54 -11.4679    233.1567    154.1694   7.4042294473e+01   3.9846316229e+00    0.2538674    0.2244592  -4.89  0.001501905    1.008    0.008
        55 -11.1921    214.4545     60.7757   5.4317486475e+01   2.3611491359e+01    0.3853247     0.259408 -29.17 0.0008626567    1.512    0.339
        56 -10.6567    169.5061     62.9971   6.2645054994e+01   3.4542067597e+01    0.5094927     0.195998  53.75  0.001765258    2.489    0.598
        57 -12.1098    124.8381     57.3033   7.1106230618e+01   4.6417201108e+01    0.3671663    0.3175275  35.44 0.0005962354    1.141    0.124
        58  -9.0612    203.2778     58.3513   5.5341685700e+01   2.6731757390e+01    0.1467472    0.1155343  16.77 0.0005035946    1.644    0.392
        59 -10.5091    227.2351     57.0511   5.1585889559e+01   2.1107342142e+01    0.2494454    0.2003599  86.67 0.0003897197    1.307    0.235
        60 -11.3475    174.5688     56.4672   5.9686786370e+01   3.4299855881e+01    0.2717699    0.2600137 -83.20 0.0003307876    1.042    0.040
        61 -12.1992    133.9196     54.0078   6.7652842444e+01   4.4844327924e+01    0.5672382    0.3320331  61.46  0.001164023    1.910    0.476
        62  -9.5838    208.9659     55.5215   5.3713887320e+01   2.5745812559e+01     0.210314    0.1096017  40.70  0.000809637    2.504    0.601
        63 -10.5252    152.3305     53.7359   6.3304670214e+01   4.0374442193e+01    0.2783069    0.2360248  62.80 0.0002088866    1.186    0.157
        64 -10.5028    154.9927     52.2335   6.2249579852e+01   3.9940313316e+01    0.3112885    0.2359487  61.97 0.0006370305    1.323    0.244
        65 -11.4174    145.4135     50.5206   6.3769336074e+01   4.2602078794e+01    0.3399296     0.316744 -35.99 0.0006753643    1.102    0.092
        66 -11.7273     98.7866     50.1686   7.6049831162e+01   5.3254770405e+01    0.5515994    0.3266823  37.29  0.002537205    1.731    0.422
        67 -11.0334    137.4703     48.4702   6.4901589084e+01   4.4869586397e+01    0.3773504    0.3110342 -74.89  0.001896997    1.494    0.331
        68 -10.8727    139.8283     43.7670   6.2739637175e+01   4.5001629461e+01    0.4501377    0.2551073  62.84  0.001899534    1.880    0.468
        69  -9.7377    126.8846     48.8418   6.7627256692e+01   4.7338475783e+01    0.2281521    0.1918976  20.71 0.0005540917    1.233    0.189
        70 -10.8724    175.7899     45.3921   5.6107245704e+01   3.5642610363e+01    0.4924473    0.3723822  16.26  0.001983097    1.692    0.409
        71 -10.7728    181.7180     43.4174   5.4509565554e+01   3.4395684600e+01    0.2919241    0.2701625  69.74 0.0005309221    1.049    0.046
        72 -11.6065    157.5089     43.4717   5.8895645379e+01   4.0608887627e+01    0.3865139    0.2678399  46.72 0.0008079374    1.420    0.296
        73 -11.0929    122.2667     43.9145   6.7054277626e+01   4.9177267761e+01    0.2898273    0.2636595  -2.71 0.0006706431    1.089    0.082
        74 -10.6869    203.7345     43.5620   5.1205822610e+01   2.8766619899e+01    0.3399425    0.2315898  55.13  0.001358128    1.489    0.328
        75 -12.3904    216.0879     38.9524   4.8339121730e+01   2.6328215437e+01     0.815275    0.2863959  61.74  0.003070805    2.694    0.629
        76 -11.5998    203.4935     38.1510   4.9753350349e+01   2.9561497365e+01    0.5736184    0.3466118  50.80  0.002232544    1.739    0.425
        77 -10.7035    196.8927     41.6137   5.1640191904e+01   3.0762098104e+01    0.3397975    0.2211419 -22.32  0.001447772    1.735    0.424
        78 -10.5148    159.9592     36.2533   5.6084157297e+01   4.0977966593e+01     0.220084    0.2099666 -25.50 0.0002965476    1.102    0.093
        79 -10.8427    198.8129    153.9738   8.0490984068e+01   1.0799254442e+01     0.238355    0.1746486 -66.67  0.001094182    1.997    0.499
        80 -10.7988    190.1250    153.6698   8.2198123351e+01   1.2646252487e+01    0.2662886    0.2076818 -49.21  0.001341695    1.398    0.285
        81  -9.7229    138.5340    152.4845   9.3489595578e+01   2.3519205547e+01    0.1483107     0.142923  66.56 0.0001416066    1.011    0.010
        82 -11.5977    247.1628    145.8678   6.9835783435e+01   2.7011412073e+00    0.4449232    0.3495599 -74.77  0.002325171    2.097    0.523
        83 -11.3871     58.8256    144.8349   1.1222566289e+02   3.8478463394e+01    0.5159766    0.3476788  79.70  0.002731635    1.581    0.367
        84 -12.7941     49.3765    141.8845   1.1424480316e+02   4.0308302324e+01     0.783497    0.5282854  38.14  0.004290997    1.623    0.384
        85  -9.8447     90.3930    145.8124   1.0421343219e+02   3.3757181503e+01    0.2064351    0.1232304 -50.40 0.0009500253    1.687    0.407
        86 -10.9588    176.6741     33.4995   5.2343267489e+01   3.7028463059e+01    0.3076444    0.2540977  75.03 0.0007039053    1.173    0.148
        87 -10.2515     97.0284     33.9690   7.0360589778e+01   5.6179190393e+01    0.2210691    0.1929122  10.75 0.0007999884    1.057    0.054
        88 -10.6848    151.1901     31.9710   5.6332118014e+01   4.3774555244e+01    0.4542379    0.2304696  56.19   0.00192327    1.804    0.446
        89 -10.3284    104.0583     29.4916   6.6500889987e+01   5.5321528022e+01    0.2781884    0.1533641  40.28 0.0009424983    1.751    0.429
        90 -10.2209    108.7067     28.0583   6.4644231391e+01   5.4491984273e+01    0.3255502    0.1845921  47.28  0.001503428    1.642    0.391
        91  -9.6087    216.4539     28.4856   4.5569985233e+01   2.7585681111e+01    0.1358623    0.1255562 -77.07  0.000808269    1.046    0.044
        92 -10.1474    167.1703     26.7536   5.1788786189e+01   4.0321307805e+01    0.3368504    0.2219822 -70.10  0.001145662    1.876    0.467
        93 -11.7747    240.8251     22.6155   4.1653608066e+01   2.2537447849e+01    0.6180099     0.300955  86.68  0.001583288    2.360    0.576
        94 -11.5710    213.2993    142.0504   7.4974174927e+01   9.9578744000e+00     0.672218    0.3415883  57.06  0.002621708    2.584    0.613
        95 -10.8974    153.6780     20.6987   5.2098902117e+01   4.4487706412e+01    0.2989338    0.2012641 -29.74 0.0006293082    1.572    0.364
        96 -10.4384    139.3008     20.9366   5.4846787281e+01   4.8090991533e+01    0.3325671    0.1923246  46.11 0.0005848696    1.628    0.386
        97 -10.1810    143.4100     17.9963   5.3024369722e+01   4.7385391421e+01    0.2156453    0.1742976  59.71 9.787054e-05    1.139    0.122
        98 -10.8356    208.8978     18.9516   4.3923656754e+01   3.0584846855e+01    0.3457552    0.2511318 -57.20  0.001167005    1.319    0.242
        99 -11.8392     76.1938    138.8337   1.0670418415e+02   3.7575613005e+01    0.6278154    0.1818594 -59.41  0.002140507    3.108    0.678
       100 -11.3122     33.6983    135.7670   1.1750639025e+02   4.3405904906e+01    0.2609248     0.198405  76.67  0.001243281    1.260    0.206
       101 -11.4558     82.1253    134.1019   1.0425146671e+02   3.7829624421e+01    0.2748864    0.1905605 -66.62   0.00138415    1.371    0.271
       102 -10.7967    223.8464    134.2500   7.1229264675e+01   9.1451185173e+00    0.2879685     0.182407  43.08  0.001361809    1.640    0.390
       103 -12.9653    203.1186    124.7774   7.2845807370e+01   1.5263011840e+01    0.8654868    0.6155575  13.87  0.003877426    1.844    0.458
       104 -11.1351    122.4428    127.4227   9.2020250246e+01   3.2330665250e+01    0.4142239    0.3940469 -89.26  0.001367619    1.053    0.050
       105 -11.0598    190.4408    112.6516   7.2326683539e+01   2.0412802178e+01    0.6605862    0.2241752  50.02  0.002115224    2.995    0.666
       106 -10.1935    194.3288    248.6775   9.8320444369e+01  -3.2367257648e+00     0.110495     0.084753  56.95 0.0007049058    1.693    0.409
       107  -9.7968    249.6932    243.3154   8.7908374685e+01  -1.0694473760e+01   0.09448718   0.08507679  31.29 0.0003043882    1.627    0.385
       108 -10.0391    123.9933    205.9836   1.0591188186e+02   1.5133748646e+01    0.1826709    0.1585719  54.27  0.001134607    1.012    0.011
       109  -9.8474    240.7827     34.2151   4.4394840092e+01   2.1103080595e+01    0.2015863    0.1592481 -62.23 0.0006566978    1.134    0.119
       110  -9.5574    246.3983    183.7764   7.7861911012e+01  -2.8358602625e+00     0.176765    0.1088578 -19.62 0.0005410697    1.576    0.365
       111 -11.9949    135.3071     98.2752   8.1136017331e+01   3.6094800470e+01    0.6596097    0.4501707  27.01  0.002359017    1.811    0.448
