#   1 NUMBER                 Running object number                                     
#   2 MAG_AUTO               Kron-like elliptical aperture magnitude                    [mag]
#   3 X_IMAGE                Object position along x                                    [pixel]
#   4 Y_IMAGE                Object position along y                                    [pixel]
#   5 X_WORLD                Barycenter position along world x axis                     [deg]
#   6 Y_WORLD                Barycenter position along world y axis                     [deg]
#   7 A_WORLD                Profile RMS along major axis (world units)                 [deg]
#   8 B_WORLD                Profile RMS along minor axis (world units)                 [deg]
#   9 THETA_WORLD            Position angle (CCW/world-x)                               [deg]
#  10 FWHM_WORLD             FWHM assuming a gaussian core                              [deg]
#  11 ELONGATION             A_IMAGE/B_IMAGE                                           
#  12 ELLIPTICITY            1 - B_IMAGE/A_IMAGE                                       
         1 -15.2038    184.1760     28.3279   6.7401429719e+01   3.5554098745e+01     2.275625     1.421289  22.08   0.01006963    2.800    0.643
         2 -13.3858    202.6872      4.1251   5.9289028697e+01   3.3711759776e+01     1.073563    0.3715301 -40.09  0.004776096    2.798    0.643
         3 -10.3529     87.8778     13.0945   8.2092062376e+01   5.9308723632e+01    0.1730929    0.1571712  42.11  0.000338673    1.234    0.189
         4 -14.0593     65.3589    208.9773   1.3635520615e+02   2.3217966253e+01     2.774777     2.523522  23.65   0.01130334    1.517    0.341
         5 -10.5811     86.6463    204.4438   1.3124267185e+02   2.1037094499e+01    0.3043332    0.2347965  16.71   0.00161935    1.912    0.477
         6 -12.3079    117.4496    201.4653   1.2395285169e+02   1.6468170088e+01    0.5139152    0.2125765  41.89  0.002020744    2.232    0.552
         7 -10.7045     94.5100    199.7248   1.2885206596e+02   2.0819422529e+01    0.5302647    0.2619898  75.41  0.001696808    4.317    0.768
         8 -10.2416     57.7006    201.1031   1.3708791635e+02   2.6013734367e+01    0.1690005    0.1414142 -87.33 0.0002203285    1.092    0.084
         9 -13.1507    195.6012    195.2591   1.0560491864e+02   2.6250018076e+00    0.8786066     0.694917  78.78  0.003407848    1.845    0.458
        10 -12.6041    108.9725    211.1157   1.2728085828e+02   1.5882088142e+01    0.5979813    0.2644915  45.66  0.002541721    2.025    0.506
        11 -12.4029    112.2305    196.4538   1.2434514785e+02   1.8508536303e+01    0.5679231    0.3746256   7.44   0.00220432    3.274    0.695
        12 -11.6839    103.7186    194.5794   1.2600045201e+02   2.0422795278e+01    0.4096731    0.2647068  33.95  0.001970047    1.699    0.411
        13 -10.3428     90.6338    193.9175   1.2889445097e+02   2.2765050170e+01    0.2574568    0.1690475  66.46 0.0008742271    1.590    0.371
        14 -11.3439    177.4763    237.3708   1.1685289107e+02  -1.4483342819e+00    0.2364956    0.2098826  48.13 0.0006205887    1.161    0.138
        15 -12.4623    108.1047    204.9272   1.2657232581e+02   1.7367235677e+01    0.6078842    0.4547235  -5.39  0.002693635    2.417    0.586
        16 -11.5145    181.5049    232.8602   1.1530912071e+02  -1.4144938515e+00    0.2724213    0.1768566  45.14 0.0008363694    1.404    0.288
        17 -10.2311    157.4127    192.2984   1.1332158132e+02   1.0785004797e+01    0.1911835    0.1443282 -63.07  0.000447334    1.523    0.343
        18 -16.4431    111.1761    244.9340   1.3122979962e+02   8.7538042814e+00     6.110075     2.535592  36.22   0.02625103    2.504    0.601
        19 -11.5731    207.7107    184.9178   1.0103335648e+02   2.1947421275e+00    0.3737816    0.2958591  -9.09  0.001151843    1.381    0.276
        20 -11.5750    211.6648    181.3007   9.9489914683e+01   2.0953998863e+00    0.3470151    0.2638125 -19.46  0.001343769    1.400    0.286
        21 -12.2675    111.7943    183.2743   1.2227475119e+02   2.1572071686e+01    0.4940583    0.2649301  28.90  0.001747792    2.467    0.595
        22 -10.5477     89.8336    183.4776   1.2752008203e+02   2.5303324226e+01    0.4970844    0.2264481  57.13  0.001887519    2.684    0.627
        23 -11.9606     85.4727    179.4969   1.2794142172e+02   2.6936538042e+01    0.3032722    0.2522281 -52.61 0.0005389531    1.309    0.236
        24 -12.8061     88.1359    174.8720   1.2656772375e+02   2.7602901721e+01    0.5624169    0.3186397 -45.39  0.002488153    2.055    0.513
        25 -11.7421     98.0875    180.5248   1.2508603783e+02   2.4620221773e+01    0.4679037    0.2473319  41.79  0.002051207    1.849    0.459
        26 -10.5437    197.6423    176.1977   1.0129800388e+02   5.8608760094e+00    0.3752331    0.2524106 -60.98  0.001600958    1.975    0.494
        27 -11.3350    115.1682    210.9342   1.2590154352e+02   1.4839176095e+01     0.213264    0.1695458  71.11  0.000304085    1.226    0.184
        28 -11.3880    145.5575    168.3037   1.1134285473e+02   1.8412054902e+01    0.2769718    0.2447037  60.18 0.0005537518    1.121    0.108
        29  -9.0472    163.6565    169.2806   1.0730354306e+02   1.4397842137e+01    0.1564149    0.1211297  76.72 0.0003398422    1.633    0.388
        30  -9.8054     71.3091    166.3226   1.2934217665e+02   3.2215862171e+01    0.1358406     0.104993 -35.58  0.000411578    1.648    0.393
        31  -9.3938    120.2709    163.6620   1.1658433958e+02   2.4556655140e+01    0.1546825    0.1165876  84.92  0.000422273    1.602    0.376
        32  -9.4002    115.2284    162.0145   1.1752333648e+02   2.5907333824e+01    0.1931392    0.1235365 -55.00 0.0002888592    1.558    0.358
        33 -12.5486     11.8929    206.6219   1.4675074326e+02   3.0091364534e+01    0.4305604    0.3446469  52.28  0.003177204    1.378    0.275
        34 -12.7880     99.9348    156.8004   1.2040982601e+02   2.9938408462e+01    0.7050734    0.4331299 -39.42  0.003054002    1.956    0.489
        35 -19.3151     28.6400    140.1468   1.3631100807e+02   4.3513729883e+01     19.63731     2.871295 -67.86   0.04960298    6.753    0.852
        36  -9.9146    119.7145    155.9801   1.1516881252e+02   2.6473530269e+01    0.2885041    0.1870536  55.64    0.0012536    1.653    0.395
        37 -12.0027    133.7894    144.7630   1.0915055048e+02   2.6257485989e+01     1.153527    0.2853731 -53.67  0.002708158    5.416    0.815
        38 -11.0455    174.7842    148.9190   1.0026033347e+02   1.6368476628e+01    0.2958721    0.2229673 -64.82 0.0008177007    1.562    0.360
        39 -11.8696    145.2161    146.0125   1.0657626676e+02   2.3539455311e+01    0.3850095    0.3209474  60.48  0.001866269    1.240    0.193
        40 -12.2682    110.0271    140.9542   1.1449352038e+02   3.1893231403e+01    0.5794111    0.3560233 -34.62  0.001758812    2.035    0.509
        41 -12.4578     98.9007    141.5976   1.1762127682e+02   3.3769602457e+01    0.2855276    0.2766535   0.64 0.0005213465    1.151    0.131
        42  -9.5559     86.6320    143.2835   1.2128614862e+02   3.5436068175e+01    0.1517228     0.108827  72.27 0.0003623663    1.695    0.410
        43  -9.5602    167.6730    134.3211   9.8436028443e+01   2.1119606154e+01    0.1640889    0.1270625 -88.25 0.0007047753    1.686    0.407
        44 -12.0705    117.0882    130.9482   1.1031859281e+02   3.2880787182e+01    0.4592257    0.3489679  13.12  0.001334304    1.744    0.427
        45 -11.8919    105.2408    129.1692   1.1313469333e+02   3.5572298672e+01    0.5789958    0.3567371 -66.76  0.001940866    1.965    0.491
        46 -11.0979    160.0912    127.8578   9.8625551110e+01   2.4259512091e+01    0.3967305    0.2330677 -38.71  0.001417037    1.790    0.441
        47 -11.4853    125.6893    127.2223   1.0712381609e+02   3.1993067551e+01      0.30397     0.238664 -82.11 0.0009053878    1.576    0.365
        48 -10.6320     10.6089    232.5556   1.4868411454e+02   2.4924571130e+01    0.1226472    0.1062483 -75.44 0.0005614869    1.512    0.339
        49 -11.6593    135.3569    122.4787   1.0341090956e+02   3.1006828910e+01    0.5718341    0.1469743 -49.34  0.001482178    4.256    0.765
        50 -10.5577    111.4294    119.8542   1.0918061694e+02   3.6552921910e+01    0.2536261    0.2141636  40.61 0.0001264485    1.212    0.175
        51 -12.0399     72.6690    116.6579   1.1962881368e+02   4.3898766661e+01    0.3037756    0.2354226  79.47  0.001564455    1.648    0.393
        52 -10.8784    168.5354    113.4510   9.3021186364e+01   2.5334677216e+01    0.3617168    0.2789375 -75.16 0.0008499145    1.596    0.373
        53 -10.8221     93.0761    207.0961   1.3019130203e+02   1.9421041309e+01    0.2784412    0.1895868 -67.05 0.0007688329    1.482    0.325
        54 -10.4257    205.3489    110.2234   8.4605361576e+01   1.7231235469e+01    0.3156044    0.2132515  47.61 0.0009348095    1.538    0.350
        55  -9.6705     74.8538    227.8961   1.3648294597e+02   1.7822057200e+01    0.3132421    0.1489843  69.16  0.001353471    2.646    0.622
        56  -9.6300    134.4804    102.5021   9.8386528817e+01   3.5525874162e+01     0.153797    0.1524832  60.22 6.105723e-05    1.013    0.013
        57 -13.5427    170.1466     43.6326   7.3720157378e+01   3.7094619692e+01    0.6216882    0.5463954  50.80 0.0008011681    1.141    0.123
        58 -12.1302    116.7681    206.1975   1.2483863576e+02   1.5566124804e+01    0.3992267    0.1947469  55.22  0.001390782    2.188    0.543
        59 -12.2644    127.4208    206.0202   1.2244395842e+02   1.3670652782e+01    0.5955821     0.209778  54.06  0.001810577    3.932    0.746
