#   1 NUMBER                 Running object number                                     
#   2 MAG_AUTO               Kron-like elliptical aperture magnitude                    [mag]
#   3 X_IMAGE                Object position along x                                    [pixel]
#   4 Y_IMAGE                Object position along y                                    [pixel]
#   5 X_WORLD                Barycenter position along world x axis                     [deg]
#   6 Y_WORLD                Barycenter position along world y axis                     [deg]
#   7 A_WORLD                Profile RMS along major axis (world units)                 [deg]
#   8 B_WORLD                Profile RMS along minor axis (world units)                 [deg]
#   9 THETA_WORLD            Position angle (CCW/world-x)                               [deg]
#  10 FWHM_WORLD             FWHM assuming a gaussian core                              [deg]
#  11 ELONGATION             A_IMAGE/B_IMAGE                                           
#  12 ELLIPTICITY            1 - B_IMAGE/A_IMAGE                                       
         1 -13.2220    196.0912     41.5142   4.4762737744e+01   3.1111971422e+01     1.157328    0.9437135 -58.85  0.003556089    1.168    0.144
         2 -13.9390    204.7313     33.0449   4.1538644286e+01   3.0149940129e+01      1.61466     1.201027  -1.63  0.001332144    2.032    0.508
         3 -11.5535     32.8026     15.3321   7.9429466158e+01   6.9501231626e+01    0.4090764    0.1341553 -39.85  0.001810445    2.952    0.661
         4 -13.0946    228.9002      6.4840   3.3125102709e+01   2.7717113378e+01    0.8626158    0.6660733 -85.28  0.004761032    1.097    0.088
         5 -12.0754     42.1922      6.2302   7.0387069871e+01   6.9388187364e+01     0.437416    0.3057442 -10.44  0.002841814    1.283    0.221
         6 -11.3621     57.3835      4.7212   6.3216267167e+01   6.7090382850e+01    0.3489473    0.2771753 -40.57  0.002251675    1.725    0.420
         7 -11.3238    184.6665    211.3802   8.6302895193e+01   2.8385514299e+00    0.4827372     0.288126 -18.53   0.00221612    2.276    0.561
         8 -11.1004    139.9608    249.6380   1.0127556385e+02   3.6499244519e+00    0.4544315    0.2622803  42.21  0.002520673    1.424    0.298
         9 -11.0599    139.8844    244.3342   1.0061652551e+02   4.5403378349e+00    0.2712929    0.2013345 -58.58  0.001608168    1.675    0.403
        10 -15.4499     71.0927    148.3666   1.0288691666e+02   3.6190663845e+01     11.93687     5.771623  75.22   0.01187562    6.714    0.851
        11  -9.3968     91.4569    183.3607   1.0305151727e+02   2.4653129260e+01    0.2442079    0.2193279 -84.51 0.0006048151    1.092    0.084
        12  -7.9621     74.2934    184.3084   1.0742041095e+02   2.7005415871e+01    0.1293832    0.1063026 -32.62 0.0003477097    1.585    0.369
        13 -10.7123     99.3586    180.9921   1.0072538448e+02   2.3934558569e+01    0.2808785    0.2755786  80.30 0.0006049337    1.095    0.087
        14 -11.0864    193.1024    195.2969   8.1643784191e+01   4.1954812187e+00      1.11059    0.6738213 -69.57  0.003797353    4.767    0.790
        15  -9.8498    187.9454    176.3329   7.9012722891e+01   8.6204425565e+00    0.3320573    0.3094304  59.21  0.001086391    1.264    0.209
        16  -8.7613    148.5281    175.5348   8.7708392513e+01   1.6322422601e+01    0.2608453    0.1462814 -61.43 0.0006555935    2.346    0.574
        17  -9.9185    146.6365    172.1117   8.7489341393e+01   1.7422954443e+01    0.2969867    0.2412634 -87.59  0.001239804    1.575    0.365
        18 -10.9016     48.8291    171.1980   1.1211873696e+02   3.3456675064e+01     0.521978    0.2967057 -42.84  0.002327991    2.290    0.563
        19  -9.4596     44.8914    169.1274   1.1287078450e+02   3.4412439966e+01    0.2274557    0.1976161  79.84 0.0006867066    1.037    0.036
        20 -10.5568     48.8430    164.0874   1.1124768226e+02   3.5178010120e+01    0.5948909    0.3367152 -29.49  0.002448034    3.218    0.689
        21  -8.5858    194.1818    171.3890   7.6692794641e+01   8.3827894258e+00    0.2004604    0.1340237  49.25 0.0009471569    1.653    0.395
        22  -9.3686    185.4958    169.4419   7.8117715699e+01   1.0414798985e+01    0.2852413    0.1421418 -42.51 0.0008727128    2.020    0.505
        23 -10.4131    240.6196    169.1355   6.7421818962e+01   5.3902097889e-01    0.2048377    0.1843421  35.14 0.0006844382    1.304    0.233
        24  -9.7275    137.1522    167.2862   8.8839346467e+01   2.0311858425e+01    0.4070008    0.2063294  53.29  0.001521434    2.349    0.574
        25  -9.6195     89.9717    212.5933   1.0731104894e+02   1.8379724446e+01    0.2331001    0.1800771 -88.09 0.0005435708    1.348    0.258
        26 -11.6033     91.7053    151.9533   9.7768887211e+01   3.2148719429e+01    0.7263482    0.5505346 -10.19  0.003414981    1.881    0.468
        27 -11.1092    133.9327    145.6770   8.5122651044e+01   2.5864362500e+01     1.293999    0.3442718 -55.03  0.003013698    5.720    0.825
        28  -9.0130    112.1543    150.4699   9.1898387290e+01   2.8944784779e+01    0.4068327    0.2315717  69.19  0.001365596    3.247    0.692
        29  -9.3418    174.8928    149.0895   7.6025681121e+01   1.6636956457e+01    0.2349758    0.2128222 -88.48 0.0007071845    1.310    0.237
        30 -11.6131    111.7524    204.6013   1.0130393604e+02   1.6645955515e+01    0.4356288    0.3050747 -81.90 0.0009703172    1.750    0.428
        31 -10.3255    104.4167    138.0667   9.1429573301e+01   3.3348866844e+01    0.5699356    0.3515762 -26.63  0.002198508    2.460    0.594
        32 -18.2169     16.4190    212.0684   1.2297777687e+02   2.7654940962e+01     12.77152      4.39014 -81.08   0.05925064    2.693    0.629
        33 -11.6335     91.9183    137.8311   9.4947424119e+01   3.5586601511e+01    0.2928728     0.263915 -40.15 0.0003785986    1.157    0.136
        34 -10.1639    105.8863    130.9049   8.9426174924e+01   3.4810332231e+01    0.3683048    0.3325774 -75.95  0.001324357    1.149    0.129
        35 -10.1287    135.7303    128.1220   8.0566832922e+01   2.9514713863e+01    0.4557784    0.1812219 -50.39  0.001504896    2.633    0.620
        36 -10.3459    112.9838    129.0852   8.6989518565e+01   3.3903819631e+01    0.4198742    0.3353667  -9.49  0.001344788    1.595    0.373
        37 -11.2780    119.4118    122.8945   8.3697126810e+01   3.4092058343e+01    0.6885379    0.4617084  -7.16   0.00259091    2.603    0.616
        38  -9.3281    160.8702    128.0965   7.4305988022e+01   2.4070525105e+01    0.2500687     0.220488 -79.96  0.001238252    1.302    0.232
        39 -10.3540    100.1053    125.1284   8.9776954433e+01   3.7259262745e+01    0.3067024    0.2596257 -15.54 0.0008408831    1.379    0.275
        40 -11.9799    107.6732    203.9381   1.0215064315e+02   1.7454001383e+01    0.4995112    0.3563386 -84.33  0.001598854    1.671    0.401
        41  -9.9703    135.2176    117.9994   7.8168010774e+01   3.1903706147e+01    0.5730478    0.1210211 -43.73  0.001376643    4.877    0.795
        42  -9.2831    108.8101    118.3349   8.5593164194e+01   3.7250762864e+01    0.2321243    0.2073079 -62.07 0.0003813129    1.141    0.124
        43  -9.9514    231.3943    113.7665   5.7052703266e+01   1.1645967798e+01    0.2542413    0.2402564 -32.13 0.0007548744    1.060    0.057
        44  -8.8207    167.9372    112.9426   6.8865112155e+01   2.5649495494e+01    0.2623596    0.1974707 -82.53  0.001141155    1.829    0.453
        45 -11.3997    115.3605    109.7845   8.1502363424e+01   3.7929968266e+01    0.4867019    0.3318098 -51.38  0.002170729    1.481    0.325
        46  -9.6700    134.4301    106.2159   7.5266695792e+01   3.4665514235e+01    0.3101298    0.1576243 -49.26  0.001157548    2.048    0.512
        47  -9.7549     93.5640    205.6413   1.0563088442e+02   1.9320896093e+01    0.2685803    0.1532147  40.63  0.001312725    1.582    0.368
        48  -9.5593    205.2042    110.4035   6.0691672166e+01   1.7734030466e+01    0.3109221    0.2658621  42.37  0.001099612    1.251    0.201
        49 -14.0927     51.9211    201.9758   1.1467865205e+02   2.5930917952e+01     3.212898     1.141888  58.41   0.01064572    3.533    0.717
        50  -8.5802    129.5896     96.8462   7.3965138921e+01   3.7736208970e+01    0.2290633    0.1458363 -55.37 0.0009428916    1.781    0.439
        51  -9.9431     58.5828     96.7674   9.6356069868e+01   5.0563008714e+01    0.2586974    0.2238897  57.05 0.0007838832    1.346    0.257
        52  -8.8071     81.3942    185.0282   1.0577328242e+02   2.5803537074e+01    0.3402627    0.1637352  70.98  0.001105374    4.037    0.752
        53  -9.0472    157.2634     82.5574   6.3017545688e+01   3.4113790814e+01    0.2119303     0.142808  42.33 0.0006501722    1.541    0.351
        54  -8.4023    184.6195     77.1298   5.5979614619e+01   2.8451238286e+01    0.2051155    0.1423034 -23.45 0.0006694447    1.707    0.414
        55  -9.7083     61.1611     68.6131   8.7593312189e+01   5.6461468024e+01    0.2678149    0.2192658  60.18  0.001471902    1.656    0.396
        56 -12.9730    184.4000     50.9135   4.8953456174e+01   3.2651845927e+01    0.9399429    0.8587369  15.92 0.0009335495    1.327    0.247
        57 -10.4271    120.7408    195.1108   9.7772878764e+01   1.7162000019e+01    0.3216632    0.2033105 -74.21 0.0007698833    2.086    0.521
        58 -10.6075    163.0965    225.2634   9.3093192585e+01   4.0537874201e+00    0.3409558    0.1508727  29.03  0.001402219    2.423    0.587
        59  -9.3183     81.6943    195.0410   1.0703273905e+02   2.3458756815e+01       0.2959    0.2116674 -48.10  0.001576776    1.632    0.387
        60  -9.7349    198.3568     23.5504   3.9923558174e+01   3.2825291401e+01    0.2404211    0.2067282  -5.56 0.0008100959    1.542    0.351
        61 -10.7834    156.7078    220.1200   9.3643751465e+01   6.0248337902e+00    0.2462016    0.1653813  43.54 0.0007804958    1.367    0.269
        62  -9.0175    189.5086     15.0019   3.8764046734e+01   3.5913467148e+01    0.1845807    0.1265069 -34.72  0.000811761    1.564    0.361
        63 -10.4045    149.4695    188.2002   8.9867531889e+01   1.3479924551e+01    0.4930534    0.3227385 -86.31  0.001927406    3.006    0.667
        64 -10.8386    163.9933    217.2600   9.1634861039e+01   5.3077047937e+00    0.2756316    0.1760382 -25.03  0.001349813    2.015    0.504
        65 -10.1436    164.5892    212.7656   9.0770548757e+01   6.0142496004e+00     0.267144    0.1366522 -50.99  0.001197551    2.308    0.567
