#   1 NUMBER                 Running object number                                     
#   2 MAG_AUTO               Kron-like elliptical aperture magnitude                    [mag]
#   3 X_IMAGE                Object position along x                                    [pixel]
#   4 Y_IMAGE                Object position along y                                    [pixel]
#   5 X_WORLD                Barycenter position along world x axis                     [deg]
#   6 Y_WORLD                Barycenter position along world y axis                     [deg]
#   7 A_WORLD                Profile RMS along major axis (world units)                 [deg]
#   8 B_WORLD                Profile RMS along minor axis (world units)                 [deg]
#   9 THETA_WORLD            Position angle (CCW/world-x)                               [deg]
#  10 FWHM_WORLD             FWHM assuming a gaussian core                              [deg]
#  11 ELONGATION             A_IMAGE/B_IMAGE                                           
#  12 ELLIPTICITY            1 - B_IMAGE/A_IMAGE                                       
         1 -12.6712    169.1676     58.6953   6.0661008708e+01   3.5128224776e+01     3.380887     1.809249 -65.01    0.0111418    3.343    0.701
         2 -12.2272     81.1061     47.1158   7.9890056986e+01   5.7141791598e+01     1.473319     0.792785  20.60  0.005887568    2.770    0.639
         3 -11.8474     18.4457     34.8927   1.0107051519e+02   6.7376894441e+01    0.7321098    0.5502536 -65.37  0.003557776    1.625    0.385
         4 -12.1183      4.9550     19.0682   1.0200166417e+02   7.1199145634e+01     1.242022    0.6918179 -66.85  0.006773173    2.627    0.619
         5  -9.8699    207.4933     20.0213   4.3689405945e+01   3.0539399336e+01     1.064344    0.3689434 -62.00  0.002646991    6.832    0.854
         6 -10.7231    215.4066     28.4841   4.5018268499e+01   2.7561110608e+01    0.7884482    0.2944529 -54.25  0.002766786    3.239    0.691
         7 -11.5302     51.8741     25.7983   8.2257378014e+01   6.5317965089e+01     1.669832    0.9003271 -55.12  0.006946282    3.661    0.727
         8 -10.8109     67.7784     30.0684   7.7789157231e+01   6.2212923185e+01    0.6694491    0.5101584 -48.98  0.003812998    1.681    0.405
         9 -10.5460     63.2533     21.9457   7.5909094785e+01   6.4144660582e+01    0.7648068     0.597789  -5.02  0.004732683    1.122    0.109
        10  -9.8221     53.6982     11.3385   7.4660046829e+01   6.7080941734e+01    0.6079225    0.4980412 -38.06  0.003146092    1.553    0.356
        11 -10.9970     46.2306      7.5680   7.5917630391e+01   6.8679748377e+01    0.9280369    0.6278067  47.84  0.005548444    1.976    0.494
        12 -12.0367    130.1168     12.1972   5.2693547977e+01   5.1130397431e+01    0.5718188    0.2920432 -22.43  0.002172741    2.121    0.529
        13  -8.9087     80.9244     12.6976   6.5378050553e+01   6.2110549027e+01    0.2961805    0.1791857 -29.24  0.001304338    1.687    0.407
        14 -10.0186    142.1352     12.3420   5.0498588478e+01   4.8116439143e+01    0.2743894    0.2336324  -5.83 0.0006050722    1.297    0.229
        15  -8.8372      9.5767      1.4809   9.1442112778e+01   7.3734892996e+01    0.2447827    0.1390241  24.46  0.001337543    1.912    0.477
        16 -10.0161     16.1148      9.1472   9.1623380812e+01   7.2016165096e+01    0.3896526    0.3689445  85.42  0.002602693    1.961    0.490
        17  -9.6841     14.0487      3.3092   8.9828921469e+01   7.3078135627e+01    0.3033843    0.2041033 -23.42 0.0006214979    1.121    0.108
        18  -9.4985    157.8490      6.4364   4.5997041845e+01   4.4665304875e+01    0.2775495    0.1476781  34.44  0.001198443    2.299    0.565
        19  -9.2172    209.2732      4.4093   3.9455414630e+01   3.1782689395e+01    0.2211507    0.1946622 -84.25 0.0003274622    1.035    0.034
        20  -9.4731    143.5127      3.1048   4.7061691865e+01   4.8610450908e+01    0.3093167    0.2212779   3.06 0.0008436267    1.659    0.397
        21  -9.3649     90.0291      8.0253   6.0506497514e+01   6.0747648611e+01    0.5070118    0.2627666  38.13  0.002470157    1.765    0.434
        22  -9.0581    176.4727      2.7444   4.2425472280e+01   4.0216210830e+01    0.2983804    0.1530195  88.98 0.0008862555    2.167    0.539
        23  -8.6157    184.5732      1.8994   4.1262759729e+01   3.8223639371e+01    0.3858536    0.1710279 -87.34  0.001463991    2.896    0.655
        24  -7.6644    244.5192    132.5191   6.6673815003e+01   4.9357286484e+00    0.1395753    0.1244843 -29.20 3.886331e-05    1.084    0.077
        25 -12.3607    111.7789    243.3407   1.1249569578e+02   1.0199748928e+01    0.9070677     0.798939  49.71  0.004845443    1.185    0.156
        26  -7.3496    129.9995    107.0417   8.4288619412e+01   3.5268594397e+01    0.1787375    0.1742636 -47.63 0.0009332701    1.008    0.007
        27  -9.5659    243.6373    102.0041   5.9700034986e+01   1.0077681127e+01    0.3631221     0.180722  47.13  0.001571366    2.235    0.553
        28 -10.2703    164.3761     91.4949   7.1461576990e+01   3.0505684907e+01    0.4112634    0.2648029 -40.73  0.001751928    1.534    0.348
        29  -8.3949    128.0158     90.9597   8.0272917431e+01   3.9164879801e+01    0.2227217    0.2177871 -33.38            0    1.007    0.007
        30 -10.5148    242.8056     84.4962   5.5620468785e+01   1.3056508097e+01    0.4985771    0.1905324 -43.43  0.001901892    2.385    0.581
        31 -10.7564    160.6309     80.0333   6.8941814685e+01   3.3603005094e+01     0.629409    0.1879617 -35.25  0.001801198    3.507    0.715
        32 -11.3726    148.4932     81.4388   7.2178018696e+01   3.6316035151e+01    0.7091413    0.4779325 -82.15  0.002690861    2.511    0.602
        33  -9.5464    133.1019     82.1959   7.6275481817e+01   3.9806993519e+01    0.3184985    0.2584732 -33.42 0.0008199879    1.234    0.190
        34 -10.0658    133.3733     77.7810   7.4831842431e+01   4.0611637561e+01    0.4045541    0.2027088 -41.62  0.001549624    1.976    0.494
        35  -9.8604    123.9070     82.5560   7.8855008871e+01   4.1809027608e+01    0.3517865    0.2751842  23.81  0.001314843    1.452    0.311
        36  -9.9521     10.3874     77.3468   1.1525234315e+02   5.8979716668e+01    0.5282636    0.2789415 -74.98   0.00284793    1.753    0.430
        37 -11.1499      5.6361     66.1645   1.1484973837e+02   6.1718138574e+01    0.7762771    0.3731906 -66.96  0.004234679    1.671    0.402
        38 -10.7374    139.1754     40.3777   6.0923834177e+01   4.5517949433e+01    0.7194331    0.5724714  74.47  0.002576731    1.387    0.279
        39 -10.0381    184.4396     77.5931   6.3301447929e+01   2.8070414903e+01    0.4442609    0.3795282  14.63  0.001105791    1.368    0.269
        40  -8.0171    234.0775    132.5012   6.8408088135e+01   6.9984100716e+00    0.1979941    0.1409004  45.34 0.0004001816    1.504    0.335
        41 -11.0705     92.2817     68.5781   8.3797061848e+01   5.1091526643e+01    0.4277282     0.301919 -35.39  0.002114218    1.354    0.262
        42  -9.6032    112.1199     68.8392   7.7792529080e+01   4.7080475284e+01     0.233656    0.2165314 -74.87  0.001249713    1.251    0.200
        43 -10.2015    134.9286     67.2964   7.1070110826e+01   4.2211820612e+01    0.3549321    0.2734066 -30.08  0.000873989    1.321    0.243
        44 -11.9821     68.5602     61.0243   8.9385343475e+01   5.6599601285e+01     1.170568    0.6354399 -23.08  0.004795371    2.589    0.614
        45  -7.5539    250.4519    117.4650   6.2297447169e+01   6.2030519812e+00    0.1396584    0.1222662 -25.31 6.295033e-05    1.012    0.012
        46  -7.7100     37.7753     63.5881   1.0182825166e+02   5.9902577767e+01    0.1547645    0.1195622  38.04 0.0004861113    1.580    0.367
        47  -9.8539    135.6414     61.2830   6.8905021030e+01   4.3103379904e+01    0.3467899    0.2818992  48.06  0.001728983    1.211    0.175
        48 -10.6920    151.4535     71.0455   6.8273716115e+01   3.7519964246e+01    0.4315806    0.3337746 -74.92  0.001966716    1.645    0.392
        49 -10.2626    102.0383     37.6936   6.9478257089e+01   5.4548719236e+01     1.443449    0.1868107  45.64  0.003328806    6.836    0.854
        50  -9.3325     52.2875     58.4114   9.4613222233e+01   5.9367839873e+01    0.2333171    0.1288782  24.37  0.001137275    2.090    0.522
        51 -11.5739    101.2622     69.5030   8.1269845781e+01   4.9184433571e+01    0.8924806    0.3964492 -35.61  0.003191043    2.362    0.577
        52 -11.2358     95.2117     52.6401   7.7273173737e+01   5.3529583834e+01    0.4657867    0.3775919   3.12  0.002492253    1.292    0.226
        53 -10.7387    128.3765     47.8769   6.6112476256e+01   4.7042428454e+01    0.3737015    0.2973796 -13.30  0.001009434    1.348    0.258
        54  -9.0541    228.7404     48.1501   4.8476725194e+01   2.1725317959e+01    0.2788159    0.1736299 -29.29  0.001346053    1.637    0.389
        55  -9.1598    172.0150     49.9924   5.7448923971e+01   3.5734854862e+01    0.2153599    0.2090634  70.55            0    1.017    0.016
        56 -10.1814    235.6686     64.2119   5.1615646823e+01   1.7776104239e+01    0.6006661    0.1723495 -46.30  0.001909323    3.529    0.717
        57 -12.1999     93.0105    235.0274   1.1515082368e+02   1.4442976482e+01    0.8869646    0.3834453  41.41  0.004522363    1.942    0.485
        58  -9.1476    188.0885    232.8868   9.6753933421e+01  -5.3413211782e-01    0.1870508     0.156795  46.66 0.0007619936    1.277    0.217
        59 -10.2324    182.4784    228.1067   9.7084753997e+01   1.0844373937e+00    0.2951581    0.2116653  23.26  0.001764964    1.327    0.247
        60 -10.6303    220.9037     35.6257   4.6228121251e+01   2.5305635093e+01    0.5471902    0.2513432 -55.68  0.002201452    2.417    0.586
        61  -7.6193    203.4561    111.5090   6.8822643217e+01   1.7329408219e+01    0.1535009    0.1445027 -10.92 0.0002118886    1.062    0.058
        62  -8.4303    190.1128     36.6721   5.0511254032e+01   3.2909547376e+01    0.2437264    0.1845502 -45.83 0.0004803829    1.310    0.237
        63  -8.8429    173.9693     34.2286   5.2267193835e+01   3.7415784082e+01    0.1970616    0.1749695  71.16  0.001077138    1.067    0.063
        64 -12.2525     70.7468    247.4031   1.2025915100e+02   1.5401561833e+01     1.436145    0.4780225  46.16   0.00724252    2.221    0.550
        65  -8.3958     55.9682    219.9554   1.2077060659e+02   2.2362491526e+01     0.170865    0.1320958  68.63   0.00118594    1.021    0.021
        66  -7.8666    101.0941    214.9086   1.1141440534e+02   1.6939435172e+01    0.1470377    0.1354744  53.77 0.0009797078    1.198    0.165
        67  -7.9837     56.0831    214.8885   1.2032898673e+02   2.3342347646e+01    0.1683694    0.1177529  66.51            0    1.150    0.130
        68  -9.6986     10.1455    207.2741   1.2837833042e+02   2.9960663969e+01    0.4093046    0.2622306  24.41  0.002686281    2.307    0.567
        69  -8.4988    172.4270     25.2079   4.9739222053e+01   3.8929042179e+01    0.2039259     0.126197 -41.84 0.0007928251    1.662    0.398
        70  -7.9889    221.9614     22.2212   4.2721798787e+01   2.6722108760e+01    0.1845194    0.1567372 -87.93  0.001096959    1.084    0.078
        71 -10.3397    124.4030     67.4125   7.3866729830e+01   4.4641081589e+01    0.4366566    0.2819802 -48.37  0.000814005    1.667    0.400
        72  -7.8611     84.9412     21.2139   6.7911334078e+01   6.0311606825e+01     0.179546     0.174114 -47.13 0.0005025998    1.333    0.250
        73  -8.7479     18.0031     20.9975   9.5979506830e+01   6.9922640739e+01    0.1755388    0.1205978 -25.84  0.001167533    1.159    0.137
        74  -8.1343     15.0046     18.1874   9.6338263648e+01   7.0645861495e+01    0.1696135    0.1238869 -28.95            0    1.026    0.026
        75 -10.0536     75.0099     17.3128   6.9468970471e+01   6.2698500893e+01    0.2204706     0.184983 -13.97 0.0002608829    1.158    0.136
        76  -8.9644     17.0166    204.3810   1.2695795338e+02   2.9874793529e+01    0.2355169    0.2071124 -68.52  0.001116088    1.518    0.341
        77  -8.8208    139.9930     29.0210   5.6770212101e+01   4.6813960009e+01    0.2114093    0.1958619  43.34 0.0003160762    1.019    0.018
        78  -7.7022    189.9647     15.5033   4.4483964372e+01   3.5485592803e+01    0.2086012     0.127049  72.65 0.0006063757    1.521    0.343
        79  -8.2190    138.9618    199.0211   1.0133037228e+02   1.3634844750e+01    0.1930736    0.1675726  55.08            0    1.061    0.058
        80  -8.5420    132.9810    198.9998   1.0260278965e+02   1.4704110505e+01    0.1891981    0.1688053  46.60  0.001140654    1.053    0.051
        81 -10.4573    249.4434    194.0694   7.8796753369e+01  -5.1791385144e+00    0.5622799    0.3034909 -18.83  0.002859022    1.929    0.481
        82  -8.7911    222.9863    187.9861   8.2328525373e+01   1.1297130539e-01    0.1915827    0.1640743   8.23            0    1.003    0.003
        83  -9.8943    191.9593    170.0086   8.4752445901e+01   8.9376691579e+00     0.323246     0.152867  43.13  0.001321158    2.023    0.506
        84  -9.4291    248.9209    158.0670   7.1577492857e+01   9.7520916234e-02    0.3081783    0.2106006 -34.28  0.001125813    1.377    0.274
        85  -9.8437    189.3136    159.6881   8.3111601017e+01   1.1371386215e+01    0.2304005    0.1967373 -46.17 0.0006359536    1.261    0.207
        86  -9.5944    194.8349    156.1693   8.1203757890e+01   1.0886665457e+01    0.2131954    0.1735463   5.21 0.0009923031    1.334    0.251
        87  -7.9442    236.4904    145.8744   7.1029686558e+01   4.3115731605e+00    0.2127215    0.1275059 -34.21  0.001015847    1.544    0.352
        88  -9.9544     68.2656    143.9227   1.0921392084e+02   3.7489003147e+01    0.4775024    0.3461524  59.19  0.002585577    1.417    0.294
