#   1 NUMBER                 Running object number                                     
#   2 MAG_AUTO               Kron-like elliptical aperture magnitude                    [mag]
#   3 X_IMAGE                Object position along x                                    [pixel]
#   4 Y_IMAGE                Object position along y                                    [pixel]
#   5 X_WORLD                Barycenter position along world x axis                     [deg]
#   6 Y_WORLD                Barycenter position along world y axis                     [deg]
#   7 A_WORLD                Profile RMS along major axis (world units)                 [deg]
#   8 B_WORLD                Profile RMS along minor axis (world units)                 [deg]
#   9 THETA_WORLD            Position angle (CCW/world-x)                               [deg]
#  10 FWHM_WORLD             FWHM assuming a gaussian core                              [deg]
#  11 ELONGATION             A_IMAGE/B_IMAGE                                           
#  12 ELLIPTICITY            1 - B_IMAGE/A_IMAGE                                       
         1 -12.3751     41.7314    119.7145   1.1700407296e+02   4.6442765278e+01     1.893798     0.856043  77.08  0.007684141    2.920    0.658
         2 -13.3144     91.1362     41.2333   7.9777750474e+01   5.6987742561e+01     4.237419     1.712891  54.21   0.01465906    2.935    0.659
         3 -12.8385     39.1834    139.0367   1.1974058589e+02   4.2260065943e+01     3.667465     1.382792  83.80   0.01354367    3.812    0.738
         4 -13.4589     66.4810    134.0359   1.1164711284e+02   4.0168978453e+01     2.917505     1.547943 -73.15   0.01406085    1.943    0.485
         5 -11.5699    108.3049     34.2254   7.1295412423e+01   5.4295533690e+01     1.111925    0.6771566  29.85  0.004545267    2.090    0.522
         6 -12.8438    118.4330     92.4282   8.8260532231e+01   4.0661338986e+01      2.96121     1.188102  56.03  0.007278295    3.552    0.719
         7 -13.2505    113.6842     73.2991   8.4063463754e+01   4.5688707551e+01     3.565526     2.237536  61.04   0.01501347    1.893    0.472
         8 -12.2796    119.6109     62.5416   7.8826700647e+01   4.6501761345e+01     2.357386    0.9341369 -30.16  0.005694536    3.656    0.726
         9 -12.7402    126.0712     30.5542   6.5041157433e+01   5.0380860168e+01     2.853708     1.737339  -1.36  0.009892438    2.418    0.586
        10 -12.5690     94.6532    106.0879   9.8526096249e+01   4.2235984157e+01     2.812333     1.263757 -49.14   0.01118768    2.281    0.562
        11 -10.7317    102.6044     20.6577   6.6880156399e+01   5.7770723149e+01    0.9140445    0.5286773 -15.13  0.003781925    2.081    0.519
        12  -9.1897    110.0335     12.4472   6.0978434039e+01   5.6978045038e+01    0.3674553    0.1972727 -34.75  0.001101369    1.862    0.463
        13  -9.3467     97.5175     12.0395   6.4139815063e+01   6.0186606311e+01    0.3000754    0.2112203 -13.42  0.001231832    1.506    0.336
        14  -9.9527    105.9238      2.5448   5.7120073706e+01   5.9145667613e+01    0.4103815    0.3027168  58.27  0.001516052    1.288    0.224
        15 -10.4324    105.4814      8.0301   5.9972177807e+01   5.8668898409e+01    0.6495132    0.3727683  49.94  0.002894547    1.639    0.390
        16 -10.4556     98.6030      6.8331   6.1165650189e+01   6.0549730774e+01     0.800102    0.3092597  48.56  0.002723075    2.406    0.584
        17 -10.5017     91.6269     15.5564   6.7727928596e+01   6.1135222771e+01    0.8014417    0.2385599 -25.76  0.002376628    4.002    0.750
        18 -10.1354     88.1586     12.6467   6.7345007954e+01   6.2350382781e+01    0.5602977    0.3654445   5.20  0.002508928    1.964    0.491
        19  -9.4423     81.7519     18.6198   7.2700963012e+01   6.2930632074e+01    0.3036401    0.2361545  48.20 0.0008722963    1.306    0.234
        20  -8.5653      3.5910      5.1895   1.1168724204e+02   7.6570028021e+01     0.174875   0.08244894 -54.13 0.0006000358    1.600    0.375
        21  -8.0591    171.6618      3.5260   4.6901537474e+01   4.1057944338e+01    0.1419077    0.1326919 -49.00 -1.35897e-05    1.060    0.056
        22  -8.2267     49.9816      1.1825   7.6380272760e+01   7.1902267262e+01    0.1601653    0.0982686  43.93 0.0003267552    1.700    0.412
        23 -11.5967     50.6109    222.8457   1.2295263747e+02   2.4780480609e+01    0.9624758    0.4695785 -44.48  0.004650819    4.980    0.799
        24 -11.5061    238.0429    241.0757   9.1681468664e+01  -1.9779694569e+00    0.3703091    0.2674334  19.82  0.001973189    1.162    0.139
        25 -10.9716    245.8680    248.0786   9.1442930655e+01  -3.4594881972e+00     0.492913    0.2139454  37.57  0.002866671    1.907    0.475
        26 -10.9044    249.9447    240.8440   8.9890739440e+01  -3.3845733071e+00    0.4183136     0.202846 -24.87  0.002942386    2.269    0.559
        27 -10.5888    195.1711    248.7417   9.9333716583e+01   2.7473563598e+00    0.3004553    0.1878289  22.63   0.00224683    1.246    0.198
        28 -11.9291    165.7597    248.9268   1.0421038886e+02   6.5798397386e+00      1.13955    0.3110953  40.93  0.005540628    2.653    0.623
        29 -11.8104    173.7200    244.0084   1.0233298633e+02   6.0475707553e+00    0.7037336    0.5037291  64.26  0.004813232    2.411    0.585
        30 -11.0188    167.8408    242.5101   1.0316364252e+02   6.9991507480e+00    0.3864752    0.1861543  41.89  0.001592656    1.611    0.379
        31 -10.0945    160.5322    227.4836   1.0272816261e+02   9.7503182064e+00     0.279628    0.1795529  29.29  0.001270716    1.250    0.200
        32 -11.3977    164.5180    226.5557   1.0190607225e+02   9.2971484292e+00    0.5214424    0.2791841  29.72  0.002541878    1.550    0.355
        33 -11.1097    162.5400    234.3085   1.0316114662e+02   8.6537466781e+00    0.5482271    0.2483652  36.77  0.001886213    1.603    0.376
        34  -9.7047     17.9218    249.4483   1.2973745717e+02   2.3978881565e+01    0.2850435   0.06754303  43.34  0.001700151    2.171    0.539
        35  -8.5460      6.9976    250.3335   1.3154350818e+02   2.4830133893e+01    0.1329926    0.0810253  49.33 0.0006785104    1.089    0.082
        36 -11.4290     51.8023    215.9773   1.2235138247e+02   2.5776249200e+01    0.8991106    0.4608035 -44.54    0.0046208    4.125    0.758
        37 -10.9802      7.2569    229.7446   1.3109410736e+02   2.7922531634e+01    0.4068677    0.2912145  44.86   0.00220403    1.247    0.198
        38 -11.1967     13.7238    222.8153   1.2978089601e+02   2.8462986730e+01    0.4773763    0.3151417  35.20  0.003528489    1.462    0.316
        39  -9.6604     19.7658    222.9984   1.2868988288e+02   2.7880586131e+01    0.2628801    0.1569056  30.38  0.001392509    1.704    0.413
        40 -11.8303      6.5312    213.9563   1.3087300477e+02   3.0561438015e+01    0.8134519    0.3963201  46.08   0.00575502    1.416    0.294
        41 -11.3547     12.0328    206.8883   1.2965406507e+02   3.1294489286e+01     0.761935      0.35287  36.66  0.004993252    1.734    0.423
        42  -9.4350    243.3024    228.3333   8.9146171841e+01  -1.5715883761e+00    0.1502971    0.1076983  -9.86  0.001203682    1.410    0.291
        43 -11.4873    125.7030    221.0289   1.0843988687e+02   1.5541270897e+01    0.4244621    0.3640763 -38.88 0.0007563884    1.565    0.361
        44  -9.3204    114.8887    228.7902   1.1123754290e+02   1.5931170832e+01    0.2141116    0.1626251 -56.16  0.001582338    1.768    0.434
        45 -11.0682     99.2377    227.0958   1.1402648239e+02   1.8251565320e+01    0.4642484    0.2833561  33.53  0.002341192    1.409    0.290
        46  -8.8773    104.4781    225.4786   1.1289649421e+02   1.7800406198e+01    0.1606699    0.1328549  71.24 0.0007080858    1.330    0.248
        47 -10.0624    108.3319    223.0004   1.1194065121e+02   1.7649660036e+01     0.296038    0.2280986  14.47  0.001492047    1.658    0.397
        48 -10.3353    185.0417    226.8443   9.8345638093e+01   6.3597290874e+00    0.2277452    0.2035947   6.29  0.001235168    1.317    0.241
        49  -9.5202    181.4750    227.0342   9.8985141800e+01   6.8401804636e+00    0.2568681    0.1759475 -12.81  0.001783763    1.798    0.444
        50  -8.5051    144.8050    228.7191   1.0570805383e+02   1.1815074146e+01    0.1783248    0.1098505  28.08 0.0007479764    1.433    0.302
        51  -8.7479     20.4204    228.2638   1.2873197916e+02   2.6971165483e+01    0.2300197    0.0907001  62.48  0.001449999    1.958    0.489
        52 -10.7785     99.5923    218.9326   1.1325437176e+02   1.9433631770e+01    0.5734965    0.2730393  52.77  0.003246001    1.887    0.470
        53  -9.8176     88.5151    224.4711   1.1584829989e+02   2.0026743010e+01     0.473301    0.1326983 -55.31  0.002179454    4.605    0.783
        54  -8.9912     91.4789    221.0004   1.1500155384e+02   2.0180112538e+01    0.2006696    0.1417567 -61.05  0.001428051    1.827    0.453
        55 -10.9420    128.5797    225.7665   1.0838714537e+02   1.4477024589e+01    0.4482643    0.2610138 -55.83  0.002896823    2.322    0.569
        56  -8.9104    190.9256    223.2287   9.6865028387e+01   5.9290048566e+00     0.190575    0.1007848  20.23  0.001089155    1.973    0.493
        57  -9.4835    157.6732    221.9836   1.0259110580e+02   1.0842880490e+01     0.202561    0.1710185  16.82 0.0007300304    1.219    0.180
        58  -9.2868    114.8758    221.5962   1.1055874971e+02   1.6964709102e+01    0.2090655    0.1662588 -17.05 0.0009904837    1.891    0.471
        59 -10.8014    131.8901    217.6357   1.0690005845e+02   1.5144460161e+01    0.5194322    0.2992792 -69.31   0.00296765    2.861    0.650
        60  -9.1646    148.8397    220.4084   1.0402778022e+02   1.2322590925e+01    0.1802814    0.1572844 -15.41 0.0007052076    1.437    0.304
        61  -8.7330     75.1799    219.8715   1.1806610398e+02   2.2409819292e+01    0.1692411    0.1100136  52.22 0.0005298075    1.170    0.146
        62  -9.2529    192.1468    218.0894   9.5963442525e+01   6.3242684484e+00    0.2152546    0.1519836  30.34  0.001523255    1.075    0.069
        63  -9.2740    143.8665    216.1646   1.0446009813e+02   1.3615969695e+01    0.2265398    0.1606334 -35.11  0.001509898    1.870    0.465
        64 -10.1390    236.4975    230.4550   9.0473176549e+01  -8.9831297324e-01    0.2528548    0.1912946 -26.36  0.001640046    1.791    0.442
        65  -9.3387    112.2653    214.3514   1.1034916690e+02   1.8406509090e+01    0.2242478    0.1872643  -8.29  0.001370738    1.701    0.412
        66  -9.2692    118.7393    215.0058   1.0915203180e+02   1.7399336542e+01    0.1753965    0.0978148  51.53 0.0007276474    1.621    0.383
        67  -8.2610    208.3007    213.3292   9.2546153748e+01   4.5307671483e+00    0.1151048   0.06925364  13.33 0.0004972411    1.644    0.392
        68  -9.7258     78.1103    211.0202   1.1682673877e+02   2.3486416948e+01    0.3023228    0.2590474  34.67  0.002114146    1.303    0.233
        69  -9.5375    175.9050    216.6714   9.8626600290e+01   8.8470972340e+00    0.2265375     0.170103 -28.61    0.0012703    1.639    0.390
        70  -8.8224    115.8260    210.5206   1.0925436135e+02   1.8491362036e+01    0.2011065    0.1411435  78.51 0.0008485675    1.872    0.466
        71  -9.5413    202.8136    209.2921   9.2885667148e+01   5.7600580320e+00    0.2567105    0.2049377  16.67  0.001227172    1.099    0.090
        72  -8.8735    246.4992    209.4847   8.5880850940e+01  -3.3511298034e-01    0.1097424   0.07677419  14.55 5.855925e-05    1.012    0.012
        73  -8.8718    134.7834    208.6399   1.0531541232e+02   1.6019478511e+01    0.2583772    0.1073042  41.80  0.001079999    1.861    0.463
        74 -10.0455    212.8284    207.4877   9.0927275681e+01   4.5043826641e+00    0.2316922    0.1626266  29.61   0.00127663    1.144    0.126
        75 -10.1427    123.9957    205.9969   1.0713583372e+02   1.8006615777e+01    0.1694138    0.1312093  42.33  0.001157762    1.011    0.011
        76  -8.1946     99.3368    206.6372   1.1216415978e+02   2.1413021369e+01    0.1255254   0.07100273  59.89 0.0007035274    1.824    0.452
        77 -10.6050    246.2798    230.0459   8.8942932519e+01  -2.0830222070e+00    0.2302201    0.1335325   1.15 0.0008698614    1.581    0.368
        78  -7.7097    162.3742    208.2766   9.9989762900e+01   1.1927189174e+01     0.120434   0.07712441  18.41 0.0007006133    1.694    0.410
        79 -10.0804     74.5345    200.8948   1.1674498229e+02   2.5660130299e+01    0.3732148    0.2338099  17.15  0.002092009    2.363    0.577
        80  -9.3795    250.3195    198.6472   8.3595201991e+01   1.5163969464e-01    0.2438173    0.1216784 -20.62  0.001265642    1.960    0.490
        81  -9.2147     89.1574    199.5890   1.1358317287e+02   2.3977677420e+01    0.2258267    0.1448952  61.79 0.0009489007    1.489    0.329
        82  -8.3817    149.2323    198.8593   1.0124837543e+02   1.5257109760e+01    0.1934745    0.1212169  68.79 0.0009477916    2.901    0.655
        83 -11.0864    173.6922    195.4694   9.6062682695e+01   1.1888504599e+01    0.4211096    0.3868544  27.60   0.00210517    1.214    0.176
        84  -8.6607    165.0209    198.2110   9.8103688491e+01   1.2881147235e+01     0.200754    0.1157031  20.62 0.0007975947    2.008    0.502
        85  -9.6828    126.5903    197.1991   1.0557095475e+02   1.8993273526e+01    0.2453375    0.1986208  17.91  0.001130425    1.381    0.276
        86  -8.0247    112.3534    197.6788   1.0855677120e+02   2.1036496816e+01    0.1274861   0.07683763  59.09 0.0007047087    1.753    0.430
        87  -8.4098    131.7863    195.6044   1.0431140169e+02   1.8452172471e+01    0.1793628   0.09151193  45.70 0.0009409887    1.648    0.393
        88  -9.6531    180.5406    193.1989   9.4440289275e+01   1.1105561974e+01    0.3316342    0.2194231 -59.63  0.001670963    2.713    0.631
        89  -8.9133    135.5231    193.4950   1.0327644537e+02   1.8205164784e+01    0.2796333    0.1609109  62.19  0.001381206    2.476    0.596
        90  -9.1377    124.4002    192.2869   1.0541159171e+02   2.0117801112e+01    0.2251341     0.176373  51.48 0.0005651482    1.157    0.135
        91  -9.3271     59.9240    191.9765   1.1913136564e+02   2.9053701604e+01    0.2216728    0.1511592 -69.10 0.0008362907    1.666    0.400
        92  -8.0036    113.2999    192.2858   1.0773589734e+02   2.1795304260e+01    0.1118869   0.08984502  12.69 0.0003376317    1.554    0.356
        93  -8.6035    138.9917    189.8188   1.0207365082e+02   1.8238149793e+01    0.2198151    0.1677641 -87.29  0.001322842    1.915    0.478
        94  -9.4139    140.8665    184.8317   1.0098935708e+02   1.8730120855e+01    0.3782671    0.2086072  24.52  0.001832822    2.180    0.541
        95  -8.1913    136.6854    183.3161   1.0164419297e+02   1.9651111293e+01    0.2039522    0.1447461  43.98 0.0007976987    1.188    0.159
        96  -9.1035    138.4049    180.1600   1.0082809972e+02   1.9889155445e+01    0.2585388    0.1848044 -80.08  0.001274453    2.141    0.533
        97  -9.5891    203.5337    188.4120   8.9525000554e+01   8.0740711978e+00    0.3267661    0.2060736  47.60  0.001846196    1.757    0.431
        98  -8.9502    156.1859    187.9645   9.8335448005e+01   1.5760705216e+01    0.1814401    0.1529332  54.47  0.001051612    1.309    0.236
        99  -8.1915    129.3445    188.6868   1.0391663736e+02   1.9940567995e+01    0.1276078   0.08433262  60.27 0.0007046905    1.709    0.415
       100  -8.8150    120.6291    186.9001   1.0552065330e+02   2.1593113427e+01    0.2562416    0.1232292 -60.17  0.001184105    2.668    0.625
       101  -9.6626     95.1182    187.2722   1.1106440057e+02   2.5316739124e+01    0.4908592    0.1795182  52.34  0.001772709    2.854    0.650
       102  -9.3596    229.7893    185.6141   8.4631925956e+01   4.3669143678e+00    0.1651004     0.158262 -62.46 0.0009022136    1.847    0.459
       103  -8.8983    198.4951    185.4986   8.9938305531e+01   9.2315393143e+00    0.2851275    0.1620945   0.94  0.001387361    2.606    0.616
       104  -8.5668    197.5061    181.9989   8.9532748262e+01   9.8340401150e+00     0.222054    0.1460484 -30.73 0.0008556679    1.691    0.409
       105  -8.5858    148.6215    186.7859   9.9682119789e+01   1.7166902259e+01    0.1501499    0.1209925 -65.75 0.0008507243    1.667    0.400
       106  -8.9016    108.9905    185.6382   1.0786182753e+02   2.3581888538e+01    0.3289996    0.1601101  64.29  0.001347987    3.404    0.706
       107 -10.2274    211.0287    183.2317   8.7358325133e+01   7.5177742079e+00    0.4254318    0.2493987  14.93  0.002354632    1.829    0.453
       108  -8.1179     66.3342    185.6555   1.1723140002e+02   2.9452986828e+01    0.1308787   0.06924929  60.35 0.0007049927    1.764    0.433
       109  -9.2184    174.2344    183.2547   9.4075123982e+01   1.3484835559e+01    0.2027216    0.1657352 -82.40  0.001126693    2.053    0.513
       110  -9.2526    175.2556    179.1673   9.3215075990e+01   1.3895754123e+01    0.2821173    0.1680949  12.74  0.001170702    2.330    0.571
       111 -10.0398     13.8345    182.7237   1.2850364076e+02   3.5545605451e+01    0.3502117    0.2421194  -1.31  0.002238499    2.541    0.606
       112  -8.2489    218.0029    182.7297   8.6084781689e+01   6.4850479068e+00    0.1647557    0.1268953  19.93 0.0004197332    1.032    0.031
       113  -8.1495    165.6420    182.7276   9.5663684847e+01   1.4983938410e+01     0.128261   0.08603973  17.37 0.0004586138    1.648    0.393
       114  -9.7588    183.2735    180.7674   9.1949360488e+01   1.2333957188e+01     0.227423     0.176392  53.53  0.001289858    1.551    0.355
       115  -8.6040    157.0376    181.2906   9.7154348864e+01   1.6629088504e+01     0.182696    0.1393216  34.65  0.000439704    1.089    0.082
       116  -9.3702    147.8876    181.1516   9.8998988006e+01   1.8168362451e+01    0.1957234     0.153947  58.00   0.00103836    1.398    0.285
       117 -10.5163    204.7536    176.1067   8.7227963800e+01   9.4010241442e+00    0.3705717    0.2362342 -23.74  0.001879317    1.671    0.401
       118 -10.3476    208.3689    170.2537   8.5550431711e+01   9.5455574365e+00    0.4822513    0.2627677  20.77  0.002220944    2.046    0.511
       119 -10.4874    214.4023    167.7721   8.4049867648e+01   8.8566159821e+00    0.7387677    0.2813084  30.35  0.002997216    3.033    0.670
       120  -8.5691     95.5119    178.9788   1.1004521410e+02   2.6775037029e+01    0.1621845   0.09980001 -36.39 0.0008105036    2.614    0.617
       121  -9.2029    232.1787    177.3323   8.2813795241e+01   4.9101683882e+00    0.1969739    0.1352159  -6.37  0.000697629    1.345    0.257
       122  -8.1481    120.3240    178.3252   1.0445297177e+02   2.3118832030e+01    0.1223703   0.09625939   5.64 0.0007048398    1.688    0.408
       123  -8.2292    129.7092    177.3987   1.0228293733e+02   2.1772597246e+01    0.1293473   0.09164397  69.44 0.0006998518    1.793    0.442
       124  -8.3458     87.7593    177.2099   1.1159678229e+02   2.8215686432e+01     0.197167    0.0934232  27.96 0.0008882194    2.459    0.593
       125  -9.2026    183.3226    174.0433   9.0805566162e+01   1.3259829081e+01    0.4221478    0.2030093 -19.79  0.001673672    3.765    0.734
       126  -9.7641    149.1187    175.0620   9.7806322866e+01   1.8937687586e+01    0.2815857    0.2439485  25.43  0.001409772    1.099    0.090
       127  -9.4864     76.5883    175.6181   1.1398263791e+02   3.0053550107e+01    0.3353384     0.169696  57.01  0.001239738    1.902    0.474
       128  -9.0587    105.3223    174.9554   1.0734233518e+02   2.6061605927e+01    0.2800844    0.1551781  68.50  0.001074184    2.622    0.619
       129  -8.2851    218.2745    174.0533   8.4524621203e+01   7.4612792223e+00    0.1422219   0.09789622 -19.48 0.0006370968    1.456    0.313
       130  -9.7203     37.5153    171.5522   1.2268071921e+02   3.5500393218e+01    0.4247537    0.2561529 -43.13  0.002348797    2.669    0.625
       131  -8.4089     20.2705    173.4997   1.2671597912e+02   3.6775568763e+01     0.240823    0.1032154  77.84  0.001280078    2.182    0.542
       132  -8.6796    193.4399    173.0899   8.8744214882e+01   1.1676554858e+01      0.21334    0.1405672  28.63  0.000519843    1.321    0.243
       133 -10.5941     52.4484    120.6093   1.1388917361e+02   4.5034210725e+01    0.6134524     0.272194 -57.70  0.002770271    2.203    0.546
       134 -10.6724     23.2983    103.1145   1.2097717263e+02   5.2112804849e+01     1.105163    0.3905125  72.22  0.003705734    4.416    0.774
       135  -8.9730    107.5072    249.0083   1.1428123487e+02   1.4157172364e+01    0.1845019    0.1149548  29.93 0.0006083167    1.467    0.318
       136 -11.2816     64.2135     77.4069   1.0190373432e+02   5.3876441010e+01    0.8108087    0.7151862  12.88  0.004630875    1.327    0.246
       137 -12.2232     57.9157     89.1805   1.0686951425e+02   5.1902349314e+01     3.138314     1.047075  28.30   0.01091885    3.615    0.723
       138  -9.5497    161.8980    170.4628   9.4418719875e+01   1.7479525635e+01    0.2803094    0.2020481  35.86  0.001633972    1.183    0.155
       139  -8.8462     14.8713    170.9360   1.2781481990e+02   3.7759208043e+01    0.2302498    0.1376836  13.54  0.001138757    2.406    0.584
       140  -9.3188    121.6515    168.9017   1.0282295234e+02   2.4588501515e+01    0.4299211    0.2457731 -78.01  0.001866539    3.158    0.683
       141  -8.2562    198.8124    167.4176   8.6745764671e+01   1.1526691455e+01    0.1824219    0.1007821  30.69 0.0009337432    1.666    0.400
       142  -9.9138    157.4912    164.5581   9.4321439296e+01   1.9194603884e+01    0.5419661    0.2689659  42.21  0.002572818    1.752    0.429
       143  -8.5987     99.2079    166.2735   1.0761961164e+02   2.8639727114e+01    0.2802663    0.1149778  52.28  0.001155864    2.561    0.610
       144  -8.9366    185.7338    163.8367   8.8534112971e+01   1.4297440139e+01    0.2342796    0.1677247   0.72  0.001033807    1.580    0.367
       145  -9.3458    149.6044    164.4363   9.5968184004e+01   2.0606424130e+01      0.33639    0.2054417  55.66  0.001568524    1.866    0.464
       146  -8.4197    139.5711    165.2422   9.8273281168e+01   2.2218802638e+01    0.2030493     0.149834  71.70 0.0009711065    1.795    0.443
       147  -8.9265     80.2312    164.5187   1.1191567997e+02   3.1755447413e+01    0.3135955    0.1481234  68.48  0.001261325    3.208    0.688
       148 -11.4191     71.2475    115.6579   1.0745795334e+02   4.3744675656e+01     1.015967    0.5661395 -60.75  0.004847196    1.745    0.427
       149  -9.1844      9.4940    161.4480   1.2865926200e+02   4.0122555500e+01    0.3428347   0.09108653  63.80  0.001420402    3.453    0.710
       150  -9.2342    150.4813    160.2227   9.5055047414e+01   2.1163208704e+01    0.3146926     0.186086  66.44  0.001294038    3.052    0.672
       151  -8.8142     92.9200    160.7724   1.0838916605e+02   3.0676031365e+01    0.2502321    0.1513255  72.92   0.00122078    2.098    0.523
       152  -8.1259    205.4498    159.7857   8.4128756563e+01   1.1402939523e+01     0.168393    0.1119494 -11.92 0.0007671744    1.619    0.382
       153 -12.0466     76.6985    101.5776   1.0310339837e+02   4.6247688852e+01     1.658037    0.8150469 -67.79   0.00679017    2.263    0.558
       154  -8.8214    144.8041    159.5525   9.6171756169e+01   2.2291139044e+01    0.1996917    0.1172515  40.12 0.0009928887    1.491    0.329
       155  -8.4264    139.2916    159.0265   9.7299149523e+01   2.3361074960e+01    0.2737087    0.1594192  19.25  0.001162505    2.617    0.618
       156  -9.2559    106.1366    158.3258   1.0486534804e+02   2.9110732953e+01    0.3920987    0.2109644  60.91  0.001749423    2.308    0.567
       157  -8.9527    104.8273    153.7990   1.0450483822e+02   3.0220798990e+01    0.3209682    0.2048958  16.70   0.00148538    2.358    0.576
       158  -8.2784    167.6381    157.3623   9.0929365534e+01   1.8532611083e+01     0.133411    0.1045273  75.95 0.0007006949    1.904    0.475
       159  -9.4516    212.9375    155.2909   8.1945406019e+01   1.0693794465e+01    0.2715933    0.2357919  47.72  0.001267352    1.419    0.296
       160  -8.2860    178.0224    156.4583   8.8664218051e+01   1.6778697738e+01    0.1911109    0.1013204  24.01 0.0007289926    2.421    0.587
       161  -8.9460    119.6005    155.7847   1.0127313651e+02   2.7380010670e+01    0.2568774    0.1882245  74.18  0.001226917    1.673    0.402
       162  -9.8778     81.5983    152.4966   1.1009792488e+02   3.4040075152e+01    0.4930343    0.3003532 -72.75  0.002598271    1.775    0.437
       163 -12.0135     55.9778    146.8400   1.1603303878e+02   3.8646796876e+01     1.057088    0.5637807  49.85  0.005526058    1.661    0.398
       164  -8.3294    145.6278    155.3219   9.5248234599e+01   2.2884026392e+01    0.1392157    0.1016471  68.90 0.0007032405    1.807    0.447
       165 -10.3184    133.6442    151.2954   9.7237835411e+01   2.5774055767e+01    0.6330536    0.3158791 -55.43  0.002802095    2.421    0.587
       166  -9.7274    230.4196    149.6926   7.7918033303e+01   8.3994593324e+00    0.3584132    0.2208027 -48.22  0.001719831    2.556    0.609
       167  -8.8966     98.5277    151.3333   1.0568571558e+02   3.1727526593e+01    0.2325494    0.1779688  78.97 0.0008593613    1.421    0.296
       168  -9.2851    189.9273    148.0113   8.4698298017e+01   1.5856998314e+01    0.4860296    0.1735539 -34.56  0.001895398    3.055    0.673
       169  -8.5817     91.3384    149.0928   1.0716194894e+02   3.3310166055e+01    0.2556158    0.1100242 -53.24  0.001099905    2.533    0.605
       170  -8.3253    220.7932    148.8929   7.9340867621e+01   1.0151342660e+01    0.1559286    0.1489804  23.37 0.0006367129    1.329    0.247
       171 -10.0482    235.6335    146.8121   7.6514393978e+01   7.8684442791e+00    0.3905529    0.1448473  41.24   0.00174688    2.531    0.605
       172  -9.6265    149.2045    145.4667   9.2626999759e+01   2.3972845133e+01    0.4649854    0.3123787  83.49  0.001958481    2.942    0.660
       173  -9.5454    107.4872    145.3984   1.0251682257e+02   3.1485319323e+01    0.5622661    0.2641349  62.44  0.001915145    3.841    0.740
       174  -8.1029    195.4761    146.4852   8.3342162636e+01   1.5048377318e+01     0.132943    0.1171063  18.35 -1.821932e-06    1.037    0.036
       175  -8.4383     13.0905    146.5659   1.2712156758e+02   4.2968283511e+01    0.1684565    0.0566198  49.64 0.0005944964    2.344    0.573
       176  -8.6565    218.9112    143.6915   7.8604236093e+01   1.1154679725e+01    0.1831908    0.1485924  30.72  0.001131065    1.171    0.146
       177  -8.7780    125.7983    143.7260   9.7728863781e+01   2.8629821278e+01    0.2583822    0.1805889  89.92  0.001098166    2.134    0.531
       178 -12.6908     99.0545    132.2703   1.0245271042e+02   3.5660340700e+01     2.342764      1.19032  35.22    0.0102936    1.979    0.495
       179 -10.9411    129.0440     82.4939   8.2556740682e+01   4.0397877403e+01     0.659444    0.5533661  55.46  0.003107664    1.201    0.167
       180 -12.0288    153.6381     94.5236   7.9868598445e+01   3.2468283920e+01     1.893824     1.326633  34.10  0.008768508    1.525    0.344
       181 -10.7813     95.3951     66.3955   8.7583034681e+01   5.0990717893e+01    0.8137934    0.5031092 -34.08  0.003506316    1.834    0.455
       182 -12.4518    141.4861    124.8919   9.0182343671e+01   2.9303582405e+01     2.647629     0.977531 -43.40  0.009560961    2.913    0.657
       183 -11.9163    103.6027     57.0914   8.1718012763e+01   5.1197738294e+01      1.14555    0.8375747  55.45  0.005440128    1.445    0.308
       184 -13.1832    112.5456    119.2731   9.6309276803e+01   3.6079882936e+01     3.254567     1.511246  51.50   0.01009407    2.317    0.568
       185 -10.1877    210.3670    247.5239   9.6763842344e+01   9.1460307768e-01    0.2591444    0.1114565  28.78  0.001597584    1.770    0.435
       186  -9.3151    227.3230    131.8390   7.4733354543e+01   1.1175744443e+01    0.2113447    0.1780624  42.74  0.001314468    1.330    0.248
       187  -9.3909    153.3277    130.2350   8.8596799888e+01   2.5923537451e+01    0.3400495    0.2359605 -84.39  0.001440813    2.662    0.624
       188  -9.4320     12.3756    128.7599   1.2633595173e+02   4.6956116846e+01    0.4548413    0.1608205  71.44  0.001940149    2.915    0.657
       189  -8.2669      3.2379    142.9877   1.2945099173e+02   4.4470023461e+01    0.2180798   0.04463401  52.37 0.0008495802    3.471    0.712
       190  -9.8275    152.1016    122.0356   8.7063178882e+01   2.7680541327e+01    0.4112062    0.2507204 -36.61  0.001882032    1.779    0.438
       191  -9.6852    153.8174    115.7791   8.5219666286e+01   2.8481751819e+01    0.4988748    0.2549177 -53.64  0.001470638    2.542    0.607
       192  -8.8295    159.3927    122.5593   8.5539799542e+01   2.6075436074e+01    0.3474945    0.2105188  74.13  0.001211988    3.632    0.725
       193  -8.9114    249.0000    132.0254   7.1470842604e+01   7.3623835413e+00    0.2020438   0.06223794 -28.07 0.0008036364    2.951    0.661
       194  -9.1397      2.9980    117.3226   1.2837130839e+02   5.0188735128e+01    0.3781343    0.1162274  67.67  0.001526999    3.280    0.695
       195  -9.7429    165.3120    116.1380   8.2748456123e+01   2.5973841828e+01    0.4342677    0.2902042  33.16  0.001296773    1.544    0.352
       196  -9.3108    159.3397    116.8853   8.4235691115e+01   2.7109445759e+01    0.2865722    0.2159702  53.01 0.0009394726    1.351    0.260
       197  -9.5764    159.0238    112.4995   8.3256595698e+01   2.7971686290e+01    0.3506564    0.2107954 -46.89 0.0006940187    1.811    0.448
       198 -10.1994    159.1451    107.9025   8.2098457942e+01   2.8780577830e+01    0.4050958    0.3262197 -51.53  0.001404953    1.370    0.270
       199  -9.8171    196.9461    102.1626   7.3034866884e+01   2.1422814529e+01    0.4383312     0.192785 -39.96  0.001660352    2.313    0.568
       200  -9.3339    250.0000    103.9938   6.5230021923e+01   1.0494510694e+01    0.2175576   0.06407289 -27.53 -0.0001014351    2.986    0.665
       201  -9.0277    176.6283    171.2484   9.1613314988e+01   1.4808591329e+01    0.1652209    0.1167087 -21.95 0.0005623517    1.621    0.383
       202 -12.0597     45.4415    102.7387   1.1356697134e+02   5.0104220395e+01      2.37876     1.039808  67.02   0.00857133    3.592    0.722
       203  -9.8367    217.1617    101.7146   6.9491559596e+01   1.7191999087e+01    0.2788066    0.2117085  26.41 0.0004534192    1.335    0.251
       204  -9.7139     21.2221     92.0735   1.2047980878e+02   5.4944317277e+01    0.3744118    0.2520357 -38.86  0.002120642    1.799    0.444
       205 -11.2410     15.0470    110.7651   1.2431757057e+02   5.0916614134e+01     1.023154    0.3648491  48.48  0.004107354    2.570    0.611
       206  -9.4018      3.4875     91.0849   1.2661834671e+02   5.6302264190e+01    0.4241969    0.1036383  53.12  0.001514276    4.340    0.770
       207  -9.2433     86.6379     86.9498   9.6481452629e+01   4.8033154936e+01     0.390685    0.2511853  73.99  0.001107563    2.312    0.567
       208  -8.4523      3.7964    247.1750   1.3200793178e+02   2.5567523240e+01    0.1110624   0.09007441  52.52 0.0005471841    1.340    0.254
       209  -9.8512     47.9119     84.2038   1.0950631206e+02   5.4347009323e+01    0.3198268    0.2795388 -79.40 0.0009496231    1.033    0.032
       210  -9.5366      8.3701     83.4439   1.2423436308e+02   5.7877110620e+01    0.3608862     0.230125 -65.02   0.00103028    1.389    0.280
       211  -9.1759     24.3462     80.9527   1.1789607332e+02   5.7423949766e+01    0.3251729    0.1704682  74.93  0.001141897    2.189    0.543
       212 -10.0801    137.5526     80.4786   7.9753499497e+01   3.8841016927e+01    0.4544928    0.2936161  43.93  0.001997129    1.549    0.354
       213  -9.2567     88.0519     80.0205   9.4158917764e+01   4.9370500597e+01    0.5848343    0.2567356  26.52  0.001733844    4.411    0.773
       214  -8.9691    196.6928    138.4201   8.1446919110e+01   1.5998752757e+01    0.2606336    0.1738235  18.86  0.001326931    1.633    0.388
       215  -9.7078     49.5322     77.4554   1.0749360550e+02   5.5804946752e+01     0.421664    0.2399357 -40.86  0.001941522    2.034    0.508
       216  -9.2054    184.4179     77.6944   6.8798644754e+01   2.8084979865e+01    0.2812195    0.1358584 -36.02 0.0008058802    1.991    0.498
       217  -9.6121    217.2908     73.9629   6.2426182370e+01   2.0972018709e+01    0.2820507    0.2286314 -25.35 0.0006774155    1.140    0.123
       218  -8.5604     10.1138     74.5206   1.2264333564e+02   5.9945997158e+01    0.1860754    0.1268599   5.22  0.000349158    1.874    0.466
       219  -9.0714     82.1875     72.6327   9.4062820481e+01   5.2103620909e+01    0.3011348    0.2220865 -86.40  0.001043649    1.759    0.432
       220  -9.5977     27.9935     71.3186   1.1490584905e+02   5.9496890768e+01    0.5216885    0.2408611 -22.70   0.00184933    4.553    0.780
       221 -11.7002     64.2941    100.0053   1.0682612170e+02   4.8433322233e+01     1.238365     0.776802 -87.28  0.005826239    1.876    0.467
       222  -9.9266     51.1036     68.6673   1.0481236535e+02   5.7744248219e+01     0.585778    0.2137229 -64.90  0.002136524    2.769    0.639
       223  -9.5923     52.0131     61.4915   1.0253523884e+02   5.9345925089e+01    0.3821629    0.2576721 -27.26  0.001864679    1.887    0.470
       224  -8.2059    222.6754    245.3344   9.4572262216e+01  -4.4049981159e-01   0.08912624    0.0697226  40.41 0.0007051082    1.713    0.416
       225  -9.6894     10.7964    236.4717   1.3062993723e+02   2.6563513359e+01    0.2354077    0.1013813 -71.08  0.001573414    2.815    0.645
       226  -8.8536     44.0106     67.4761   1.0744354925e+02   5.8873600777e+01    0.1894628    0.1361944  27.35 0.0007455102    1.566    0.361
       227  -9.2617     83.9204     64.3344   9.0883363354e+01   5.3654688039e+01    0.3933702    0.2591744   6.89  0.001553574    2.718    0.632
       228  -9.3794     62.7835     63.7522   9.8745601820e+01   5.7316943492e+01    0.3586498    0.1443271 -50.90  0.001392476    2.267    0.559
       229 -11.0383     17.8792    240.9947   1.2953118885e+02   2.5233878791e+01    0.4739645    0.3247019  65.90  0.004100437    1.190    0.160
       230  -8.3513     37.5073     64.5088   1.0951235432e+02   6.0288463530e+01    0.1341914    0.1180053 -83.15 0.0001153168    1.091    0.084
       231  -9.2126     18.1474     62.1013   1.1753232649e+02   6.2492793308e+01    0.2805235    0.1332208 -42.51  0.001130547    2.266    0.559
       232  -9.1988     73.3120     60.1319   9.3467555273e+01   5.6473043587e+01    0.3257914    0.2383935 -68.21 0.0009494831    1.522    0.343
       233  -7.8900    170.4373     60.5580   6.6305977661e+01   3.4219710143e+01    0.1507676    0.1470302   6.39 0.0001020449    1.026    0.026
       234  -8.1379     24.6850     59.3266   1.1407907413e+02   6.2698939232e+01     0.132534   0.08991395  69.37 0.0002822133    1.670    0.401
       235  -9.4556     39.1768     58.0590   1.0721906754e+02   6.1676425721e+01    0.2317021    0.1751637 -12.39  0.001273022    1.657    0.396
       236  -9.9446      6.9313     57.6352   1.2190744541e+02   6.4212536137e+01     0.273706    0.1829682  57.00  0.001430117    1.615    0.381
       237  -8.7788     62.8616     55.3363   9.6089762001e+01   5.9246070159e+01    0.2499251    0.1833289 -64.27 0.0006484811    1.396    0.284
       238  -9.8638     53.7030     49.6923   9.8177702924e+01   6.1869872144e+01     0.782391    0.2300642 -53.20  0.002714835    2.963    0.663
       239  -8.9888     26.1528     54.7222   1.1242249598e+02   6.3700348100e+01    0.2312651     0.168606 -22.87  0.001317602    1.629    0.386
       240  -9.3250      2.5471     53.8042   1.2343355007e+02   6.5324938242e+01    0.3662607    0.0792425 -50.70  0.001340898    3.775    0.735
       241  -8.7923     30.9602     51.9337   1.0947125282e+02   6.3957758983e+01    0.2064784    0.1470476  73.26 0.0005631613    1.681    0.405
       242 -10.6441     12.0432    243.6065   1.3057786052e+02   2.5372462439e+01    0.3905287    0.1370613  47.66  0.002373339    1.686    0.407
       243  -9.0777     75.8399     49.8190   8.8877718439e+01   5.8288921504e+01    0.4334735    0.2713881   5.01  0.001598104    3.237    0.691
       244  -8.9444     46.2773     49.1190   1.0139365823e+02   6.2976902904e+01    0.2267908    0.1854472   3.75  0.001076634    1.438    0.305
       245  -9.4442     21.9653     47.3558   1.1277585710e+02   6.5800517483e+01     0.303751    0.2092174 -29.62  0.001723849    1.622    0.383
       246  -8.5702     16.9825     45.5022   1.1489339397e+02   6.6590440572e+01    0.1720975   0.08627277  48.77 0.0007580915    2.447    0.591
       247  -8.5032    149.9868     43.9805   6.4833708735e+01   4.2084048300e+01    0.1878699    0.1798578 -29.01 0.0005904507    1.049    0.047
       248  -9.8730     58.2760     43.0230   9.3725587575e+01   6.2692839786e+01    0.4631775    0.3112455 -76.32  0.002125386    2.141    0.533
       249 -10.0006     56.0438     37.0254   9.2390302850e+01   6.4324307705e+01    0.5583662    0.3645961 -88.35  0.002229298    3.209    0.688
       250  -9.7056      5.0782     41.9658   1.2042115305e+02   6.8065955042e+01    0.3784188    0.1595135  85.32  0.001605342    2.873    0.652
       251 -11.3333     30.4384    230.5829   1.2701299231e+02   2.5641744123e+01    0.6405264    0.3417202 -80.10  0.004604319    2.068    0.517
       252  -9.0006     36.8844     41.3084   1.0345414321e+02   6.5871867697e+01    0.2029381    0.1620395  56.31  0.000792166    1.492    0.330
       253  -8.7869     25.9642     36.9372   1.0785697203e+02   6.7943244837e+01    0.2014463    0.1478876  75.74 0.0009286148    1.715    0.417
       254 -10.3635     28.5442    217.9952   1.2689265781e+02   2.7867087477e+01    0.3869816    0.2004861 -89.81  0.002628614    1.942    0.485
       255  -8.4010     38.4944     35.4924   1.0058612510e+02   6.7013576748e+01    0.1341043    0.1172622 -45.19 1.729234e-05    1.012    0.011
       256  -8.8309      6.6512     34.0699   1.1803624512e+02   6.9872633247e+01    0.1849762    0.1646933  42.42 0.0005726513    1.338    0.253
       257  -9.8739    222.4705     32.7339   5.0545923341e+01   2.4887865963e+01    0.2750807     0.205452 -59.61  0.000496418    1.383    0.277
       258 -10.5205     27.6163    211.6606   1.2682294754e+02   2.9026986780e+01    0.4195246    0.3032556 -31.75  0.002838039    2.696    0.629
       259  -8.5342     12.9984     31.9615   1.1382621759e+02   7.0040831223e+01    0.1875755    0.1365158  70.99 0.0005601562    1.644    0.392
       260  -8.6643    196.4100    143.1611   8.2488658438e+01   1.5357622657e+01    0.1788327    0.1231088 -43.11 0.0009457238    1.703    0.413
       261  -8.2695      1.8441     28.0000   1.1961529221e+02   7.1486635183e+01    0.1724632   0.06966309   9.34  0.000258028    3.004    0.667
       262  -8.9910     43.9911     25.6542   9.3560686826e+01   6.8446454665e+01    0.2103934    0.1649352 -33.07 0.0004333431    1.183    0.154
       263  -8.7889    110.4359     24.7062   6.6536182488e+01   5.5241671138e+01    0.2543277    0.1999629  55.36 0.0005175166    1.258    0.205
       264  -9.0848     34.3241    213.5748   1.2561139298e+02   2.8034942173e+01     0.255415    0.1924361 -48.04   0.00188547    2.103    0.525
       265  -9.8977     33.3569    208.1948   1.2556028438e+02   2.9056000161e+01    0.3146445    0.2089187  45.96  0.001907795    1.180    0.152
       266  -8.5329     97.6542    242.8105   1.1555832324e+02   1.6218700679e+01    0.1518205    0.1013405  39.30  0.001125852    1.133    0.118
       267  -8.8813     36.0176    240.6776   1.2639596745e+02   2.3532427905e+01    0.1452811    0.1335295 -58.46  0.001318398    1.725    0.420
       268 -10.0906    107.5970    237.1962   1.1331979541e+02   1.5724042666e+01    0.3478067    0.2076933  77.23  0.002168726    2.506    0.601
       269 -11.0499    169.7987    232.2255   1.0164979331e+02   7.8866336079e+00    0.4796508    0.3430693 -35.03  0.003558017    1.837    0.455
       270  -8.7266     73.0597    229.2163   1.1910817541e+02   2.1204554376e+01    0.2462688    0.1255172  66.09  0.001509585    2.062    0.515
       271 -10.6218     52.8090    234.5164   1.2314288039e+02   2.2705740638e+01    0.4650975    0.3207529  22.38  0.002686949    1.852    0.460
       272  -9.3111     66.8124     23.7805   8.1388747178e+01   6.5105391759e+01    0.1827936    0.1654986 -68.03  0.000377313    1.329    0.248
       273 -12.8150    115.9827    103.1299   9.1693699804e+01   3.8881627981e+01     2.780618     1.272697  57.08  0.009503022    3.020    0.669
       274  -9.6145     87.3092     18.6944   7.0759742500e+01   6.1679830453e+01    0.2139133    0.2120182  72.80  0.001063051    1.119    0.106
       275  -8.7312     84.6587     21.3194   7.3014254868e+01   6.1868865582e+01    0.2495606    0.2355461 -36.27 0.0009921122    1.109    0.098
       276 -10.0099     68.5730    231.3334   1.2007719837e+02   2.1410730222e+01    0.3280281    0.1441445  37.46  0.001579563    1.704    0.413
       277  -9.4862     13.1355     21.3660   1.1058096419e+02   7.2467018664e+01    0.2527954    0.2075296 -17.98 0.0008778234    1.299    0.230
       278  -9.4643    188.5552     20.6901   5.0698002770e+01   3.4766001038e+01    0.2703682    0.2350807 -57.13 0.0005879151    1.124    0.110
       279 -10.8492     23.0357    139.1566   1.2409976796e+02   4.3767259274e+01    0.7301519    0.3096384  45.48  0.003770782    1.992    0.498
       280  -8.8557     40.8099     21.3743   9.3315913059e+01   6.9749731876e+01    0.1708522    0.1228363  13.65 0.0003309711    1.602    0.376
       281  -9.8181     29.0739     18.3795   9.8962960131e+01   7.1772242388e+01    0.2725818    0.2148719  44.15  0.000876293    1.553    0.356
       282  -9.2523      2.5860     18.2334   1.1679377555e+02   7.3712095746e+01    0.3420117    0.1303798 -39.61  0.001612599    2.419    0.587
       283  -8.3856     50.4856     15.5242   8.4931434671e+01   6.9450116363e+01    0.2237118    0.1242132  26.75 0.0007152106    2.194    0.544
       284  -9.3206     41.0330     13.9612   8.9352302850e+01   7.1174124341e+01    0.2166476    0.1758734  -4.09 0.0003519196    1.270    0.213
       285  -8.8145     58.7102     22.0574   8.4249491544e+01   6.6878106022e+01    0.1953387    0.1619226 -32.22 0.0003684501    1.113    0.102
       286 -11.0523     60.3474    228.4939   1.2143642678e+02   2.2796788836e+01    0.5598428    0.2046465  44.97  0.003236689    1.842    0.457
       287 -10.4195     40.4925    222.3556   1.2483245532e+02   2.5941154040e+01    0.4572196     0.354089  17.97  0.003483807    1.801    0.445
