#   1 NUMBER                 Running object number                                     
#   2 MAG_AUTO               Kron-like elliptical aperture magnitude                    [mag]
#   3 X_IMAGE                Object position along x                                    [pixel]
#   4 Y_IMAGE                Object position along y                                    [pixel]
#   5 X_WORLD                Barycenter position along world x axis                     [deg]
#   6 Y_WORLD                Barycenter position along world y axis                     [deg]
#   7 A_WORLD                Profile RMS along major axis (world units)                 [deg]
#   8 B_WORLD                Profile RMS along minor axis (world units)                 [deg]
#   9 THETA_WORLD            Position angle (CCW/world-x)                               [deg]
#  10 FWHM_WORLD             FWHM assuming a gaussian core                              [deg]
#  11 ELONGATION             A_IMAGE/B_IMAGE                                           
#  12 ELLIPTICITY            1 - B_IMAGE/A_IMAGE                                       
         1 -13.0161    129.8289     50.4316   4.4371562587e+01   4.5990272666e+01     3.062029     1.768982 -69.91   0.01115487    2.929    0.659
         2 -15.1816    191.6308     68.7531   3.9426817221e+01   2.8805435863e+01     1.741733     1.372738  61.31  0.009821466    1.434    0.303
         3 -15.0498    202.2721     57.6861   3.5025221411e+01   2.8033722136e+01     3.459218     1.252889 -43.28   0.01364172    2.517    0.603
         4 -14.5897     15.4923     64.6364   9.2876937488e+01   6.3738018927e+01     4.453769     1.876675  -7.10   0.01495969    4.542    0.780
         5 -12.0557     43.7976     21.4457   5.9789855437e+01   7.0041331420e+01     1.143181    0.4822124  35.32  0.004471028    2.789    0.641
         6 -11.9756     77.3663     22.5343   4.6134246850e+01   6.2882365311e+01     1.286807    0.6889653  53.27  0.005690249    1.840    0.457
         7 -11.7459     71.8167     15.9763   4.4395813510e+01   6.5052122226e+01     1.080904    0.5011351  68.55  0.004041642    2.968    0.663
         8 -13.4061     61.7110     34.4641   5.8301444114e+01   6.4328202950e+01     1.494308    0.9448653  -0.03  0.005920727    2.795    0.642
         9 -13.0780     51.9484     26.3695   5.8484653652e+01   6.7674222530e+01     1.764734    0.8792249  31.39  0.002951124    2.586    0.613
        10 -12.8360      2.5456     35.9357   9.3596920267e+01   7.1796135587e+01     1.264901    0.4200514 -67.35    0.0051487    2.453    0.592
        11 -13.7088     12.7899     37.6833   8.7146810367e+01   7.0681654433e+01     1.601224    0.7078253 -58.39   0.00331695    1.864    0.463
        12 -10.5034     89.4471     21.5723   4.1988772516e+01   6.0139742520e+01    0.4965379    0.2194198 -39.61  0.001961541    2.265    0.558
        13 -12.7467    150.5794     43.5434   3.7996878958e+01   4.1891359954e+01     1.314019     1.155782 -59.95  0.006871785    1.131    0.116
        14 -14.0933    168.7461     37.3948   3.3268164502e+01   3.8256003047e+01     2.468714    0.5993053  63.91  0.003330048    3.928    0.745
        15 -10.9271    159.1410     20.4004   2.8860886616e+01   4.2576275595e+01     0.572466    0.1988543 -32.86  0.002195346    2.427    0.588
        16 -11.4454     31.3698     19.4947   6.5916623611e+01   7.2464973221e+01    0.3715494     0.251944 -39.78  0.001079269    1.358    0.264
        17 -11.3166    116.2214     10.1351   3.0827732584e+01   5.4628163729e+01    0.4420998    0.3569726  25.79  0.002072466    1.358    0.264
        18  -9.9503     95.2769     11.3404   3.5408923966e+01   5.9887272176e+01    0.2455192    0.1500694 -44.32  0.001139766    1.731    0.422
        19 -10.6883     89.0107     12.1563   3.7302661893e+01   6.1371520682e+01    0.2011145    0.1916939  36.11 0.0003682908    1.021    0.020
        20 -10.1255     54.1119     10.7731   4.7988394967e+01   6.9658797315e+01    0.2706058    0.1514951 -52.42 0.0009270548    2.541    0.606
        21  -9.8478    170.5132      9.9780   2.4250714448e+01   4.0792827537e+01    0.2016931    0.1239825 -25.96  0.001013756    1.537    0.349
        22  -9.8609     60.2615      9.4238   4.4603511064e+01   6.8495138377e+01    0.1742682    0.1337286  68.83 0.0004845232    1.502    0.334
        23  -9.8071     99.8369      6.8395   3.2223249562e+01   5.9168141647e+01     0.180252    0.1532772 -57.03 0.0002897095    1.241    0.194
        24  -9.9630     91.3749      7.6610   3.4404389299e+01   6.1241974260e+01    0.1535161   0.09966917 -60.37  0.000122775    1.869    0.465
        25 -10.6789      3.4411      6.3683   7.9951355228e+01   7.8447385115e+01     0.242767    0.1840527 -18.41 0.0008342279    1.262    0.207
        26  -9.8228    110.9672      3.9850   2.8921097069e+01   5.6545722468e+01    0.1609819    0.1494005  73.62 0.0004718821    1.045    0.044
        27 -10.6774     69.5342      3.5258   3.7710951138e+01   6.7006936502e+01    0.6902533    0.1566928  61.42  0.002186766    3.847    0.740
        28  -9.3775     94.5193      2.9729   3.1320123018e+01   6.0871761001e+01    0.2022157   0.09269121 -44.74  0.000806421    2.403    0.584
        29 -11.1978    198.2179    109.1524   4.8822727697e+01   2.1480862410e+01    0.5054802    0.3431167 -54.43  0.002590931    1.856    0.461
        30 -10.1861    229.0116    249.9608   6.9192339691e+01  -6.4728514697e-01    0.1551019   0.08466031   3.05 0.0005541665    1.591    0.372
        31 -12.5573    165.3353    248.3885   7.9310409462e+01   6.3135001894e+00    0.4358644    0.2323156  18.39  0.002779498    1.680    0.405
        32 -11.7672    153.4115    249.4326   8.1528286642e+01   7.5395203733e+00    0.4325761    0.1575279  21.37  0.001909327    3.502    0.714
        33 -13.7703    110.0633    240.4839   8.8662865038e+01   1.3746283174e+01    0.6017646    0.3150598  35.38   0.00266424    1.476    0.322
        34 -13.8080    110.0371    249.0919   8.9463370494e+01   1.2520536888e+01    0.7929708    0.3938355  40.15  0.004953188    1.627    0.385
        35 -11.9890     11.7454    247.5281   1.0814253202e+02   2.2605902626e+01    0.3667141    0.1937543 -75.96  0.002559595    2.199    0.545
        36 -10.7206     29.8777    106.8862   9.4048176497e+01   5.1458211410e+01    0.1986956    0.1729335 -53.29 0.0003148237    1.188    0.159
        37 -10.6491    208.7664    104.4971   4.6081452133e+01   2.0222708745e+01    0.3152141    0.1999325 -58.59  0.001515952    2.316    0.568
        38 -10.8857    134.8386    105.1058   6.0349520400e+01   3.4829775833e+01    0.2194982    0.2011075 -66.13 0.0003429119    1.189    0.159
        39 -10.5921    165.8074    103.8068   5.3258310714e+01   2.8702266356e+01    0.3021904    0.1886704 -44.77  0.001226316    1.585    0.369
        40 -10.3068     36.6474    104.7044   9.1181397450e+01   5.1343242390e+01    0.1443577    0.1007307 -35.78 0.0002596322    1.686    0.407
        41 -10.6133    144.6919    103.0180   5.7497656797e+01   3.3203524805e+01    0.2746441    0.1900123  31.27  0.001120261    1.641    0.391
        42 -11.7600     69.9074    101.8771   7.8549325293e+01   4.7683740194e+01    0.2636417    0.2325722  -4.99 0.0003361436    1.333    0.250
        43 -11.2557     50.6216    102.1954   8.5520466730e+01   5.0352673923e+01    0.2405728    0.1890619 -40.57 0.0003445264    1.372    0.271
        44 -11.8721     53.9181     99.4348   8.3725557389e+01   5.0625314103e+01    0.2698961    0.2644052  24.35 0.0006552679    1.120    0.107
        45 -12.0466    124.2353    100.3327   6.1702923213e+01   3.7973922526e+01    0.3063907    0.2471334 -60.68  0.001532799    1.351    0.260
        46 -12.3002    123.8216     95.4922   6.0461954546e+01   3.9053800104e+01    0.3096598    0.2906223 -12.78  0.001684101    1.096    0.088
        47 -10.8798    153.5192     99.4918   5.4622800920e+01   3.2016861226e+01    0.2865818    0.1396675 -34.82 0.0007224054    2.009    0.502
        48 -10.5021    151.0517     96.3312   5.4287947004e+01   3.3115305415e+01    0.2529064    0.1981551  59.42 0.0008569704    1.441    0.306
        49 -12.9061    130.3877     98.7260   5.9708832272e+01   3.7025076755e+01    0.4933428    0.3696272 -21.92  0.002364082    1.516    0.340
        50 -11.3013     86.9861     97.8682   7.1823809339e+01   4.5777635291e+01    0.3623453    0.2872824 -41.59 0.0009197901    1.272    0.214
        51 -11.5583     81.6788     99.3596   7.3946617940e+01   4.6359389150e+01    0.3044891    0.2722848 -52.59  0.001636761    1.081    0.075
        52 -11.7746    200.8787     97.8184   4.5649859991e+01   2.2681369586e+01    0.4627811    0.2770615 -51.42  0.001057695    1.979    0.495
        53 -10.9129    191.7462     99.2067   4.7434371291e+01   2.4245468437e+01    0.3254829    0.2745428  59.34  0.001529384    1.407    0.289
        54 -11.5437    193.1853     94.9003   4.6115476938e+01   2.4622453913e+01    0.4379061    0.1645554 -37.86 0.0009599205    2.320    0.569
        55 -11.3415    170.1738     97.8525   5.0861511774e+01   2.8825809813e+01    0.3622933    0.2987665  21.61  0.001966515    1.333    0.250
        56  -9.7262    166.5216     95.5139   5.0931703745e+01   2.9985480166e+01    0.1451443     0.132535 -17.90 0.0008096704    1.048    0.045
        57 -10.7117    143.2697     98.0287   5.6467801459e+01   3.4449946321e+01    0.2320896    0.2278536 -24.76 0.0002879077    1.043    0.041
        58 -11.6358    139.1041     97.8225   5.7367444112e+01   3.5370197985e+01    0.2894748    0.2348601   4.29 0.0002434973    1.472    0.321
        59 -10.3966     11.6034     97.8174   9.9873598954e+01   5.5327025604e+01    0.1912981    0.1128353  88.12  0.000641963    1.604    0.376
        60 -11.2302     59.9361     96.9901   8.0956703372e+01   5.0404503168e+01     0.217052    0.2052243 -78.66 0.0003340072    1.019    0.019
        61 -11.7034     61.6404     93.1253   7.9400681720e+01   5.1123336102e+01    0.2686197    0.2423539 -43.38 0.0004635318    1.128    0.114
        62 -12.0470    107.3060     95.3665   6.4929089182e+01   4.2470958577e+01    0.2986895    0.2523826  -4.52  0.001073547    1.411    0.291
        63 -13.1999    106.1737     90.4288   6.3837082667e+01   4.3771964428e+01    0.6484857    0.5312198 -83.86  0.001791941    1.496    0.331
        64 -10.2667    158.2818     95.5529   5.2567663087e+01   3.1719126552e+01    0.2611817    0.1469624  54.96   0.00112546    1.998    0.499
        65 -12.9918    186.0126     90.7616   4.6205972594e+01   2.6707330408e+01    0.6531622    0.4806569  32.21  0.002766506    1.548    0.354
        66 -10.1910     74.3043     94.2982   7.5139541614e+01   4.8829903002e+01    0.1483507    0.1155053 -22.06 0.0004148651    1.586    0.370
        67 -11.2562     98.5529     92.5103   6.6710734090e+01   4.4834786189e+01    0.2791125    0.2224493  45.13 0.0005346127    1.298    0.229
        68 -11.6089     95.3131     89.2440   6.6766874539e+01   4.6199184085e+01    0.4418384    0.3476092  41.41  0.001195394    1.320    0.243
        69 -11.8576     48.5374     86.1412   8.2769188825e+01   5.4732037731e+01    0.4130845    0.2466875 -80.53  0.001271849    2.045    0.511
        70 -12.3509     52.5442     89.9868   8.2102714790e+01   5.3216321664e+01    0.4413829    0.3015812 -88.03  0.001008838    1.766    0.434
        71 -11.8994     52.9865     86.1119   8.0976269411e+01   5.4135890168e+01    0.3773761    0.2225073  40.26 0.0003413435    1.778    0.437
        72 -12.1700     40.0237     90.2279   8.7149685052e+01   5.4734379169e+01     0.288908    0.2469125 -70.56 0.0002730472    1.070    0.065
        73 -11.8115     38.4992     86.0861   8.6889176438e+01   5.5982017819e+01    0.3105791    0.2768261 -44.59 0.0007996266    1.148    0.129
        74 -11.4407    175.1579     90.0616   4.7871146726e+01   2.9076421822e+01    0.2845676    0.2059797  46.40 0.0004888885    1.494    0.330
        75 -11.6310    127.8314     89.5469   5.7727977247e+01   3.9398437939e+01    0.2498778    0.2293984  26.27 0.0007550571    1.150    0.130
        76 -13.2806    113.6733     79.8290   5.8471104422e+01   4.4416831186e+01     1.203125    0.2554412 -42.86  0.003108393    4.492    0.777
        77 -12.7715    121.8007     86.3848   5.8324640884e+01   4.1331527622e+01    0.5464628    0.4074959 -16.19   0.00208284    1.655    0.396
        78 -11.4178    126.3396     81.1029   5.5549834412e+01   4.1379194181e+01    0.3807973    0.3083453 -12.24  0.001029997    1.432    0.302
        79 -14.7046    195.8829     78.1121   4.1347173988e+01   2.6570877783e+01     1.175829     1.053544  -9.20  0.007124318    1.129    0.114
        80 -13.5611    118.1729     63.6318   5.1850473950e+01   4.6531953871e+01       1.3218    0.8396261 -55.48  0.005690497    1.807    0.447
        81 -12.3801    221.7485     55.0277   3.2200372428e+01   2.4371766207e+01    0.4968812     0.355778 -62.79  0.001561253    1.547    0.353
        82 -12.7711    162.5838     83.9561   4.8486049532e+01   3.2794007172e+01    0.6309275    0.5072983 -16.44  0.003305505    1.297    0.229
        83 -11.5805    126.9143     59.1692   4.8145579579e+01   4.5259965507e+01     0.517038    0.3069612  34.90  0.001890382    2.137    0.532
        84 -11.9473    136.4860    249.6747   8.4605047602e+01   9.4378683256e+00     0.277731   0.08245517  34.38  0.001363098    2.505    0.601
        85 -14.0315    169.3042     79.5750   4.6002618952e+01   3.2037158795e+01     1.516814     1.113588 -69.13  0.007417485    1.758    0.431
        86 -13.0533    163.1207     67.9891   4.3697098753e+01   3.5272609888e+01    0.9175094    0.6381233 -31.78  0.001506433    1.341    0.255
        87 -14.2779    171.4877     56.5819   3.8860462603e+01   3.5042978898e+01      1.70981     1.071971  57.00  0.008254303    1.703    0.413
        88 -12.5391    161.7496     58.6351   4.1055487340e+01   3.7023333262e+01    0.8430887    0.3715133 -40.45  0.003345783    2.074    0.518
        89 -14.0081    133.2175     72.4556   5.1155299266e+01   4.1441386380e+01     1.364073    0.9926695  40.17  0.006532761    1.490    0.329
        90 -13.3800    153.1325     63.7663   4.4205924972e+01   3.8263457767e+01     1.111235     0.740307 -38.96  0.005296795    1.396    0.284
        91 -13.0052     83.4791    247.3775   9.4394854980e+01   1.5706859902e+01    0.4039238    0.3171841  -0.46   0.00302888    1.584    0.369
        92 -13.5962     86.7811    239.0436   9.3098455996e+01   1.6614678235e+01    0.5457636    0.3647756  30.24  0.003791643    1.216    0.178
        93 -11.8179    139.9049     80.0880   5.2026687859e+01   3.8531449435e+01    0.4350885    0.2985282 -47.82 0.0004287424    1.456    0.313
        94 -13.3003     66.8818     83.1495   7.4783850258e+01   5.2760994531e+01    0.8958485    0.6428495  77.86  0.003405089    1.891    0.471
        95 -12.3681     64.9495     74.8580   7.3052600917e+01   5.5071440672e+01    0.5164432    0.2498171  29.85  0.001977588    2.500    0.600
        96 -11.9629     60.8686     71.6719   7.3681829989e+01   5.6500827372e+01    0.3505351     0.287734   2.83 0.0009480239    1.474    0.322
        97 -11.5653    147.9995     85.2378   5.1795464969e+01   3.5790926691e+01    0.4452693    0.2839321  63.38  0.001785465    1.902    0.474
        98 -11.9650    148.4149     81.3806   5.0569408258e+01   3.6385727591e+01    0.5837876    0.3521014 -51.12   0.00154459    1.800    0.444
        99 -12.0485    221.1422     75.1229   3.7293219733e+01   2.1959949196e+01     0.244525    0.1925851  70.55 0.0008848148    1.585    0.369
       100 -12.8944    210.7228     81.8263   4.0260838720e+01   2.3067050857e+01    0.4146931     0.261432 -32.77  0.001253458    1.339    0.253
       101 -13.3022    215.7542     78.1678   3.8700293754e+01   2.2589621059e+01    0.5253326     0.304197 -21.30  0.001912006    1.660    0.397
       102 -10.6743    102.1128     84.1522   6.3151764371e+01   4.5958167467e+01     0.238932    0.2116332  87.62  0.000653251    1.280    0.219
       103 -12.9198     96.0543     70.6545   6.0621941998e+01   5.0086723443e+01    0.7400113    0.5225531 -36.84  0.002297112    1.414    0.293
       104 -12.4078     99.1401     78.2486   6.2193570967e+01   4.7838430587e+01    0.8329916    0.3794183 -34.98  0.002911975    2.629    0.620
       105 -11.7262    104.1819     75.4950   5.9774251650e+01   4.7352985579e+01    0.3141363    0.2698357 -19.85 0.0004372117    1.265    0.209
       106 -13.7163     14.1818     73.3020   9.5221032718e+01   6.1584310126e+01     1.165979    0.3492908 -54.17  0.004353527    2.721    0.633
       107 -13.6284     58.4734    244.1916   9.9040114048e+01   1.8825467453e+01     0.564662     0.381541  49.05  0.004153827    1.205    0.170
       108 -11.8347     70.6150     32.4282   5.3655635691e+01   6.2850869345e+01    0.5427336    0.4320861  49.59 0.0008790398    1.300    0.231
       109 -13.7966     51.3955    234.1007   9.9847950169e+01   2.1190020651e+01    0.8052459    0.3047175  37.41  0.004447741    1.893    0.472
       110 -13.2691    180.0734    242.6808   7.6079154583e+01   5.3108634943e+00    0.4485971    0.2713601  27.26  0.003174582    1.306    0.234
       111 -10.8137    144.3217    242.6680   8.2418887919e+01   9.4418048176e+00    0.1031622   0.07344244  48.67 0.0003245623    1.699    0.412
       112 -14.6690     40.6938     76.7702   8.3742731152e+01   5.8114874594e+01     1.444502      1.05075   2.28  0.007214894    1.753    0.430
       113 -13.9724     35.4970     69.2860   8.4139538215e+01   6.0631369523e+01     0.961453    0.6992323   7.38  0.003329912    1.677    0.404
       114 -12.1840     94.5131    247.4589   9.2277962102e+01   1.4487620798e+01    0.2576996    0.1508582  49.91  0.001356117    1.648    0.393
       115 -10.7134    219.3626    240.4801   6.9395295937e+01   1.2481851086e+00    0.1764915     0.145662   0.95  0.001515499    1.385    0.278
       116 -11.1522     48.8896     18.1819   5.5164546034e+01   6.9635938317e+01    0.3366957    0.2553483 -48.73  0.001423019    1.473    0.321
       117 -13.4060      4.0827     52.9092   9.6658736545e+01   6.7477531229e+01     0.972802    0.8141512 -82.98  0.004140713    1.138    0.121
       118 -10.6513    227.1800    242.3919   6.8459995794e+01   2.5181175761e-01     0.130287   0.07533786  31.41 0.0009445404    1.684    0.406
       119 -13.9534     37.8144    247.6906   1.0321859287e+02   2.0281997137e+01     1.101346    0.4165561  28.07  0.006167889    2.190    0.543
       120 -11.8955     21.9284     27.7650   7.6809783109e+01   7.2057841952e+01    0.4150789    0.2816625  28.83 0.0005633301    1.598    0.374
       121 -11.8113     52.5952     34.5354   6.2491570365e+01   6.6045346874e+01    0.4047531    0.3787069 -33.58  0.000928217    1.054    0.051
       122 -12.7753     49.6731     46.0540   6.9244635585e+01   6.4181318374e+01    0.3311301    0.2795796 -28.99 0.0007639278    1.168    0.144
       123 -13.2542     53.8495     43.5511   6.6159949222e+01   6.4009895468e+01    0.3520572    0.3049971 -28.27  0.001072136    1.120    0.107
       124 -11.0301     18.9722     81.0293   9.4366317713e+01   5.9199539782e+01    0.2099621    0.1858035 -78.00 0.0003466874    1.022    0.022
       125 -13.3420    172.7712     45.6106   3.5308312360e+01   3.6244458957e+01     1.291865     0.578758  51.67   0.00531822    2.405    0.584
       126 -11.5085     80.3854     77.8254   6.8240380656e+01   5.1644308950e+01    0.3765253    0.2290474 -69.33 0.0008897809    2.303    0.566
       127 -11.5347     23.7430     78.1261   9.1666403822e+01   5.9556428805e+01    0.3026373    0.1816247 -52.89  0.001061097    1.521    0.343
       128 -11.5276     20.0219     75.8989   9.2945092601e+01   6.0456964329e+01    0.2437347    0.2235916 -33.78 0.0006163632    1.181    0.153
       129 -11.4654    155.4425     77.3920   4.7952744951e+01   3.5492552470e+01    0.5223095    0.3315338  51.23  0.002172187    1.667    0.400
       130 -11.6417     72.6210     76.0805   7.0500761743e+01   5.3462865758e+01    0.3931829      0.22155  40.89  0.001168193    1.860    0.462
       131 -13.2325     54.1114     72.3968   7.6714434930e+01   5.7380454551e+01    0.7414871    0.5178808 -48.13  0.001005274    1.345    0.257
       132 -11.2961    228.9498     76.8895   3.6824901723e+01   2.0273512842e+01    0.2760851    0.1738399  12.20  0.001373734    2.328    0.570
       133 -11.7912    229.2260     71.5838   3.5516524564e+01   2.0893465029e+01    0.2816903    0.1894671 -10.54 0.0005463375    1.592    0.372
       134 -12.4022     86.9877     73.5736   6.4573961321e+01   5.1321730413e+01    0.5889174    0.4036472  31.47 0.0006850986    1.671    0.401
       135 -11.8962    116.0636     89.1203   6.0669276826e+01   4.1998121266e+01    0.3187171    0.2559961 -39.59 0.0003043558    1.210    0.173
       136 -10.8660    152.1492     71.9564   4.6953781600e+01   3.7157156623e+01    0.2257368    0.2144501  51.52 0.0002936142    1.119    0.106
       137 -10.6614     78.4750     71.7534   6.6937890300e+01   5.3378391566e+01    0.2533982    0.2168276 -60.91 0.0006095941    1.183    0.155
       138 -10.2015    240.3941     71.2254   3.4269212270e+01   1.8913733962e+01    0.1812552   0.08886673 -36.69 0.0003600604    1.613    0.380
       139 -11.4588    234.0450     66.6583   3.3827103686e+01   2.0612269705e+01    0.2453463    0.1617343 -22.83 0.0005308375    1.327    0.246
       140 -11.7735     53.4261     55.7417   7.1366483217e+01   6.1419470442e+01    0.4758899    0.3524669  17.85  0.001496708    1.605    0.377
       141 -10.5519     58.7109     66.6910   7.2949076220e+01   5.8030170790e+01    0.2528968    0.1930849 -41.27 0.0001967744    1.277    0.217
       142 -10.9091     60.5257     63.5017   7.1090164421e+01   5.8473177493e+01     0.289989    0.2616737 -41.14     0.001535    1.057    0.054
       143 -11.6460     58.0358     59.9090   7.0866549682e+01   5.9713908448e+01    0.4217311    0.3323345 -51.27  0.001054999    1.195    0.163
       144 -11.9986    107.1298     64.8351   5.5260047435e+01   4.8835489742e+01    0.3325802    0.2324088  49.35  0.001545211    1.480    0.324
       145 -10.4500     84.4592     65.5733   6.2664111696e+01   5.3556096897e+01    0.2327275    0.2159706   1.85 0.0006375836    1.160    0.138
       146 -13.0394     79.0703     59.8153   6.2449243261e+01   5.5857678764e+01    0.7276298    0.6548866  71.97  0.002367678    1.245    0.197
       147 -11.4277    230.4983     63.5424   3.3432961260e+01   2.1650351382e+01    0.2012668    0.1607556 -84.48 0.0006205387    1.564    0.361
       148 -11.3448    227.1804     62.8466   3.3600786116e+01   2.2363173207e+01    0.1972452     0.159254 -12.11 0.0003592494    1.251    0.200
       149 -12.1254     93.8675     60.4208   5.7635720370e+01   5.2636332872e+01    0.5512004    0.3459188 -56.22  0.001070752    1.833    0.454
       150 -10.5355     89.1845     55.1817   5.7139108973e+01   5.4681065296e+01    0.3924872      0.19301  42.88 0.0007780449    2.163    0.538
       151 -10.0830     88.2993     62.2927   6.0154675559e+01   5.3449273195e+01    0.1487962    0.1193765  -0.88 0.0002654112    1.566    0.361
       152 -11.8687    102.6895     60.6252   5.5014809883e+01   5.0642736149e+01    0.5085329    0.2803041  56.96  0.001253303    2.027    0.507
       153  -9.8313    244.5172     60.6661   3.1417054802e+01   1.9431625471e+01    0.1779493    0.1163689  65.39  0.001072498    1.923    0.480
       154 -11.1893    230.3972     53.7061   3.1037201085e+01   2.2846329036e+01     0.417538    0.1563032 -35.14  0.001895718    2.021    0.505
       155 -11.5522    100.5484     53.7874   5.3046557404e+01   5.2407009009e+01    0.5934847    0.3013198  45.92   0.00229291    2.048    0.512
       156 -11.1076    239.1059     52.1397   2.9881247724e+01   2.1390777792e+01    0.2238597    0.1834246   1.43  0.001349189    1.401    0.286
       157 -13.3806    216.0042     59.0742   3.3831312671e+01   2.5019707735e+01     1.785605    0.6567584 -36.92  0.007651168    2.150    0.535
       158 -11.9841     26.0170     45.1234   8.1548758293e+01   6.7640988282e+01    0.6871024    0.5265997  83.73   0.00366793    1.668    0.400
       159  -9.3384    247.8880     50.5399   2.8781103996e+01   1.9978864868e+01    0.1339979    0.1202738  77.59 0.0003672672    1.390    0.281
       160 -11.0626    229.1161     47.3059   2.9572971562e+01   2.3835573310e+01    0.5093019    0.3747258  41.65  0.003093571    1.699    0.411
       161 -11.1902     68.7860     40.1217   5.8093827934e+01   6.1859853906e+01    0.4542173    0.2955755  55.44  0.001813101    1.746    0.427
       162 -11.0513     82.2748     34.9079   5.0683780965e+01   5.9866097632e+01    0.2769709    0.2364908 -52.42 0.0005036553    1.244    0.196
       163 -10.6106     76.2813     37.0149   5.3772261183e+01   6.0841102869e+01    0.2054169     0.202987 -56.71 0.0002209044    1.075    0.070
       164 -11.9830     82.1224     48.4724   5.6805410654e+01   5.7493876965e+01    0.7650632    0.2882347  45.06  0.002566361    2.764    0.638
       165 -13.2770     81.4401     41.2178   5.3880050827e+01   5.8974528051e+01     1.138217    0.8164873  18.38  0.005278395    1.804    0.446
       166 -12.5309     75.7016     42.2672   5.6413264019e+01   6.0024179947e+01    0.4468252    0.3890187 -24.12  0.001648591    1.141    0.124
       167 -12.1863     62.7607     44.1575   6.2434757455e+01   6.2263476953e+01    0.5765157    0.4176997 -64.29   0.00222676    1.719    0.418
       168 -11.2926    206.7066     40.7181   2.9941456087e+01   2.9178001019e+01    0.3741544    0.1722856 -49.35  0.001135718    2.113    0.527
       169 -10.9226     99.8130     46.6139   5.0389308894e+01   5.3850305175e+01     0.308771    0.2130502 -42.83  0.001445756    1.424    0.298
       170 -12.0857    208.7114     45.1822   3.0946293943e+01   2.8224840548e+01    0.3798865    0.2899444  61.55  0.002244463    1.499    0.333
       171  -9.9823    215.3613     43.5401   2.9863900089e+01   2.7027605960e+01    0.2570528    0.1401345 -61.09  0.001017044    2.143    0.533
       172 -10.2974     35.9246     43.1864   7.5160589365e+01   6.6874299972e+01    0.1999707    0.1848173 -85.07 0.0005903065    1.237    0.191
       173 -10.5167    228.3374     40.8188   2.8025787309e+01   2.4719901942e+01    0.2220636    0.1698827  10.70 0.0007610518    1.652    0.395
       174 -11.9899     40.9107     39.3262   7.0762290217e+01   6.7011799659e+01    0.3778214    0.3334948  44.37  0.002189579    1.268    0.212
       175 -11.7020    237.1033     86.3268   3.8124266990e+01   1.7622670862e+01      0.28831    0.2397982 -89.45 0.0007446712    1.655    0.396
       176 -10.3577    109.5066     38.7176   4.4525527388e+01   5.2799407738e+01    0.2754067    0.2132233 -32.43 0.0007713715    1.265    0.209
       177 -10.7578    211.3085     38.5767   2.8929452384e+01   2.8445422601e+01    0.2144614    0.1285151  81.73 0.0008762241    2.004    0.501
       178 -12.4902     26.4696     36.0252   7.7658591586e+01   6.9696309423e+01    0.3628018    0.2897804 -15.25   0.00118577    1.333    0.250
       179 -11.7140    132.3953     34.2509   3.7838447394e+01   4.7700022408e+01    0.4963996    0.3412874 -66.17  0.001067948    1.702    0.412
       180  -9.1665     92.3513     34.7459   4.7438464154e+01   5.7555550061e+01     0.935048    0.5221056  75.18  0.003522119    2.791    0.642
       181  -9.6665     89.7801     26.9694   4.4542387946e+01   5.9326082222e+01    0.2050753    0.1258498 -39.30 0.0002740079    1.620    0.383
       182 -10.1337    183.8216    106.5525   5.0610176824e+01   2.4638001347e+01    0.2274822    0.1634832  -3.41  0.001053202    1.644    0.392
       183 -11.2124     88.8970     30.8432   4.6655583217e+01   5.8970847154e+01    0.2622932    0.2347656 -79.31 0.0003238129    1.261    0.207
       184 -11.0038     85.6757     29.6898   4.7088122794e+01   5.9902993001e+01    0.3259697    0.2653678  49.55 0.0006949559    1.233    0.189
       185 -11.6382      3.1053    247.6756   1.0974846098e+02   2.3281923715e+01    0.2785094    0.1277171  68.33  0.001857611    1.908    0.476
       186 -10.2509    122.8721     31.5888   3.8627818908e+01   5.0466312214e+01    0.3862005    0.2034319  -0.79   0.00128519    3.562    0.719
       187 -10.5853    232.5068     87.5195   3.8929514880e+01   1.8272256019e+01    0.2285421    0.1570548 -29.38 0.0005506851    1.176    0.150
       188 -11.2149    104.0979     28.6574   4.1529892797e+01   5.5586164716e+01     0.345502    0.2937201 -87.05 0.0008654292    1.308    0.235
       189 -10.1860    102.4195     23.8290   3.9749564612e+01   5.6641563587e+01    0.3216468    0.1897377  -4.44  0.001315481    2.310    0.567
       190 -10.7083     29.3028     28.5282   7.2326800386e+01   7.0967064194e+01    0.4507373    0.1399379 -51.73  0.001382733    3.005    0.667
       191 -12.0293    138.7852     87.8197   5.4593576940e+01   3.7347615329e+01    0.4059116    0.2382991 -44.51  0.001759673    1.653    0.395
       192 -11.9209    189.6830     26.4081   2.7546002032e+01   3.4580799400e+01    0.5238605    0.3128342  45.78  0.002582892    2.019    0.505
       193 -10.1822    218.4643     28.5317   2.5682625124e+01   2.8047817226e+01    0.1278902    0.1062186 -40.19 8.046743e-05    1.008    0.008
       194 -11.1084    154.5144     25.9621   3.1347846135e+01   4.3124463141e+01    0.2839847    0.1932398  70.51  0.001195158    1.506    0.336
       195 -10.3292    148.2093     28.2132   3.3014956142e+01   4.4450393175e+01    0.3468957    0.1862451  50.81  0.001108058    1.964    0.491
       196 -10.1655    148.1783     24.5949   3.1726165162e+01   4.4877172972e+01     0.366847    0.2493225 -70.83  0.001777897    1.637    0.389
       197 -10.6037    112.5734     28.3274   3.9430079771e+01   5.3504035484e+01    0.3207332    0.1734161  62.11 0.0008932257    1.847    0.459
       198 -10.9052    175.5164     24.3498   2.8335903409e+01   3.8138282511e+01    0.4074004    0.1861693 -40.13  0.001784251    1.907    0.476
       199 -10.3877    112.2961     23.9202   3.7589993221e+01   5.4134217229e+01    0.2905557    0.1987256  52.47  0.000983782    1.451    0.311
       200  -9.5571    139.3017     23.3164   3.2542369290e+01   4.7283084976e+01    0.1456302    0.1063285  30.23 0.0007022308    1.618    0.382
       201 -10.7036     97.7890     21.9312   3.9984719689e+01   5.8038606359e+01    0.3185269    0.2092844 -18.80  0.001172841    1.613    0.380
       202 -11.2085    169.9685    234.4813   7.6805311327e+01   7.4602453165e+00    0.1682048   0.08562887  30.58  0.001028621    1.583    0.368
       203 -10.4411    150.9902    234.5266   8.0249860544e+01   9.7214806527e+00    0.1667113   0.08705357  30.68 0.0004082437    1.526    0.345
       204 -10.7839    164.2982     20.9553   2.8457702027e+01   4.1236241814e+01    0.2446698    0.1924412  64.42 0.0006073707    1.325    0.245
       205 -10.4423     23.6560    229.6831   1.0524600105e+02   2.4585485999e+01    0.0943782   0.07999647 -19.96 0.0007048629    1.717    0.418
       206 -10.2670    200.7644     20.2162   2.4813013735e+01   3.2717081953e+01    0.3587053    0.1753102  72.82  0.001720931    2.206    0.547
       207 -10.2200    172.9349     17.2925   2.6367965343e+01   3.9498329737e+01    0.3125191     0.159108 -54.28  0.001395879    1.980    0.495
       208 -10.2483    168.8593     18.1295   2.7042805180e+01   4.0407160649e+01    0.2211282    0.1655641 -56.32 0.0009259682    1.269    0.212
       209 -10.8357    139.1933     17.0311   3.0183956871e+01   4.7992775350e+01    0.2994774    0.1990387  87.89 0.0005632316    1.620    0.383
       210 -10.7158     94.1065     17.0107   3.8507856946e+01   5.9554383301e+01    0.2068489    0.2009355  24.97 0.0004319884    1.016    0.015
       211  -9.5091    188.4727     16.4563   2.4721525709e+01   3.5890283880e+01    0.1334892    0.1156008 -49.23 0.0003196895    1.014    0.013
       212  -9.5764    102.8601     14.7972   3.5442702418e+01   5.7595496272e+01    0.1799092    0.1557756 -65.04 0.0002934859    1.229    0.186
       213  -9.7259     10.2687     15.2739   7.9091064623e+01   7.5972948848e+01    0.1276215   0.08389915 -29.35 0.0001987611    1.479    0.324
       214 -10.7729    150.4779     13.0112   2.7284710801e+01   4.5507702694e+01    0.2301043     0.174886 -72.12 -0.0001159044    1.330    0.248
       215 -10.1039    134.9581     13.3379   2.9346163679e+01   4.9457719917e+01    0.1948552    0.1716795  66.91 0.0003884735    1.135    0.119
       216  -9.8416     78.0082     13.3321   4.0934998626e+01   6.3924194624e+01    0.1878454    0.1788519  -7.52 0.0005767739    1.042    0.041
       217 -10.0828     16.3112    227.3451   1.0664469640e+02   2.5636793763e+01   0.09297732   0.07945243 -32.91 0.0007045848    1.706    0.414
       218 -11.4445    159.9892    219.6788   7.6689022062e+01   1.0617109688e+01    0.1773208    0.1517461 -12.18 0.0002738386    1.217    0.179
       219 -10.3855     33.5090    214.9935   1.0251524019e+02   2.6335977873e+01    0.1430117   0.08043068 -48.81 0.0007521896    2.484    0.597
       220 -11.6302     12.6151    213.3500   1.0692623558e+02   2.8506298178e+01    0.3017429    0.1487542  56.63  0.001836941    1.622    0.384
       221  -9.8337    244.1832    153.2289   5.1378783515e+01   8.0904145673e+00    0.1428206    0.1160847 -25.08 0.0003595105    1.289    0.224
       222  -9.5167    162.3112    123.2969   5.8783902221e+01   2.5943913439e+01    0.1421533    0.1060762   1.80 0.0002517138    1.598    0.374
       223  -9.7581     87.2394    118.0093   7.6598831501e+01   4.0973032461e+01    0.1866444     0.120662 -55.80 0.0002472057    1.518    0.341
       224 -10.5929    203.3630    115.9722   4.9602104335e+01   1.9513246113e+01    0.2803801      0.19796  70.36  0.001067903    2.242    0.554
       225  -9.7216    181.8208    115.3716   5.3120345259e+01   2.3587834685e+01    0.1915219    0.1233355  34.07 0.0009438755    1.706    0.414
       226 -12.1356    131.5430    111.6964   6.2859819888e+01   3.4169827482e+01     0.436929     0.291824  44.29  0.002061354    1.539    0.350
       227 -10.5339    216.9927    109.6623   4.6087799438e+01   1.8014336510e+01    0.3615365    0.1575286 -33.32  0.001662422    1.928    0.481
