#   1 NUMBER                 Running object number                                     
#   2 MAG_AUTO               Kron-like elliptical aperture magnitude                    [mag]
#   3 X_IMAGE                Object position along x                                    [pixel]
#   4 Y_IMAGE                Object position along y                                    [pixel]
#   5 X_WORLD                Barycenter position along world x axis                     [deg]
#   6 Y_WORLD                Barycenter position along world y axis                     [deg]
#   7 A_WORLD                Profile RMS along major axis (world units)                 [deg]
#   8 B_WORLD                Profile RMS along minor axis (world units)                 [deg]
#   9 THETA_WORLD            Position angle (CCW/world-x)                               [deg]
#  10 FWHM_WORLD             FWHM assuming a gaussian core                              [deg]
#  11 ELONGATION             A_IMAGE/B_IMAGE                                           
#  12 ELLIPTICITY            1 - B_IMAGE/A_IMAGE                                       
         1 -13.7833    197.4833     43.4770   4.2742390426e+01   3.0804556636e+01    0.8345186    0.7717066 -65.41  0.003099868    1.141    0.124
         2 -13.7797    206.0703     35.1851   3.9748031011e+01   2.9957050501e+01    0.6165281    0.5678067 -67.66  0.001275849    1.171    0.146
         3 -14.0504    230.9966      8.7368   3.1739901058e+01   2.7721543853e+01    0.8265998    0.6413386 -70.19  0.004214243    1.032    0.031
         4 -12.4812     49.0468    248.1933   1.1575811447e+02   1.6009292357e+01    0.2278186     0.159045 -86.41 0.0009393225    1.398    0.285
         5 -13.3374     44.7174    194.4389   1.1206681168e+02   2.8194023646e+01     1.459143    0.4305335  46.84  0.001966443    3.096    0.677
         6 -13.2149     28.5795    216.0123   1.1753827036e+02   2.5119556292e+01    0.8945895    0.3572946  79.27    0.0028296    3.162    0.684
         7 -13.8347     39.5887    246.7903   1.1748846757e+02   1.7430594719e+01    0.6885556     0.512642  -3.98  0.004026938    2.630    0.620
         8 -18.1383     12.1605    242.0735   1.2238170816e+02   2.1400494658e+01     10.01919      7.53267  78.83   0.02951702    1.108    0.097
         9 -12.0555     56.7077    210.9252   1.1096396545e+02   2.2887857302e+01    0.4805042    0.3142174  40.35  0.001809915    1.451    0.311
        10 -11.3505     54.5025    206.4788   1.1101617442e+02   2.4180841335e+01    0.2607644    0.1931345  70.32 0.0006717404    1.210    0.174
        11 -10.4900     76.2244    210.6219   1.0649813706e+02   2.0289677354e+01    0.2968582    0.1652695 -87.71  0.001029503    2.234    0.552
        12 -10.1630     88.4268    209.7026   1.0357933704e+02   1.8699161280e+01    0.1802873      0.12511 -54.86 0.0009468048    1.573    0.364
        13 -10.3158     59.8260    218.2015   1.1098935370e+02   2.0862220875e+01    0.1890825    0.1415741  68.96 0.0004044699    1.179    0.152
        14 -13.8921    111.9730    196.9031   9.6242313803e+01   1.7815467178e+01     1.019313    0.6227968  -6.44  0.003335232    4.566    0.781
        15 -12.8753    122.5962    199.3316   9.4113717781e+01   1.5483365290e+01    0.3913302     0.270764 -81.19  0.001610087    1.884    0.469
        16 -10.6551     49.9534    217.3503   1.1306799442e+02   2.2316362875e+01    0.3864291    0.2142578  19.95  0.001810027    2.681    0.627
        17 -11.9858    192.5275    193.6394   7.7704484104e+01   4.4559542588e+00    0.7423154    0.3637504 -62.55  0.002137039    6.069    0.835
        18 -10.9382     59.9479    197.4486   1.0878458665e+02   2.5562363964e+01    0.2148228    0.1738017 -76.81  0.001262132    1.188    0.158
        19 -10.5914     62.2654    250.5349   1.1335199578e+02   1.3876195976e+01    0.2276005    0.1006001  48.08 0.0006504054    1.810    0.448
        20 -10.9761     14.1395    197.5326   1.1930801630e+02   3.0756359337e+01    0.2122905    0.1710133  80.90 0.0005196843    1.033    0.032
        21 -10.7232    149.1698    192.0056   8.6723845363e+01   1.2399634686e+01    0.2320765    0.1706782 -87.10  0.001033857    1.991    0.498
        22 -10.5003     64.4479    204.9908   1.0857233719e+02   2.3209262766e+01    0.2722923    0.1699802  85.79  0.001370768    1.718    0.418
        23 -13.3858     58.1023    183.8609   1.0763638622e+02   2.9050963807e+01    0.7494572    0.7091579  20.24  0.003804732    1.296    0.228
        24 -13.1542    111.1736    203.8235   9.7477425451e+01   1.6410313540e+01    0.4432503    0.2898673  67.32  0.001632581    1.862    0.463
        25 -10.9866     57.6308    223.9664   1.1201263323e+02   1.9896806716e+01    0.4222148    0.1896178  56.88  0.001942082    2.178    0.541
        26 -10.3317     79.5185    182.5717   1.0207562177e+02   2.6354024625e+01    0.2425381    0.1338909 -78.46 0.0008487229    2.135    0.532
        27 -11.6254     99.4377    180.9574   9.6791851406e+01   2.3598451969e+01    0.2816236    0.2146872  39.86 0.0006585356    1.291    0.225
        28  -9.9657     43.0909    179.8883   1.1091972319e+02   3.1880375807e+01     0.164697    0.1505124 -55.81 0.0003562667    1.275    0.216
        29 -10.3510     46.1426    176.8469   1.0980556425e+02   3.2264083979e+01    0.2109548    0.1631356  73.54 0.0005278318    1.199    0.166
        30 -10.3412     50.4001    181.1980   1.0924232513e+02   3.0680958687e+01    0.2039055    0.1827776  44.71 0.0003835912    1.216    0.178
        31 -10.9436    185.9361    173.4269   7.5130210463e+01   9.4886323794e+00    0.3017877    0.2563992  47.14  0.001233198    1.261    0.207
        32 -14.7519     58.4008    130.9207   9.9535137900e+01   4.2300043415e+01     1.633719    0.7418005 -76.62  0.005614683    3.209    0.688
        33 -13.9597     83.6940    157.8842   9.7049790063e+01   3.1807383629e+01     1.057553    0.7460036 -75.63  0.001551719    1.481    0.325
        34 -13.7079     72.2906    152.4904   9.9288933248e+01   3.4902039846e+01    0.5349361    0.4665762  84.85  0.001101565    1.118    0.106
        35 -16.0012     69.5673    144.1002   9.8598974979e+01   3.7422555014e+01     4.428707     1.959382  64.42  0.002821439    6.705    0.851
        36 -13.1264     75.8319    165.8843   1.0051900594e+02   3.1011155505e+01    0.7540529    0.4481283  71.27 0.0009098163    2.217    0.549
        37 -11.0939    111.1333    168.1648   9.1597761228e+01   2.4655420606e+01    0.2134217    0.1749871  77.23 0.0004739603    1.332    0.249
        38 -17.1247      6.2945    210.7944   1.2182230173e+02   2.8522463323e+01     8.239087    0.2743598 -70.20   0.02407673    6.622    0.849
        39 -10.2338     32.4871    165.0345   1.1196796304e+02   3.6711582990e+01    0.1899917    0.1706342  62.34 0.0005411527    1.153    0.133
        40 -11.9497     89.3048    152.4888   9.4523308920e+01   3.2253259939e+01    0.3968377    0.3343003 -15.87 0.0005621065    1.496    0.332
        41 -11.8380     92.2161    148.9994   9.3048146580e+01   3.2639954854e+01    0.3967571    0.3155164  70.48  0.001592864    1.373    0.272
        42 -11.8369    134.3508    147.5391   8.1486832732e+01   2.5164870718e+01       0.7526    0.2166945 -56.02  0.001867931    4.989    0.800
        43 -13.3791     54.5583    147.8329   1.0357766066e+02   3.8507239037e+01    0.6687291    0.4787747 -57.46  0.003495681    1.312    0.238
        44 -11.9643     40.3374    146.8864   1.0752285805e+02   4.0426302347e+01    0.2439611    0.2128144  13.17 0.0009824762    1.397    0.284
        45 -11.2968    104.2100    137.2234   8.7255776900e+01   3.3442280054e+01    0.5462733    0.3283916 -23.03  0.001916171    3.063    0.673
        46 -11.2873    105.8705    130.9156   8.5380493865e+01   3.4668804454e+01    0.4012898    0.3275242 -67.84  0.001146938    1.265    0.210
        47 -12.3848     91.4875    136.9356   9.0820440496e+01   3.5767820886e+01    0.2906763    0.2538842 -43.35 0.0004645397    1.180    0.152
        48 -13.3469     43.9174    129.3839   1.0374515919e+02   4.4453782167e+01    0.5883124    0.2979387  58.49  0.002373692    2.717    0.632
        49 -12.6489     33.5399    130.9683   1.0720246168e+02   4.5153030416e+01    0.3110547    0.2277212 -49.61   0.00143199    1.329    0.247
        50 -10.8340    112.6030    128.8683   8.3020162145e+01   3.3876949320e+01    0.2586459    0.2184214  22.30  0.000640093    1.339    0.253
        51 -11.1008     99.6539    124.6269   8.5714366846e+01   3.7341560812e+01    0.2882575    0.2443035  -5.40 0.0008776551    1.440    0.306
        52 -12.6120     71.7278    170.1871   1.0227457656e+02   3.0540688700e+01    0.4752823    0.3110326 -45.00  0.001582847    1.745    0.427
        53 -10.0294    108.4803    118.0459   8.1578833241e+01   3.7241412171e+01    0.2229137     0.149543 -50.39 0.0003217925    1.457    0.314
        54 -10.5459    231.1871    113.9580   5.4238144391e+01   1.2152974277e+01    0.2101659    0.2012312  85.07 0.0007335734    1.163    0.140
        55 -13.9881     43.2194    110.2953   1.0045938551e+02   4.9280760645e+01    0.6618863      0.45628 -53.37  0.002830127    1.286    0.222
        56 -13.1495     20.4428    111.3694   1.0832085567e+02   5.1183869813e+01    0.4347236    0.2587376  52.06  0.001412194    2.024    0.506
        57 -12.4736     52.6119    109.5033   9.7122129259e+01   4.8365421740e+01    0.3185764    0.2541185  57.45  0.001572435    1.436    0.304
        58 -10.1131    205.5245    110.4477   5.7554957593e+01   1.7937262059e+01    0.1438391    0.1315447 -53.91 0.0002808094    1.004    0.004
        59 -11.7278     34.4717    100.9656   1.0160461406e+02   5.2458216765e+01     0.241989    0.2089874  19.25   0.00061656    1.306    0.234
        60 -11.5274     52.6989     93.6969   9.3450419007e+01   5.2117673777e+01    0.2758983    0.1960326  72.42  0.001074529    2.048    0.512
        61 -10.9149    155.7050     87.7881   6.1480650431e+01   3.3423173946e+01    0.3877466    0.2579954 -72.57   0.00146517    2.060    0.515
        62 -10.1009     75.3733     85.0548   8.3132455851e+01   5.0739351676e+01    0.1984056    0.1738525 -45.51  0.000446077    1.107    0.097
        63 -11.9291     13.4526     59.8732   1.0045227879e+02   6.3456164064e+01    0.2114062     0.190437 -17.78 0.0004291833    1.152    0.132
        64 -12.8624    185.6635     52.7695   4.6681930355e+01   3.2235084411e+01    0.4119854    0.3593308  52.39 0.0008182775    1.284    0.221
        65 -11.1017     72.0000    248.0596   1.1120741220e+02   1.3062677458e+01    0.2413231    0.1549926 -74.10 0.0007686921    1.680    0.405
        66 -10.9862     72.2725    244.6709   1.1084887406e+02   1.3685326124e+01    0.2316196     0.160863  55.78 0.0006688443    1.197    0.165
