#   1 NUMBER                 Running object number                                     
#   2 MAG_AUTO               Kron-like elliptical aperture magnitude                    [mag]
#   3 X_IMAGE                Object position along x                                    [pixel]
#   4 Y_IMAGE                Object position along y                                    [pixel]
#   5 X_WORLD                Barycenter position along world x axis                     [deg]
#   6 Y_WORLD                Barycenter position along world y axis                     [deg]
#   7 A_WORLD                Profile RMS along major axis (world units)                 [deg]
#   8 B_WORLD                Profile RMS along minor axis (world units)                 [deg]
#   9 THETA_WORLD            Position angle (CCW/world-x)                               [deg]
#  10 FWHM_WORLD             FWHM assuming a gaussian core                              [deg]
#  11 ELONGATION             A_IMAGE/B_IMAGE                                           
#  12 ELLIPTICITY            1 - B_IMAGE/A_IMAGE                                       
         1 -10.1924     10.6575     18.3128   1.1404366501e+02   6.9381998304e+01     1.020797    0.4068657 -13.25  0.003698678    5.945    0.832
         2  -9.4361      2.3037     14.8499   1.1656717155e+02   7.0491397570e+01    0.3899886    0.1981829 -54.76  0.002016805    2.674    0.626
         3 -10.9307     37.1458      9.1456   9.8626434828e+01   6.7886313486e+01      1.05988    0.3936438 -39.42  0.005184138    3.110    0.678
         4 -10.4458     16.3199     66.5675   1.2682184678e+02   6.0649951512e+01     1.478078    0.1105922 -55.04  0.004665045    5.073    0.803
         5 -10.8362     18.7106      6.1761   1.0524824632e+02   7.0295968201e+01    0.9826684    0.8104383  63.50   0.00632131    3.372    0.703
         6 -10.2528      5.1651      4.5653   1.1092698105e+02   7.1696342719e+01     0.407323    0.2982329 -12.13  0.001470939    1.078    0.072
         7 -11.1713     23.8057     32.3889   1.1360120585e+02   6.6150534622e+01     1.425405    0.4542537 -34.58  0.004031976    3.005    0.667
         8 -10.5472      6.8553     30.0167   1.2000763475e+02   6.7859494469e+01    0.5780069    0.2920597 -43.60  0.002279557    1.523    0.343
         9  -9.5263    100.1281     32.7123   8.6984971350e+01   5.4834578779e+01    0.5135644    0.4080277 -17.31  0.001875786    1.282    0.220
        10  -9.7372    103.1767     20.7732   8.1889693968e+01   5.5597392870e+01    0.7703723    0.2897738 -18.85  0.002559895    3.624    0.724
        11 -10.8075     36.3793     39.3995   1.1101561320e+02   6.3796859650e+01    0.6952497    0.4038336 -39.57  0.001150754    1.496    0.332
        12 -10.6064    133.9339     31.0457   7.8265167991e+01   4.7714766504e+01     0.385108    0.2709208  -0.10            0    1.795    0.443
        13 -10.3369     60.8745     31.5863   9.8880414233e+01   6.1840681622e+01     1.074257    0.5551764 -12.34  0.004397174    2.738    0.635
        14 -10.1267     63.7370      3.4685   8.6400794233e+01   6.4599244551e+01    0.6015702    0.3481898 -29.10  0.003659707    1.862    0.463
        15 -10.2231     69.3695     40.6775   9.9343820441e+01   5.9252969653e+01      1.31845    0.3758712 -34.87  0.004863783    3.559    0.719
        16 -10.3675     45.4991     29.1877   1.0364435312e+02   6.4278901662e+01    0.3812604    0.3718559  89.29  0.002800796    1.704    0.413
        17  -9.5935     63.1131     21.3802   9.4070058311e+01   6.2814418237e+01    0.4105664    0.2627092 -46.22  0.001851042    2.245    0.555
        18  -9.9291     64.4585     13.3965   9.0345482219e+01   6.3504530916e+01    0.3868267    0.2812774  10.52 0.0003712061    1.204    0.169
        19 -10.1439     79.4514     24.0261   8.9772664525e+01   5.9781505752e+01    0.6817566    0.2691848  33.48  0.002733398    2.831    0.647
        20 -10.3788     50.0270     16.0263   9.6571260672e+01   6.5384595712e+01     1.170893    0.5645321   3.46  0.004703748    4.081    0.755
        21  -9.4235    110.1998     32.5014   8.4254303071e+01   5.2794503538e+01    0.6659825    0.2308525 -33.24  0.002069588    2.971    0.663
        22  -9.0992    128.6095     24.7336   7.7351060861e+01   4.9656314010e+01    0.4624573    0.2780519 -12.51  0.001515655    2.079    0.519
        23  -9.1038    120.3439     15.6745   7.6103187965e+01   5.2447235439e+01    0.4324224    0.2490441  12.94   0.00204153    2.421    0.587
        24  -8.9315    115.1350      4.1623   7.3277790439e+01   5.4614459015e+01    0.2686104    0.1816927 -36.57 0.0006225833    1.752    0.429
        25  -9.2967    110.5478      6.4339   7.5037519090e+01   5.5414296107e+01     0.524633      0.25104  -9.99  0.002459846    2.719    0.632
        26  -8.7627    112.2535     15.3944   7.7794089142e+01   5.4236915607e+01    0.3265298    0.1689854 -34.97 0.0006197805    2.170    0.539
        27  -9.2431    114.3468      9.8164   7.5391501844e+01   5.4304513070e+01    0.4023685    0.1696089  43.56 0.0006290778    2.104    0.525
        28  -8.1731     71.8107      8.1130   8.5792398532e+01   6.2805553083e+01    0.2034798    0.1045737 -25.53 0.0007107403    1.992    0.498
        29 -10.2351     73.5654     17.5842   8.9084400048e+01   6.1537174699e+01    0.8918465    0.2719379 -25.93  0.003531551    3.646    0.726
        30  -8.2121     77.2967      6.6466   8.3544083558e+01   6.1972361987e+01     0.207058    0.1633047 -32.52 0.0006932996    1.544    0.352
        31  -8.8568     78.7811      3.1540   8.1705198254e+01   6.2008353757e+01    0.2260564    0.2048706 -12.56 0.0009247379    1.302    0.232
        32  -9.6171    231.3499     16.4673   6.0441083857e+01   2.6092138826e+01    0.3398866    0.2255949 -35.98  0.001093228    1.647    0.393
        33  -9.5620     85.0266     12.9378   8.3815588480e+01   5.9959986783e+01    0.3721569    0.2427557 -49.93  0.001711849    2.378    0.580
        34  -9.3745     87.1791      3.8659   7.9692533827e+01   6.0374480994e+01    0.5453237     0.323849  35.22  0.002583761    1.453    0.312
        35  -9.2356     96.3506      4.5291   7.7619988196e+01   5.8517332840e+01    0.3963841    0.3292137 -32.87   0.00173491    1.454    0.312
        36  -9.1582    102.1101      8.4089   7.7665705758e+01   5.7014719675e+01    0.3291674    0.2294021 -57.28 0.0008064652    2.170    0.539
        37  -8.4177    103.8134      2.5369   7.5139757351e+01   5.7152009953e+01    0.3432903     0.175939  22.10  0.001593734    2.398    0.583
        38  -8.8258     96.5266     12.4789   8.0544735740e+01   5.7776985607e+01    0.3137375    0.1937815   4.46  0.001696322    1.896    0.473
        39  -8.7950    133.4426     12.5698   7.2460528603e+01   4.9786438289e+01    0.2639346    0.1763047 -48.84  0.001436322    1.821    0.451
        40  -8.4603    125.1807     13.1653   7.4261004232e+01   5.1608544703e+01    0.3116295    0.1945931 -45.27  0.001422809    1.965    0.491
        41  -8.8626    126.8192      9.1914   7.2632282276e+01   5.1601717310e+01    0.4338522    0.1976598  63.94  0.001447486    2.015    0.504
        42  -8.8907    121.9525      6.0000   7.2528202105e+01   5.2965728180e+01    0.3623972    0.1664775  64.13  0.001500076    2.014    0.503
        43  -8.4014    125.7250      4.6459   7.1355735902e+01   5.2236042228e+01    0.2433745    0.1787087  23.41 0.0008472953    1.463    0.316
        44  -8.0128     80.3894     12.4732   8.4969038699e+01   6.0861628219e+01    0.2175983    0.1348907 -26.70  0.001273518    1.697    0.411
        45  -7.8520    137.5275      9.4938   7.0747677422e+01   4.9125734408e+01    0.1301479    0.1106397  54.66 0.0002510096    1.018    0.018
        46  -9.3755    132.2135      5.6245   7.0478402814e+01   5.0685338297e+01    0.4081563     0.219695  33.51  0.001797636    2.083    0.520
        47  -7.7726    143.1524      5.1505   6.8460377218e+01   4.8197546914e+01     0.171112    0.1405898 -74.13 0.0005586918    1.376    0.273
        48  -7.3564    175.6031      3.1510   6.3290981236e+01   4.0656788061e+01    0.1459389    0.1231413  10.34 0.0006406219    1.552    0.356
        49  -7.8078      1.1620    115.6417   1.4055841739e+02   5.1196180976e+01    0.2314987    0.0697182 -71.74 0.0009788076    2.719    0.632
        50 -10.6518    206.3392    250.0493   1.1466277669e+02  -7.8642694246e+00     0.782718    0.1697262  38.85  0.002638966    4.068    0.754
        51 -10.1067     14.8003    111.9854   1.3627857684e+02   5.1114530646e+01    0.4819507    0.2712836  69.54  0.002445702    2.590    0.614
        52  -7.5853    167.4185    114.2036   9.4974111333e+01   2.5654060186e+01    0.2201333    0.1457984 -54.41   0.00043592    1.600    0.375
        53 -10.3413     62.9351     95.7249   1.1844019273e+02   4.9921315093e+01    0.5765128    0.3597218 -78.27  0.001633005    2.582    0.613
        54  -8.6119     63.5218     86.8607   1.1596374946e+02   5.1737471775e+01     0.439726    0.2134548 -29.63  0.001721401    2.930    0.659
        55  -9.9805     65.8175    103.5887   1.1946914004e+02   4.7800910297e+01    0.7428932    0.5007977   7.65  0.003663846    2.064    0.516
        56  -9.0655     59.2882    109.6444   1.2282029216e+02   4.7286079132e+01    0.4139246     0.264988  75.80  0.001568439    2.590    0.614
        57  -9.3911     24.6202    112.3721   1.3354716400e+02   5.0266567695e+01    0.3138535    0.1647772 -57.51  0.001694487    1.493    0.330
        58 -10.0792     30.2721    110.0078   1.3149256393e+02   5.0314862618e+01    0.4806589    0.2501624 -28.77  0.002228272    2.756    0.637
        59  -8.6666     36.2458    112.2034   1.3015210464e+02   4.9261935942e+01    0.2477681    0.1941163   8.10   0.00136476    1.613    0.380
        60 -10.9309     44.6806    102.4864   1.2567725468e+02   5.0600211196e+01    0.7945044    0.4628846  76.25  0.003102677    3.664    0.727
        61  -9.1003     39.9569    107.1086   1.2806868237e+02   5.0051497533e+01     0.189473    0.1580654 -78.65 0.0004836609    1.238    0.192
        62 -10.5852     32.1996     64.1254   1.2043159325e+02   5.9837119183e+01     1.190391    0.5396045 -21.77  0.004828668    3.669    0.727
        63 -10.6117      4.9467     86.2215   1.3486698172e+02   5.7351962627e+01     1.442746    0.3868513 -61.08  0.004181128    2.546    0.607
        64 -11.4422    195.2561    247.3136   1.1630625963e+02  -5.6586874064e+00     1.059905    0.3392773  37.99  0.004249636    2.762    0.638
        65 -11.1920     20.4917     98.3124   1.3225974930e+02   5.3725104901e+01      1.72143    0.6029246 -69.75   0.00686017    3.125    0.680
        66 -10.4101     25.6646     78.1569   1.2634549194e+02   5.7610275630e+01    0.5669495    0.4246726  76.91  0.002276357    2.012    0.503
        67 -10.1371     77.9867    112.9598   1.1806522484e+02   4.3935461228e+01    0.5060499    0.3051377 -73.81  0.001628646    2.276    0.561
        68  -8.4365    150.3008    247.6359   1.2493397655e+02   1.9420103416e+00    0.1291046   0.09080916  70.81 0.0006611772    1.728    0.421
        69  -9.8761    166.1484    246.5266   1.2173423825e+02  -5.9998052750e-01    0.2963029    0.1987394 -13.61  0.001489005    2.510    0.602
        70  -6.9225    112.5054    245.5256   1.3188846227e+02   8.6772302192e+00    0.1278996    0.1033703  60.42 0.0008101125    1.002    0.002
        71  -7.7443    117.7158    240.3447   1.3026880639e+02   8.7701269851e+00    0.1317744   0.08696429  72.00 0.0002103202    1.643    0.391
        72 -10.8713     21.9088     53.6955   1.2129035858e+02   6.2679168580e+01    0.7338908    0.4670381 -81.99  0.002944605    3.705    0.730
        73  -9.6317    187.8593    233.9552   1.1559319497e+02  -2.3430829487e+00    0.2612627    0.2214959  -0.35 0.0009740953    1.279    0.218
        74 -10.2293     34.4481     90.7425   1.2632144826e+02   5.4195575737e+01    0.5484467    0.2830004 -74.80  0.001778673    2.780    0.640
        75 -10.1657     37.0702     80.7980   1.2311974574e+02   5.6048387071e+01    0.7203751    0.3624136 -16.64   0.00296969    3.550    0.718
        76 -10.2165      4.7169     41.8522   1.2463895842e+02   6.5997179327e+01    0.6171723    0.2729528 -53.48  0.002693368    1.848    0.459
        77  -8.5946     22.6859    232.2033   1.4695415526e+02   2.3832985216e+01    0.1811377    0.1481497  82.87 0.0003583636    1.238    0.192
        78  -9.9540    139.4218    103.5752   9.8774113039e+01   3.4320988962e+01    0.6770534    0.3461375 -44.06  0.001615945    1.939    0.484
        79  -8.0841     78.0841    105.3136   1.1620065874e+02   4.5652616255e+01    0.3103908    0.1923759 -16.08  0.001262865    2.736    0.634
        80  -9.7085      6.3249    103.8131   1.3742014094e+02   5.3490047736e+01    0.3933979     0.250104  69.25  0.001717085    2.072    0.517
        81  -8.4124    165.9571    104.0199   9.2642933526e+01   2.8083669059e+01    0.2898053    0.2146651 -44.68 0.0004645868    1.340    0.254
        82  -9.3530    158.8567    102.0953   9.3728355235e+01   3.0152268391e+01    0.4561951    0.2933818 -31.80  0.001060679    1.741    0.426
        83  -9.5983    149.4258    103.2552   9.6245012159e+01   3.2114888835e+01    0.4269931    0.2849397 -54.74 0.0009122369    1.612    0.380
        84  -8.7691    158.7834    111.7621   9.6302937484e+01   2.8180269246e+01    0.3083047     0.203244 -53.06 0.0006286466    1.585    0.369
        85  -8.7576     14.4007    104.6998   1.3521383025e+02   5.2763903074e+01    0.2342531    0.1624602 -50.71 0.0006685932    1.221    0.181
        86  -9.9298     65.7479    110.8960   1.2118186987e+02   4.6157877497e+01    0.4655808    0.3544299  77.66  0.001239612    1.704    0.413
        87  -9.6075     81.5923     99.1819   1.1359780236e+02   4.6464767322e+01    0.7470977     0.284916 -50.46  0.001269372    2.419    0.587
        88  -8.7899    243.8459    100.2480   7.7524146576e+01   1.0737701966e+01      0.37308   0.09789533 -36.58   0.00112406    3.828    0.739
        89  -7.6440    200.1064     98.1949   8.4217352792e+01   2.1030988700e+01    0.2042596    0.1688756 -73.59 0.0003216524    1.279    0.218
        90  -9.2725     94.3295     97.2828   1.0930925372e+02   4.4751859209e+01    0.3305438    0.2735378 -69.35 0.0006132066    1.380    0.275
        91  -8.6028     95.3235     91.5701   1.0744029736e+02   4.5782907476e+01    0.5039873    0.3111714 -10.80  0.001916502    2.988    0.665
        92  -8.5796    149.7724     97.1122   9.4489051460e+01   3.3282451806e+01    0.3087698    0.2029286  24.40  0.001230054    2.182    0.542
        93 -10.1998    164.3812     93.7293   9.0230176825e+01   3.0492355744e+01    0.6068566     0.343779 -31.39  0.001532795    2.033    0.508
        94  -9.8445    138.8441     91.7052   9.5630524931e+01   3.6867674140e+01    0.6650477    0.3418885 -44.06  0.001952714    1.948    0.487
        95  -9.2946    140.4665     82.1901   9.2504767596e+01   3.8328926308e+01    0.6514685    0.2869001 -36.64  0.001264926    2.390    0.582
        96  -9.0162    139.9740     74.9937   9.0513106145e+01   3.9756949370e+01    0.4385205    0.2188275 -37.31   0.00143155    2.060    0.514
        97  -9.3029    157.5491     90.6815   9.0914033493e+01   3.2713726598e+01    0.4656438    0.2628391 -26.26  0.001591704    2.353    0.575
        98  -9.3587    110.7196     90.1410   1.0260812360e+02   4.3177255410e+01    0.8297208    0.3521541  32.80  0.002746358    3.325    0.699
        99  -9.0012    150.5690     89.0347   9.2056163354e+01   3.4681936091e+01     0.345636    0.2547717 -38.38  0.001411057    1.380    0.276
       100  -8.4025    174.4870     89.0110   8.6807743783e+01   2.8944052785e+01    0.2368202    0.1513761 -39.11 0.0004956074    1.580    0.367
       101 -10.0822     85.2590     86.6134   1.0906232119e+02   4.8536058592e+01    0.4336829    0.3413492 -70.25 0.0008331484    1.599    0.375
       102  -9.4332     87.5838     78.8179   1.0607467810e+02   4.9707794586e+01    0.5941787    0.3551902  16.67  0.001793782    2.463    0.594
       103 -10.1176     13.2708     45.4990   1.2225467885e+02   6.4802204724e+01    0.6949845    0.3249617 -11.50  0.003461288    2.983    0.665
       104 -10.5552     48.2097     82.6348   1.1985684341e+02   5.4503156915e+01     1.007933    0.4358436 -49.52  0.002085291    1.930    0.482
       105 -10.5615     55.1837     70.9728   1.1428321914e+02   5.6023569918e+01    0.6015443    0.3766282  55.81  0.001341856    2.653    0.623
       106  -9.7447     54.7783     63.2933   1.1210888654e+02   5.7530859378e+01    0.4084328    0.2982518  -0.45  0.001584338    1.479    0.324
       107 -10.1639     62.1956     60.8547   1.0876160025e+02   5.6995843948e+01    0.6094383    0.2747185  32.44  0.002805755    2.386    0.581
       108 -10.2676    103.8576     82.5515   1.0234186633e+02   4.6029335111e+01    0.5242081    0.2919197 -51.68 0.0008381227    1.972    0.493
       109  -9.4451    104.9255     71.5393   9.8680941274e+01   4.7903164662e+01    0.7385636     0.401145 -24.32  0.002856196    2.452    0.592
       110  -9.5362    109.8258     63.9323   9.4890129195e+01   4.8262347606e+01    0.3729298     0.300466 -56.74 0.0006155019    1.478    0.323
       111  -8.8313    110.5620     58.2729   9.2857676089e+01   4.9049831556e+01     0.408972    0.2842329   7.28 0.0009518796    1.880    0.468
       112  -9.0392    163.4769     87.0453   8.8596664803e+01   3.1981774876e+01    0.4782657    0.2071723 -31.21  0.001593902    2.920    0.658
       113  -9.1581    157.4776     83.2336   8.8851332701e+01   3.4133732097e+01    0.4678156      0.27124 -35.26   0.00169253    1.817    0.450
       114  -9.0190    156.9809     76.3688   8.7015756362e+01   3.5493865739e+01    0.4398374    0.2449766 -44.21  0.001472352    1.837    0.456
       115  -9.0834    241.0588     81.0988   7.3606555379e+01   1.4599933006e+01    0.3511046    0.1796693 -70.01  0.001272812    3.248    0.692
       116  -8.7128    119.0275     80.6324   9.7536346233e+01   4.3350180745e+01    0.3227066     0.250018 -74.29  0.001020944    1.739    0.425
       117  -7.9322    120.0292     75.9963   9.5871646651e+01   4.4005154564e+01    0.2831856    0.2126646  13.01 0.0008232963    1.658    0.397
       118  -8.9514     74.2113     79.3964   1.1044353707e+02   5.1743185129e+01    0.6154494    0.2271705 -49.03  0.001979007    2.586    0.613
       119  -7.8276     63.4217     82.1926   1.1472606636e+02   5.2717888645e+01    0.1854993    0.1203414 -58.99 0.0008984199    1.666    0.400
       120  -8.4879    149.5625     80.9193   8.9984971395e+01   3.6444067232e+01    0.3297262      0.22169 -55.82 0.0006026502    1.692    0.409
       121  -7.8127    146.9525     78.0364   8.9757195888e+01   3.7584204899e+01    0.2046411    0.1993708  89.98            0    1.039    0.038
       122  -8.3695     68.6192     79.7156   1.1233802642e+02   5.2500297928e+01    0.2624526      0.11378 -44.94  0.001119845    2.070    0.517
       123  -8.8261    166.1741     78.5816   8.5675613135e+01   3.2872129617e+01    0.2515668    0.1814619 -33.36  0.001079075    1.471    0.320
       124  -8.2735    183.8648     77.6019   8.1907033668e+01   2.8703165542e+01    0.2776657    0.2129347 -41.21 0.0008242759    1.315    0.239
       125  -7.7917    173.6951     78.6637   8.4162291666e+01   3.1017246592e+01    0.1524441    0.1207244  16.95 0.0007039575    1.670    0.401
       126  -9.3431    127.3450     75.2350   9.3723399058e+01   4.2562789265e+01    0.3530274    0.2492751 -52.51 0.0006792107    1.576    0.365
       127  -8.7972    128.9482     69.3246   9.1517642535e+01   4.3255466008e+01    0.5079978    0.2552459  28.52  0.001695695    3.429    0.708
       128  -8.3017    130.4258     64.1950   8.9569175590e+01   4.3794649177e+01     0.420031    0.1902735 -42.95  0.001468236    2.322    0.569
       129  -9.8127     81.5017     72.3090   1.0599524122e+02   5.1974112058e+01    0.4125254    0.2909307 -63.14 0.0008991713    1.922    0.480
       130  -9.1243    115.4028     71.9794   9.5888903951e+01   4.5707697985e+01     0.566159    0.2660553 -32.44  0.001537468    2.379    0.580
       131  -9.1110    162.6422     72.4472   8.4690995897e+01   3.4805043587e+01    0.4102581    0.2204112 -39.90  0.001703758    1.888    0.470
       132  -8.5706    169.5765     71.2028   8.2926430593e+01   3.3319445000e+01    0.4009173    0.1701038 -41.34  0.001231185    2.360    0.576
       133  -9.3651    146.8042     69.2606   8.7220118981e+01   3.9158461724e+01    0.4068744    0.2802663 -59.55 0.0008996102    1.762    0.432
       134  -8.0713    146.5243     64.4892   8.5866762567e+01   4.0021456772e+01    0.2884288     0.194864  18.94  0.001238113    2.136    0.532
       135  -8.4562    156.5302     69.8769   8.5250899467e+01   3.6726851398e+01    0.2579699    0.1497844 -33.95 0.0006174825    1.829    0.453
       136  -9.7197     94.6932     68.3106   1.0066844940e+02   5.0425046340e+01    0.4498051    0.2490239 -50.70 0.0009492529    2.090    0.522
       137  -9.4280     97.0950     58.4292   9.6745058730e+01   5.1684634039e+01     0.722757    0.4298922 -10.00   0.00302765    2.600    0.615
       138  -9.0884    121.2042     66.0942   9.2506543821e+01   4.5508132013e+01    0.3446524     0.250857 -59.07  0.001124325    1.719    0.418
       139  -8.4280    122.1941     61.2180   9.0713501215e+01   4.6107315048e+01    0.3433778    0.2176489  22.17 0.0009728436    2.129    0.530
       140  -9.0787     83.4175     64.7051   1.0299086927e+02   5.3052673804e+01    0.5240774    0.3160982  -1.23  0.002167314    2.817    0.645
       141 -10.0056    239.7505     64.8717   7.0132941746e+01   1.7506389227e+01    0.2572927    0.2462848 -84.57 0.0004869979    1.187    0.157
       142  -8.7669    244.0058     60.9505   6.8743130857e+01   1.7168244025e+01    0.2517272    0.1902562 -37.58 0.0005309718    1.373    0.272
       143  -9.1256    138.1564     65.3825   8.8063822472e+01   4.1833798373e+01    0.5702263    0.2610745 -33.15   0.00114321    2.365    0.577
       144  -8.6384    157.5374     63.1415   8.3088918708e+01   3.7595487359e+01    0.2566238    0.2075487  60.60 0.0007305861    1.191    0.160
       145  -9.2878     87.8251     56.5821   9.8934457215e+01   5.3687218863e+01    0.7221141    0.3257248 -30.89  0.003003791    2.430    0.589
       146 -10.4098     74.1103     55.4316   1.0294153074e+02   5.6176325696e+01     1.299387    0.5433782 -30.14  0.004724788    2.856    0.650
       147  -7.8434     42.9977    210.2427   1.4152124909e+02   2.5986595723e+01     0.165978    0.1297327  72.59 -0.000430966    1.084    0.078
       148 -10.0038    168.5686    208.5526   1.1517993740e+02   5.6391084702e+00    0.2474605     0.228561  39.68  0.000368362    1.016    0.016
       149 -10.2158     85.0352     48.0079   9.6863158862e+01   5.5545989655e+01    0.3950696    0.3239155 -59.78 0.0009435436    1.686    0.407
       150 -10.4059     89.7278     38.1598   9.1922790125e+01   5.6125682893e+01    0.9173326     0.305103  37.25  0.003120743    3.418    0.707
       151  -8.5355     10.1329     60.4729   1.2756514634e+02   6.2245103568e+01    0.2492315    0.1714501 -71.42  0.001599749    1.716    0.417
       152  -8.4037    164.5434     60.7198   8.0972322604e+01   3.6269677163e+01    0.1997254    0.1351653 -49.41  0.000842139    1.566    0.361
       153  -7.6260    152.5084     60.9405   8.3505121425e+01   3.9163683289e+01    0.2085217    0.1457985 -35.78 0.0004785518    1.496    0.332
       154  -8.7017    146.4904     58.9894   8.4227738263e+01   4.0911365949e+01     0.351888    0.2111263 -41.29 0.0009844264    1.738    0.425
       155  -8.5971    147.5070     54.0048   8.2506686730e+01   4.1433815701e+01    0.3947209    0.2023876 -26.59  0.001611698    2.326    0.570
       156  -8.5665    129.9851     57.9730   8.7737412454e+01   4.4900142670e+01    0.3218356    0.2303294 -60.04 0.0004908348    1.785    0.440
       157  -8.2746    130.3326     54.3262   8.6504649055e+01   4.5386246782e+01    0.2714338    0.1963741  25.69 0.0008279158    1.575    0.365
       158  -8.7525    138.8610     56.7231   8.5251485928e+01   4.3059508964e+01    0.2807955    0.1993288 -41.65 0.0005726094    1.484    0.326
       159  -8.3057    138.7602     52.0129   8.3819677027e+01   4.3795490030e+01    0.3157765     0.217111  34.65  0.001045074    1.566    0.362
       160  -8.6944    141.9990     48.7886   8.2106608640e+01   4.3505600228e+01    0.2882858    0.1989703 -38.12 0.0004712111    1.533    0.348
       161 -10.2032     49.9112     54.1079   1.1091557379e+02   5.9786901984e+01    0.6154019    0.3530774 -54.09  0.002025405    2.072    0.517
       162  -9.6906     55.8796     43.5036   1.0510702086e+02   6.0786783817e+01    0.7712618    0.3971871  -0.83  0.002858968    4.303    0.768
       163 -10.3635     42.6751     49.4450   1.1204712995e+02   6.1440567484e+01    0.4921598    0.3658966 -63.02  0.002124376    1.960    0.490
       164  -9.9095      9.7428    207.4270   1.4751462362e+02   3.0238015942e+01    0.4931436    0.2583483  27.62  0.002822937    2.777    0.640
       165  -7.4508    119.0467     51.0000   8.8231393999e+01   4.8387794433e+01    0.1963297    0.1109858  49.77 0.0006986477    1.681    0.405
       166  -9.0923    120.9913     46.6275   8.6308119392e+01   4.8601882619e+01     0.377795    0.1976504 -31.51 0.0005773372    2.018    0.505
       167  -8.0762    123.0067     40.7730   8.3889854287e+01   4.8965369855e+01     0.338912    0.1954242  20.10   0.00140123    2.630    0.620
       168  -8.8931    234.4814     55.0660   6.8584695884e+01   2.0195537633e+01    0.2016265     0.125223 -40.45 0.0005680072    1.549    0.354
       169  -9.4567    162.9124     53.3986   7.9195742063e+01   3.7790511904e+01    0.4847388    0.2148739 -27.20  0.001805182    2.816    0.645
       170  -8.3163    241.1569     53.8373   6.7516358011e+01   1.8873273383e+01     0.165954    0.1603348  58.48 0.0005398571    1.316    0.240
       171  -8.6547    105.3781     53.2136   9.2623245613e+01   5.0905438135e+01    0.2795442    0.2275675 -52.77 0.0006539309    1.472    0.320
       172  -7.9757    106.0477     48.8010   9.0953296192e+01   5.1440948739e+01    0.2672985    0.1741949  28.53  0.001322811    1.644    0.392
       173  -7.7230    152.5976     53.2937   8.1223213682e+01   4.0317963579e+01    0.1915152    0.1423619 -19.40 0.0007171074    1.578    0.366
       174  -7.6890    181.8976     49.5007   7.4709184063e+01   3.3668919894e+01    0.2069521    0.1323945  62.31 0.0004519631    1.458    0.314
       175  -8.6473    157.6667     49.1870   7.8993089989e+01   3.9688029910e+01    0.2192717    0.1725686 -55.63 0.0005961985    1.383    0.277
       176  -9.6189    130.2880     46.5764   8.4050965860e+01   4.6533325455e+01     0.746641    0.3111603 -24.07  0.001222691    3.257    0.693
       177  -8.9432    191.5715    193.5790   1.0763405106e+02   4.0373597884e+00     0.603393    0.3025957 -63.03  0.001884221    4.601    0.783
       178 -10.2616    137.1184     39.2133   8.0179409088e+01   4.5959219884e+01    0.4496373    0.3113276  64.28 0.0003683925    1.446    0.308
       179  -8.7684    132.7286     35.9872   8.0106042345e+01   4.7388305878e+01    0.2955491    0.2252312 -30.27 0.0004851228    1.419    0.295
       180  -8.4804    149.7907     47.8256   8.0167400347e+01   4.1788081764e+01    0.2680094    0.1871867 -47.80 0.0006265106    1.566    0.361
       181  -8.7418    111.8922     46.7745   8.8690803520e+01   5.0532286933e+01    0.2747959     0.210974 -32.92 0.0005209009    1.355    0.262
       182  -8.2079    113.5049     42.0335   8.6672614494e+01   5.0858118525e+01     0.278656    0.1872421  17.21 0.0009270071    1.809    0.447
       183  -8.1740    224.5611     46.6917   6.7892009112e+01   2.3713353496e+01     0.249785    0.1170121  67.72  0.001092664    2.083    0.520
       184  -7.6430    162.4804     46.4704   7.7284174393e+01   3.8895770050e+01    0.1430861    0.1313355  78.97 3.098783e-05    1.049    0.046
       185  -7.7830    169.7536    193.8320   1.1225035131e+02   8.2775262406e+00    0.1857496    0.1634641  80.47 0.0002389522    1.284    0.221
       186  -9.8105    100.9988    175.9990   1.2455051348e+02   2.5260902891e+01    0.2041149    0.1831825  85.62            0    1.008    0.008
       187  -7.9652    230.4173    168.6745   9.4925001171e+01   1.0963394964e+00    0.2845294    0.1267328 -44.00  0.001145209    2.221    0.550
       188  -7.7087     44.3394    168.9732   1.3677026518e+02   3.5115686419e+01    0.1805236    0.1401168 -77.93 0.0005964312    1.075    0.070
       189  -9.1428    115.6077    152.7738   1.1665617792e+02   2.8096905402e+01    0.2498044    0.2420758  76.35 0.0003221372    1.065    0.061
       190  -8.3052    134.2977    148.8819   1.1120068725e+02   2.5315026814e+01    0.3972171    0.1717664 -54.67  0.001386494    2.460    0.593
       191  -8.3746    181.0211    145.9276   9.9723533222e+01   1.5850790659e+01    0.2228401    0.2159801 -51.46 0.0002814091    1.023    0.022
       192  -8.9319     84.7156     21.9430   8.7381971476e+01   5.9070581290e+01    0.2346359    0.2003618  10.73 0.0008217306    1.050    0.048
       193  -9.3496    152.9352     40.7767   7.7430080495e+01   4.1995720034e+01    0.3741209    0.2524484 -79.42   0.00144451    2.033    0.508
       194  -8.8966    104.8861     41.1146   8.8640978654e+01   5.2774685868e+01    0.2989045    0.2147449 -41.70 0.0007781479    1.561    0.359
       195  -8.7777    105.8044     36.7618   8.6880919137e+01   5.3169038407e+01    0.3498697    0.1982424  27.93  0.001309701    2.061    0.515
       196  -9.4081     53.1345     38.5394   1.0430773903e+02   6.1922343433e+01    0.4461756    0.1797986 -31.05  0.002002279    2.549    0.608
       197  -9.6079     67.1035    144.5944   1.2752759204e+02   3.8032046681e+01    0.5237122     0.309734  62.90  0.002394649    2.131    0.531
       198 -10.3249    227.3332    139.3426   8.9070329200e+01   7.1096883404e+00    0.2599397    0.2540725  44.96 0.0002558013    1.096    0.088
       199  -8.7259    144.0924     36.4578   7.7868603748e+01   4.4672520647e+01    0.2361475     0.193388 -45.75 0.0005866867    1.341    0.254
       200  -8.5308    153.5043     34.9176   7.5578468913e+01   4.2610959219e+01    0.1962826    0.1357963 -35.48   0.00101292    1.563    0.360
       201  -8.7140    118.7588     34.4845   8.2816237469e+01   5.0712302973e+01    0.2830085    0.1964727 -31.43 0.0008046653    1.540    0.351
       202  -9.2441    118.1454     55.3305   8.9874277222e+01   4.7921923146e+01    0.3441135    0.2750069 -61.54 0.0007442058    1.574    0.365
       203  -9.7921    152.0000     29.9915   7.4389730540e+01   4.3571734378e+01    0.6860712    0.4015694   2.92  0.002674216    2.989    0.665
       204  -9.2084    149.7293     25.6680   7.3508942933e+01   4.4614847110e+01    0.8617771    0.1349477  51.20  0.002437785    4.724    0.788
       205  -9.3416     91.2263     26.0325   8.7036634063e+01   5.7380922638e+01    0.4098951    0.2428909 -47.01   0.00135785    2.343    0.573
       206  -8.4424     92.0108     20.7534   8.4844517087e+01   5.7825162558e+01    0.2335648    0.1477971  33.74 0.0006558194    1.439    0.305
       207  -8.3271    144.0305     25.7449   7.4585497658e+01   4.5962878641e+01     0.250139     0.165171 -27.51  0.001312468    1.693    0.409
       208  -8.3024    113.6005    137.3699   1.1386394973e+02   3.2110755780e+01    0.2650708     0.200307 -57.69  0.001280222    1.285    0.222
       209  -8.8619    132.7461     17.4502   7.4152152588e+01   4.9474575787e+01    0.2451448    0.2092665 -12.49  0.001204739    1.318    0.242
       210  -8.7009    118.8138     26.4820   8.0100290877e+01   5.1650407414e+01    0.2529179    0.2139737 -67.47  0.001498283    1.508    0.337
       211  -7.8379    140.2875     22.6781   7.4347579795e+01   4.7181260845e+01    0.1300126   0.09979381 -71.42 0.0002358222    1.601    0.375
       212  -9.2060    118.8050     21.3828   7.8372687084e+01   5.2208573026e+01    0.2354896    0.2261633 -11.72 0.0006088471    1.164    0.141
       213  -8.3194    111.7192    133.4109   1.1346176458e+02   3.3397328548e+01    0.3458389    0.2364914  83.87  0.001438347    2.153    0.536
       214  -8.4303    111.1807     21.0597   8.0024054393e+01   5.3892631314e+01    0.2816471    0.1832441 -23.58  0.001386438    1.667    0.400
       215  -9.4526    134.6584    131.8536   1.0720140858e+02   2.9149344338e+01    0.4965709     0.442719  35.13  0.002537054    1.194    0.162
       216  -9.5280     98.6914    128.7959   1.1589195851e+02   3.6862353604e+01     0.629127    0.3788997  74.29  0.002309368    3.021    0.669
       217  -8.0701    161.0259    129.2459   1.0021153810e+02   2.3930276029e+01    0.3081145    0.2029812 -58.20  0.001293364    1.681    0.405
       218 -10.2921     70.3974    126.1469   1.2312555580e+02   4.1971267866e+01    0.6017486    0.5462078 -45.29  0.001866627    1.123    0.109
       219  -9.9906     58.2859    124.6142   1.2621232620e+02   4.3942932881e+01    0.5926184    0.3592157  82.63  0.002238936    2.607    0.616
       220  -9.8072    117.2386    125.6753   1.1019528721e+02   3.4126796524e+01    0.5973003    0.3791864  76.85  0.001340809    2.706    0.630
       221  -9.6126     27.2160    122.9306   1.3455617295e+02   4.7636367019e+01    0.4774689    0.2635207  77.54  0.001977101    2.701    0.630
       222 -10.2484    140.4672    117.5375   1.0219725789e+02   3.1097405677e+01    0.7726734    0.3843413 -54.05  0.001402529    2.237    0.553
       223 -10.4283    131.8244    119.8147   1.0495570831e+02   3.2464689061e+01    0.8481262    0.5329301  78.19   0.00230981    2.909    0.656
       224  -7.6029    139.6712     17.7033   7.2915013071e+01   4.7843768370e+01    0.1384883   0.08797836  37.18  0.000372428    1.634    0.388
       225 -10.7952    133.4094    109.6032   1.0190788036e+02   3.4365171900e+01    0.9274453     0.454732 -45.84  0.002680675    2.011    0.503
       226  -9.2751     41.1876    121.8698   1.3050288508e+02   4.6542417015e+01    0.4435479    0.2134168 -75.84  0.001882074    2.466    0.595
       227  -7.4237    174.1647    123.1948   9.5757745603e+01   2.2202499628e+01    0.2028718    0.1779639 -86.03 0.0002521401    1.243    0.196
       228  -9.1992    245.5095    120.8329   8.1874034167e+01   6.7600226168e+00    0.2366374    0.2274971 -68.10 0.0002829118    1.093    0.085
       229  -7.7663    231.2245    120.1895   8.4038648926e+01   9.8543258505e+00    0.2026788    0.1609091 -64.70 0.0005494033    1.353    0.261
       230  -8.6183     95.7455     16.9577   8.2415545847e+01   5.7492872193e+01    0.1994651    0.1907694  13.07 0.0003858805    1.190    0.160
       231 -10.4347    123.7156     90.2958   9.9110613187e+01   4.0473460050e+01     1.176621    0.5956321 -31.30  0.002907831    2.438    0.590
       232 -10.0908     76.1634     31.7898   9.3780709980e+01   5.9385789984e+01     0.386444    0.3417238 -76.25  0.001310409    1.807    0.446
       233  -7.8008    141.2499     12.6451   7.1065565579e+01   4.7968441606e+01    0.1729559    0.1606001  65.62  0.001058889    1.080    0.074
       234  -9.9415    128.1841    100.9788   1.0093223915e+02   3.7327877734e+01    0.9040194    0.4494634 -29.66  0.002245337    2.911    0.656
       235 -10.9584    120.9335    109.5816   1.0515881727e+02   3.7003602789e+01     1.450467    0.6352311 -46.26  0.004549576    2.225    0.550
       236  -9.9297    108.5774    114.5626   1.0978745350e+02   3.8337674132e+01    0.6283583    0.3888052 -77.53  0.001352321    2.822    0.646
       237  -8.9449    109.8196    107.0636   1.0751383757e+02   3.9769580964e+01    0.6437886    0.4092509  25.17  0.002412671    2.055    0.513
       238 -10.2170    108.4033     99.5383   1.0588980086e+02   4.1672793211e+01    0.9128847    0.5685725  67.16   0.00304135    2.559    0.609
       239  -7.2860    178.5319    118.5149   9.3642725170e+01   2.2155376388e+01    0.1577094    0.1503393 -75.21 0.0002509996    1.039    0.037
       240  -7.0963    203.6061     10.5378   6.1892292476e+01   3.3219518910e+01    0.1290471    0.1059766 -83.95 2.088474e-05    1.050    0.048
       241 -10.1390     91.8959    113.2213   1.1412139635e+02   4.1644226123e+01    0.5997307    0.4374874 -83.97  0.001618663    1.843    0.457
       242  -8.9169     93.0830    103.6314   1.1136012083e+02   4.3589729385e+01    0.6964774    0.3941707  14.23  0.002424579    3.612    0.723
       243  -8.7075    152.8574    115.3339   9.8618569668e+01   2.8791728511e+01    0.2769237    0.2104944 -55.63 0.0007014249    1.357    0.263
