#   1 NUMBER                 Running object number                                     
#   2 MAG_AUTO               Kron-like elliptical aperture magnitude                    [mag]
#   3 X_IMAGE                Object position along x                                    [pixel]
#   4 Y_IMAGE                Object position along y                                    [pixel]
#   5 X_WORLD                Barycenter position along world x axis                     [deg]
#   6 Y_WORLD                Barycenter position along world y axis                     [deg]
#   7 A_WORLD                Profile RMS along major axis (world units)                 [deg]
#   8 B_WORLD                Profile RMS along minor axis (world units)                 [deg]
#   9 THETA_WORLD            Position angle (CCW/world-x)                               [deg]
#  10 FWHM_WORLD             FWHM assuming a gaussian core                              [deg]
#  11 ELONGATION             A_IMAGE/B_IMAGE                                           
#  12 ELLIPTICITY            1 - B_IMAGE/A_IMAGE                                       
         1 -14.3959    215.2990     29.3727   3.6866107958e+01   2.8456142532e+01     1.097973    0.9062125  31.15  0.005987485    1.737    0.424
         2 -14.5504    203.1990     40.7425   4.0873893532e+01   2.9727255298e+01     1.896243     1.445485  34.17  0.006707579    1.805    0.446
         3 -13.4122    240.9460      4.9490   2.9623121857e+01   2.5833385917e+01    0.7772366      0.49481  87.67  0.005065432    1.394    0.283
         4 -10.6120     55.0722      5.5197   6.0530738746e+01   6.7105847747e+01    0.2464608    0.1653679  59.47  0.001406678    2.020    0.505
         5 -15.4521      9.6977    207.3223   1.2199286146e+02   2.8520773836e+01     1.196346     1.081192 -34.07  0.006339904    1.593    0.372
         6 -11.0258    139.9902    249.7559   9.8626916980e+01   2.7695534059e+00    0.2825288    0.1695291  43.77  0.001419075    1.490    0.329
         7 -13.8943     67.7949    171.5179   1.0463454072e+02   3.0516377962e+01     2.545091     1.208101 -30.28  0.006671758    6.766    0.852
         8 -13.6644     67.1446    155.3451   1.0231031649e+02   3.4689273904e+01    0.6505225    0.4634043 -47.27  0.001795875    1.441    0.306
         9 -15.0568     68.4200    144.2492   1.0003037867e+02   3.7349523331e+01     4.457443     2.488154  73.02   0.01614178    3.089    0.676
        10 -10.7659    206.5072    194.9530   7.5789163763e+01   1.8004551032e+00    0.2104062    0.1257592 -37.48  0.001037945    1.605    0.377
        11 -15.7109      5.2096    158.6675   1.1949118001e+02   4.0250777480e+01     6.801099    0.8366054 -73.14   0.01943322    5.369    0.814
        12 -11.0150    134.1627    213.1782   9.4666788478e+01   1.0499160165e+01    0.2101712    0.1860714   5.47 0.0004845574    1.206    0.171
        13 -10.2756    148.5109    187.2772   8.6893688881e+01   1.3430196457e+01    0.2771435    0.2266859 -89.78  0.001389083    1.628    0.386
        14  -9.2189    120.2944    186.3073   9.3523492072e+01   1.8665411916e+01    0.1448881    0.1153852 -14.01 0.0002184942    1.585    0.369
        15  -9.7228     79.6299    182.0991   1.0310116284e+02   2.6227741105e+01    0.3573165    0.2245665 -88.18  0.001609378    1.942    0.485
        16  -9.1617     82.5319    182.4445   1.0241129336e+02   2.5714443697e+01    0.2082419    0.1756531 -15.70 0.0005260041    1.528    0.346
        17  -9.0108     76.4287    184.5008   1.0425843993e+02   2.6110430108e+01     0.140458    0.1285789  82.53 5.723073e-05    1.010    0.010
        18 -10.1505     99.4141    180.6957   9.7821378838e+01   2.3499802450e+01    0.2554262    0.2462275 -17.21 0.0005509111    1.155    0.134
        19 -10.4486    188.6574    176.7469   7.5815453231e+01   8.2584344225e+00    0.4074081    0.3180786 -68.36  0.001686845    1.810    0.448
        20 -16.1614     42.7876    193.8201   1.1360787322e+02   2.8217774513e+01     5.380997     2.463312  64.78   0.02270343    2.615    0.618
        21  -9.8260    148.3042    174.8175   8.4529729527e+01   1.6178287132e+01    0.2309752    0.1916545 -74.50  0.001147701    1.468    0.319
        22 -11.2590    241.0195    173.6698   6.5197579285e+01  -3.5238824051e-02    0.3805143    0.1149151  36.94  0.001376299    3.906    0.744
        23  -9.4210    194.1785    171.2178   7.3515216735e+01   8.3317166790e+00    0.1895697    0.1782902 -74.13  0.001068108    1.328    0.247
        24  -9.4525    185.3932    169.2006   7.4937288368e+01   1.0354750575e+01    0.2060037    0.1360813 -51.45 0.0007447231    1.665    0.399
        25  -9.0279    110.5633    167.5204   9.2602864542e+01   2.4790126507e+01    0.1506435    0.1438648  80.34 0.0001023723    1.048    0.046
        26 -10.0213     89.9211    212.0740   1.0467961792e+02   1.7751615384e+01    0.2226957    0.1860519 -83.76 0.0005442941    1.225    0.184
        27  -9.1222    120.5131    165.5427   8.9622387329e+01   2.3484966504e+01     0.150693    0.1480113  66.83 8.466412e-05    1.016    0.015
        28 -10.7734    134.0000    147.9919   8.2412938242e+01   2.5079572548e+01    0.6034167    0.2361788 -56.04  0.001873821    3.116    0.679
        29 -11.2213    133.6041    143.4132   8.1476509447e+01   2.6233054124e+01    0.9338098    0.3044478 -56.06  0.002439016    4.399    0.773
        30 -10.9857    174.3666    148.5521   7.2810435788e+01   1.6769961517e+01    0.4073247    0.2934812 -53.33   0.00132223    1.482    0.325
        31  -8.9457    112.2092    150.3774   8.8741194693e+01   2.8673542227e+01    0.2164406    0.1418303  47.82  0.000547562    1.594    0.372
        32  -9.6620    143.9844    146.4787   7.9525260513e+01   2.3428195810e+01    0.2220844    0.1355648  63.83 0.0005897862    2.478    0.596
        33 -10.0356     35.8584    144.8636   1.0966007279e+02   4.1084581816e+01    0.2047151    0.1681956 -52.26 0.0004521726    1.212    0.175
        34 -11.0173     28.1183    144.1511   1.1178631355e+02   4.2004794807e+01    0.3110836    0.2102998  62.90  0.001661468    1.602    0.376
        35 -10.6711     31.5121    143.5069   1.1072784586e+02   4.1852838056e+01     0.265565    0.2016517  60.72  0.001501502    1.395    0.283
        36  -9.0523    200.3620    143.2242   6.6152383110e+01   1.2642641528e+01    0.2058664     0.129238 -48.11 0.0003413665    1.594    0.373
        37 -11.1124    101.0858    139.2138   8.9458825322e+01   3.3437179739e+01    0.5843694    0.3720629 -22.23  0.002258685    2.408    0.585
        38 -12.4941     88.2152    138.7020   9.3098888798e+01   3.5761932235e+01    0.3016198     0.268837 -42.50 0.0004339142    1.124    0.110
        39  -8.8029    197.0273    138.0289   6.5622750415e+01   1.4328247117e+01    0.1769149     0.157864 -33.20 0.0009496063    1.038    0.036
        40 -11.2500     24.0014    136.9825   1.1204712278e+02   4.4178909208e+01     0.244214    0.1692328 -73.25 0.0006372874    1.228    0.186
        41 -10.6855    105.9218    130.8623   8.6169100748e+01   3.4619728201e+01    0.4555544    0.3223012 -61.24  0.002047595    1.485    0.326
        42 -10.3096    110.4675    129.7296   8.4592383787e+01   3.4042107170e+01    0.3703298    0.2632823  19.17  0.000948849    1.738    0.425
        43 -11.9988     48.0001    125.0260   1.0278525287e+02   4.4854174634e+01    0.3421886    0.3039912  31.94  0.001400028    1.257    0.205
        44 -12.9927    187.2513    211.7280   8.2822789723e+01   1.9691815331e+00     1.002309    0.5242954  19.31  0.004233084    2.443    0.591
        45 -14.2142     19.1287    219.1492   1.2081330398e+02   2.5038665796e+01    0.5963208    0.5733031 -89.40  0.004508411    1.358    0.264
        46 -11.4564     97.7789    125.7530   8.7361175967e+01   3.7353905592e+01    0.3233784    0.2702682  -3.50 0.0007452646    1.411    0.291
        47 -10.4517    117.3837    123.7622   8.1167089759e+01   3.4126024014e+01    0.3862331    0.2460812   8.65  0.001377022    2.777    0.640
        48 -11.4548     30.2020    122.8059   1.0808997993e+02   4.7222202015e+01    0.4198469    0.1915406  51.15  0.001709681    2.896    0.655
        49 -11.2887    135.1149    127.8526   7.7360198729e+01   2.9545284453e+01    0.5374883     0.327749 -46.98   0.00223156    1.610    0.379
        50  -9.5096    163.4258    121.2273   6.8722379218e+01   2.4904056142e+01    0.2204833    0.1453619 -53.07 0.0005292566    1.601    0.375
        51  -9.9245    160.8195    127.9200   7.0998844623e+01   2.4038934779e+01     0.379242    0.2098467 -50.36  0.001490839    1.870    0.465
        52  -9.8582    107.1179    118.8673   8.2895689795e+01   3.7293296046e+01    0.2233892    0.2140656 -29.06 0.0003232149    1.031    0.030
        53  -9.5655     83.8397    118.0532   8.9813965963e+01   4.1637156123e+01    0.2318795    0.1994836  82.54 0.0006637902    1.361    0.265
        54 -10.8796     39.7524    113.3193   1.0329244765e+02   4.8694565968e+01    0.2318565    0.2007976  88.29 0.0005638607    1.249    0.199
        55  -9.0783    167.9911    112.9911   6.5595005834e+01   2.5610084396e+01     0.317191    0.1931977 -81.11 0.0009555943    4.105    0.756
        56 -10.3551    205.1785    110.3639   5.7576047198e+01   1.7966540143e+01    0.3305817    0.2647589  35.88   0.00102484    1.428    0.300
        57 -11.2204     33.1346    108.8455   1.0469147339e+02   5.0449963000e+01    0.4812711    0.2566671 -85.47  0.001974027    2.646    0.622
        58 -12.5490    248.1450    107.6240   5.0300395699e+01   9.9734387654e+00    0.5069278    0.4136094  66.28  0.003100704    1.472    0.321
        59 -10.1867    134.6367    105.0013   7.1499977460e+01   3.4758150683e+01     0.370514    0.1479674 -43.70  0.001244396    2.467    0.595
        60 -10.5907    119.1905    103.7049   7.5356082449e+01   3.8364283937e+01    0.2493339    0.2025038  64.07 0.0008797611    1.430    0.300
        61 -11.1438     41.2357    103.1415   1.0072065262e+02   5.1059412574e+01    0.6641968    0.2020093  42.49  0.002146552    4.392    0.772
        62 -10.6304    121.4487     99.2102   7.3455367360e+01   3.8870007967e+01    0.2933153    0.2335217 -72.22  0.001017336    1.560    0.359
        63  -9.8691    115.4792    108.5036   7.7735851586e+01   3.8054984089e+01    0.1576434     0.150594 -18.45 -0.0001402284    1.043    0.041
        64 -10.3339     53.0625     91.1724   9.3615533304e+01   5.2573346637e+01    0.2640294    0.1865101 -86.20   0.00105375    2.096    0.523
        65 -17.4812     17.4281    242.4962   1.2250816508e+02   2.0404835515e+01     7.524878     2.506655  26.56   0.01993075    4.237    0.764
        66 -12.4408    243.3229     84.2849   4.5912417840e+01   1.4682913273e+01    0.4892024    0.1981454 -39.95  0.002136939    2.070    0.517
        67 -10.0578     73.4646     83.9528   8.4184425573e+01   5.1300389793e+01    0.2454909    0.1989787  52.24 0.0005366811    1.480    0.324
        68  -9.8848    159.8488     82.8417   5.9253790558e+01   3.3388433293e+01    0.2291555    0.2097056  17.63 0.0005760088    1.217    0.178
        69  -9.2204    151.0238     82.9519   6.1233601872e+01   3.5452949300e+01    0.2453026    0.1844458 -76.26 0.0009255512    1.718    0.418
        70  -8.9323    184.3951     77.2757   5.2955371655e+01   2.8573122977e+01    0.1485414    0.1126147  26.56 0.0006991264    1.743    0.426
        71  -9.5685    121.0974    195.8610   9.4943061519e+01   1.6374894383e+01    0.2132809    0.1843187  67.56 0.0004052881    1.232    0.188
        72  -8.7422     94.6747     68.3047   7.1965727131e+01   5.0684584071e+01    0.1410523    0.1194742  89.73 0.0005678419    1.644    0.392
        73 -10.5784     51.3807     64.1031   8.6362771065e+01   5.8712274247e+01    0.3568284    0.2261049  47.53  0.001311133    2.121    0.528
        74 -10.7274     13.4978     59.9742   1.0146038854e+02   6.3315251244e+01    0.2450089    0.1845904 -49.22 0.0004419237    1.125    0.111
        75 -11.3447    111.6912    204.4663   9.8538245019e+01   1.6036178196e+01    0.3834749    0.2752958  89.69 0.0008648052    1.784    0.439
        76 -11.0291    107.5253    203.5081   9.9381815745e+01   1.6919623532e+01    0.2456576     0.214215 -71.50 0.0007302739    1.206    0.171
        77  -9.7368     78.1042     57.1723   7.3709443926e+01   5.5854518966e+01    0.2515676    0.1951414  56.83  0.001314206    1.652    0.395
        78 -10.1800    138.8793     44.6951   5.2322206084e+01   4.4627103809e+01    0.4755711     0.267831 -79.82  0.001579899    4.047    0.753
        79  -8.6596     54.6789     45.3396   7.8297828511e+01   6.1770309596e+01    0.1196363    0.1090903  89.39 0.0007050305    1.717    0.418
        80  -8.6721     45.6229     41.3049   8.0594978454e+01   6.3740503614e+01    0.1168376    0.1046759  66.23  0.000702785    1.773    0.436
        81 -10.7713    188.1029     31.1194   4.0343662583e+01   3.4477793787e+01    0.2008427    0.1764079  53.37 0.0006945637    1.273    0.215
        82 -10.2800    198.0236     23.8109   3.7365585063e+01   3.3032990396e+01    0.2463463    0.1947533 -18.71  0.001056276    1.617    0.381
        83 -10.5919      2.2512     24.9509   9.6019872082e+01   7.0845945076e+01    0.1956172    0.1640572 -15.77 0.0004890807    1.196    0.164
        84  -9.4434    189.6788     15.0428   3.6118999384e+01   3.5947858479e+01    0.1724399    0.1519983 -68.65 0.0005778323    1.103    0.093
        85 -13.1035    193.5499     47.7604   4.3863705821e+01   3.1006914827e+01    0.7276571    0.5849203  54.51 0.0009600889    1.333    0.250
        86 -12.1665    194.8959    196.7326   7.8473443152e+01   3.3980851716e+00     1.197131    0.8913841 -83.87  0.005434459    2.820    0.645
