#   1 NUMBER                 Running object number                                     
#   2 MAG_AUTO               Kron-like elliptical aperture magnitude                    [mag]
#   3 X_IMAGE                Object position along x                                    [pixel]
#   4 Y_IMAGE                Object position along y                                    [pixel]
#   5 X_WORLD                Barycenter position along world x axis                     [deg]
#   6 Y_WORLD                Barycenter position along world y axis                     [deg]
#   7 A_WORLD                Profile RMS along major axis (world units)                 [deg]
#   8 B_WORLD                Profile RMS along minor axis (world units)                 [deg]
#   9 THETA_WORLD            Position angle (CCW/world-x)                               [deg]
#  10 FWHM_WORLD             FWHM assuming a gaussian core                              [deg]
#  11 ELONGATION             A_IMAGE/B_IMAGE                                           
#  12 ELLIPTICITY            1 - B_IMAGE/A_IMAGE                                       
         1 -14.4555    156.8031     56.7239   7.9951293026e+01   3.8217683260e+01      1.43211     1.106063  50.55  0.001006706    1.208    0.172
         2 -14.8275    169.3404     41.8371   7.3480554534e+01   3.7237949178e+01      1.17819     1.051472  33.13  0.004148988    1.242    0.195
         3 -14.9562    188.8846      8.8126   6.2238390518e+01   3.6268994455e+01     2.234006    0.8231551  63.24  0.007234342    2.186    0.543
         4 -11.3309    125.1068    243.5664   1.2774316393e+02   7.2174114734e+00    0.1789615    0.1570962 -74.46 0.0004976513    1.285    0.222
         5 -19.8832     64.3938    168.7140   1.3064153291e+02   3.2694076911e+01     18.71841     6.265522 -64.80   0.06919564    2.933    0.659
         6 -10.5481    112.9403    196.4516   1.2355327375e+02   1.8727135182e+01    0.3990533    0.2783488  -3.97  0.001691034    2.822    0.646
         7 -12.3108    180.5216    193.6368   1.0804331506e+02   6.4941271866e+00    0.3572727    0.2909595 -88.79  0.001753725    1.701    0.412
         8 -10.3602    103.5264    194.4479   1.2537337641e+02   2.0789977290e+01    0.3626323    0.1863088  35.26  0.001569307    2.069    0.517
         9 -11.5455    152.6896    192.7368   1.1394077057e+02   1.2112429882e+01    0.3377137      0.27274  78.68  0.001250408    1.501    0.334
        10 -11.6255    168.2072    176.4997   1.0731353108e+02   1.2365274992e+01    0.4085975    0.2979487  86.39 0.0003146491    2.111    0.526
        11 -12.7886    169.3120    182.0941   1.0819982022e+02   1.0996684320e+01    0.7198474    0.3059148  43.68  0.002704831    2.247    0.555
        12 -12.8865    176.3114    186.8328   1.0761512108e+02   8.6465398993e+00     0.471426    0.3825573  73.89  0.001516188    1.561    0.359
        13  -8.6707     13.6746    239.2077   1.4795462588e+02   2.3560978129e+01    0.1071507   0.05773645  62.74 0.0006754125    1.492    0.330
        14 -11.9966    163.6550    188.1057   1.1063007936e+02   1.0905770684e+01    0.4502844    0.1963782  31.87  0.001537593    2.960    0.662
        15 -13.1796    172.5184    188.9863   1.0885951814e+02   8.9728582794e+00     0.623394    0.3889499  25.18  0.002035384    1.940    0.485
        16 -12.0556    152.6023    185.4333   1.1258524347e+02   1.3646379605e+01    0.4078251    0.2732417 -76.52  0.001732256    2.258    0.557
        17 -10.0690    131.3427    237.8812   1.2574223180e+02   7.1938666743e+00    0.1423022    0.1222843 -42.88 0.0002112887    1.418    0.295
        18 -10.3678     13.5137    233.3689   1.4761498613e+02   2.4702607251e+01    0.1087049   0.07979559  74.96 0.0007953953    1.036    0.035
        19 -11.4511     27.7214    184.1144   1.4092657921e+02   3.3525909433e+01    0.1765862    0.1662021  60.83 0.0003433298    1.291    0.226
        20 -12.8843    142.5355    175.1594   1.1290075362e+02   1.7840808171e+01    0.9121183    0.6746946 -25.52  0.004278931    1.727    0.421
        21 -10.7928    119.0169    240.2847   1.2853040167e+02   8.8314407675e+00    0.1659842     0.130463 -68.76 0.0004928318    1.429    0.300
        22 -12.6707    204.7255    176.5179   9.9565153184e+01   4.9883190809e+00    0.5281706    0.4262362 -58.89  0.001726084    1.488    0.328
        23 -12.6546    203.5163    166.1104   9.7610484750e+01   7.1974714177e+00    0.6506225    0.5150389 -18.30   0.00214089    1.364    0.267
        24 -13.3038    137.7807    171.2316   1.1324144668e+02   1.9646345418e+01    0.6803436    0.4044778  45.13  0.001808623    1.628    0.386
        25 -10.7092    198.5314    177.5186   1.0103337492e+02   6.0246732828e+00    0.3915286    0.2809457 -85.89  0.001666531    2.547    0.607
        26 -12.6378    193.9240    166.8394   9.9734126169e+01   9.0172743648e+00    0.5598903    0.3559001 -47.77 0.0007477611    1.651    0.394
        27 -11.7385    190.6904    161.1743   9.9185184932e+01   1.0807391901e+01    0.4178625    0.3816966  24.12  0.001144977    1.093    0.085
        28 -11.8731    190.0749    155.8442   9.8141518940e+01   1.2000522882e+01    0.4865665    0.4833539  53.91  0.001908539    1.052    0.050
        29 -11.1196    129.4316    175.2295   1.1600098160e+02   2.0386412929e+01    0.2787264    0.2183354  51.04 0.0009025215    1.240    0.194
        30 -11.9189    125.3543    172.2862   1.1641173949e+02   2.1824730863e+01      0.35372    0.2614384  49.88 0.0005316183    1.322    0.244
        31 -11.4968     15.5759    219.9716   1.4635323462e+02   2.7147512424e+01     0.174329    0.1304431 -67.55  0.001241956    1.456    0.313
        32 -10.5731     20.5052    218.3244   1.4534125253e+02   2.6969584744e+01    0.1492854   0.08901598 -68.06 0.0009343342    1.583    0.368
        33 -11.0239     22.8572    166.4292   1.4012532933e+02   3.7971602223e+01    0.2688206    0.1993961  -6.61   0.00108392    2.127    0.530
        34 -11.5397    230.0156    166.0148   9.2484571728e+01   2.0178807005e+00    0.2153785    0.1767513 -74.57 0.0007980962    1.700    0.412
        35 -10.9205    141.2899    164.0492   1.1094740666e+02   2.0533808553e+01    0.2103336    0.1959398 -64.21 0.0003746597    1.099    0.090
        36 -11.3271     96.8293    213.1335   1.2954740904e+02   1.7862929653e+01     0.300636    0.2022246 -44.62  0.001384587    1.872    0.466
        37 -10.6809     15.0392    215.4771   1.4612725192e+02   2.8116779344e+01    0.1171543    0.1065665  52.90  0.000492923    1.428    0.300
        38 -14.1979    133.9550    145.7615   1.0879290385e+02   2.6117260441e+01     1.570483    0.5225247 -55.61  0.004378174    4.111    0.757
        39 -13.6222    135.7928    127.7502   1.0412145804e+02   2.9736441464e+01     2.180988    0.3480958 -49.05  0.004253884    7.959    0.874
        40 -11.7180    134.6784    108.8398   9.9614968308e+01   3.4013894406e+01     1.099445    0.1723574 -44.80  0.002387587    6.482    0.846
        41 -12.9927    144.4020    146.0628   1.0629252987e+02   2.3877112336e+01    0.6918769     0.433531 -70.81  0.002654285    2.412    0.585
        42 -13.0329    141.9651    139.2078   1.0531277387e+02   2.5906690785e+01     0.510351    0.3980553 -84.01  0.002029433    1.648    0.393
        43 -10.3057     14.3040    157.2341   1.4107368042e+02   4.0805479790e+01     0.168104    0.1556392 -42.35  0.000805622    1.346    0.257
        44 -11.5147    166.8514    155.4632   1.0313531861e+02   1.7050863210e+01    0.3894743    0.2475867  71.58  0.001473025    2.545    0.607
        45 -11.2939    106.5851    206.5317   1.2651178662e+02   1.7649477111e+01    0.2420584    0.2224352  55.42 0.0005005596    1.098    0.089
        46 -11.6449     16.2529    149.2463   1.3970176832e+02   4.2444217808e+01    0.4894891    0.1988927 -49.29  0.001725956    2.487    0.598
        47 -12.2719     13.4645    143.4874   1.3968967468e+02   4.3969752960e+01    0.3224339    0.1886544 -72.71  0.001205023    1.392    0.281
        48 -11.0062    174.3076    148.6990   9.9942277374e+01   1.6859039915e+01    0.3635624    0.2872425 -74.88  0.001262695    1.596    0.373
        49 -13.1379      6.5908    139.1590   1.4086575896e+02   4.5454823081e+01    0.4935291    0.4154426 -82.16   0.00207302    1.092    0.084
        50 -13.2114      3.6044    125.5574   1.3995727755e+02   4.8676687371e+01     1.878653    0.4095763 -70.41   0.00674234    3.894    0.743
        51 -12.2020     15.1448    109.6137   1.3445170519e+02   5.1410302678e+01    0.3380217    0.1795282  -0.40  0.001695136    2.848    0.649
        52 -11.6364    160.3832    127.6695   9.8139685326e+01   2.4359725082e+01    0.4107559    0.2930363 -51.96  0.001339814    1.464    0.317
        53 -12.6433      4.4185    112.3901   1.3794516549e+02   5.1515646028e+01     0.499759    0.3301272   3.69  0.003187583    2.003    0.501
        54 -13.0777    114.0371    119.1048   1.0768891800e+02   3.6078282881e+01    0.5817657    0.3246145 -53.10 0.0009583226    1.863    0.463
        55 -12.5369    105.2131    202.8687   1.2627377022e+02   1.8666326860e+01    0.3634006    0.2824332  34.38  0.001239798    1.382    0.276
        56 -10.7372    168.0538    113.0281   9.2744892049e+01   2.5605802757e+01    0.3782868    0.2567692 -83.34  0.001473219    2.408    0.585
        57 -12.1712    126.3618    112.5560   1.0273704291e+02   3.5006132151e+01    0.2754945    0.2263971  70.59 0.0007868841    1.430    0.301
        58 -10.9581    205.1504    110.6536   8.4633788150e+01   1.7462558322e+01    0.3659177    0.2809334  23.66  0.001187195    1.662    0.398
        59 -13.6616    116.8535    109.7831   1.0455660552e+02   3.7542774088e+01    0.6907144    0.3898558  38.65  0.002904933    1.826    0.452
        60 -11.2466     30.8428    204.9344   1.4227495107e+02   2.8651346291e+01    0.1634639    0.1607744 -89.79 0.0005364657    1.414    0.293
        61 -10.4044    153.3015    200.8008   1.1526986536e+02   1.0355283293e+01    0.2925293    0.2010976 -56.87   0.00143402    1.642    0.391
        62 -10.0908    139.7318    249.9194   1.2569734032e+02   3.6495864365e+00    0.2280734    0.1539201  42.62 0.0009194122    1.234    0.190
        63 -10.4931    138.7475    200.3742   1.1840911451e+02   1.3196927497e+01    0.2259856    0.2003122  86.10 0.0005952195    1.210    0.173
        64 -10.5042    146.7473     81.0009   8.9031110660e+01   3.6663778216e+01    0.2058213    0.1994356 -18.50 0.0004543546    1.071    0.066
        65 -10.0314    124.8172     81.1960   9.4509821834e+01   4.1561672596e+01     0.203175     0.171097   8.42 0.0004793132    1.308    0.235
        66 -10.3982     95.2327     79.8335   1.0240936611e+02   4.7723580641e+01    0.2413131    0.1808583  47.32 0.0008687512    1.439    0.305
        67 -10.4294    141.5656    198.7512   1.1750154465e+02   1.3003165891e+01    0.2493039    0.2087575  67.87 0.0006200239    1.257    0.204
        68 -10.5092    133.7953    247.1894   1.2650103655e+02   5.1179455673e+00     0.158715    0.1435028  60.47 0.0003611601    1.105    0.095
        69 -10.5703    150.8605    245.4638   1.2289503188e+02   2.5139879693e+00    0.1713233    0.1564643  43.24 0.0003806269    1.089    0.081
        70 -13.0237    173.5189     34.2996   7.0771811265e+01   3.7169130568e+01    0.3985591    0.3561265  51.77 0.0009491776    1.143    0.125
        71 -10.7749     13.5408     59.7141   1.2463239655e+02   6.1759092451e+01    0.1966662    0.1652229 -39.96 0.0003896083    1.133    0.118
        72 -10.1621    131.8816     29.0907   7.6890482417e+01   4.7681717939e+01    0.1965757    0.1708937  80.09 0.0003724432    1.273    0.214
