#   1 NUMBER                 Running object number                                     
#   2 MAG_AUTO               Kron-like elliptical aperture magnitude                    [mag]
#   3 X_IMAGE                Object position along x                                    [pixel]
#   4 Y_IMAGE                Object position along y                                    [pixel]
#   5 X_WORLD                Barycenter position along world x axis                     [deg]
#   6 Y_WORLD                Barycenter position along world y axis                     [deg]
#   7 A_WORLD                Profile RMS along major axis (world units)                 [deg]
#   8 B_WORLD                Profile RMS along minor axis (world units)                 [deg]
#   9 THETA_WORLD            Position angle (CCW/world-x)                               [deg]
#  10 FWHM_WORLD             FWHM assuming a gaussian core                              [deg]
#  11 ELONGATION             A_IMAGE/B_IMAGE                                           
#  12 ELLIPTICITY            1 - B_IMAGE/A_IMAGE                                       
         1 -10.0830     40.7992     12.5540   7.9606476857e+01   6.8642542788e+01    0.2373127    0.1477549 -28.20  0.001418195    1.415    0.293
         2 -10.2483     56.8469      9.8406   7.1290682904e+01   6.6607788211e+01    0.1578844    0.1476475   7.37 0.0009259176    1.362    0.266
         3  -9.3848     91.6584      9.3423   5.9241617765e+01   6.0085492439e+01    0.1257447    0.1032444 -64.15 0.0007048395    1.778    0.438
         4  -9.9951     70.9871      6.4891   6.4368548651e+01   6.4499999142e+01    0.1595182    0.1160898  78.19 0.0008105817    2.599    0.615
         5  -9.9322     35.6405      6.3166   7.8853654987e+01   7.0154059558e+01   0.09994083   0.09639992 -38.42 0.0007043481    1.757    0.431
         6 -10.6496    187.6481      5.3207   4.0549154722e+01   3.7100595017e+01    0.1455837   0.08924671 -66.25 0.0007047697    1.748    0.428
         7  -9.6367     24.4810      4.9810   8.3805210847e+01   7.1668201543e+01     0.143742   0.09614132 -51.92 0.0008103267    2.578    0.612
         8 -10.6221    183.3409      4.3071   4.0747570935e+01   3.8278272222e+01    0.1391993   0.09135024  43.73 0.0005411078    1.686    0.407
         9 -11.3260    170.2967      2.4254   4.1743638759e+01   4.1744049141e+01    0.2762114    0.1078219  65.19  0.001146146    2.142    0.533
        10  -9.7338    139.3353      2.3263   4.6115673013e+01   4.9559348958e+01    0.1474187   0.08659767  38.69 0.0007051552    1.719    0.418
        11  -9.9704     44.6441    194.3138   1.2001802521e+02   2.8532112052e+01    0.1338822   0.07335598  66.17 0.0007044648    1.740    0.425
        12  -9.6723    174.0396    191.9867   9.1367401254e+01   8.2805104876e+00     0.169494     0.153671  23.91 0.0005005841    1.009    0.009
        13  -9.9913    139.6653    190.3408   9.8544878409e+01   1.4939414130e+01    0.1462468    0.1064779  72.49  0.000705108    1.755    0.430
        14 -10.6591    157.1525    188.0391   9.4278637138e+01   1.2169012589e+01    0.2687108    0.1953264  38.97  0.001379576    1.266    0.210
        15 -11.9545     96.8571    187.7095   1.0780282735e+02   2.2815910910e+01    0.6155698    0.2244906  49.01  0.002336035    2.750    0.636
        16 -10.7717    110.5188    186.8711   1.0456550288e+02   2.0770738909e+01     0.395951    0.1817805  57.65   0.00148304    2.871    0.652
        17  -9.8702     55.9758    187.6641   1.1695071520e+02   2.8619911871e+01    0.2162744   0.05699781  51.69 0.0007044969    4.296    0.767
        18 -10.3633     12.6492    184.8297   1.2584967377e+02   3.3864735309e+01    0.1679863    0.1524457  65.73 0.0007321556    1.315    0.240
        19  -9.8344    212.6714    182.6509   8.1694398963e+01   2.7698381309e+00    0.1480994   0.09930385   3.57  0.000704892    1.762    0.432
        20  -9.9270     45.0020    182.7596   1.1885459887e+02   3.1025541714e+01    0.1529168   0.09849218  39.77 0.0008797352    1.599    0.375
        21 -10.6487     78.3787    176.6992   1.1054803716e+02   2.8072724292e+01    0.4875508    0.1336402  48.71  0.001568371    4.001    0.750
        22  -9.9584     13.6255    177.3031   1.2512268172e+02   3.5415039543e+01    0.1273898   0.06623676  65.48 0.0007029554    1.761    0.432
        23 -10.3898    122.7894    170.6120   9.8991986316e+01   2.2173993471e+01    0.2198768    0.1253275  50.44 0.0009514152    1.773    0.436
        24 -10.1420     55.9709    170.4895   1.1502530232e+02   3.2509064271e+01    0.1960105   0.08322064  55.21 0.0008103058    2.609    0.617
        25 -10.5134    140.8501    166.2155   9.3868422419e+01   1.9742048477e+01    0.3595971    0.1945274  57.49  0.001385788    2.372    0.578
        26 -10.2012     80.3146    164.7182   1.0836670467e+02   3.0561708679e+01    0.3604434    0.1740351  70.72  0.001164661    4.168    0.760
        27  -9.8756     70.3480    163.6769   1.1067059373e+02   3.2225821538e+01    0.1466598   0.09351902  70.46 0.0007049382    1.744    0.427
        28 -10.4231      9.7076    161.5605   1.2478193576e+02   3.9252819373e+01    0.2225764    0.1132019  80.21  0.001198949    1.826    0.452
        29 -10.2050     94.2590    161.2936   1.0435212283e+02   2.9213538626e+01    0.2976568    0.1469293  55.86  0.001171358    2.433    0.589
        30 -10.2545    106.7043    158.9857   1.0082520275e+02   2.7670160969e+01    0.3137048    0.1618931  59.66  0.001171543    2.650    0.623
        31 -10.1717    120.9126    156.8946   9.6873854960e+01   2.5601010935e+01    0.3661372    0.2168134  77.01  0.001250852    3.393    0.705
        32 -10.7694     51.0200    156.3632   1.1446634888e+02   3.6423704807e+01    0.4381971     0.180913  57.52  0.001702881    3.135    0.681
        33  -9.7663    219.1565    156.1407   7.4841066286e+01   6.0367629995e+00    0.1785281    0.1706188 -51.03 0.0003565314    1.274    0.215
        34 -10.5047     82.8935    155.5645   1.0627573521e+02   3.2342702814e+01    0.4132099    0.1878981  57.51  0.001508248    3.018    0.669
        35 -10.3086     69.2739    154.9902   1.0966795311e+02   3.4436701446e+01    0.2583823    0.1590107  52.48  0.001184325    1.672    0.402
        36 -10.3792    134.6379    154.1330   9.2919780683e+01   2.3602839518e+01    0.3111736    0.1998611  63.39  0.001295655    2.017    0.504
        37 -10.1150     29.8132    151.2251   1.1910476984e+02   3.9890851722e+01    0.2252591    0.1016764  66.80 0.0009556165    2.825    0.646
        38 -10.9142     40.4900    148.3614   1.1609780258e+02   3.9504294423e+01    0.4690973    0.1973231  57.22  0.001917897    2.995    0.666
        39 -11.3792    109.7465    146.8671   9.7726201708e+01   2.9968816165e+01    0.7314099    0.3277414  58.31  0.002259102    3.821    0.738
        40 -11.3660     57.4462    146.7979   1.1150233671e+02   3.7946471694e+01    0.5581727    0.2601259  61.08  0.002175156    3.024    0.669
        41 -11.3796    150.4452    146.1873   8.7352490903e+01   2.2155196373e+01    0.5124791    0.3148077  71.59  0.001806259    2.998    0.666
        42  -9.5232    213.6220    155.7129   7.5805275141e+01   7.1897685905e+00    0.1529799    0.1064081   9.33 0.0007016587    1.728    0.421
        43 -10.2887     14.1035    146.6621   1.2247551004e+02   4.2322565374e+01    0.2204656    0.0885263  37.43   0.00109491    2.568    0.611
        44 -10.8158    126.2003    144.1998   9.2923505528e+01   2.7504576877e+01    0.3939848    0.2292091  67.22  0.001398857    2.875    0.652
        45 -10.5801     89.0545    144.7840   1.0277926013e+02   3.3974755427e+01    0.3629519    0.2014354  58.76  0.001411659    2.262    0.558
        46  -9.7965      3.3441    142.6721   1.2471326769e+02   4.4033213611e+01    0.1258379   0.07070879  69.16 0.0007050764    1.746    0.427
        47 -10.9935     24.3364    139.0340   1.1911680030e+02   4.3275634863e+01    0.4523674    0.1925373  61.91  0.001890386    3.130    0.681
        48 -10.3462     39.5034    136.5090   1.1479633130e+02   4.2458390871e+01    0.2400988    0.1554914  71.40 0.0009447464    1.694    0.410
        49 -11.0643    133.3866    133.0787   8.8566211196e+01   2.8609548069e+01    0.3712066    0.2679415  85.62  0.001551172    2.059    0.514
        50 -10.3459    114.2457    134.2966   9.3872858908e+01   3.2102941206e+01    0.3157281    0.1741595  59.19   0.00117186    2.483    0.597
        51 -11.4743     85.1221    132.8511   1.0155582518e+02   3.7485151208e+01    0.6243225    0.2842355  51.00  0.002353604    2.665    0.625
        52 -10.8732    145.1788    132.6276   8.5479738644e+01   2.6241472388e+01    0.4702159    0.1389152  49.90   0.00125437    4.131    0.758
        53 -10.6451    154.5318    130.6922   8.2720077530e+01   2.4645700174e+01    0.2782607    0.1952407  65.40  0.001132279    1.819    0.450
        54 -10.7272     13.4812    129.9423   1.2092822455e+02   4.6293133671e+01    0.3611574    0.1828907  66.51  0.001796532    2.306    0.566
        55 -11.1935    101.1134    129.3688   9.6361917816e+01   3.5668440760e+01     0.727936    0.3235267  53.52  0.002473335    3.072    0.675
        56 -10.8917     74.5613    130.3789   1.0404465930e+02   3.9672108649e+01    0.3598368    0.1464553  49.02  0.001308659    2.984    0.665
        57 -10.9804    120.5811    126.9765   9.0483419677e+01   3.2594091468e+01    0.7038625    0.2783643  53.87  0.002066053    3.794    0.736
        58 -11.4147     60.7198    125.6896   1.0713165643e+02   4.2688001510e+01    0.5895748    0.3124385  63.28  0.002357199    2.849    0.649
        59 -11.4856     44.9079    123.8164   1.1138075709e+02   4.4982315875e+01    0.6773525    0.3632745  71.19  0.002834959    2.817    0.645
        60 -11.5129     29.0358    122.9117   1.1578862181e+02   4.6734070213e+01    0.7608783    0.3349646  75.08  0.002558108    4.677    0.786
        61 -10.3072    181.8079    125.6396   7.5215792066e+01   1.9617846930e+01    0.2243678    0.1480897  57.24 0.0006334938    1.726    0.421
        62 -10.5261    160.5226    122.8378   7.9321771890e+01   2.4997556060e+01       0.3033    0.1927058  67.41  0.001152328    2.291    0.563
        63  -9.6086    173.6539    122.3172   7.6168389011e+01   2.2133771341e+01    0.1609825    0.1274683 -83.76 0.0007048481    1.723    0.420
        64 -11.5486    143.3995    120.1580   8.2823033086e+01   2.9380368285e+01    0.5576675    0.3311072  56.51  0.001903303    1.979    0.495
        65 -10.3463     72.0564    120.8391   1.0287721723e+02   4.2359625001e+01    0.3464907    0.2030195  58.53  0.001496345    2.231    0.552
        66 -10.6886    132.6351    120.1000   8.5582385887e+01   3.1706915903e+01    0.4711041    0.2171953  54.40  0.001574405    2.773    0.639
        67 -10.6528      3.6611    117.9389   1.2226210820e+02   4.9761188304e+01      0.38295    0.1731011  76.30  0.001742976    2.788    0.641
        68 -11.0221    110.8519    115.9194   9.0461406017e+01   3.7064418433e+01    0.4978894    0.3313548  76.98  0.001937437    2.497    0.600
        69 -11.1758     80.8716    114.2077   9.8814885075e+01   4.2668747286e+01    0.6155218     0.358113  66.41  0.002343659    2.909    0.656
        70 -11.4390     95.2831    114.0098   9.4478923463e+01   4.0357165485e+01    0.7252682    0.3129529  45.22  0.002680862    2.531    0.605
        71 -10.4056    123.6269    113.6254   8.6326292358e+01   3.5051737174e+01    0.4007426    0.1438721  47.93  0.001250957    3.061    0.673
        72 -10.8407     67.9150    112.0232   1.0226866132e+02   4.5078805201e+01    0.4000793    0.2533485  64.53  0.001788498    2.201    0.546
        73 -10.8047     14.9104    111.5227   1.1829170322e+02   5.0558318304e+01    0.3477582    0.1948707  68.84  0.001783777    2.203    0.546
        74  -9.8966    160.9930    113.0000   7.6644591107e+01   2.6956777920e+01    0.2670401   0.09107646  47.63 0.0008064725    2.970    0.663
        75 -10.1997    134.5188    110.5120   8.2579762746e+01   3.3443682806e+01    0.2947219    0.1497214  55.63  0.001035199    2.447    0.591
        76 -11.7889     46.8840    103.4861   1.0708099647e+02   4.9705105781e+01    0.8177101    0.4152995  64.41  0.002973052    3.929    0.746
        77 -11.6380     23.8284    103.4527   1.1439305376e+02   5.1830123838e+01    0.7085811    0.3344165  67.41  0.002713707    3.957    0.747
        78 -10.8857    141.3885    105.9839   7.9560204859e+01   3.2912992703e+01    0.4353156    0.2216221  56.97  0.001530259    2.469    0.595
        79 -11.0068    151.5456    104.5865   7.6627089177e+01   3.0894373461e+01    0.4127658    0.2350825  62.94  0.001493415    2.415    0.586
        80 -10.5671      7.7304    103.8430   1.1939977874e+02   5.2825334550e+01    0.2234905    0.1291797  56.39  0.001233552    2.106    0.525
        81 -11.3547    130.7669    103.2727   8.1595955407e+01   3.5847611426e+01    0.5900077    0.2092665  50.00  0.001800789    3.189    0.686
        82 -11.5527    113.0139    101.8395   8.6138860568e+01   3.9872701858e+01    0.7611529    0.3522947  49.08   0.00276559    2.426    0.588
        83 -10.7050    109.0107     99.4980   8.6652448375e+01   4.1190382675e+01    0.3893055    0.2865453 -89.27  0.001668365    2.070    0.517
        84  -9.9699    161.3312    102.3136   7.3657417286e+01   2.9074943893e+01    0.1648042    0.1263912   8.90 0.0005864769    1.678    0.404
        85 -10.4323     83.4667    101.2404   9.4886266771e+01   4.5349311643e+01    0.3875218    0.2224627  55.22  0.001588541    2.361    0.576
        86 -11.3780     66.0701     97.5538   9.9534324104e+01   4.8794928269e+01    0.7056624    0.3537171  53.35  0.002741355    2.995    0.666
        87 -10.8237     96.9316     98.1627   8.9899228353e+01   4.3766020491e+01    0.5797006    0.2010274  43.52  0.001919392    3.100    0.677
        88 -10.8080    141.2797     93.5091   7.6043075944e+01   3.5564542351e+01    0.4689247    0.2632625  62.28  0.001702372    2.427    0.588
        89 -11.2119    127.2983     92.4311   7.9426890610e+01   3.8934207248e+01    0.7430024    0.3309418  52.12  0.002571948    2.565    0.610
        90 -10.6521      6.5587     92.8179   1.1822025465e+02   5.5462397104e+01    0.3648215    0.1632783  42.45  0.001824401    2.804    0.643
        91 -11.2861     35.6680     90.9850   1.0821470699e+02   5.3791451269e+01    0.3878843    0.2422602  80.92  0.001841897    2.409    0.585
        92 -11.2284     88.9061     88.1873   8.9604967712e+01   4.7434750951e+01    0.6960699    0.3124799  50.38  0.002486203    3.000    0.667
        93 -11.2363     50.4082     86.1838   1.0203230098e+02   5.3404468429e+01    0.6225843    0.3259995  57.77  0.002405045    3.565    0.719
        94 -11.3138    107.2738     85.0133   8.2945857755e+01   4.4706822756e+01    0.7029667    0.3836313  55.93   0.00268958    2.434    0.589
        95 -10.4415    142.9834     84.4921   7.2924978615e+01   3.6983079349e+01    0.3603522    0.1585604  55.69  0.001208533    2.627    0.619
        96 -11.0208     25.8852     81.7758   1.0968835619e+02   5.6757655734e+01    0.4783798    0.2514017  51.42  0.002257452    2.801    0.643
        97 -10.5822     75.4846     81.4992   9.2089167628e+01   5.1113621225e+01    0.3119508    0.2240879  82.96  0.001384824    2.406    0.584
        98 -10.7640     11.0529     81.7342   1.1491428589e+02   5.7766194231e+01    0.4565915    0.1314723  36.56  0.001851347    4.227    0.763
        99 -10.0116    121.1412     81.6628   7.7869585834e+01   4.2510512537e+01    0.3123648    0.1436484  53.77  0.001085151    2.604    0.616
       100 -10.1781    151.7625     81.5870   6.9899464557e+01   3.5448325305e+01    0.2262832    0.1535079  63.57   0.00095377    1.699    0.411
       101 -10.1255     62.4966     77.9828   9.5583558227e+01   5.3767442524e+01    0.1942984    0.1218918 -75.65 0.0008104907    2.589    0.614
       102  -9.6167    158.4917     77.4877   6.7100032309e+01   3.4570174678e+01     0.154743    0.1538398 -47.86 0.0001120199    1.021    0.021
       103 -10.8882    130.4501     76.9220   7.3821800868e+01   4.1373006687e+01    0.5302555     0.268024  56.00  0.001965126    2.291    0.564
       104 -10.1562    142.7663     76.4492   7.0502838882e+01   3.8581786509e+01    0.4032722    0.1490199  48.79  0.001321554    2.668    0.625
       105 -10.9478     83.9679     74.2464   8.7004624987e+01   5.1302564440e+01    0.5245173    0.3289139  64.24  0.002087734    2.895    0.655
       106 -10.3432    107.2494     72.7569   7.9074769162e+01   4.7232526744e+01    0.4104803    0.1761684  52.87  0.001399885    2.975    0.664
       107 -10.4390     96.3098     72.6536   8.2442622330e+01   4.9410129345e+01    0.3160859    0.2562324 -87.16  0.001537048    1.804    0.446
       108 -10.8963     52.3587     70.7688   9.7189229775e+01   5.6641869414e+01    0.4560697    0.3088183 -77.71  0.002190363    2.237    0.553
       109 -10.7823     17.6229     70.7823   1.1035411340e+02   5.9840914809e+01    0.2887304    0.1984956  49.93  0.001707787    1.958    0.489
       110 -10.5351    148.4394     69.1210   6.6826658864e+01   3.8547602146e+01    0.3220683    0.2131296  71.75  0.001328874    1.966    0.491
       111 -10.2426    140.3106     67.8737   6.8385217966e+01   4.0741785242e+01    0.2809502    0.2177927  64.26  0.001325147    1.428    0.299
       112  -9.9765    123.2040     67.3718   7.2679630013e+01   4.4825326368e+01    0.3241161    0.2006873  74.56  0.001157401    3.010    0.668
       113 -10.6089     39.0831     65.5764   1.0076203672e+02   5.9224584817e+01    0.3957914    0.2315347  52.08  0.001871025    2.726    0.633
       114 -10.4148    111.9667     64.9900   7.5067810504e+01   4.7737040839e+01    0.3871102    0.2134188  59.78  0.001481671    2.494    0.599
       115 -10.2613    101.7516     61.8781   7.7079224073e+01   5.0440095229e+01    0.2718159    0.2057354  79.12  0.001235711    2.114    0.527
       116 -11.0425     75.6679     60.8335   8.5432165859e+01   5.5412313922e+01    0.5731464    0.2495069  46.67  0.002218851    2.890    0.654
       117 -10.5047     27.0643     60.4949   1.0412283722e+02   6.1404051702e+01    0.3369883    0.1729166  42.89   0.00164179    2.748    0.636
       118 -10.2004    132.3954     59.0054   6.7435779868e+01   4.4174625950e+01    0.3222697      0.16893  63.27  0.001190831    2.457    0.593
       119 -10.3976    121.2489     57.4038   6.9819650774e+01   4.7039194377e+01    0.3570136    0.2401821  66.90  0.001558462    1.940    0.485
       120 -11.1622      8.8880     58.4134   1.1098175070e+02   6.3075719571e+01    0.3396186    0.2201066  50.52  0.001896259    2.245    0.555
       121 -10.5864     45.6229     56.7455   9.5484362205e+01   6.0388117831e+01    0.3099602    0.2242294  52.09  0.001695882    2.009    0.502
       122 -10.6960     64.0844     55.8511   8.7952633472e+01   5.8174254815e+01    0.3417512    0.2236409  43.29  0.001719477    1.825    0.452
       123 -10.6024     55.2222     55.3695   9.1206282531e+01   5.9493847175e+01    0.3609895    0.2744026  87.50  0.001794183    2.498    0.600
       124  -9.9299    107.6494     54.9408   7.2822624505e+01   5.0459037042e+01     0.297182    0.1971748  75.53  0.001178048    2.763    0.638
       125 -10.8753     32.8075     52.8031   9.9496114658e+01   6.2517166377e+01    0.4382258    0.2714636  52.86  0.002185177    2.761    0.638
       126 -10.3588     21.3671     53.4192   1.0451033003e+02   6.3342704589e+01    0.2522988     0.181531  42.49   0.00154482    1.883    0.469
       127 -10.7746     94.1830     51.8443   7.5869042090e+01   5.3750018517e+01    0.4412148    0.2591853  60.10  0.001819464    2.553    0.608
       128 -10.4177     83.5676     47.7215   7.7863177375e+01   5.6470569925e+01    0.3337822    0.2159997  57.34  0.001543006    2.181    0.542
       129 -10.2569    124.0400     46.9064   6.5368941386e+01   4.8097676636e+01    0.3226913    0.2047797  69.90   0.00136591    2.120    0.528
       130  -9.8277    113.7190     47.7472   6.8453779521e+01   5.0326295748e+01    0.2296424    0.1259434  62.07 0.0009002705    2.389    0.581
       131 -10.6124     17.9984     45.5519   1.0366369822e+02   6.5202647603e+01     0.287097    0.1825396  38.45  0.001691024    2.127    0.530
       132 -10.4794     46.0333     45.3885   9.1396084101e+01   6.2578035626e+01    0.2300793    0.1599862  41.19  0.001291773    1.833    0.455
       133 -10.3682     59.3136     43.7107   8.5324805351e+01   6.1137613987e+01    0.2592445    0.2280276 -80.99  0.001523137    1.788    0.441
       134 -10.9377      6.0087     42.6748   1.0821606442e+02   6.6519549761e+01    0.3579551    0.2493517 -87.93  0.002157467    2.115    0.527
       135 -10.6946     71.1215     42.7887   8.0410489859e+01   5.9475814506e+01     0.405093    0.2407923  54.90  0.001812325    2.613    0.617
       136 -10.2735    107.5160     42.5168   6.8269807633e+01   5.2506255418e+01    0.3007444    0.1389078  50.95  0.001206364    2.160    0.537
       137 -10.4929     37.9272     41.5736   9.3472916407e+01   6.4216419669e+01    0.2831408    0.2006444  51.03  0.001560943    2.247    0.555
       138 -10.2370     97.1190     39.2384   7.0115013704e+01   5.5207717646e+01    0.2631664    0.2066488  67.74  0.001359784    1.713    0.416
       139  -9.8443     82.8315     38.1837   7.4362101015e+01   5.8173720218e+01    0.2617446    0.1694661  65.38  0.001136823    2.746    0.636
       140 -10.1269    113.4844     35.9878   6.4122716486e+01   5.2128058917e+01    0.2866797    0.1844925 -81.30  0.001043717    3.597    0.722
       141 -10.7929     27.0895     36.2390   9.6395488583e+01   6.6287593901e+01    0.2027717    0.1718328  35.68  0.001366111    1.589    0.371
       142 -10.5667     62.3377     33.5421   8.0007445689e+01   6.2413205279e+01    0.3569036    0.2290678  55.71  0.001720311    2.568    0.611
       143 -10.5783     51.0116     33.6775   8.4704973433e+01   6.4039804208e+01    0.2907058    0.2208956  58.22  0.001599085    2.266    0.559
       144 -10.4963     74.1191     32.2839   7.5000544560e+01   6.0655617244e+01    0.3681518    0.1826192  52.64  0.001557873    2.752    0.637
       145 -10.7999     14.0558     31.4715   1.0088236953e+02   6.8224629637e+01    0.2479317    0.2158798  81.43  0.001709496    1.857    0.462
       146  -9.8509    102.8647     30.2959   6.4847438082e+01   5.5259346351e+01    0.2148138    0.1791512  67.20  0.001102105    1.462    0.316
       147  -9.5950    120.9867     34.0000   6.1428138188e+01   5.0665129632e+01    0.2427804   0.07813983  55.67 0.0008060018    2.967    0.663
       148 -10.3815     83.0709     28.7434   7.0360142313e+01   5.9522756551e+01    0.3059379    0.2370633 -89.09  0.001509642    2.474    0.596
       149 -10.5485      4.8433     28.6140   1.0446402111e+02   6.9337199700e+01    0.2522251    0.1719787  49.17   0.00154553    2.491    0.599
       150 -10.3657     93.3911     27.8431   6.6659005775e+01   5.7590315335e+01    0.2756039    0.2258029  86.68  0.001474768    1.874    0.466
       151  -9.7640     40.3232     25.6446   8.5970530939e+01   6.6739609639e+01    0.1093047    0.1003627 -66.80 0.0007046148    1.764    0.433
       152 -10.8173     50.6611     22.2304   7.9837051992e+01   6.5899268523e+01    0.3995171    0.1910993  42.39  0.001935675    2.426    0.588
       153 -10.4333     64.6690     21.6161   7.3842013789e+01   6.3809694202e+01    0.3054431    0.2284247  64.51  0.001633862    2.306    0.566
       154  -9.7581     20.4935     22.0051   9.3986511016e+01   6.9420088876e+01    0.1429799    0.1017889 -66.93 0.0008090526    2.432    0.589
       155 -10.5161     75.5226     20.3969   6.9297546899e+01   6.2055923190e+01    0.3993232    0.2304271  59.12  0.001847537    2.529    0.605
       156  -9.2231     12.3075     21.6590   9.8065980927e+01   7.0133629364e+01   0.09801473   0.09049164 -74.67 0.0003856952    1.687    0.407
       157  -9.9118     39.9819     19.0165   8.3114985495e+01   6.7817544787e+01    0.1671848    0.1582189 -62.53  0.001139572    1.757    0.431
       158  -9.9089     89.9831     18.2317   6.3619289857e+01   5.9484767187e+01     0.184936     0.103641  49.81 0.0008952984    1.696    0.411
       159 -10.3891     31.6139     16.9475   8.6140106139e+01   6.9131092625e+01    0.1891911    0.1724488  35.99  0.001332349    1.666    0.400
       160 -10.0164     98.4767     15.9859   6.0199471898e+01   5.7936519743e+01    0.2742819    0.1763374  76.28  0.001259428    2.422    0.587
       161  -9.7337      8.4729     15.9600   9.7770089136e+01   7.1391926231e+01    0.1367563   0.09730791 -70.76   0.00080901    2.469    0.595
       162  -9.8179     18.1540     14.4067   9.1850823840e+01   7.0885315537e+01    0.1424093    0.1005133  28.12 0.0009417891    1.725    0.420
       163  -9.9746    245.7851    247.3978   8.7290529331e+01  -1.1198470369e+01     0.166465   0.08204521  25.42 0.0009492179    1.697    0.411
       164  -9.8822    237.6977    239.6761   8.7436037838e+01  -9.2225190558e+00    0.1218756   0.07303796   7.64 0.0004407554    1.636    0.389
       165  -9.5790     48.3005     10.6474   7.5273633134e+01   6.7839295381e+01    0.1081967   0.09641095 -44.06 0.0004857822    1.698    0.411
       166  -9.5835     73.3439    228.6916   1.1739228585e+02   1.7903916406e+01     0.129155   0.07183488  63.99 0.0007043997    1.696    0.410
       167 -10.4819    162.3024    225.6098   9.9376924781e+01   4.5704133119e+00      0.36814    0.1990695  22.81  0.001658454    2.411    0.585
       168 -10.3079     98.6898    226.1043   1.1219321216e+02   1.4763575171e+01    0.2743128    0.1615159  31.56  0.001457228    1.868    0.465
       169 -10.7391    126.1848    220.8590   1.0601115615e+02   1.1411001548e+01    0.1976795    0.1560639  62.85 0.0005683144    1.249    0.200
       170 -10.0484     89.2057    199.4552   1.1105493487e+02   2.1480214657e+01    0.1894444    0.1042896  51.19 0.0006753676    1.663    0.399
       171 -10.0192    126.1867    197.7066   1.0271406739e+02   1.5845862645e+01    0.2547172    0.1800714 -24.40  0.001245497    2.117    0.528
       172 -11.4079    173.2615    196.0246   9.2267059596e+01   7.6973545652e+00    0.2676497    0.1931046  45.36  0.001067777    1.336    0.251
