#   1 NUMBER                 Running object number                                     
#   2 MAG_AUTO               Kron-like elliptical aperture magnitude                    [mag]
#   3 X_IMAGE                Object position along x                                    [pixel]
#   4 Y_IMAGE                Object position along y                                    [pixel]
#   5 X_WORLD                Barycenter position along world x axis                     [deg]
#   6 Y_WORLD                Barycenter position along world y axis                     [deg]
#   7 A_WORLD                Profile RMS along major axis (world units)                 [deg]
#   8 B_WORLD                Profile RMS along minor axis (world units)                 [deg]
#   9 THETA_WORLD            Position angle (CCW/world-x)                               [deg]
#  10 FWHM_WORLD             FWHM assuming a gaussian core                              [deg]
#  11 ELONGATION             A_IMAGE/B_IMAGE                                           
#  12 ELLIPTICITY            1 - B_IMAGE/A_IMAGE                                       
         1 -10.3977     60.0656     22.2709   6.5520372247e+01   6.4382969598e+01     0.483415    0.2380071 -26.80  0.002393859    2.122    0.529
         2 -12.0680     60.3580     46.8117   7.5453087488e+01   6.0693068937e+01     1.005513    0.5250299 -42.63  0.004815725    1.952    0.488
         3 -13.2967     42.9346     45.3653   8.2310991270e+01   6.3416908823e+01    0.8880004    0.5652559  42.20 0.0009902813    1.957    0.489
         4 -10.4866     98.2383     27.7084   5.5158773488e+01   5.6257438071e+01    0.7310267    0.4468193 -66.86  0.002970845    3.495    0.714
         5 -12.4708    120.3156     57.6178   5.9700440417e+01   4.7172210043e+01     2.470374     1.451965 -70.35  0.008383625    3.958    0.747
         6 -12.3368    124.9868     27.6314   4.8660654177e+01   5.0217506196e+01    0.7968462    0.5653129  47.38  0.001479709    1.287    0.223
         7 -11.0921    105.9800     20.4381   5.0456931013e+01   5.5368855988e+01    0.4808878    0.4269809 -66.41  0.002379104    1.374    0.272
         8 -12.7125    119.5782     38.0067   5.3365514122e+01   5.0201473411e+01    0.8854912    0.6111267 -66.90  0.003059203    2.066    0.516
         9 -12.4622    113.7341     25.3204   5.0367067661e+01   5.3083940393e+01    0.7736712    0.3446974  49.42  0.003015344    1.940    0.485
        10 -11.5132    145.5748     47.5545   5.0722538558e+01   4.2775430927e+01     1.115976    0.4703749 -25.86  0.003987145    3.105    0.678
        11  -9.6711    147.6132     16.3014   4.0966062059e+01   4.6052828422e+01    0.4899321    0.3961684  33.45  0.002956531    1.409    0.290
        12 -11.5557    152.9731     25.5635   4.2841382553e+01   4.3782740091e+01      1.28832    0.6046321  56.16  0.005905879    1.881    0.468
        13 -10.9203    139.0990     31.0261   4.6919501950e+01   4.6479001108e+01    0.8943103     0.532393  -8.18  0.004036605    2.511    0.602
        14 -11.6764    136.6724     23.0293   4.4867836023e+01   4.7966155815e+01     1.061941    0.3635945  55.14  0.004246728    2.410    0.585
        15 -12.2958    130.6302     14.8139   4.3347671041e+01   5.0239978452e+01     1.540775    0.7634468  69.90  0.007164389    1.945    0.486
        16 -11.5618    165.1809     17.9177   3.8887781172e+01   4.1690882217e+01    0.6077305    0.3378235  34.04  0.002763363    2.679    0.627
        17 -10.8535    198.9822     29.2329   3.7610320711e+01   3.2509524700e+01    0.4444209    0.3653567 -38.83  0.002234522    1.316    0.240
        18 -10.5636     47.0511     19.1860   6.9540710663e+01   6.6891043113e+01     0.325298    0.2342976 -13.78  0.001227127    1.287    0.223
        19 -11.4530     27.3573     28.0120   8.2885220151e+01   6.8194559763e+01      1.15412     0.504231  35.45  0.005714296    2.529    0.605
        20 -12.2986     36.2720     17.5786   7.3777385155e+01   6.8656359781e+01    0.6065235    0.3968019 -31.20  0.003757533    1.500    0.333
        21 -11.8877     48.3312     12.9112   6.6046238825e+01   6.7465761421e+01    0.6152833    0.2954904  41.97  0.002306036    1.941    0.485
        22 -11.4132     13.9769     23.5201   8.8128821497e+01   7.0232061184e+01    0.3608297    0.3187976  42.82 7.642756e-06    1.771    0.435
        23 -12.5108     20.1911     21.3283   8.3780434026e+01   7.0005323272e+01    0.6396838    0.2311578 -40.33  0.001829266    2.424    0.588
        24 -12.7958     17.2757     12.6244   8.1400101834e+01   7.1606334400e+01    0.8569709    0.5607344  -8.23  0.003552972    1.309    0.236
        25 -12.1502     22.7880     11.5717   7.7822305326e+01   7.1156514340e+01    0.4716213    0.2966143   5.67  0.002104192    1.450    0.311
        26 -11.0807     86.6974      7.4430   5.0368005693e+01   6.0818223616e+01    0.5757819    0.3177878  57.59  0.002635688    1.638    0.389
        27 -11.0765     90.7520     20.8126   5.4602297842e+01   5.8642795944e+01    0.5885153    0.3259667 -30.31  0.002715534    1.967    0.492
        28 -11.2843     86.0210     14.2981   5.3349127243e+01   6.0315588028e+01     0.712182    0.4151572  16.68  0.003126391    2.129    0.530
        29  -9.3972     78.2712      7.4603   5.2763085840e+01   6.2557246031e+01    0.2760505    0.2024541  71.52  0.001024285    1.740    0.425
        30 -11.2266     74.7378      3.5059   5.2110152652e+01   6.3615508103e+01    0.5812119    0.2542555  47.54  0.002810006    1.831    0.454
        31 -11.9228     68.3249     18.0046   6.0569861643e+01   6.3417266938e+01    0.4907183    0.3790135  32.29  0.001669078    1.110    0.099
        32 -11.1131    242.9523      3.2635   2.8336126995e+01   2.6095456297e+01    0.7032804    0.2112445  60.18  0.003164009    3.665    0.727
        33 -10.8926    232.6962      7.3732   2.9811994533e+01   2.7711452114e+01    0.5241684    0.2601393 -83.60  0.002857589    1.971    0.493
        34 -10.6855    232.8260      3.0180   2.8941813480e+01   2.8144682142e+01    0.4176741    0.1607798  79.05  0.001752811    2.427    0.588
        35 -12.0290    237.8296     16.2550   3.1204789279e+01   2.5688117312e+01     1.010118    0.3655746  74.68  0.004818853    2.686    0.628
        36 -11.4664    227.3785     15.2779   3.1811200753e+01   2.7940718743e+01     0.524968    0.3156448 -83.47  0.001970892    1.534    0.348
        37 -10.5351    243.9771     13.0233   3.0132101781e+01   2.4830030767e+01    0.2210494    0.1496107 -64.54 0.0003322772    1.174    0.148
        38 -11.4356    247.1513      6.3821   2.8660984916e+01   2.4942194524e+01    0.5071289    0.3711401  21.45  0.003038504    2.913    0.657
        39 -10.9305    218.8592      3.3281   2.9987381161e+01   3.1012328963e+01      0.32185    0.2327059 -42.18  0.001083737    1.412    0.292
        40 -11.0195    223.8502      2.0297   2.9359303043e+01   3.0094707313e+01    0.4214951    0.2054532  84.49  0.001875995    1.870    0.465
        41 -10.6074    211.2781     17.8275   3.3733726148e+01   3.1095915490e+01    0.3255817    0.1804731 -36.49  0.001793945    1.809    0.447
        42 -11.5969    192.5161      9.2038   3.3535060610e+01   3.6209687735e+01    0.8125533    0.4799701 -13.73  0.004067341    2.589    0.614
        43 -12.2037    104.5385     12.5992   4.7914187934e+01   5.6471216546e+01    0.4954337    0.4762541 -73.49  0.001682107    1.229    0.187
        44 -10.1413      5.3598     12.6104   8.8408711100e+01   7.2678518799e+01    0.2870947    0.1766913  25.69  0.001877159    1.788    0.441
        45  -9.3632      5.3200      9.3341   8.6917547071e+01   7.3181494834e+01    0.1765059    0.1040656 -25.58 0.0006410301    1.359    0.264
        46 -11.4530    211.8022      9.8154   3.1927332000e+01   3.1854808097e+01     0.426449    0.3220185   5.13  0.001530738    2.237    0.553
        47 -10.1601     65.9685     10.4691   5.8059095762e+01   6.4666756906e+01    0.2698948    0.1887406  50.52 0.0008943296    1.434    0.303
        48  -9.9606     62.7093      6.8023   5.7532481188e+01   6.5634054759e+01    0.3044207    0.1924545  20.48  0.001442878    1.530    0.346
        49  -9.8334    168.8114      9.7257   3.6226682946e+01   4.1655558494e+01     0.312557    0.1505357  52.79  0.001512861    2.045    0.511
        50  -9.5387    162.9680     10.1787   3.7068247806e+01   4.2993011265e+01    0.1950088    0.1510953  55.80 0.0007918741    1.273    0.214
        51  -9.5485      1.2298      7.8043   8.8761952303e+01   7.3724954588e+01    0.2199819   0.06684999 -45.50 0.0008962145    2.762    0.638
        52 -11.2239      2.6505      1.9570   8.4967688604e+01   7.4468581807e+01    0.3382105    0.1704271   6.27  0.001854534    1.943    0.485
        53  -9.9261     12.9480      1.7702   7.8420344377e+01   7.3533231557e+01    0.3757015    0.1367903  28.51  0.001927312    2.570    0.611
        54 -10.8808    183.8052      5.2980   3.3457303641e+01   3.8586548007e+01    0.3695236    0.3274697 -47.66  0.001703862    1.258    0.205
        55 -11.2232    177.4827      6.0542   3.4298603120e+01   3.9976600291e+01    0.4477519    0.1998419  82.13 0.0009441148    2.236    0.553
        56  -9.9736    157.5017      3.4783   3.5915786149e+01   4.4899310149e+01    0.3443018     0.204414  47.63  0.001864519    1.758    0.431
        57 -10.1030    116.6901      2.9716   4.1950853330e+01   5.4534952241e+01    0.3466126    0.2603196  24.96   0.00211379    1.468    0.319
        58 -10.7764    105.4293      1.8996   4.3775858105e+01   5.7183794997e+01    0.3873609    0.2098981  77.31  0.001411416    2.179    0.541
        59 -10.7494    110.3608      1.8157   4.2751893517e+01   5.6074707833e+01    0.4369754    0.1553204  66.46  0.001807417    2.576    0.612
        60 -10.5608     41.5642      4.3866   6.4813875249e+01   6.9481870994e+01    0.3742184    0.2044218   9.63  0.001734411    2.133    0.531
        61 -11.8629    134.5975      2.8798   3.8899970481e+01   5.0363915030e+01    0.5053622    0.2806885  80.04  0.001917459    1.814    0.449
        62  -9.9649    143.0107      3.4699   3.7836695219e+01   4.8328520343e+01    0.3844893    0.1997707  75.81  0.001913892    1.783    0.439
        63  -9.0900    122.1553      5.1996   4.1711962776e+01   5.3088978332e+01    0.1655318    0.1358738  88.17 0.0004032442    1.279    0.218
        64 -10.0880    207.5030      2.5218   3.0691016128e+01   3.3536801895e+01     0.221413    0.1877662 -84.76 0.0008500803    1.098    0.089
        65 -10.3495    204.0140      1.5378   3.0756708820e+01   3.4397616156e+01    0.2794246    0.1569001  74.15 0.0007532642    1.557    0.358
        66  -9.1238    157.5390      6.9738   3.6880025375e+01   4.4579084662e+01     0.166328    0.1292562 -15.51 0.0005623715    1.613    0.380
        67  -9.0185     33.6679      1.6379   6.7072878159e+01   7.0958637735e+01    0.1757739    0.1051417  10.78 0.0008877137    1.610    0.379
        68  -9.3783    151.8447      1.3727   3.6037651109e+01   4.6414990820e+01    0.2449568    0.1063935  74.75  0.000902037    2.083    0.520
        69  -9.2097    122.3424      1.1347   4.0323896996e+01   5.3370807771e+01    0.2923076   0.04572122  61.29 0.0009527003    3.824    0.739
        70 -10.9565    178.4862     21.2825   3.8063425137e+01   3.8178238917e+01    0.5077431     0.267017  45.32  0.001736046    2.307    0.567
        71 -10.9873      3.3955    152.7363   1.1833418319e+02   4.1905673810e+01     0.585928     0.398935 -45.41  0.003476535    1.617    0.382
        72  -9.9790    142.7861    249.8112   9.6384181969e+01   2.5652450668e+00     0.176832    0.1356295  49.53  0.001073893    1.351    0.260
        73 -10.7305      3.5029    147.0088   1.1779642680e+02   4.3301467427e+01    0.3416767    0.3184356  25.75  0.001719859    1.324    0.244
        74 -11.9324      1.8851    142.2593   1.1780101152e+02   4.4568616039e+01    0.6243809    0.4185248  37.96  0.003328378    1.672    0.402
        75  -9.7949     39.3761    162.0314   1.0964264676e+02   3.6510673657e+01    0.4514395    0.2137591  66.11  0.001744696    2.953    0.661
        76 -10.6597     63.3357    150.5617   1.0121168549e+02   3.6600217483e+01    0.4809923    0.3101653   5.03   0.00174282    2.268    0.559
        77 -11.2408     46.8102    146.3967   1.0539888701e+02   3.9677548762e+01     0.683131    0.3166363 -58.98  0.001928801    1.879    0.468
        78  -9.9917     41.5982    148.9361   1.0729151165e+02   3.9596553017e+01    0.2294446    0.2091779  24.02 0.0005155844    1.257    0.204
        79  -8.6063     87.3155    151.2843   9.4388805627e+01   3.2937406230e+01    0.1493253    0.1163102 -22.22 0.0004729968    1.581    0.368
        80 -10.5010    234.8540    149.3150   5.9709900696e+01   5.7579847878e+00    0.4005452    0.2165833 -28.73  0.001855579    1.878    0.467
        81 -10.0076    239.7879    146.5718   5.8337186758e+01   5.4117385995e+00    0.2433893    0.1660677 -36.22 0.0006577033    1.249    0.199
        82 -10.9269    249.4118    141.4621   5.5793406347e+01   4.7077619664e+00    0.4756906     0.220433 -30.98  0.002116779    2.141    0.533
        83  -8.6868     93.8189    146.6540   9.1611994522e+01   3.3047282292e+01    0.2094531    0.1352481  45.63 0.0003466817    1.609    0.379
        84 -10.8902     33.4817    144.3592   1.0902449048e+02   4.1580169043e+01    0.4308613     0.277403  51.35  0.001768714    1.686    0.407
        85  -9.3365    104.9941    142.8350   8.7611130023e+01   3.2072408681e+01    0.2293402    0.2018161  80.97 0.0004165172    1.263    0.208
        86  -9.7256    132.9121    140.7034   7.9471024914e+01   2.7292966067e+01     0.312445    0.2340325 -58.73  0.001042351    1.419    0.296
        87 -11.5099     23.1324    135.4725   1.1091200182e+02   4.4749625420e+01    0.8906055    0.4283966  35.72  0.004216595    2.231    0.552
        88 -11.7337     30.0118    132.8669   1.0845984102e+02   4.4818851340e+01    0.4788453    0.3271657 -84.60 0.0003540266    1.451    0.311
        89 -10.4779    216.9500    138.2787   6.0431419689e+01   1.0925246196e+01    0.3459619    0.2651645 -48.64  0.001040492    1.278    0.218
        90  -9.9110     79.8019    137.3617   9.3878607534e+01   3.7627503100e+01    0.4207786    0.2621111 -28.79  0.001736877    2.158    0.537
        91 -10.2614     46.8879    135.1200   1.0359247181e+02   4.2552168964e+01    0.4952675    0.2822644 -77.11  0.001956079    1.870    0.465
        92 -10.2132     39.5718    137.8349   1.0627023002e+02   4.2639275687e+01    0.3817068    0.1898779  40.10  0.001714282    2.142    0.533
        93 -10.0375    245.1353    134.8484   5.5083331406e+01   6.5343690763e+00    0.1977047    0.1624226 -49.26 0.0004646538    1.201    0.167
        94 -10.0772     93.0384    129.5926   8.8201726396e+01   3.7433385453e+01    0.4231912    0.2318345 -63.66  0.001648194    2.088    0.521
        95 -10.3827     73.8380    132.5550   9.4731656669e+01   3.9736321058e+01    0.3337183     0.257873  -7.35  0.001624598    1.627    0.385
        96 -10.0898     61.3579    132.4558   9.8605759191e+01   4.1487153282e+01    0.3967344    0.2920284   1.44  0.001945884    1.733    0.423
        97  -8.9888     38.4366    133.2975   1.0591941771e+02   4.3910195029e+01     0.235351    0.1556453  55.36  0.001177483    1.730    0.422
        98 -10.1303    103.8512    130.9829   8.5299526273e+01   3.5187053729e+01    0.2407925    0.2206175  27.76 0.0002857601    1.129    0.114
        99 -10.7039      9.7344    128.1557   1.1404414919e+02   4.7560609671e+01    0.4931427    0.2365339 -57.89  0.002443691    1.708    0.414
       100  -9.7681     79.1802    123.1850   9.1052579481e+01   4.1282886920e+01    0.3472127    0.2268128 -58.42 0.0009764143    1.486    0.327
       101  -9.6799     92.3208    134.4075   8.9485568000e+01   3.6359744296e+01    0.5357404    0.2798261  61.99  0.001361696    3.578    0.720
       102 -10.6065     22.7827    127.1102   1.0988334475e+02   4.6882968179e+01    0.2082926    0.1848532 -56.27 0.0003115754    1.095    0.087
       103  -9.3641     40.9455    126.4895   1.0401586780e+02   4.5385251387e+01    0.2238666    0.1654792 -64.26 0.0003854685    1.198    0.165
       104  -9.8743      2.1859    126.0306   1.1608138552e+02   4.8538570241e+01    0.2537396    0.1771142  79.33  0.000836209    1.447    0.309
       105  -9.5015     53.5002    125.4952   9.9788094826e+01   4.4238739819e+01    0.3119571    0.1724717 -69.43  0.001039297    1.847    0.458
       106  -9.3271     56.4803    122.0575   9.8148696265e+01   4.4743231633e+01    0.2396009    0.1609739 -45.71  0.001117255    1.413    0.292
       107  -9.9727     49.4374    123.3688   1.0070666773e+02   4.5253052218e+01    0.3274943    0.2460867  -3.99  0.001658781    1.636    0.389
       108 -10.6381     44.7633    118.9628   1.0141958561e+02   4.6883375175e+01    0.5411903    0.3173004 -86.12  0.001869136    2.289    0.563
       109 -12.4385    103.8257    122.4240   8.3276445480e+01   3.7263964481e+01    0.4531912    0.3960683   2.24 0.0006381854    1.273    0.214
       110  -9.4473     94.0522    123.6482   8.6521668249e+01   3.8720357338e+01    0.2051777    0.1979813  30.66 0.0003335099    1.071    0.067
       111  -8.8912     60.0098    123.9667   9.7380627539e+01   4.3814637152e+01    0.1745121    0.1624264 -55.48 0.0004306362    1.013    0.013
       112  -9.7701     18.9782    122.6746   1.1046039610e+02   4.8286193824e+01    0.2207468    0.1614868 -71.34 0.0004852616    1.172    0.147
       113  -8.7626    143.4818    122.4529   7.2335815899e+01   2.9276349697e+01    0.1554264    0.1526444 -23.57 0.0005225177    1.008    0.008
       114  -8.6776     41.4348    122.4851   1.0316171958e+02   4.6347888629e+01    0.1404078      0.12302 -59.61 5.308208e-05    1.012    0.012
       115 -10.2010     81.6822    125.6873   9.0822508632e+01   4.0268679901e+01    0.4554871    0.2725057 -25.61  0.001765559    2.447    0.591
       116  -9.1751     71.3500    120.9077   9.3057065423e+01   4.3026659517e+01     0.211986    0.1791106 -49.28 0.0006051515    1.107    0.097
       117  -8.9665    221.4586    120.5179   5.5743921265e+01   1.3323486175e+01     0.140912    0.1240832 -44.70 0.0001595743    1.037    0.035
       118 -12.1041     49.1864     99.4206   9.5787324784e+01   5.1198640856e+01     2.389866    0.8533579 -40.23  0.008170921    3.214    0.689
       119 -11.4281      9.6034     97.4647   1.0982697025e+02   5.5079070103e+01    0.6080761    0.5549198 -66.71  0.001090294    1.124    0.110
       120 -11.8317      7.1349     88.8352   1.0929245262e+02   5.7260303963e+01    0.6025423    0.4145154  16.96  0.001935765    1.711    0.416
       121 -11.2067     17.1230    100.9439   1.0771142919e+02   5.3769863232e+01    0.3591549    0.2582547  -7.19 0.0003753499    1.623    0.384
       122 -12.1399     34.4863     93.7430   9.9926331046e+01   5.4098988528e+01     1.618505    0.7398536 -56.04  0.005205193    1.827    0.453
       123 -11.3027     26.6974     86.6312   1.0133880054e+02   5.6457804600e+01    0.7049637    0.5139482  15.94  0.002864954    1.531    0.347
       124 -12.1055     42.7140     85.6630   9.4874891087e+01   5.5153840629e+01    0.8992665    0.4262064  21.80  0.001976926    2.374    0.579
       125 -11.6862     18.2226    106.8718   1.0831615646e+02   5.2251355067e+01    0.7926766    0.2561156 -44.34  0.001266503    2.934    0.659
       126 -11.7247     22.5305     94.9065   1.0463841866e+02   5.4833651600e+01    0.4685913    0.3494919  -8.83  0.001998784    1.504    0.335
       127 -11.2725     18.3568     90.4145   1.0533406914e+02   5.6202371958e+01    0.3757792    0.2687407 -60.54 0.0007833401    1.194    0.162
       128 -11.9808     24.9699    108.1920   1.0619974571e+02   5.1421598611e+01    0.7998867    0.4901006 -34.22  0.004114706    1.719    0.418
       129 -11.3719     22.6218    114.0472   1.0797565548e+02   5.0159043007e+01     1.255623    0.4229334   7.68  0.003940424    5.626    0.822
       130 -10.6809     28.0631    113.3091   1.0601932850e+02   4.9902841913e+01    0.3303658     0.255502  56.32  0.001622945    1.510    0.338
       131  -9.4941     58.3274    117.6370   9.6633604755e+01   4.5619688915e+01     0.307809    0.1642543 -55.49  0.001347153    1.675    0.403
       132 -12.9851      3.2499    110.3009   1.1387810220e+02   5.2327041125e+01    0.8033151    0.3935901 -69.63 0.0007823434    1.633    0.388
       133  -9.7326    113.6222    115.8939   7.8760148861e+01   3.6932614138e+01    0.2604926    0.2228833  17.89 0.0007273904    1.269    0.212
       134  -9.6031     66.9779    114.4671   9.3057117814e+01   4.5248340185e+01     0.335203    0.2302114  63.33  0.001519662    1.963    0.491
       135  -9.8023     65.9738    110.7853   9.2550605067e+01   4.6293200103e+01    0.4167798    0.2183971  25.83  0.001741444    2.155    0.536
       136  -9.4622     79.0112    113.9867   8.8974043801e+01   4.3572766468e+01    0.2361605    0.2202576 -44.11  0.001290798    1.014    0.013
       137  -8.9841    139.6858    113.3223   7.0964083655e+01   3.2097383621e+01    0.1589625    0.1260961 -87.16 0.0004421509    1.659    0.397
       138  -8.9838    126.7714    113.6035   7.4460670583e+01   3.4782015782e+01    0.2161587    0.1490663  52.13 0.0007656339    1.558    0.358
       139 -10.7627    107.7232    112.0321   7.9493100554e+01   3.8979431610e+01    0.6062448    0.4821311 -83.95  0.002824464    1.638    0.390
       140  -9.3039    103.6341    112.3118   8.0793607097e+01   3.9695437048e+01    0.2494417     0.198085  65.21 0.0007839639    1.528    0.345
       141 -10.5519    101.7917    109.3796   8.0589513338e+01   4.0724716310e+01    0.4126658    0.3141938  16.65  0.001325518    1.533    0.348
       142  -9.4511    103.1747    105.8465   7.9227492153e+01   4.1275734490e+01    0.4375095    0.2727091  46.17 0.0009276506    1.691    0.409
       143  -9.8009     94.1620    112.3186   8.3712901956e+01   4.1430936408e+01    0.3472548    0.2608449 -72.09  0.001603401    1.619    0.382
       144  -9.9208     48.8276    112.4716   9.8768670905e+01   4.8053670309e+01    0.2864205    0.2365929  66.33  0.001018117    1.427    0.299
       145 -10.5346    170.5479    110.4847   6.2954633331e+01   2.5894279148e+01    0.4444766    0.3467045 -30.26  0.001290614    1.339    0.253
       146 -10.5796    175.1960    107.9196   6.1322478429e+01   2.5374140604e+01    0.4598991    0.2705421  33.86   0.00181259    2.167    0.538
       147  -9.8983    132.5076    111.5054   7.2361719461e+01   3.4036803776e+01    0.4569117    0.1959717 -55.19  0.001449315    3.033    0.670
       148 -10.1294    129.0166    110.0000   7.2898826775e+01   3.5110651734e+01    0.2986356    0.2101642  42.84  0.001342549    1.437    0.304
       149 -10.1450    120.6053    108.9758   7.4948216878e+01   3.7098179553e+01    0.3586603    0.2855293  20.55  0.001102405    1.421    0.297
       150 -11.5653     79.5708    108.2534   8.7384212079e+01   4.4867166109e+01    0.6429752     0.354348  28.34  0.001197886    2.012    0.503
       151  -9.2615     58.9889    109.7916   9.4704123526e+01   4.7477295393e+01    0.2332148    0.1571222  58.83 0.0007380396    1.958    0.489
       152 -10.7160    143.6458    106.1169   6.8057261482e+01   3.2774653996e+01    0.3787851     0.310713 -86.91  0.001366111    1.520    0.342
       153 -11.6205    145.5584    100.2147   6.5992962392e+01   3.3572916730e+01    0.4653445    0.3908749 -30.53 0.0004357532    1.235    0.190
       154  -9.6428    157.5238    106.0001   6.4698904751e+01   2.9706209596e+01    0.2993592    0.2159092  30.62 0.0008122282    1.616    0.381
       155 -11.7900     88.4196    103.9334   8.3367177088e+01   4.4409690045e+01     0.648055    0.3891053  39.69  0.001007999    1.721    0.419
       156  -9.6570    180.8417    103.0701   5.8953231152e+01   2.5061035075e+01    0.3794919    0.2233475 -61.53  0.001506979    2.258    0.557
       157  -9.6066     57.2042    102.5589   9.3654200564e+01   4.9464547917e+01    0.2764323    0.1903242 -55.15  0.001119973    1.339    0.253
       158  -9.8158    120.7209    101.4341   7.2861994366e+01   3.8733851174e+01     0.274976    0.1949822 -21.10  0.001037958    1.757    0.431
       159 -10.0874     65.2281     99.0004   8.9943170801e+01   4.9229742350e+01    0.3687504    0.1655301 -47.20   0.00147217    2.038    0.509
       160 -10.9248     67.8718     95.2088   8.8023035623e+01   4.9733881433e+01    0.4764282    0.3034457  41.14  0.002245255    1.716    0.417
       161  -9.7461    209.8708     98.2106   5.2552429352e+01   1.9650841318e+01    0.2575265    0.2097301 -26.70  0.001143697    1.313    0.239
       162 -11.1099     90.0280     89.4620   7.8808470826e+01   4.7378853511e+01    0.7879601    0.4325242 -28.42  0.003033263    2.401    0.583
       163 -10.8695     78.9558     97.2930   8.4732341074e+01   4.7536665381e+01    0.4818286    0.3317249  50.63  0.001135668    1.715    0.417
       164 -10.1044     82.7880     93.3904   8.2353996951e+01   4.7784701722e+01    0.3174317    0.2427588  30.42 0.0008077839    1.347    0.257
       165 -10.9891     78.2331     93.0122   8.3802451924e+01   4.8628463562e+01     0.482158    0.4365136  -2.12  0.002370091    1.106    0.096
       166  -9.3888     98.4103     97.6190   7.8444985086e+01   4.4034979349e+01    0.3030133    0.2201044 -86.14  0.001205384    2.204    0.546
       167 -10.1419     57.6852     97.6892   9.2301190120e+01   5.0563959069e+01    0.2621905     0.204271 -31.04 0.0009831568    1.262    0.208
       168 -10.3807     43.0506     94.6647   9.6933166732e+01   5.3018477527e+01    0.3475397    0.3072017 -19.26  0.001627919    1.133    0.118
       169 -10.0974    117.2098     94.0975   7.1789271108e+01   4.1038301589e+01    0.5406584     0.378023  34.36  0.002250373    1.496    0.332
       170 -11.2077    120.7307     87.0961   6.8756445137e+01   4.1728845176e+01    0.8123631    0.4229235 -50.11  0.003183551    2.109    0.526
       171 -10.7243    125.8702     93.9404   6.9326158475e+01   3.9220642789e+01    0.3898818    0.3216378  10.09  0.000847263    1.419    0.295
       172 -10.0399    122.3155     93.6707   7.0226936144e+01   4.0043545438e+01    0.2357232    0.2235548 -72.81 0.0006177569    1.137    0.121
       173  -9.6624    160.3929     93.9320   6.0846802173e+01   3.1448064986e+01    0.3504991    0.2211379  68.21  0.001451263    2.022    0.505
       174 -10.8399    152.3055     92.3125   6.2227501382e+01   3.3616429393e+01    0.3877581    0.3221889 -83.14  0.001497491    1.421    0.296
       175  -8.9596    137.7744     93.7890   6.6154139758e+01   3.6623319715e+01    0.2621739    0.1712303   9.11 0.0009532021    2.784    0.641
       176  -9.4730    104.2450     93.4977   7.5459182088e+01   4.3810293917e+01    0.3531196    0.2339031 -81.87  0.001289061    3.014    0.668
       177 -10.4150     98.8769     91.1262   7.6440895935e+01   4.5366034546e+01    0.3345473    0.2535127  41.07 0.0008007583    1.341    0.254
       178 -10.6257    183.2269     85.2411   5.3966378351e+01   2.7805327682e+01    0.8275806    0.3165223 -49.92  0.002814288    2.981    0.665
       179 -10.0580     66.5558     88.7935   8.6752239635e+01   5.1391566678e+01    0.3428995    0.2368998  -1.00   0.00106895    1.818    0.450
       180 -10.3610     67.2367     82.1929   8.4618584671e+01   5.2751218206e+01    0.4439562    0.3157178 -44.86  0.002270102    1.324    0.244
       181  -9.1729    111.5795     87.7586   7.1574323875e+01   4.3533190865e+01    0.3053638    0.2194815 -58.56  0.001228926    1.629    0.386
       182 -10.4897    104.9680     86.7371   7.3253378089e+01   4.5094859127e+01    0.5580968    0.3114515 -25.10  0.002078376    2.562    0.610
       183 -10.9372    113.8985     83.8541   6.9730481587e+01   4.3838803626e+01    0.5594597    0.3863528 -58.40  0.002517221    1.747    0.427
       184 -10.3501    109.2637     80.9588   7.0209953015e+01   4.5386552894e+01    0.3397888    0.3189037 -22.48  0.000984352    1.057    0.053
       185 -11.0134    142.4989     84.5324   6.2356318165e+01   3.7360973053e+01    0.6513242    0.3200813  40.66  0.001543827    2.232    0.552
       186 -10.4784     80.4993     83.9902   8.0413090009e+01   5.0234486681e+01    0.4690354    0.3591725 -19.21  0.002366537    1.407    0.289
       187 -11.6666     75.4786     80.0396   8.0988154958e+01   5.1914975517e+01    0.6909372    0.4672714  61.41  0.001237639    2.262    0.558
       188 -10.2739     75.8110     75.4934   7.9463885274e+01   5.2806550454e+01    0.4372661    0.3124406 -77.10  0.001948446    2.383    0.580
       189 -10.2292    165.5754     83.7468   5.6996019320e+01   3.2150282837e+01    0.3596112    0.2874053 -54.58  0.001294022    1.271    0.213
       190 -10.6936     60.6149     83.6451   8.7495390006e+01   5.3391331415e+01    0.3011884    0.2384839 -50.49 0.0003027959    1.232    0.189
       191 -10.0523     47.0516     74.9375   9.0264519904e+01   5.7052741636e+01     0.371446    0.2125518 -48.94 0.0009724043    1.572    0.364
       192 -11.6364     53.2894     75.9054   8.8070772616e+01   5.6067009741e+01    0.6758378    0.3837366 -51.43  0.003193174    1.671    0.402
       193 -10.8931     58.2393     77.5825   8.6642455016e+01   5.5044574730e+01    0.3691814    0.2900098 -51.48 0.0007327762    1.282    0.220
       194 -10.0471    127.5364     82.9077   6.5666196543e+01   4.1060912528e+01    0.2875244    0.2165739  46.70   0.00101934    1.311    0.237
       195 -10.9425    103.4946     75.8509   7.0362895812e+01   4.7574886368e+01    0.6734977    0.3787754 -48.72  0.002859006    1.932    0.482
       196 -10.0040    233.2211     77.6013   4.4534713355e+01   1.8280177695e+01    0.2939939    0.2189625 -44.74  0.001305286    1.181    0.153
       197  -9.9442     10.3305     68.3020   1.0391758629e+02   6.1757450892e+01     0.222779    0.1314095 -47.26 0.0008396684    1.338    0.253
       198  -9.4990     14.7763     67.2713   1.0175431355e+02   6.1706794635e+01    0.3170305    0.2207046   6.85  0.001911259    1.564    0.361
       199 -10.3697    126.8739     76.9825   6.4065039608e+01   4.2331952735e+01     0.306593    0.2438758  31.02 0.0003700743    1.326    0.246
       200 -10.2654     94.9521     76.5291   7.3265132539e+01   4.9140689655e+01    0.5939793    0.2871948  36.72  0.001878409    2.140    0.533
       201 -11.5458     86.1750     73.2636   7.5132870096e+01   5.1439982681e+01    0.9074762    0.6241642  43.52  0.004454405    1.506    0.336
       202 -11.6163     76.7582     64.9709   7.5696674784e+01   5.4723694600e+01    0.9909602    0.5101351 -53.61  0.002509917    2.494    0.599
       203 -12.4806     74.5580     53.1099   7.2346383366e+01   5.7253975604e+01    0.9719598     0.688548  16.87  0.001529653    1.489    0.328
       204 -11.2300     72.6753     47.2842   7.0887299980e+01   5.8562496322e+01    0.3930758    0.2909224 -51.22  0.002111991    1.708    0.414
       205 -11.7749      2.1130     71.3719   1.0805470067e+02   6.1503495223e+01    0.7022825    0.2082009 -63.88  0.002968673    2.581    0.613
       206 -13.3109      4.3336     61.6602   1.0501988712e+02   6.3524613526e+01    0.3338108    0.2885332 -55.54 0.0006404885    1.172    0.147
       207 -11.6793      9.7935     62.0007   1.0266140155e+02   6.3155672091e+01    0.5954909    0.3389123 -41.56  0.002432878    1.416    0.294
       208 -12.1653    186.3045     70.7952   4.9722514928e+01   2.9547521162e+01    0.8748969    0.6015971 -40.18   0.00323382    1.422    0.297
       209  -9.8839    184.1525     61.0999   4.7578234664e+01   3.1578752476e+01    0.3380187    0.2350882 -36.72  0.001590234    1.463    0.316
       210 -11.2553     40.7427     71.4431   9.1826900719e+01   5.8528447062e+01    0.5419406    0.2756938 -54.63  0.002145006    1.855    0.461
       211 -11.5561     34.8132     72.0235   9.4450396691e+01   5.9021314449e+01    0.7334191    0.2567454  27.12  0.002986352    2.978    0.664
       212  -9.4196     24.5389     73.6088   9.9157974082e+01   5.9596477639e+01    0.2791203    0.1121256 -59.23  0.001215078    2.192    0.544
       213 -11.5462     13.9713     74.7683   1.0383279810e+02   6.0099111921e+01    0.5714431    0.3613333 -69.17   0.00228112    1.574    0.365
       214  -9.5095    207.1224     73.0894   4.7038716287e+01   2.4479432738e+01    0.3584522    0.1366621  51.72  0.001390579    2.810    0.644
       215  -9.9315    153.5504     72.6745   5.6442889571e+01   3.6928050557e+01    0.4641577    0.1929003  41.86  0.001552572    2.892    0.654
       216 -11.9301    122.9319     69.1468   6.2693050242e+01   4.4637282772e+01    0.5241939    0.5032967  16.24  0.001564737    1.035    0.033
       217  -8.6452     61.3190     73.2887   8.4160259991e+01   5.5521040521e+01    0.1435373    0.1007331 -14.26 0.0003552132    1.597    0.374
       218  -8.9294     19.5326     71.9290   1.0084870914e+02   6.0353713035e+01    0.1791498   0.07419344 -40.57 0.0007274013    2.117    0.528
       219  -9.6686    162.1927     71.0565   5.4199452060e+01   3.5159981974e+01    0.2713296    0.2170956  83.08  0.001383595    1.374    0.272
       220  -9.8089    172.1901     68.5963   5.1613467952e+01   3.3203755098e+01    0.2933816    0.2472553  -3.21  0.001113576    1.503    0.335
       221 -10.4417    170.2488     63.9260   5.0702399480e+01   3.4413900757e+01    0.4732945    0.3189149 -84.80  0.001581604    1.935    0.483
       222 -11.3455    219.7051     66.6577   4.3817008095e+01   2.2764578261e+01    0.6237164    0.3477423  55.99  0.002831856    1.929    0.481
       223 -11.2958    234.6579     61.0276   4.0779771162e+01   2.0502281918e+01    0.5371524    0.3505449  59.86   0.00257329    1.687    0.407
       224  -9.8975     67.3679     31.7636   6.6757380268e+01   6.1849415879e+01    0.4672788    0.4404766 -78.50  0.002599219    1.546    0.353
       225  -9.5727    216.5140    249.5227   8.1631675677e+01  -7.7524925043e+00    0.1199665    0.0944285   6.49 0.0001233126    1.040    0.039
       226  -9.7318    174.9238    247.2539   8.9404639471e+01  -1.7239391886e+00    0.2342917    0.2109762  24.70  0.001589011    1.191    0.160
       227 -10.0935     22.6358     36.9175   8.8811775630e+01   6.7158148437e+01    0.6574317    0.3942008  51.37  0.003105171    3.489    0.713
       228 -11.9155     24.3433     57.4127   9.4828511312e+01   6.3071496769e+01    0.9051932    0.7418779  10.26  0.005877087    1.288    0.224
       229 -10.9765     33.4180     53.0148   8.9309050331e+01   6.3088536622e+01    0.6852569    0.2646929  29.74  0.002319432    2.663    0.625
       230 -11.5397     26.7166     47.3629   9.0525269713e+01   6.4845787047e+01    0.6104684      0.30189 -21.18  0.002816855    2.422    0.587
       231 -11.1247     20.7960     46.4118   9.3050013280e+01   6.5558208723e+01    0.5615849    0.2898948 -24.39  0.002101736    1.988    0.497
       232 -11.2710     60.8902     36.1093   7.1044656322e+01   6.2323890015e+01    0.4193012    0.2485201 -31.85  0.001226286    1.673    0.402
       233 -11.7840     53.6262     50.2067   7.9477197469e+01   6.1110148564e+01    0.5342563    0.3823993  49.01 0.0009345956    1.865    0.464
       234  -9.3921    163.5905    243.6753   9.1202044810e+01   5.1445905217e-01    0.2520345    0.1398287  35.95 0.0009785432    1.559    0.359
       235 -12.5008     58.0333     30.1855   6.9743100863e+01   6.3659913099e+01    0.3790693    0.2637414   2.61  0.001403566    1.471    0.320
       236 -11.6809     48.6668     30.8014   7.3958278617e+01   6.5024191666e+01    0.8441085    0.3110609  41.02  0.003599812    2.821    0.646
       237 -11.9670     52.0236     61.6805   8.4140095732e+01   5.9170983866e+01    0.3808531    0.3422264  61.15  0.002292379    1.526    0.345
       238 -12.4310     43.6347     59.5214   8.6949332161e+01   6.0662929038e+01    0.7343024    0.6377647 -18.31  0.002079995    1.032    0.031
       239  -9.4888     64.6660     61.0281   7.8870364246e+01   5.7463639789e+01    0.3152842    0.1216101 -44.84  0.001193402    2.524    0.604
       240  -9.7051    192.4553     65.8873   4.7486564351e+01   2.8915016454e+01     0.253556    0.1872433  89.76 0.0007140392    1.481    0.325
       241 -10.3250    199.7728     63.8863   4.5890718568e+01   2.7560898062e+01    0.4253171    0.2658753 -83.86  0.001962854    2.063    0.515
       242  -9.3976     84.3870     61.2687   7.1751667438e+01   5.4036366814e+01    0.3337997    0.2973234 -17.09  0.001330555    1.083    0.077
       243 -11.4738     91.6422     63.0609   6.9934150294e+01   5.2329824122e+01     0.867842    0.4335524  48.78  0.003487678    2.126    0.530
       244 -10.6567     91.7235     57.5553   6.8016579365e+01   5.3279345889e+01    0.3966241    0.2582675  45.58  0.001029321    1.519    0.342
       245 -10.5763     87.5802     56.7153   6.9086482738e+01   5.4232122042e+01    0.4868495    0.2028035 -32.44  0.001454334    2.737    0.635
       246 -10.7244     59.1615     62.9797   8.1688510967e+01   5.7918005720e+01    0.4801895    0.3611305 -44.42  0.001817063    1.327    0.246
       247 -10.0695    106.2531     63.7840   6.5632858424e+01   4.9223963883e+01    0.3056272    0.2453801  42.06  0.001608428    1.200    0.167
       248 -10.3403    159.0038     62.4779   5.2420702062e+01   3.7319801632e+01    0.5329387    0.2269932  47.90  0.002036598    2.389    0.581
       249 -11.3800    127.1935    241.6513   9.8612644185e+01   6.3316152308e+00    0.3810817    0.3314251  53.73  0.001784434    1.173    0.148
       250 -10.0194    135.7912    240.3871   9.6603880784e+01   5.2661546215e+00    0.1860322    0.1109013  26.05 0.0003975161    1.636    0.389
       251 -10.0251     68.2467    240.4167   1.1103643137e+02   1.4938569051e+01    0.2299117    0.1121745  30.85  0.001125533    2.053    0.513
       252 -11.2777    148.3355    237.9610   9.3583720866e+01   3.7938620659e+00    0.4992119    0.2656954  36.32  0.001969279    1.623    0.384
       253 -12.2563    117.9335     44.1538   5.5845490948e+01   4.9743367892e+01    0.9372092    0.5913092  76.66  0.004113577    2.291    0.564
       254  -9.2708    233.3174    236.3010   7.6393133839e+01  -8.0494716087e+00    0.1243046   0.07609683  -2.32 0.0003156966    1.619    0.382
       255 -11.6752    114.1209     39.2177   5.5119333970e+01   5.1287031541e+01    0.5362887    0.3281476 -43.39  0.001322113    1.850    0.459
       256 -11.9253    106.2837     32.6295   5.4810746546e+01   5.3895987147e+01     0.525999    0.3165857  16.51  0.002187232    2.380    0.580
       257 -10.5284    199.0000    234.9815   8.2663382051e+01  -3.2524646146e+00    0.4005914    0.1572362 -39.51  0.001797955    2.637    0.621
       258 -10.1557    149.4321     60.9869   5.3931513326e+01   3.9838374846e+01     0.574095    0.1969101  55.50  0.001992832    2.766    0.638
       259 -11.1591    106.0493     58.2713   6.3851799180e+01   5.0207562762e+01    0.6824018    0.4071965  67.23   0.00269597    2.580    0.612
       260 -10.1589    135.4764     51.0165   5.3928165397e+01   4.4677744731e+01     0.284733    0.2569809 -12.29  0.001619719    1.220    0.180
       261 -11.0668    136.4150     56.8323   5.5525426330e+01   4.3574977764e+01    0.6422252    0.4086914  -0.45  0.002588817    2.727    0.633
       262 -10.4579    197.0220    232.2343   8.2604789845e+01  -2.5374847153e+00    0.4248653    0.1623014  28.84  0.001770245    2.629    0.620
       263  -9.3239     15.3430    233.6262   1.2121996352e+02   2.2406659132e+01     0.211644    0.1232641 -78.87  0.001307568    1.587    0.370
       264 -10.6671    156.6557     52.9861   5.0160083853e+01   3.9334112484e+01     1.112624    0.8820195 -20.25  0.005938347    1.476    0.322
       265 -10.4140    242.7031    231.8569   7.3974564542e+01  -8.5953059321e+00    0.2571822    0.2302258  34.04  0.001829869    1.675    0.403
       266 -10.3937    157.4887     20.2819   4.0627552230e+01   4.3277768195e+01    0.4067901    0.2142277  70.17  0.001940703    1.730    0.422
       267 -10.2046    247.3376    231.5816   7.3120247031e+01  -9.1188658320e+00    0.2279167     0.143024 -20.82 0.0008035981    1.352    0.260
       268  -9.4216     23.7724    231.6310   1.1945181622e+02   2.1965338116e+01    0.1658981   0.08556547  45.46 0.0009426066    1.627    0.385
       269  -8.8844    190.2000    229.5876   8.3537701094e+01  -1.1135383222e+00    0.1770348    0.1087122  21.28 0.0004898316    1.552    0.356
       270  -9.6270    233.8483    223.3846   7.4096571491e+01  -6.2667106417e+00    0.1731532   0.09933413  18.54 0.0009450486    1.726    0.421
       271 -10.8948    160.2223     43.3579   4.6756093763e+01   3.9835685878e+01    0.6327398    0.2494393  64.10  0.002185768    2.493    0.599
       272 -11.0380    155.5929     42.3520   4.7281426406e+01   4.1084621213e+01    0.4135658    0.3521844  59.44  0.001203531    1.109    0.098
       273 -12.8914    152.9564     35.7479   4.5821599289e+01   4.2575527805e+01    0.3693393    0.3072369  68.27 0.0004631078    1.099    0.090
       274 -12.1863    159.4691     30.2233   4.3147113264e+01   4.1683084423e+01    0.5398333    0.4427727  84.26  0.001782264    1.153    0.133
       275 -10.9883    164.0545     27.6545   4.1725015692e+01   4.0884625153e+01    0.2946467    0.2444226  84.31 0.0006642576    1.108    0.097
       276 -10.5597    244.9803     51.0818   3.7620882213e+01   1.9859981386e+01    0.2467416    0.1672157  81.80   0.00101816    1.529    0.346
       277 -10.1856    238.0876     55.8509   3.9307077142e+01   2.0557239539e+01    0.2083962    0.1590273 -44.52 0.0002659183    1.209    0.173
       278 -10.4504    240.3147     50.5353   3.7966533730e+01   2.0857101042e+01    0.2722474     0.218094 -37.93 0.0008829369    1.319    0.242
       279 -10.1816     66.7570     54.3107   7.5703804519e+01   5.8366261622e+01    0.4125847    0.2253668 -52.74  0.001819719    2.384    0.581
       280  -9.7548     64.9541     75.4681   8.3449113016e+01   5.4530562644e+01    0.4428029    0.2350492  20.13   0.00111891    2.350    0.574
       281  -8.8716      6.7742     54.9460   1.0226456092e+02   6.4816616457e+01    0.1556169   0.08218858 -55.96 0.0004421884    1.557    0.358
       282  -9.6151    211.4926     53.1760   4.1758050621e+01   2.6535543103e+01    0.2494228    0.1825723  72.86  0.001420962    1.358    0.264
       283  -9.8010    201.5691     53.2113   4.3046959068e+01   2.8742926124e+01    0.4797915    0.2184123  54.93  0.002117211    2.250    0.556
       284 -10.3780    201.5293     48.9825   4.2032753845e+01   2.9351754015e+01    0.6409661    0.3994469  -8.70  0.002767799    3.044    0.672
       285 -11.2004    200.9971     45.5010   4.1263388796e+01   2.9953702730e+01    0.5475873    0.2669345  85.31  0.002210791    2.856    0.650
       286 -10.4903    175.2791     49.0281   4.5821173018e+01   3.5449337026e+01    0.3627741    0.2998685  66.69  0.001285856    1.154    0.134
       287  -9.8911    171.6736     47.6839   4.6038532643e+01   3.6496617082e+01    0.3147898    0.2419709  -8.86   0.00155494    1.742    0.426
       288  -9.5644     91.1029     48.3086   6.4931576656e+01   5.4916048325e+01    0.3077223    0.1838755 -51.97  0.001378298    2.272    0.560
       289 -10.7935     12.6605     48.1283   9.7548368950e+01   6.5841520314e+01    0.3554084    0.1730922 -33.42  0.001512507    1.802    0.445
       290  -9.5977      1.8771     48.2872   1.0285445002e+02   6.6439012079e+01    0.3115752    0.1776769 -59.51  0.001579138    1.556    0.357
       291  -8.5517      6.3126     43.1288   9.9192343353e+01   6.7229336471e+01    0.3301688    0.2502625 -65.03  0.002164398    1.529    0.346
       292 -10.3008      5.7106     36.1252   9.7303924234e+01   6.8607760775e+01    0.3537995    0.2247778 -29.95  0.002251921    1.262    0.208
       293 -10.4502      5.7861     31.2571   9.5611221035e+01   6.9501743424e+01    0.6074278    0.2120685 -23.42  0.002350352    3.997    0.750
       294  -9.9241     10.7892     30.4182   9.2588319868e+01   6.9306889245e+01    0.2612367    0.1839103 -12.34  0.001406286    1.223    0.182
       295  -8.4034    167.3112     47.3141   4.6657115729e+01   3.7591053732e+01    0.1379148    0.1054774  31.12 0.0007031098    1.634    0.388
       296 -10.8325    134.8793     45.8327   5.2431610198e+01   4.5564855013e+01    0.3932893    0.2015231  58.11 0.0006457763    1.834    0.455
       297 -10.3195    139.3154     43.8078   5.0854520593e+01   4.4791954243e+01    0.3312353    0.2248382  44.81  0.001515792    1.452    0.311
       298  -9.0547    233.4445     45.4814   3.7592886570e+01   2.2937833561e+01    0.1224859     0.106488 -65.24 0.0002394637    1.087    0.080
       299 -10.0918    177.1886     43.3395   4.4011189719e+01   3.5780513087e+01    0.3853346     0.223569  56.60  0.001880797    1.657    0.396
       300  -9.0815    101.3193     44.6569   6.0502396506e+01   5.3347392207e+01    0.1934819    0.1421495  63.57 0.0006305302    1.577    0.366
       301 -10.4247     93.5584     41.2696   6.1585464225e+01   5.5469572498e+01    0.5303765     0.274152  45.38   0.00241445    1.776    0.437
       302  -9.5456     99.0256     41.5291   6.0044576825e+01   5.4286556404e+01    0.2936301    0.2167946  83.24  0.001105885    2.100    0.524
       303 -10.4095    189.1327     40.7166   4.1635828568e+01   3.3322744476e+01    0.4277147    0.1994507 -28.13  0.001616563    2.549    0.608
       304  -9.8518     86.2435     30.9498   5.9933597971e+01   5.8368997833e+01    0.2617909     0.191407 -17.31 0.0009685715    1.447    0.309
       305 -10.5857     80.6110     39.2116   6.4991909480e+01   5.8348037222e+01    0.5638157      0.42352  53.17  0.003127235    1.491    0.329
       306 -11.0332     79.7177     33.6228   6.3111424673e+01   5.9306604122e+01    0.6452509    0.3947293  28.81  0.003273628    1.648    0.393
       307  -9.7667     17.4906     41.7741   9.3128526566e+01   6.6713625340e+01    0.2522943    0.1572727 -26.58  0.001492641    1.392    0.281
       308 -10.1012    231.5796     39.2814   3.6463704917e+01   2.4146868023e+01    0.2763674     0.173694 -52.78 0.0009367408    1.366    0.268
       309  -9.4297    217.1873     38.8550   3.7832859578e+01   2.7250139791e+01    0.2837015     0.104286 -51.78   0.00116368    2.693    0.629
       310 -10.9390    189.1376     27.5951   3.8358674578e+01   3.4965984658e+01    0.3606445    0.3193702   2.21  0.002267155    1.517    0.341
       311 -11.2743    183.1682     25.4748   3.8555186421e+01   3.6605046709e+01    0.5004357    0.2629372  56.13  0.002417217    1.855    0.461
       312 -10.9991    176.8140     36.6740   4.2303516278e+01   3.6742678299e+01    0.4215513    0.3486546 -12.11  0.002444742    1.541    0.351
       313 -11.2027    174.3936     31.6638   4.1320390545e+01   3.7940814977e+01    0.7436532    0.2966764  50.86  0.001581279    2.597    0.615
       314  -8.8868    193.6721     38.7140   4.0543827232e+01   3.2534052384e+01    0.1264616   0.09884093  40.02 0.0001891551    1.610    0.379
       315  -9.2626    183.8997     38.1700   4.1698938542e+01   3.4878476054e+01    0.2027827    0.1583734 -77.58  0.000684681    1.242    0.195
       316  -9.7659    133.0715     37.0144   5.0017255883e+01   4.7174792137e+01    0.4101397    0.2483772 -80.18  0.001670111    2.842    0.648
       317  -9.3283    206.7967     37.1216   3.8582117526e+01   2.9761492028e+01    0.1978329    0.1528679 -70.72 0.0006536751    1.169    0.144
       318  -9.4748     11.8146     35.9393   9.4028047158e+01   6.8234476429e+01    0.2413601    0.1876372  81.01  0.001424313    2.496    0.599
       319  -9.1920     94.0982     35.9847   5.9455453023e+01   5.6090748467e+01    0.1961041    0.1653654 -80.97 0.0007326702    1.668    0.401
       320  -9.4660     63.5160    222.4738   1.1036283155e+02   1.9293505047e+01    0.1278102    0.1113625  64.27 0.0008097023    1.030    0.029
       321 -10.5970    240.2482     32.1963   3.4208405271e+01   2.3290740583e+01    0.4458095    0.2629256 -39.01  0.002288578    1.595    0.373
       322  -9.3895    240.5037     26.4597   3.3031876977e+01   2.3948456355e+01     0.174428    0.1408608  86.10 0.0005418381    1.216    0.178
       323  -9.2258    215.8522     33.2834   3.6727542017e+01   2.8254865242e+01    0.2995069    0.1921896  23.01  0.001342785    3.470    0.712
       324  -9.9405    182.9858     32.2853   4.0313894537e+01   3.5835002940e+01    0.1876581    0.1558884  81.15 0.0004082781    1.087    0.080
       325  -9.0783    152.6813    219.2999   8.9812195255e+01   6.5505579855e+00    0.1332327    0.1040597  61.59 0.0003209954    1.619    0.382
       326 -10.3073    164.7047    212.2982   8.6008309853e+01   5.9266730702e+00    0.2556035    0.2167165  33.35 0.0006969753    1.136    0.119
       327  -8.6457    199.3451    210.3244   7.8365588051e+01   7.4229724237e-01    0.1423196   0.09411991  -2.60 0.0007050332    1.739    0.425
       328  -9.8631    153.4214    207.6397   8.7723886338e+01   8.7014342261e+00    0.2631823    0.2414863  71.73 0.0009126939    1.311    0.237
       329  -9.4268     61.1228    206.5170   1.0927206387e+02   2.3156759679e+01    0.1952312    0.1668536 -88.68 0.0007676081    1.108    0.097
       330 -10.7146    237.6210    204.3765   7.0024243436e+01  -3.8916722751e+00    0.2679639    0.2519814  17.74  0.001844277    1.404    0.288
       331 -11.3457      5.4793    200.7945   1.2132406587e+02   3.0392789655e+01    0.9192285    0.1008354 -67.61  0.003009552    5.023    0.801
       332 -12.1434      4.7386    184.3873   1.2043366693e+02   3.4218700282e+01    0.7659405    0.4566702  81.62  0.004417651    1.462    0.316
       333  -9.9209    230.1587     27.5678   3.4131376485e+01   2.5922144976e+01    0.3259319     0.149735 -38.88  0.001677448    1.978    0.494
       334 -10.0584    250.3506     27.1969   3.2403811005e+01   2.1923734567e+01    0.2400008    0.1449892 -35.42  0.000975348    1.693    0.409
       335 -10.3288    213.7401     24.0376   3.4879623135e+01   2.9842651127e+01    0.2952904     0.266683  74.73  0.001859239    1.248    0.199
       336 -10.8644    245.7784    200.9738   6.7977254882e+01  -4.4736116047e+00    0.2088906    0.1651871  12.79 0.0007399099    1.228    0.186
       337  -8.7197    207.2934    201.3091   7.5130025700e+01   1.0661976502e+00    0.1372118   0.09412768  -5.72 0.0005091029    1.586    0.370
       338  -8.8304    195.4740    199.9745   7.7255768188e+01   3.1799486826e+00    0.1748288     0.123012 -66.59 0.0008087574    2.438    0.590
       339 -10.6286    234.3044    196.8553   6.9219679855e+01  -2.2339269109e+00    0.3890842    0.2762376   5.39  0.001586735    1.411    0.291
       340  -9.4446     82.7499    196.2249   1.0282244437e+02   2.2589686388e+01    0.3362522    0.2088348  16.97  0.001514453    2.169    0.539
       341  -9.1658    223.5753     22.0270   3.3541878814e+01   2.7965093001e+01    0.1914316    0.1375539  83.56  0.001131628    1.272    0.214
       342 -10.8343    246.5526    193.2571   6.6413301400e+01  -3.3809244462e+00    0.3129543     0.104497 -36.56  0.001300013    2.619    0.618
       343  -9.7756     74.7011     19.3735   5.8964685714e+01   6.2052203673e+01    0.2505711    0.1688417  21.34  0.001172654    1.469    0.319
       344  -9.7290    170.1496    191.1674   8.1003793189e+01   9.1308428272e+00    0.3798895    0.1880831  21.07  0.001346987    3.068    0.674
       345  -8.9300    162.4952    190.9842   8.2688323145e+01   1.0510708479e+01    0.1844415    0.1317809 -77.74 0.0004513242    2.304    0.566
       346  -8.8847     16.4641    191.4998   1.1826348252e+02   3.1562178855e+01     0.124825     0.102554  84.72 3.198268e-05    1.022    0.021
       347 -10.1776    239.6302    185.0185   6.6036287340e+01  -1.0797856217e+00    0.3531644    0.2090896 -13.38  0.001130511    1.996    0.499
       348 -10.0865    214.5099    185.0202   7.0609837751e+01   2.7805540527e+00    0.1859522    0.1167492 -59.89  0.000810524    2.624    0.619
       349  -8.6510    173.5037    184.4966   7.8975674906e+01   9.8801077883e+00    0.1446961    0.1348713   0.69 0.0008106348    1.014    0.014
       350 -10.1232    250.3480    178.3974   6.2961691435e+01  -1.5505262850e+00    0.3861032    0.1252888 -32.29   0.00144215    3.173    0.685
       351  -8.6863    157.6138    179.7292   8.1650716653e+01   1.3740575142e+01     0.154189    0.1131368   2.00 0.0006991863    1.709    0.415
       352  -9.7848     28.0286    176.1172   1.1416497846e+02   3.4157768061e+01     0.231821    0.1703381 -83.21  0.000779632    1.186    0.157
       353  -9.7402    230.3438    175.5014   6.5806267117e+01   1.9249102147e+00    0.2205982    0.1808874  23.47 0.0004492977    1.281    0.220
       354  -9.2634    194.7805     19.3653   3.5718805758e+01   3.4613852088e+01    0.2061285     0.134913  72.54  0.000575167    1.381    0.276
       355 -10.3724     52.1133    173.5930   1.0767554442e+02   3.2177512620e+01    0.5322125    0.2652222  89.00  0.002080332    2.732    0.634
       356  -9.2126    205.2763     17.4320   3.4208704921e+01   3.2464373710e+01    0.2234203    0.1040915  68.66  0.001113159    1.948    0.487
       357 -10.2063    186.5285     15.2188   3.5602792430e+01   3.6959370485e+01    0.2372334    0.1909389  85.90 0.0004687737    1.070    0.066
       358  -9.5659    168.9856     23.8881   3.9990115149e+01   4.0136697726e+01    0.2405391    0.1619754  62.73 0.0009335384    1.348    0.258
       359 -10.1517    247.4136    174.0424   6.2600822486e+01  -4.2038464052e-01    0.4355914    0.1908999  24.78  0.001682738    3.815    0.738
       360  -8.6131    115.3068     13.2961   4.5803898323e+01   5.3960810561e+01    0.1344239   0.08552536  36.77 0.0007002396    1.587    0.370
       361 -10.1610     16.8752    203.4273   1.1903544065e+02   2.8780792385e+01    0.3093302    0.1051545 -68.14  0.001385934    2.536    0.606
       362  -9.5095     39.5061    173.5036   1.1096161935e+02   3.3630454322e+01    0.2537167    0.1226867 -76.00 0.0008609138    1.972    0.493
       363 -10.7236     35.5524    170.2189   1.1162262208e+02   3.4860362411e+01    0.4787869    0.2677305  85.00  0.002126172    1.955    0.488
       364  -9.3760     75.7796     13.8744   5.6273724770e+01   6.2435101086e+01    0.2148607    0.1380528  40.74 0.0005889494    1.321    0.243
       365  -8.8965    170.6198    171.8466   7.7081909345e+01   1.3003549234e+01    0.2010961    0.1393831 -53.70 0.0008623944    1.592    0.372
       366  -9.9464      9.4399    155.7647   1.1701251647e+02   4.0741103666e+01    0.2511793     0.182406 -75.27   0.00102461    1.145    0.127
       367 -11.5803      9.6971    166.9154   1.1792584472e+02   3.7996564469e+01    0.5041351    0.3735161  62.58   0.00272937    1.298    0.229
       368 -11.2784     13.6413    159.4966   1.1625586821e+02   3.9503824563e+01    0.6879625    0.2050055 -67.37  0.002777372    2.581    0.613
       369  -9.2703    198.1567    167.8781   7.0365249418e+01   8.7454814774e+00    0.2071684    0.1970016 -44.87 0.0006952242    1.184    0.155
       370  -9.4890    156.2168    166.1650   7.9233096163e+01   1.6937463096e+01    0.2222688    0.1986768 -14.36  0.000409856    1.144    0.126
       371  -8.9952    152.4539    166.5397   8.0208930149e+01   1.7571692363e+01    0.1508413    0.1448638  -3.32 0.0001047862    1.012    0.012
       372 -10.2167     18.8059    164.9626   1.1543217793e+02   3.7734763217e+01    0.3071182    0.2485433 -47.80  0.001480235    1.384    0.277
       373  -9.5211    188.8314    163.9533   7.1463686858e+01   1.1221880303e+01    0.2487934    0.1602744 -16.88  0.001068637    2.021    0.505
       374 -10.6804     28.0954    162.2982   1.1271743478e+02   3.7565519813e+01    0.4008773    0.2301874 -67.24  0.002055825    1.507    0.337
       375 -10.1192    205.0791    162.9459   6.7954394671e+01   8.4494326265e+00    0.2515804    0.2033185  23.07 0.0006273686    1.293    0.226
       376  -9.3755     79.0020    160.2266   9.8355611451e+01   3.1950699765e+01    0.2693469    0.1867225 -81.88  0.001194074    1.629    0.386
       377 -10.1013    246.5144    158.4743   5.9675346772e+01   2.2999726165e+00    0.2809812    0.1103121 -39.24  0.001207227    2.154    0.536
       378  -9.5233    224.1942    157.3505   6.3212036498e+01   6.1362631400e+00     0.360925    0.1779992 -49.19  0.001541449    2.203    0.546
       379  -9.3118    215.6068    157.7049   6.4845209314e+01   7.5622891611e+00    0.2253267    0.1581094  -9.86  0.001106456    1.708    0.414
       380 -12.2587     22.8008    148.9637   1.1266794226e+02   4.1379342961e+01    0.7621524    0.3758321 -51.32   0.00360944    1.954    0.488
       381 -10.5741     16.0457    147.8994   1.1443956168e+02   4.2193163085e+01    0.3186201    0.2667566  49.86 0.0008294249    1.295    0.228
       382 -11.5148     13.0636    138.5444   1.1425800171e+02   4.4749190862e+01    0.7805515    0.4435726 -83.54  0.004009425    1.619    0.383
       383 -10.3096    104.7895    154.2940   9.0043621081e+01   2.9280453814e+01     0.382347    0.3281367 -32.80  0.001948823    1.250    0.200
       384  -9.7927     33.0781    154.4974   1.1044951809e+02   3.9049542130e+01    0.2779927    0.2466619  23.25   0.00112076    1.320    0.242
       385 -10.4046     30.9905    151.7529   1.1069607696e+02   3.9942946098e+01    0.2764316    0.2327816 -34.03 0.0009934668    1.379    0.275
       386  -9.3950     74.5471    153.9987   9.8549955881e+01   3.4178802363e+01    0.2334871    0.1379907 -61.33  0.001034037    1.607    0.378
       387  -9.7688     71.7979    150.6499   9.8761413515e+01   3.5423481805e+01    0.3762538    0.2601012 -36.51  0.001774673    1.666    0.400
