#   1 NUMBER                 Running object number                                     
#   2 MAG_AUTO               Kron-like elliptical aperture magnitude                    [mag]
#   3 X_IMAGE                Object position along x                                    [pixel]
#   4 Y_IMAGE                Object position along y                                    [pixel]
#   5 X_WORLD                Barycenter position along world x axis                     [deg]
#   6 Y_WORLD                Barycenter position along world y axis                     [deg]
#   7 A_WORLD                Profile RMS along major axis (world units)                 [deg]
#   8 B_WORLD                Profile RMS along minor axis (world units)                 [deg]
#   9 THETA_WORLD            Position angle (CCW/world-x)                               [deg]
#  10 FWHM_WORLD             FWHM assuming a gaussian core                              [deg]
#  11 ELONGATION             A_IMAGE/B_IMAGE                                           
#  12 ELLIPTICITY            1 - B_IMAGE/A_IMAGE                                       
         1 -15.0945      5.2970    133.5851   1.3978336918e+02   4.7157575905e+01     10.02039     2.988886 -78.01   0.03627139    3.762    0.734
         2 -13.3749    200.8134     28.9919   6.4301633131e+01   3.1917302009e+01     1.398622     1.207893  55.26  0.007332428    1.311    0.237
         3 -13.3689    217.2483     11.2570   5.8527636517e+01   3.0172475801e+01    0.8840622    0.7722246  70.83   0.00347198    1.280    0.219
         4 -12.0032      3.2935      6.4117   1.0977747757e+02   7.1837052683e+01    0.5020702    0.2218789 -41.95  0.003099265    2.115    0.527
         5 -12.0885     99.4828    249.0584   1.3241759109e+02   9.6147569664e+00    0.5660813    0.2514019  42.59  0.002734046    1.935    0.483
         6 -12.9404    244.6087    247.5124   1.0432506302e+02  -1.3525738398e+01    0.9212357    0.5267083  37.02  0.005425104    1.688    0.408
         7 -13.8887      8.4460    240.7694   1.4814150394e+02   2.3309768974e+01     1.968213     1.454117  84.20   0.01495091    1.125    0.111
         8 -12.5025      9.8316    206.9039   1.4570311030e+02   3.0160917983e+01    0.6860223    0.4763523  36.33  0.002974024    1.757    0.431
         9 -12.9095     43.2868    212.7753   1.3969397969e+02   2.5183224493e+01     1.073933    0.7722965 -86.34  0.004742812    1.167    0.143
        10 -12.8134     27.7389    230.1905   1.4411306617e+02   2.3326819354e+01    0.3163522    0.2518641 -76.40 0.0007734616    1.348    0.258
        11 -13.9609     32.9039    223.8615   1.4267379837e+02   2.4047410186e+01     0.846481    0.5726702  69.57  0.002543582    1.199    0.166
        12 -10.9994     81.5455    249.0465   1.3582000554e+02   1.2366861118e+01    0.2349539    0.1873167  59.21  0.001554333    1.094    0.086
        13 -10.9718     64.3963    247.6795   1.3887007666e+02   1.5107700605e+01    0.3306411    0.1923596  79.50  0.001079235    1.690    0.408
        14 -10.8831    199.0367    246.9945   1.1266598787e+02  -6.5846276685e+00    0.2034042    0.1725177  21.89   0.00132691    1.010    0.010
        15 -11.1697     96.8481    245.2048   1.3249806069e+02   1.0765191616e+01    0.2517942     0.199062  67.98  0.001133675    1.078    0.073
        16 -10.6959    181.8131    249.6982   1.1641190264e+02  -4.1828673781e+00    0.3068261   0.09839077  41.96  0.001193799    2.683    0.627
        17  -9.7909    128.3266    244.6614   1.2624532357e+02   5.7256589921e+00    0.1365363   0.09006404  68.49 0.0007051603    1.728    0.421
        18 -11.5013    163.3677    249.1183   1.1992752997e+02  -1.0003539594e+00    0.3865777    0.2147925  50.50  0.001952715    1.753    0.430
        19 -10.1656    185.5930    238.8072   1.1396028412e+02  -3.0705522286e+00    0.1641903    0.1266468 -56.94 0.0004309295    1.650    0.394
        20 -11.4605    122.7332    250.0006   1.2802579145e+02   5.6823619217e+00    0.5314333    0.1449502  42.60  0.001983602    3.008    0.668
        21 -12.4138     96.3983    228.1858   1.3059675959e+02   1.4241634074e+01    0.7404341    0.2169482  43.84   0.00278708    2.905    0.656
        22 -12.7335    122.7177    232.2651   1.2572239612e+02   9.0388669958e+00     1.347053     0.156962  42.01  0.003299084    6.482    0.846
        23 -12.7171     33.4037    246.7145   1.4430651431e+02   1.9333529990e+01    0.8145732    0.6522971  27.55  0.005655878    1.931    0.482
        24 -10.9393    138.5038    250.0313   1.2494217490e+02   3.0458587462e+00     0.266321    0.1837947  61.50  0.001503699    1.490    0.329
        25  -9.4854     34.6945    202.8502   1.4048670833e+02   2.8415055571e+01    0.1770654    0.1280462 -89.14 0.0006242042    1.119    0.107
        26 -11.6097     56.0975    197.1232   1.3537515758e+02   2.7066735876e+01    0.2833619    0.2277058 -68.32 0.0005127087    1.247    0.198
        27 -11.8952     62.9003    188.8089   1.3284513147e+02   2.8082789601e+01    0.2747212    0.2445576 -79.31 0.0004443504    1.142    0.124
        28 -11.3523      4.0767    184.1980   1.4509105865e+02   3.5682990846e+01    0.4881013    0.2320558  74.00  0.002151112    2.113    0.527
        29 -10.7279     73.9665    176.1516   1.2848731828e+02   2.9518480843e+01    0.2490545    0.2199072 -73.64 0.0003418898    1.097    0.088
        30 -13.1364     60.3155    173.9979   1.3144874501e+02   3.1960346693e+01     0.547715    0.2816674 -47.11  0.001893931    2.277    0.561
        31  -9.7349     92.8256    170.1129   1.2289827723e+02   2.8016455721e+01    0.3716785    0.2057603  61.00  0.001380798    2.228    0.551
        32 -11.8037     81.5577    167.1722   1.2519660459e+02   3.0542888356e+01    0.7146561    0.5501698 -44.97  0.003763583    1.449    0.310
        33 -12.1238     10.8981    120.9174   1.3659877300e+02   4.9675901822e+01     0.537349    0.3346723  45.57  0.001600817    1.934    0.483
        34 -10.6815      6.8676    215.3835   1.4684138149e+02   2.8640900021e+01    0.2202972    0.1317996 -77.45 0.0007266184    1.379    0.275
        35 -10.0603     95.1498    151.7249   1.1889924883e+02   3.2095848029e+01    0.3056141    0.2659576 -58.67 0.0007334139    1.104    0.094
        36 -11.7840     83.7504    150.5982   1.2167846059e+02   3.4246924095e+01    0.3200219    0.2496205 -50.05 0.0005654668    1.273    0.214
        37  -8.4400    152.5288    213.0091   1.1649841626e+02   7.5378614207e+00    0.1859599    0.1406923 -51.44 0.0006607645    1.432    0.302
        38  -9.1762     98.8275    147.5199   1.1708530520e+02   3.2482289251e+01    0.2213394    0.1917964 -64.84 0.0007702965    1.089    0.081
        39 -11.9924     67.4210    143.4120   1.2470382152e+02   3.8434596601e+01    0.7000187    0.4389013  63.64  0.003172342    1.993    0.498
        40  -9.6657    108.1353    136.8456   1.1230765531e+02   3.3368035152e+01    0.4191722    0.2893299 -15.81  0.001486961    2.361    0.576
        41 -10.4743     94.9405    134.1789   1.1529285126e+02   3.6381189637e+01    0.2521946    0.2020241 -48.56 0.0003044319    1.205    0.170
        42  -9.1755    105.7231    123.6990   1.0989483465e+02   3.6921349810e+01    0.1895402    0.1668667 -88.06 0.0003332668    1.239    0.193
        43  -9.0341    167.2422    112.2275   9.1508906821e+01   2.6210042197e+01    0.2180528    0.1805591 -82.96 0.0005334961    1.370    0.270
        44 -10.2032    243.0049     91.5030   7.3064042546e+01   1.2846417035e+01    0.1850677    0.1139673  35.44 0.0008106077    2.591    0.614
        45 -10.1962     61.2913     78.5640   1.1154760470e+02   5.3992523442e+01    0.4044541    0.2046978  45.96  0.001666018    2.546    0.607
        46  -9.9708    159.4884     77.9235   8.4006754033e+01   3.4678844149e+01    0.2241425    0.1483476 -39.00 0.0005450274    1.550    0.355
        47  -8.7994     51.9570     72.4831   1.1299668036e+02   5.6396308120e+01    0.1732121    0.1242098  29.62 0.0007459818    1.518    0.341
        48  -8.8656     43.1269     67.5016   1.1468715710e+02   5.8388021537e+01    0.1646203    0.1198668  26.09 0.0009376465    1.504    0.335
        49 -11.2884    171.4939    246.6595   1.1796639049e+02  -1.9684181861e+00    0.2623551    0.2003387  38.67  0.001581752    1.121    0.108
        50 -11.8755     45.8353    247.4956   1.4219495420e+02   1.7631872589e+01    0.4982181    0.3337009 -75.06   0.00306955    1.456    0.313
        51 -10.3227     53.8793    203.8353   1.3660742109e+02   2.5826629486e+01    0.3891864     0.216392  78.21  0.001911818    1.943    0.485
