#   1 NUMBER                 Running object number                                     
#   2 MAG_AUTO               Kron-like elliptical aperture magnitude                    [mag]
#   3 X_IMAGE                Object position along x                                    [pixel]
#   4 Y_IMAGE                Object position along y                                    [pixel]
#   5 X_WORLD                Barycenter position along world x axis                     [deg]
#   6 Y_WORLD                Barycenter position along world y axis                     [deg]
#   7 A_WORLD                Profile RMS along major axis (world units)                 [deg]
#   8 B_WORLD                Profile RMS along minor axis (world units)                 [deg]
#   9 THETA_WORLD            Position angle (CCW/world-x)                               [deg]
#  10 FWHM_WORLD             FWHM assuming a gaussian core                              [deg]
#  11 ELONGATION             A_IMAGE/B_IMAGE                                           
#  12 ELLIPTICITY            1 - B_IMAGE/A_IMAGE                                       
         1 -12.3366     70.8270     28.3179   2.9118099181e+02   7.0248857292e+00    0.0299124   0.01461783 -59.17   0.00158179    1.983    0.496
         2 -10.6327     33.9832     12.6017   2.9151071099e+02   7.4260201532e+00   0.01321268   0.00936908 -84.16  0.000877267    1.693    0.409
         3 -12.9414    137.2732     16.7368   2.9033999999e+02   6.7591803862e+00   0.01744996    0.0144701  49.37 0.0009960947    1.258    0.205
         4 -11.7678     12.9996     13.8498   2.9176170149e+02   7.5370250997e+00   0.01410134    0.0121366 -55.52 0.0004916412    1.146    0.128
         5 -11.3698    127.5015     11.9895   2.9042365419e+02   6.8724577948e+00   0.01157408  0.009578912  22.61  0.001335124    1.226    0.184
         6 -12.7232     77.5406     10.6284   2.9099373257e+02   7.1879644310e+00   0.01975384   0.01335528  38.34 0.0004742663    1.478    0.323
         7 -11.4569    107.2632      7.9150   2.9063268456e+02   7.0408363267e+00   0.01606542   0.01121409 -35.06  0.001480506    1.570    0.363
         8 -10.3497    114.1011      8.6652   2.9055816506e+02   6.9911567655e+00  0.009532197  0.006225629  12.67 0.0009372576    1.761    0.432
         9 -12.1256    176.9594      6.7658   2.8981916200e+02   6.6348474621e+00    0.0195893   0.01236496 -26.67  0.001446123    2.017    0.504
        10 -10.7626    180.0460      1.4416   2.8975044285e+02   6.6773799394e+00  0.009317459  0.008786924  11.79 0.0002928436    1.073    0.068
        11 -11.4212    135.7233      5.9179   2.9029086534e+02   6.8927754380e+00   0.01773993   0.01149437  89.76 0.0009637302    2.111    0.526
        12 -10.5419     24.5798      6.7081   2.9158327883e+02   7.5499471774e+00   0.01162323  0.008617066 -74.49 0.0006131842    1.466    0.318
        13 -10.6248     21.4929      4.5012   2.9160542320e+02   7.5937480496e+00   0.01593695  0.006032711  44.04   0.00119715    2.932    0.659
        14 -10.8477     30.7242      5.0283   2.9150165005e+02   7.5325337514e+00   0.01383698  0.009360656 -79.78  0.001161884    1.754    0.430
        15 -10.4673      6.7420      5.8432   2.9178477504e+02   7.6663929145e+00   0.01296356  0.007859543   7.05  0.001191568    2.130    0.531
        16 -11.1846     37.8068      2.6114   2.9140458481e+02   7.5179650227e+00   0.01864593    0.0117794  44.41  0.001499822    1.651    0.394
        17 -11.0121    217.9131      2.2817   2.8931812344e+02   6.4393811829e+00   0.01411837  0.009229099 -52.00  0.001456243    1.495    0.331
        18 -10.3543    194.6956      3.3336   2.8959286343e+02   6.5673587474e+00  0.006921222  0.005028552  65.52 0.0003541594    1.662    0.398
        19 -10.7878     91.4912      2.7326   2.9078322728e+02   7.1950271567e+00   0.01136663  0.008709244  29.54 0.0002871683    1.303    0.232
        20 -10.5397     41.5177     11.9570   2.9141938702e+02   7.3883793184e+00   0.01012868  0.006391939 -59.12 0.0008957318    1.554    0.357
        21 -10.1079    233.3175      2.3415   2.8914063914e+02   6.3457029418e+00  0.007123742  0.004900107 -28.25 0.0007048975    1.712    0.416
        22 -11.3441     86.3746      2.0576   2.9083831458e+02   7.2334718216e+00    0.0122488  0.009553339  31.73 0.0003420889    1.277    0.217
        23 -12.0092     17.2998      7.6665   2.9167361668e+02   7.5824161173e+00   0.01610509    0.0113956 -63.64 0.0006870805    1.424    0.298
        24 -10.6954    160.4339      1.4633   2.8997735660e+02   6.7952566806e+00  0.006491741  0.006431633  88.49  2.53535e-07    1.028    0.027
        25 -10.7976    138.9205      1.4611   2.9022623088e+02   6.9247342510e+00  0.009977642  0.006448753  28.85 0.0009370469    1.542    0.351
        26 -10.1147     54.5533      1.5440   2.9120385787e+02   7.4300367836e+00  0.006575293  0.006354129 -29.55 0.0008063857    1.032    0.031
        27 -12.6368    107.2893    225.4091   2.9197505983e+02   4.5378336208e+00   0.03391895   0.02056715  50.28  0.003285057    1.857    0.462
        28 -13.1298    180.7810    245.1010   2.9124830141e+02   3.8705481252e+00   0.03097926   0.01435277 -51.68  0.001167931    2.072    0.517
        29 -10.7366    181.4562    236.4785   2.9118741417e+02   3.9657348955e+00   0.01118387  0.009085591  81.76 0.0009681164    1.418    0.295
        30 -12.4702    183.1916    232.5800   2.9114338768e+02   4.0001895765e+00   0.01506463   0.01299524   8.18  0.001775095    1.218    0.179
        31 -10.9368    151.5401    240.9607   2.9156005764e+02   4.0935975234e+00   0.01320138  0.009080926  36.76  0.000845063    1.445    0.308
        32 -12.1357    150.2113    247.7323   2.9161704952e+02   4.0236069950e+00   0.02047281   0.01924014  23.94  0.002536537    1.069    0.064
        33 -12.3762    147.0054    241.8747   2.9161799483e+02   4.1102621665e+00    0.0145053   0.01126433 -63.79 0.0004277954    1.295    0.228
        34 -13.1781    124.9915    249.0367   2.9191602054e+02   4.1597211271e+00   0.07380722   0.02180296  26.45  0.005056941    3.534    0.717
        35 -13.0686    138.4604    244.0868   2.9173018410e+02   4.1360129150e+00    0.0552021    0.0180114 -55.22  0.004187655    2.775    0.640
        36 -13.2846    130.7332    238.7947   2.9178679312e+02   4.2432537081e+00   0.04845282   0.02341414 -49.52  0.004329136    2.030    0.507
        37 -12.8855     60.5555    182.9941   2.9225404280e+02   5.3060409475e+00   0.03613548   0.02348467 -58.36  0.002853174    1.505    0.336
        38 -12.8036     52.8693    175.7916   2.9229858696e+02   5.4349587576e+00   0.03905093   0.03527315  39.41  0.003621001    1.118    0.105
        39 -13.5900    110.6039    214.4961   2.9186966690e+02   4.6436630333e+00   0.05856305   0.03108557  51.61  0.004290207    2.292    0.564
        40 -13.4940     66.7534    190.8814   2.9223092267e+02   5.1781231927e+00   0.05932556   0.04579739 -76.52  0.006597949    1.407    0.289
        41 -14.1543     96.6755    209.8923   2.9200218272e+02   4.7800952249e+00   0.05824421    0.0469564 -68.27   0.00405037    1.271    0.213
        42 -13.1878     79.9644    207.0405   2.9217765551e+02   4.9129613829e+00   0.05914423   0.04338125 -80.04  0.006341963    1.550    0.355
        43 -13.1113     72.3228    204.5075   2.9225035539e+02   4.9878532073e+00   0.04035439    0.0307911  67.44  0.001918875    1.543    0.352
        44 -13.4481    105.4128    248.2160   2.9213690136e+02   4.2864141587e+00   0.04971834   0.03982469 -32.77  0.005509348    1.324    0.245
        45 -12.9682    115.8888    241.8123   2.9197665031e+02   4.2974323894e+00   0.03843125   0.02521908 -44.84  0.002359993    1.549    0.355
        46 -12.3432    119.3645    234.1507   2.9188943074e+02   4.3648422970e+00    0.0162729   0.01179607 -53.13 0.0004367032    1.350    0.260
        47 -12.9587     86.4980    223.9567   2.9220618303e+02   4.6790205538e+00   0.02785505    0.0219762  -4.36  0.001655919    1.444    0.307
        48 -13.1376     94.4525    225.7709   2.9212548772e+02   4.6105201303e+00   0.02403261   0.01528694 -69.98  0.000657965    1.695    0.410
        49 -13.7690     82.2511    237.2339   2.9233678784e+02   4.5514987948e+00    0.0409318   0.02596019  30.40  0.002628333    1.561    0.360
        50 -13.3155     89.3978    244.3488   2.9229798439e+02   4.4267960471e+00   0.02030469    0.0159243 -84.23 0.0006124257    1.439    0.305
        51 -12.8909     95.5573    247.3546   2.9224535213e+02   4.3553209893e+00   0.01563365   0.01264854 -64.69 0.0003736261    1.245    0.197
        52 -14.5605     96.8246    239.4647   2.9218225699e+02   4.4386055627e+00   0.05252573   0.04201349 -12.05  0.005912957    1.417    0.294
        53 -15.4107     73.3430    226.6333   2.9237453352e+02   4.7268830846e+00   0.03996588   0.03555074  36.96  0.003508141    1.130    0.115
        54 -13.6076     76.9167    217.3206   2.9227604785e+02   4.8127801879e+00   0.05499787   0.01534657  42.91  0.003541864    4.039    0.752
        55 -14.7511     74.7891    239.2153   2.9243510274e+02   4.5733049409e+00   0.03160902   0.02244084 -86.40  0.002712763    1.712    0.416
        56 -13.7087     68.1568    235.0450   2.9248607361e+02   4.6609974275e+00   0.02471607   0.01920801 -87.83  0.002199807    1.485    0.327
        57 -10.5725     83.9557    250.3557   2.9239768274e+02   4.3901663762e+00  0.008843124  0.008040446  12.02 0.0003280205    1.126    0.112
        58 -14.6416     32.0020    175.6205   2.9253877371e+02   5.5616000081e+00   0.09746639    0.0339982 -60.44  0.007476598    2.754    0.637
        59 -13.4096     39.4348    165.5776   2.9239108925e+02   5.6328963885e+00   0.03831716   0.02387254  87.72  0.002216993    2.328    0.570
        60 -14.0264      4.7667    202.0197   2.9301568559e+02   5.4199535791e+00   0.04353612   0.03877143 -68.56  0.004932978    1.139    0.122
        61 -14.5201     60.1747    215.5317   2.9245842929e+02   4.9334997047e+00   0.09177782   0.05363022  69.71  0.007779159    2.707    0.631
        62 -14.4072      7.4173    186.8372   2.9289189227e+02   5.5790774189e+00   0.05472902   0.02481614  50.80  0.004297744    2.880    0.653
        63 -14.1358     17.5033    179.7173   2.9273157161e+02   5.6009458787e+00   0.07611237     0.030583 -50.57  0.006256317    2.392    0.582
        64 -13.0974     44.5302    228.3793   2.9271799949e+02   4.8789680603e+00   0.05496441   0.03306235  63.66  0.004967177    2.315    0.568
        65 -14.4935     26.2952    196.3898   2.9273232773e+02   5.3563951950e+00    0.0695153   0.04953248  86.29  0.007162052    1.772    0.436
        66 -14.6199     45.8255    198.2076   2.9251778878e+02   5.2188261340e+00   0.08825909   0.04096102  22.86  0.005674157    2.342    0.573
        67 -15.2478     32.9851    214.2362   2.9276457191e+02   5.1108499316e+00   0.08329312   0.05554096  24.07  0.008689042    1.536    0.349
        68 -15.0790     31.6869    223.7975   2.9283823294e+02   5.0084416487e+00    0.1194742   0.06017402  85.71  0.007218915    5.468    0.817
        69 -15.1111     22.4685    223.5399   2.9294313639e+02   5.0664236973e+00   0.05344725    0.0438545  86.91  0.005065942    1.381    0.276
        70 -15.9688     10.0343    215.3659   2.9303666309e+02   5.2347705832e+00   0.07313965   0.05323577 -51.03   0.00801523    1.349    0.259
        71 -14.4946     33.2832    248.5267   2.9297141873e+02   4.7140097590e+00   0.02534088   0.01801151 -54.66  0.002737512    1.374    0.272
        72 -17.3703     14.5611    246.5832   2.9317567530e+02   4.8480973972e+00    0.1522822   0.09399465  23.78   0.01525348    1.673    0.402
        73 -14.8623     40.0207    247.6750   2.9288841272e+02   4.6836018374e+00   0.03167371   0.02861622 -15.99  0.002242004    1.158    0.137
        74 -11.6444    162.6544    217.5447   2.9128765885e+02   4.2965012050e+00   0.01414329   0.01169031 -23.11  0.001263856    1.314    0.239
        75 -10.5814    165.0000    228.0591   2.9132536174e+02   4.1613904513e+00   0.01503052  0.008043371 -66.05  0.001211908    1.968    0.492
        76 -11.3743    163.4245    223.1598   2.9131336236e+02   4.2272420567e+00   0.02256289   0.01477502  80.65  0.002130148    2.150    0.535
        77 -10.2103    211.7892    228.0006   2.9078544940e+02   3.8811767981e+00   0.01054381  0.007634635 -30.00  0.000447485    1.554    0.357
        78 -11.3728    213.1429    223.6577   2.9074306576e+02   3.9230145588e+00   0.01844969  0.009354787 -44.60  0.001030801    2.067    0.516
        79 -11.1701    201.8467    225.7549   2.9088622252e+02   3.9667328364e+00   0.01570459  0.009375616 -57.10  0.001014633    1.626    0.385
        80 -12.5110    194.7739    216.2535   2.9090920054e+02   4.1185503402e+00   0.04864541   0.02439139  63.94  0.003429446    3.882    0.742
        81 -10.5766    170.6802    225.3620   2.9124322491e+02   4.1583546784e+00   0.01171689  0.008208522  50.89 0.0009614747    1.556    0.357
        82 -11.4245    169.9873    221.7016   2.9122866847e+02   4.2046479693e+00   0.01410234  0.008753404 -52.46 0.0002388525    1.567    0.362
        83 -11.6355    121.9024    224.6223   2.9180153125e+02   4.4593615977e+00   0.01619945    0.0137224  29.13 0.0008207588    1.182    0.154
        84 -11.4338    129.5007    207.4798   2.9160830945e+02   4.6112237160e+00   0.02180339   0.01140588 -65.17   0.00134147    1.989    0.497
        85 -11.1921    125.3846    221.1970   2.9174026106e+02   4.4779391617e+00   0.02760406   0.01229865 -71.65  0.002139646    2.897    0.655
        86 -12.9214    139.9912    218.6264   2.9155584632e+02   4.4199835351e+00   0.02178969   0.01564936  57.55  0.001099554    1.595    0.373
        87 -12.4709    132.5557    217.2211   2.9163301589e+02   4.4807414464e+00   0.03088609   0.02116903  75.85  0.001084473    1.940    0.485
        88 -11.7625     52.1490    224.8824   2.9260854557e+02   4.8737421325e+00   0.01408899  0.009466968 -53.06  0.000760439    1.451    0.311
        89 -11.9785     53.4815    220.9831   2.9256921667e+02   4.9107009071e+00   0.01560216   0.01251122  82.51  0.001236343    1.447    0.309
        90 -10.6750    249.9296    223.8309   2.9032024026e+02   3.6999495619e+00   0.01128245  0.009375834 -55.74 0.0003868598    1.186    0.157
        91 -10.0675    250.4940    220.4468   2.9029285503e+02   3.7354761249e+00  0.006504274  0.006466462  46.89 4.186427e-05    1.021    0.021
        92 -10.2799    187.2606    224.6426   2.9104755683e+02   4.0671170170e+00   0.00676405  0.005063465  71.86 0.0004387039    1.623    0.384
        93 -10.6917    178.5300    224.3393   2.9114637909e+02   4.1230164838e+00   0.01082509   0.00786009  -6.54 0.0007566474    1.678    0.404
        94 -11.4727    150.3238    223.0354   2.9146375210e+02   4.3072599468e+00   0.02070626    0.0122128  -5.81  0.001762274    2.636    0.621
        95 -10.9880    220.9761    219.9170   2.9062970597e+02   3.9189905502e+00   0.00998274  0.009713682  38.88  0.000676577    1.039    0.038
        96 -11.6981    206.3406    218.8911   2.9079209142e+02   4.0187238077e+00   0.01169327   0.01005582  34.40 0.0003018009    1.164    0.141
        97 -11.9800    229.7929    216.8511   2.9050917700e+02   3.9012759336e+00   0.01784663   0.01391082  -7.14  0.001741069    1.481    0.325
        98 -10.9846    231.4524    212.4950   2.9046317311e+02   3.9414131864e+00    0.0121113  0.009924557 -71.07 0.0009870898    1.267    0.211
        99 -11.2459    175.8908    217.2338   2.9113303735e+02   4.2206433741e+00   0.01619687    0.0117975  -2.12  0.001698537    1.648    0.393
       100 -12.0908    129.3398    227.8861   2.9173576812e+02   4.3772112473e+00   0.01674732   0.01578749   4.56 0.0006623057    1.080    0.074
       101 -10.9474     84.0009    216.8204   2.9219115844e+02   4.7761600857e+00   0.01628584   0.01140776  52.85  0.001236143    1.584    0.369
       102 -11.2014     86.7996    214.1835   2.9214262546e+02   4.7897849938e+00   0.02191525   0.01118527 -78.61  0.001751319    2.849    0.649
       103  -9.9071    146.0000    215.8567   2.9146944353e+02   4.4158404769e+00   0.01049916  0.003745578 -61.85 0.0004605559    2.787    0.641
       104 -12.0208    217.6005    212.9553   2.9062567113e+02   4.0193707256e+00   0.01796104   0.01222368  47.98  0.001015732    1.570    0.363
       105 -11.1907    160.6944    212.7245   2.9128057729e+02   4.3637523219e+00   0.01306183  0.009695199  40.91  0.001427989    1.363    0.266
       106 -10.3176    165.1532    210.9036   2.9121790841e+02   4.3579572058e+00   0.00997713  0.009769501  60.20 0.0005540036    1.044    0.043
       107 -10.3724    153.0143    212.5901   2.9136837406e+02   4.4113770914e+00  0.009965289  0.008390483 -60.28 0.0001018604    1.180    0.152
       108 -12.0060    128.1260    217.9920   2.9168889199e+02   4.4984165758e+00   0.01576369   0.01051429  49.71 0.0004007968    1.635    0.388
       109 -12.1982    237.8875    210.1134   2.9037431695e+02   3.9301228035e+00   0.01704816   0.01567008 -66.35  0.001192246    1.096    0.088
       110 -10.3021    147.3933    211.3228   2.9142544037e+02   4.4596842508e+00   0.01212771  0.005900665 -55.84 0.0006716544    1.959    0.489
       111 -12.3219    211.0934    208.3187   2.9067208433e+02   4.1118211833e+00   0.03204487   0.01756078  23.20   0.00299313    1.924    0.480
       112 -11.5447    212.1622    203.2334   2.9062838574e+02   4.1639111336e+00   0.01278445  0.009681309 -83.32 0.0006666865    1.514    0.340
       113  -9.6302    138.6141    210.2960   2.9152044719e+02   4.5241567643e+00  0.007190668  0.004846994  58.58 0.0007016093    1.772    0.436
       114 -11.9817    157.0763    225.7120   2.9140232088e+02   4.2359440136e+00   0.02065399    0.0135583  -1.28  0.001993954    1.995    0.499
       115 -11.6823    177.1051    208.1761   2.9106320070e+02   4.3176100678e+00   0.01349568   0.01088398  15.91 0.0003959667    1.296    0.229
       116 -10.7095    134.1646    206.7999   2.9155028031e+02   4.5910916133e+00  0.009134453  0.007577295 -24.95 0.0002908787    1.300    0.231
       117 -11.0870    112.9608    206.0651   2.9179057145e+02   4.7266377988e+00   0.01768583   0.01234526  66.72  0.001096258    1.794    0.442
       118 -10.0296    227.3901    206.2065   2.9047118347e+02   4.0381754024e+00  0.009285368  0.006388301 -78.94 0.0009354257    1.693    0.409
       119 -11.6449    199.9776    204.7279   2.9077811077e+02   4.2199285307e+00   0.01188965  0.009646082 -75.83  0.000323257    1.314    0.239
       120  -9.8691    188.2915    205.3253   2.9091657908e+02   4.2832506472e+00  0.006940917  0.004911497 -29.53 0.0002087586    1.616    0.381
       121 -10.9058    183.2117    204.4200   2.9096959484e+02   4.3241762054e+00   0.01198525  0.008986178 -61.13 0.0005641129    1.326    0.246
       122 -10.8613    145.9490    202.7355   2.9138920953e+02   4.5672163460e+00   0.01801593  0.008038019 -50.36  0.001542062    2.173    0.540
       123 -11.3571    115.6586    201.7910   2.9173310947e+02   4.7596945130e+00   0.01805059    0.0129815  19.82  0.001109506    1.455    0.313
       124 -11.5736    120.7490    204.1941   2.9168912427e+02   4.7015156621e+00   0.02464561   0.01425107  19.34  0.002334837    1.905    0.475
       125 -11.9806    121.4212    198.8681   2.9164856879e+02   4.7588185600e+00   0.01396791   0.01311461 -60.15 0.0004552225    1.061    0.058
       126 -11.8867    247.0417    200.0184   2.9020651293e+02   3.9911899182e+00   0.02208092   0.01251318  58.57 0.0003170121    2.394    0.582
       127 -12.6828    241.3967    200.4587   2.9027427703e+02   4.0200755811e+00   0.01545214   0.01489688 -85.35  0.000240148    1.066    0.062
       128 -11.3495    238.9835    196.7790   2.9027936536e+02   4.0769143393e+00   0.01304963  0.008680186  23.24  0.001098485    1.551    0.355
       129 -11.9395    235.6997    203.0527   2.9035594499e+02   4.0244967918e+00   0.01408427   0.01130891  39.61 0.0004296881    1.255    0.203
       130 -11.3642    232.5835    200.8325   2.9037815279e+02   4.0687740042e+00   0.01058988   0.00957588  -9.00 0.0003963899    1.159    0.137
       131 -10.1697    152.9621    204.4902   2.9131907405e+02   4.5049413324e+00  0.009606263  0.006513744  27.47 0.0004287704    1.480    0.324
       132  -9.9516    166.3199    202.2981   2.9115140642e+02   4.4500159785e+00   0.00690438   0.00497482 -25.43 0.0007020928    1.618    0.382
       133 -11.5308    132.9428    199.9864   2.9152242165e+02   4.6768715981e+00   0.03311877   0.01511618  53.05  0.002516683    3.112    0.679
       134 -10.6521    226.1988    200.2842   2.9044836054e+02   4.1134683800e+00   0.01094136  0.007857776  66.48  0.001124834    1.705    0.414
       135 -10.5527    223.4799    197.5143   2.9046260428e+02   4.1616807617e+00  0.009948829  0.005974905  38.46 0.0007459554    1.658    0.397
       136 -10.5028    190.8818    199.8011   2.9085262875e+02   4.3312683939e+00  0.009386146  0.008515737  30.45 0.0006396486    1.105    0.095
       137 -12.0612    188.0264    196.0110   2.9086218804e+02   4.3920404966e+00   0.01269639   0.01226878 -45.23  0.001587504    1.025    0.024
       138 -12.7354    188.5188    191.1656   2.9082661516e+02   4.4448475301e+00   0.01452196   0.01267875  68.60 0.0005037512    1.248    0.199
       139 -11.9862    139.4835    197.5253   2.9143174674e+02   4.6659857221e+00   0.02504391   0.01499866  69.22  0.002097179    2.530    0.605
       140 -11.6084    139.9202    194.2683   2.9140663721e+02   4.7008666347e+00    0.0122613   0.01041875 -48.44 0.0002579609    1.165    0.141
       141 -12.8514    101.3730    198.2802   2.9187648431e+02   4.8857057971e+00   0.03663733   0.02589438   9.15    0.0030645    1.618    0.382
       142 -11.9303     94.2827    195.7527   2.9194282838e+02   4.9572742726e+00   0.01922753   0.01251567 -16.52  0.001829903    2.064    0.515
       143 -11.3115    179.4931    198.6075   2.9097665088e+02   4.4134078920e+00   0.01162048   0.01056813 -26.61 0.0005125502    1.130    0.115
       144 -12.5477    216.7661    193.8688   2.9051750595e+02   4.2439849410e+00   0.02342468   0.01246466 -43.00 0.0009619656    2.007    0.502
       145 -12.4886    199.0575    194.8771   2.9072794645e+02   4.3388159826e+00   0.01765272   0.01280099  46.72 0.0005104559    1.445    0.308
       146 -10.1345    168.3515    190.7467   2.9105673855e+02   4.5707895494e+00   0.01071077  0.008047614  38.66 0.0005949638    1.335    0.251
       147 -12.1010    163.8054    192.9237   2.9112263062e+02   4.5730222606e+00   0.02596642   0.01641737 -59.15  0.002646134    1.551    0.355
       148 -11.2805    163.4606    188.9472   2.9110208989e+02   4.6208662189e+00   0.01355503   0.01023315 -42.07 0.0009208947    1.352    0.260
       149 -10.0178     82.8584    197.1490   2.9208339337e+02   5.0095790197e+00  0.009257525  0.007590508 -25.98 0.0005762505    1.318    0.241
       150 -10.5168    169.3154    195.5689   2.9107535241e+02   4.5094942266e+00   0.01596624  0.008486429  59.90  0.001286477    2.830    0.647
       151 -11.5280    249.9470    185.4915   2.9008330749e+02   4.1407875708e+00   0.02049339   0.01282033 -55.18  0.001690119    1.551    0.355
       152 -11.8757    250.5222    194.7095   2.9013362397e+02   4.0313117549e+00   0.01376257   0.01018296 -78.23 0.0002155303    1.513    0.339
       153 -12.9414    245.9090    190.7158   2.9016211073e+02   4.1049972733e+00   0.01902783   0.01411256  36.95   0.00100202    1.346    0.257
       154 -10.9446    193.2631    194.7121   2.9079376607e+02   4.3755295448e+00   0.01477667  0.008530734 -51.10  0.001432092    1.688    0.408
       155 -12.2320    113.3163    193.7238   2.9171049071e+02   4.8666323021e+00   0.01679806   0.01513639  29.02  0.002034709    1.113    0.101
       156 -11.3443    117.4584    191.5683   2.9164937887e+02   4.8666315471e+00   0.01000891  0.007785392 -19.91 8.413818e-05    1.464    0.317
       157 -12.2057    210.2660    191.9058   2.9058034165e+02   4.3056446837e+00   0.01782009   0.01216393 -62.38  0.001874773    1.465    0.317
       158 -10.7466    149.0265    190.9729   2.9128119651e+02   4.6841772886e+00  0.009841412  0.009607945 -59.71 0.0004996655    1.024    0.023
       159 -11.8262     82.1647    189.5158   2.9204444886e+02   5.1016503880e+00    0.0242873     0.016913 -72.85  0.002547322    1.563    0.360
       160 -11.6415     74.5368    178.2286   2.9206313721e+02   5.2773043709e+00   0.01675922   0.01191859 -35.78  0.001024182    1.522    0.343
       161 -11.8840     75.9612    186.1528   2.9209543681e+02   5.1775096409e+00   0.02191223   0.01465941   9.26  0.001589731    1.759    0.431
       162 -11.3630     75.1391    182.8188   2.9208442343e+02   5.2208299547e+00   0.01701839  0.009239942 -54.92 0.0005301937    1.769    0.435
       163 -10.7921     89.7303    193.7060   2.9198282404e+02   5.0081034199e+00   0.00939014  0.008980391 -23.20 0.0001848334    1.054    0.051
       164 -11.2768     86.9949    191.5466   2.9200113745e+02   5.0493485133e+00   0.01451234   0.01210288  11.35 0.0007786958    1.264    0.209
       165 -10.7411     59.9250    191.0307   2.9231074813e+02   5.2172359421e+00   0.01046147  0.007558069 -27.33 0.0003443332    1.590    0.371
       166 -10.9205    142.0753    189.4370   2.9135198217e+02   4.7435641354e+00   0.01881609  0.008850393  44.15  0.001609163    2.276    0.561
       167 -12.8373    106.2246    187.3885   2.9175339239e+02   4.9820804984e+00   0.02499487   0.01239298  35.74 0.0004808091    1.960    0.490
       168 -13.1091    104.2683    179.7039   2.9172866744e+02   5.0822982692e+00   0.03173248    0.0240109 -82.16  0.002018926    1.503    0.335
       169 -10.8408    177.6767    188.3185   2.9093414711e+02   4.5427409725e+00   0.01254675   0.01078739 -55.36  0.001478713    1.148    0.129
       170 -11.1247    175.4679    185.0020   2.9093917758e+02   4.5941797249e+00   0.01402543   0.01146896 -69.80 0.0006566802    1.261    0.207
       171 -11.3481    233.6289    194.1592   2.9032490159e+02   4.1392524998e+00   0.01248236    0.0107664 -13.32  0.000823318    1.250    0.200
       172 -10.4384     91.9411    188.0081   2.9192221684e+02   5.0604929949e+00   0.01079013  0.007624469 -26.65  0.001069486    1.656    0.396
       173 -11.8405    154.3537    192.3922   2.9122844901e+02   4.6358707535e+00   0.02488478   0.01433461  -1.21  0.001847816    2.694    0.629
       174 -12.8501    124.5124    184.5470   2.9152465648e+02   4.9051978597e+00   0.02091511   0.01749341  53.93  0.001122268    1.269    0.212
       175 -10.0234    234.2918    186.2976   2.9026870998e+02   4.2256987517e+00  0.006779919  0.004954132 -27.55 0.0002613849    1.561    0.359
       176 -10.8114    189.8380    186.3208   2.9078150119e+02   4.4926777869e+00   0.01084927  0.007898889  44.51  0.001165491    1.417    0.294
       177 -10.4972     54.9943    185.9878   2.9233672508e+02   5.3048039777e+00   0.01001653   0.00749277  62.75            0    1.556    0.357
       178 -10.7156     46.4841    186.1255   2.9243593213e+02   5.3540778109e+00   0.01385525  0.007540528  43.85 0.0006960238    1.927    0.481
       179 -10.7358     88.7771    183.7583   2.9193261438e+02   5.1283837382e+00   0.01660386  0.007944192 -72.60 0.0009101029    2.655    0.623
       180 -10.9460    140.3939    184.2195   2.9133923524e+02   4.8137223426e+00   0.01232196  0.008393781   9.71 0.0007623421    1.704    0.413
       181  -9.8735    238.3260    183.6754   2.9020601330e+02   4.2315925240e+00  0.007012427  0.004995993  63.27 0.0007048955    1.692    0.409
       182 -11.1886    231.6657    175.4664   2.9023207518e+02   4.3660859567e+00   0.01662205    0.0080635 -37.21  0.000937235    2.611    0.617
       183 -11.3058    231.4692    182.5138   2.9027787580e+02   4.2862013842e+00   0.01146914  0.009850848 -76.68  0.000563067    1.225    0.184
       184 -10.9884    229.4993    179.5132   2.9028205027e+02   4.3325679672e+00     0.013958  0.008815582  61.25  0.001317275    2.043    0.510
       185 -10.6528     82.6979    181.5071   2.9198900295e+02   5.1907021122e+00   0.01730826   0.01017037 -81.45  0.001547458    2.282    0.562
       186 -10.4110     70.3287    182.9111   2.9214058172e+02   5.2485462042e+00  0.009146203  0.008191179 -65.02 0.0005482254    1.122    0.109
       187 -11.1249    190.3350    180.5384   2.9074007987e+02   4.5562380873e+00   0.01465428   0.01066972 -88.30 0.0007857257    1.665    0.399
       188 -10.3098    135.2856    182.3273   2.9138656066e+02   4.8661505275e+00  0.009387732  0.005739233  36.68 0.0004506435    1.617    0.381
       189 -10.2535     41.4171    182.2815   2.9247087306e+02   5.4286332663e+00  0.009441222  0.006479227 -77.48 0.0009547839    1.669    0.401
       190 -11.4400    218.7916    179.5982   2.9040603698e+02   4.3959910999e+00   0.01833189   0.01134547  59.63 0.0008002445    2.071    0.517
       191  -9.8923    119.3161    185.3152   2.9158940618e+02   4.9275030792e+00  0.006988966  0.004945877 -27.08 0.0007036766    1.647    0.393
       192 -12.3746    118.3499    178.2521   2.9155704848e+02   5.0146281096e+00   0.01862961    0.0131593 -55.47 0.0001953719    1.383    0.277
       193 -11.8084     92.1552    180.5678   2.9187394126e+02   5.1449022435e+00   0.01194145   0.01096334 -70.30 0.0003373829    1.107    0.097
       194 -10.8804    211.9584    179.6736   2.9048530469e+02   4.4362126441e+00   0.01154772  0.008813604 -47.03 0.0007280454    1.304    0.233
       195 -11.8046    113.9602    178.6085   2.9160995362e+02   5.0368357245e+00   0.01234985   0.01096648 -76.58  0.001474293    1.172    0.147
       196 -11.6947    169.6797    176.3439   2.9095256329e+02   4.7285986418e+00   0.01240231  0.009768055  79.18  0.001076127    1.498    0.333
       197 -12.2330    166.5178    175.4518   2.9098355667e+02   4.7578556717e+00   0.02329373   0.01466061  -5.01  0.002143735    2.234    0.552
       198 -12.5662      4.4772    174.7646   2.9285176941e+02   5.7356988382e+00   0.02557083   0.01661299  47.69  0.002600383    1.653    0.395
       199 -10.8876    206.0880    175.7457   2.9052875800e+02   4.5167014955e+00   0.01991522  0.007374967  45.95  0.001435196    3.243    0.692
       200 -10.1038    148.3695    175.7430   2.9119487847e+02   4.8634540479e+00  0.009060524   0.00582557 -50.16 0.0002507095    1.528    0.345
       201 -10.7590    129.6536    175.9544   2.9141232178e+02   4.9733068556e+00  0.009447508  0.008452793 -71.61 0.0009739707    1.144    0.126
       202 -10.9061    195.5939    188.8731   2.9073084966e+02   4.4287210331e+00   0.01294451  0.008549209 -82.96 0.0009676623    1.888    0.470
       203 -11.5979     69.8404    175.5572   2.9210097701e+02   5.3361718609e+00   0.01288059   0.01054163 -27.07 0.0008705432    1.316    0.240
       204 -11.8210    136.4031    176.2595   2.9133624898e+02   4.9293095119e+00   0.01215931   0.01116328 -26.69 0.0002531232    1.114    0.103
       205 -12.8600    243.1371    172.7030   2.9008276421e+02   4.3288471853e+00   0.01516754   0.01319647  27.88 0.0004414746    1.153    0.133
       206 -12.3606    236.1120    173.0442   2.9016585069e+02   4.3671962541e+00   0.02011024   0.01023318  36.07  0.001845749    1.916    0.478
       207 -10.6331    194.5820    173.8514   2.9064979858e+02   4.6076667708e+00   0.01312139  0.005949049 -56.52  0.001132439    2.092    0.522
       208 -11.6867    156.6566    172.6690   2.9108023121e+02   4.8490980251e+00   0.01465336   0.01138616  78.80 0.0009625463    1.534    0.348
       209 -10.4766    219.7819    172.6997   2.9035200598e+02   4.4693988608e+00  0.009483227  0.008648342 -22.19 0.0007816165    1.133    0.118
       210 -12.1872     87.5216    170.1240   2.9186317728e+02   5.2929271497e+00   0.02428545   0.01520546  86.99  0.002207151    2.318    0.569
       211 -11.5611     59.9588    171.0867   2.9218768997e+02   5.4467672390e+00   0.01161336   0.01015714  84.73 0.0002873736    1.250    0.200
       212 -11.4907     60.5696    167.2208   2.9215684088e+02   5.4876439818e+00   0.01431535   0.01148413 -16.43  0.000537336    1.402    0.287
       213 -10.1271     11.9685    172.5215   2.9275136877e+02   5.7168653675e+00  0.009437688  0.006548155  25.07 0.0003830411    1.464    0.317
       214 -10.5710    208.6117    170.9202   2.9046984538e+02   4.5570483734e+00   0.01116648  0.009118753   5.43 0.0008110179    1.331    0.249
       215 -10.7358     99.9434    170.6086   2.9172261244e+02   5.2129503129e+00   0.01237045  0.009896819   3.45  0.001385691    1.382    0.276
       216 -11.0602     19.5037    169.9916   2.9264869238e+02   5.7010538431e+00   0.01595303   0.01145923 -40.60  0.001709953    1.446    0.308
       217 -10.3309     70.5449    168.4949   2.9204936692e+02   5.4133002414e+00   0.01049249   0.01003511  84.30 0.0004026279    1.086    0.079
       218 -12.7006     77.3837    166.5231   2.9195817760e+02   5.3950874913e+00   0.02205369   0.01649329  47.18  0.000177111    1.400    0.286
       219 -11.1369     73.7325    168.3428   2.9201158456e+02   5.3959789574e+00   0.01063756  0.009407424 -85.34 0.0002872295    1.208    0.172
       220 -10.5214     65.7812    169.7365   2.9211207549e+02   5.4274971295e+00   0.01604314  0.009666841 -28.20  0.001469453    2.151    0.535
       221 -12.0454    171.3588    168.6753   2.9088585664e+02   4.8067778222e+00    0.0171929  0.009148342  16.54  0.001509757    2.247    0.555
       222 -10.8761    249.1546    167.8553   2.8998344849e+02   4.3483815895e+00  0.009353609  0.007720449 -27.27 0.0005179748    1.299    0.230
       223 -11.0857    217.3692    167.2235   2.9034599991e+02   4.5469103610e+00   0.01063825   0.01015079 -17.51 0.0002455641    1.062    0.058
       224 -11.1828    196.1962    164.6526   2.9057436919e+02   4.7038132039e+00   0.02418482    0.0064001  40.18  0.001595702    3.735    0.732
       225 -11.0352    193.0388    168.0502   2.9063178341e+02   4.6836978309e+00   0.01255834  0.009394381  81.94 0.0007266878    1.641    0.391
       226 -11.4452    190.9302    163.9848   2.9063101049e+02   4.7431533394e+00   0.01164315   0.01122821 -76.18 0.0009258758    1.055    0.053
       227 -11.8201    133.4426    168.5392   2.9132283926e+02   5.0359556619e+00   0.01640165   0.01385604  56.82  0.001910068    1.267    0.211
       228 -10.7277     92.0293    167.6713   2.9179597495e+02   5.2941808176e+00  0.008899819  0.008569275  19.10  0.000482171    1.044    0.042
       229  -9.9700     13.4550    168.4961   2.9270944925e+02   5.7543716488e+00  0.006555421  0.006418966 -36.07 9.058222e-05    1.012    0.012
       230  -9.8535    182.6543    167.7540   2.9074979225e+02   4.7495173179e+00  0.006687355  0.005008995 -17.44 0.0003206977    1.574    0.365
       231 -11.0358    125.9226    166.9242   2.9139974771e+02   5.0996553217e+00   0.01044375  0.008804642 -18.43  0.001064962    1.288    0.224
       232 -10.4853      3.0205    166.7132   2.9281916847e+02   5.8371419700e+00  0.008991847  0.008450021  22.51 0.0003973497    1.070    0.066
       233 -11.7663    235.4071    166.1448   2.9013134020e+02   4.4507946402e+00   0.01547206  0.007435116  28.27  0.001003995    2.074    0.518
       234 -11.7536    139.9516    165.6562   2.9122987860e+02   5.0300932128e+00   0.01297677   0.01123114  37.02 0.0004095512    1.161    0.138
       235 -10.9706     46.3149    164.0169   2.9230193592e+02   5.6097647668e+00   0.02283606   0.01187074  84.32  0.001491446    4.603    0.783
       236 -11.3509      7.4212    164.0126   2.9275168343e+02   5.8420117420e+00   0.01895961   0.01619666  84.47  0.002215766    1.299    0.230
       237 -10.6243    159.4796    165.4940   2.9100336722e+02   4.9147390844e+00  0.006562336   0.00644325  67.59 -3.549916e-05    1.043    0.041
       238 -10.7890    120.3932    164.9831   2.9145165842e+02   5.1551632374e+00   0.01399238  0.008803777  28.72  0.000931846    1.585    0.369
       239 -10.5355    203.9927    164.3454   2.9048251819e+02   4.6604712660e+00  0.009526471  0.008264516  23.20  0.000586448    1.164    0.141
       240 -11.5118    186.0695    163.8953   2.9068655272e+02   4.7733996007e+00   0.01273147  0.009776239 -40.87   0.00141004    1.335    0.251
       241 -11.1888    100.9699    163.8317   2.9166899571e+02   5.2848414177e+00   0.01122438  0.009253889 -60.90 0.0004599183    1.206    0.171
       242 -10.6386     56.7232    163.7866   2.9218017503e+02   5.5501998025e+00   0.01217183  0.009561522  31.71  0.001370853    1.269    0.212
       243 -11.0083     50.6035    162.8503   2.9224517048e+02   5.5975709961e+00   0.01429322  0.009889407  50.16 0.0008270045    1.570    0.363
       244  -9.9275     12.2664    163.3280   2.9269144013e+02   5.8209990491e+00  0.006846338  0.004856324 -32.21 0.0002650308    1.573    0.364
       245 -10.7398    133.1436    162.2068   2.9128724030e+02   5.1106543527e+00  0.009849351  0.009037829 -14.65 0.0004823659    1.130    0.115
       246 -11.8327     20.2142    161.3616   2.9258743604e+02   5.7962293794e+00   0.01865302   0.01152444  34.93  0.001743416    1.595    0.373
       247 -10.9996    223.8479    161.1828   2.9023395632e+02   4.5774251958e+00   0.01019684  0.008948153  67.58 0.0006695368    1.236    0.191
       248 -10.7333    180.2543    161.1454   2.9073668895e+02   4.8399935612e+00   0.01107531  0.008893524  12.19 0.0005687235    1.326    0.246
       249 -10.2913     96.6377    161.6773   2.9170578677e+02   5.3356045109e+00  0.007217045  0.004918951 -25.09 0.0007041544    1.781    0.439
       250 -11.9272     20.8970    157.8539   2.9255797537e+02   5.8325602930e+00   0.01422339  0.009590148 -53.01 0.0003632303    1.446    0.309
       251 -11.9967    203.4756    157.8318   2.9044824383e+02   4.7385226181e+00   0.02357874    0.0123581 -39.38  0.001557956    2.194    0.544
       252 -10.6656    199.9882    154.5882   2.9046844225e+02   4.7968145811e+00   0.01107238  0.009083509 -60.97 0.0001533819    1.213    0.175
       253 -11.4204    196.6225    159.9045   2.9054012240e+02   4.7558848603e+00   0.01408518  0.009834972  17.80 0.0009957108    1.533    0.348
       254 -10.8081    192.5392    159.4811   2.9058462665e+02   4.7853050913e+00  0.009165781   0.00652789  11.40 3.661313e-05    1.574    0.364
       255 -10.3675    154.7500    158.4582   2.9101455867e+02   5.0241258909e+00  0.009087645  0.006491595   8.32 0.0009391098    1.604    0.376
       256 -10.0809    128.3606    158.2501   2.9131809067e+02   5.1848997393e+00  0.008923566  0.006332501 -74.06 0.0004624077    1.544    0.352
       257 -10.4196     66.1840    158.3564   2.9203736580e+02   5.5561593994e+00    0.0142373   0.00504259  35.00  0.001100915    2.636    0.621
       258 -11.2079     62.0054    155.9726   2.9207100228e+02   5.6086105670e+00  0.009746442  0.009408288 -41.02            0    1.027    0.026
       259 -10.1911      5.0025    157.9408   2.9274235209e+02   5.9263818327e+00   0.01011241  0.007489861 -27.14 0.0004267823    1.530    0.346
       260 -10.1805    213.4931    157.5351   2.9033084349e+02   4.6816840314e+00  0.006513525  0.006481798 -26.53 0.0001192869    1.008    0.008
       261 -10.4797    106.9316    156.8080   2.9155680848e+02   5.3299935430e+00   0.01236639  0.008334165  79.75 0.0005886088    2.018    0.505
       262 -10.7666     95.5195    157.5296   2.9169315237e+02   5.3900659766e+00   0.01174394  0.005498361  39.29 0.0007331631    2.121    0.528
       263 -10.7032     44.8536    156.8383   2.9227466587e+02   5.7011832212e+00  0.009263764  0.007804022  68.65 0.0007706262    1.320    0.242
       264 -11.7693     11.6113    156.6356   2.9265788759e+02   5.9020011147e+00   0.01255773   0.01170666 -71.88 0.0002116525    1.091    0.083
       265 -10.9491    209.4472    155.9683   2.9036783431e+02   4.7240462767e+00   0.01031802  0.006517612 -63.84  0.001028464    1.604    0.376
       266 -11.4287    181.1990    155.5653   2.9069132568e+02   4.8985310297e+00   0.01364098  0.009230436 -60.28  0.001426146    1.461    0.315
       267 -11.1992    171.4722    156.0606   2.9080667164e+02   4.9512811850e+00   0.01009732  0.008834799  26.02 0.0004105518    1.149    0.129
       268 -11.4458    146.6866    155.7365   2.9109088741e+02   5.1038661495e+00    0.0140136   0.01172052  45.95 0.0001449634    1.229    0.187
       269  -9.9021     52.2184    156.3684   2.9218660742e+02   5.6625759106e+00  0.009508491  0.005743783  39.31 0.0003374648    1.657    0.396
       270 -11.7761    137.9743    151.9564   2.9116819775e+02   5.1996719947e+00   0.03249831   0.01286407  15.47  0.002128134    4.162    0.760
       271 -10.2850    122.6605    154.9259   2.9136344556e+02   5.2573615946e+00  0.009241208  0.008122999 -56.63 0.0002648807    1.125    0.111
       272 -12.1974    115.4434    154.6147   2.9144492056e+02   5.3042230799e+00   0.01428466    0.0111249  40.04 0.0001489777    1.295    0.228
       273 -10.2687     85.9889    154.7111   2.9178594877e+02   5.4796044566e+00  0.009030672  0.008754136 -19.18 0.0006043261    1.035    0.034
       274 -11.7224     36.1391    152.9780   2.9235169729e+02   5.7977139910e+00   0.03433962   0.01814987  79.51  0.002102742    4.378    0.772
       275 -11.1643     34.9681    145.4145   2.9231870133e+02   5.8918251136e+00   0.01283627   0.01142566 -57.64 0.0003302998    1.112    0.101
       276 -11.8872     27.5076    154.3577   2.9246001651e+02   5.8333706890e+00   0.01500252   0.01187954  79.60  0.001116502    1.482    0.325
       277 -10.5493    152.6451    154.7056   2.9101570634e+02   5.0799583109e+00  0.007022802  0.004977209 -23.11 0.0007031916    1.689    0.408
       278 -10.5526    100.0213    153.6593   2.9161726463e+02   5.4076610881e+00   0.01465901  0.008620781 -62.42 0.0009596355    1.702    0.412
       279 -12.7753    247.9230    150.7292   2.8989175089e+02   4.5527395991e+00   0.02192167   0.01614446 -65.46   0.00168556    1.382    0.276
       280 -11.6034    225.9918    152.0971   2.9015307178e+02   4.6690336541e+00   0.01390449  0.009512293  29.32 0.0004045526    1.457    0.314
       281 -10.1639    194.6126    152.4719   2.9051739828e+02   4.8534896795e+00   0.00656483  0.006269777 -43.48 -0.000112272    1.038    0.036
       282 -11.8887    108.8829    150.3304   2.9149431838e+02   5.3928819594e+00   0.01947783   0.01017351 -54.36  0.001552411    1.835    0.455
       283 -11.3451    103.9436    149.3678   2.9154547066e+02   5.4335702793e+00   0.01941238   0.01232604  77.10  0.001771335    2.307    0.567
       284  -9.6087      4.7184    152.7027   2.9271344847e+02   5.9884166704e+00   0.01297563  0.005775118 -35.46 0.0009389065    3.287    0.696
       285 -10.7806      9.1808    150.6907   2.9264945922e+02   5.9849793827e+00   0.02001757   0.01064717  52.23  0.001747217    2.317    0.568
       286 -12.2539    237.5746    150.0643   2.9000693953e+02   4.6226930090e+00   0.01245381  0.009843714  13.16 0.0005279297    1.349    0.259
       287 -11.7505     22.3928    149.1690   2.9248726626e+02   5.9236715255e+00   0.02091249   0.01346376  -1.60  0.001984826    2.075    0.518
       288  -9.9042    219.3264    149.2801   2.9021253381e+02   4.7415486862e+00  0.006819228  0.004998697 -23.15 0.0003020841    1.595    0.373
       289 -11.8660    152.1486    147.8829   2.9097932360e+02   5.1614710025e+00   0.01136261   0.01037456 -66.48 0.0003203186    1.104    0.094
       290 -11.7595    232.9826    147.2767   2.9004264965e+02   4.6823963404e+00   0.01225488  0.009272664  -0.56 0.0005954427    1.536    0.349
       291 -11.2909    202.4066    147.8040   2.9039861280e+02   4.8603222594e+00   0.01557345  0.009622511  44.19  0.001292634    1.686    0.407
       292 -10.2453     91.5614    147.7732   2.9167877204e+02   5.5261225286e+00  0.009126563  0.006469657 -80.44  0.000748372    1.639    0.390
       293 -10.8055     52.0659    148.5095   2.9213999308e+02   5.7540014878e+00  0.009731924   0.00649283  28.13 0.0004095195    1.500    0.333
       294 -11.9691    163.5256    146.4057   2.9083880660e+02   5.1101393910e+00    0.0138699  0.009901015  86.22  0.001415829    1.772    0.436
       295 -10.1241     86.8490    147.1777   2.9172958109e+02   5.5612038092e+00   0.00889321  0.007470082 -28.47 0.0002968787    1.261    0.207
       296 -10.6266    216.2089    145.0058   2.9022207095e+02   4.8094742868e+00  0.009783428  0.009729919  59.99            0    1.022    0.022
       297 -12.1371    222.7953    145.8568   2.9015135734e+02   4.7600482715e+00   0.01655345   0.01446882 -35.06 0.0004068183    1.169    0.145
       298 -11.4084    219.3041    143.0355   2.9017418390e+02   4.8135104468e+00   0.01138368   0.01030529  25.52 0.0002317628    1.110    0.099
       299 -10.6867    138.4977    145.9804   2.9112527149e+02   5.2653229174e+00   0.01538164  0.008821259   2.39  0.001303116    2.587    0.613
       300 -11.2852     55.3033    145.0368   2.9208116865e+02   5.7746396610e+00   0.01754637  0.009956531  52.25  0.001480472    2.103    0.525
       301 -11.5050    177.9596    142.7634   2.9064964104e+02   5.0653177908e+00   0.02021077  0.009970049 -64.21  0.001175372    2.090    0.522
       302 -11.5136    228.7023    148.1850   2.9009762590e+02   4.6977166191e+00   0.01185489  0.008510184  38.15 0.0007278143    1.393    0.282
       303 -11.1028    106.3845    142.3318   2.9147386723e+02   5.4999508026e+00   0.01468651  0.009832056 -86.45 0.0004343404    1.906    0.475
       304 -11.2756     27.2371    143.1650   2.9239429127e+02   5.9639048190e+00        0.016   0.01104554 -32.78  0.001254673    1.628    0.386
       305 -12.2440     21.6724    141.6295   2.9244922166e+02   6.0148116027e+00    0.0245187   0.01454916 -60.17  0.002318281    1.656    0.396
       306 -11.1492     25.5331    138.5612   2.9238567488e+02   6.0271030169e+00   0.01206563  0.009291512  23.13 0.0001070856    1.323    0.244
       307 -11.1292     28.6327    137.2781   2.9234191752e+02   6.0233732072e+00   0.01137219  0.008913476  43.06 0.0004954474    1.302    0.232
       308 -10.9016     13.6025    142.7466   2.9254945845e+02   6.0501049075e+00   0.01440055   0.01211344 -71.28  0.001677124    1.228    0.186
       309 -12.2130    240.8857    140.7442   2.8991112102e+02   4.7099367093e+00   0.01922275   0.01368264  74.76   0.00180585    1.798    0.444
       310 -11.0538    182.3319    141.6498   2.9059228233e+02   5.0518474367e+00   0.01056023  0.007521377  62.23   0.00100827    1.679    0.404
       311 -10.5968     61.2859    140.9582   2.9198685554e+02   5.7858284872e+00  0.009365128  0.008222072 -54.76 0.0003888637    1.124    0.110
       312  -9.7190    133.6442    140.2496   2.9114597478e+02   5.3604193880e+00  0.006851282  0.004836826  55.03 0.0002230301    1.600    0.375
       313 -11.6457     46.3922    139.2153   2.9214839038e+02   5.8949588599e+00   0.01514212   0.01200225  -4.39 0.0008673645    1.432    0.301
       314 -11.2101    245.1872    138.8434   2.8984976868e+02   4.7058887320e+00   0.01320241   0.00839413  40.41 0.0006426593    1.586    0.369
       315 -11.6465    248.9689    136.4194   2.8979117535e+02   4.7109819555e+00   0.01249988   0.01189995   4.18 0.0003103272    1.066    0.062
       316 -12.0408    126.6330    138.3704   2.9121539589e+02   5.4241228295e+00   0.01528353   0.01354904  79.61 0.0008544803    1.228    0.186
       317 -10.8377     56.6994    138.3153   2.9202362245e+02   5.8436963231e+00   0.01469987  0.008990827 -25.75 0.0008656502    2.161    0.537
       318  -9.8187    207.4914    138.4447   2.9028208493e+02   4.9374020490e+00  0.006622545   0.00634328  60.84 1.112797e-05    1.077    0.072
       319 -10.1129     96.5043    138.5833   2.9156496629e+02   5.6023237176e+00  0.006550505   0.00636794 -15.46 0.0001712882    1.032    0.031
       320 -10.0586     34.4802    138.5085   2.9228183941e+02   5.9742768566e+00  0.006514104  0.006482882  82.84 0.0002428395    1.022    0.021
       321 -11.1133    180.0388    136.8473   2.9058907965e+02   5.1208927237e+00  0.009826295  0.009738331  74.13 0.0005286549    1.028    0.028
       322 -11.1741      7.1665    135.1649   2.9257729574e+02   6.1758222342e+00   0.02287438    0.0101323 -40.05  0.001573215    2.757    0.637
       323 -11.0813    195.7841    135.5067   2.9039902940e+02   5.0416314617e+00   0.01710903   0.01030852 -76.97  0.001257626    2.028    0.507
       324 -11.0000    227.8207    134.9556   2.9002597810e+02   4.8551733090e+00   0.01289582  0.009190215  37.82 0.0008341255    1.402    0.287
       325 -10.4817     83.9712    135.2899   2.9168957210e+02   5.7153205209e+00  0.008988857  0.008343741  22.55 0.0001839286    1.084    0.077
       326 -11.5151     75.9750    134.0441   2.9177436349e+02   5.7775440115e+00   0.01978076   0.01211842  59.81  0.001676374    2.113    0.527
       327 -11.0336     59.7753    133.6067   2.9195903547e+02   5.8795221267e+00   0.01655916  0.008290115  23.43  0.001297641    2.121    0.529
       328 -10.5563    242.1346    132.8399   2.8984782060e+02   4.7933049967e+00   0.01005717  0.008687188  59.98 0.0004812633    1.243    0.195
       329 -11.3021     22.6017    131.9563   2.9237894437e+02   6.1206720136e+00   0.01672288   0.01098386 -81.71  0.001015157    1.873    0.466
       330 -11.6080    223.9277    130.8050   2.9004520853e+02   4.9263459283e+00   0.01325944  0.009569706 -57.88 0.0008573452    1.361    0.265
       331 -10.3681    200.3037    132.0302   2.9032537210e+02   5.0544363801e+00  0.009055629  0.008783097 -79.22   0.00087542    1.051    0.049
       332 -11.5876     48.6815    130.5310   2.9206841970e+02   5.9812811171e+00   0.02219954   0.01283275 -30.21  0.001818428    2.248    0.555
       333 -11.6930     44.9379    127.6092   2.9209373282e+02   6.0373054308e+00   0.01622574   0.01042322 -40.48  0.001631112    1.654    0.395
       334 -11.7324    249.4691    129.5220   2.8974272873e+02   4.7872694100e+00   0.01634774   0.01262648  43.50 0.0009651085    1.324    0.245
       335 -10.4835    214.2487    130.9724   2.9015790813e+02   4.9826872482e+00  0.009164278  0.008451995 -52.30  0.000341122    1.072    0.067
       336 -10.5257    102.1701    131.1641   2.9145369556e+02   5.6537848508e+00  0.009124954  0.007809572  69.64 0.0005227287    1.290    0.225
       337 -11.7942     35.4946    129.6676   2.9221567202e+02   6.0700332067e+00   0.01849673   0.01202211  36.93  0.001261003    1.527    0.345
       338 -11.2556    128.5730    130.1478   2.9114221720e+02   5.5071300077e+00   0.01094454  0.009125087  26.94 0.0002598171    1.204    0.170
       339 -11.2167     86.3402    129.8844   2.9162884452e+02   5.7633700100e+00   0.01161215  0.009453148  15.39 0.0002764964    1.284    0.221
       340 -10.0259    196.0231    128.0741   2.9035031765e+02   5.1256982136e+00  0.007983343  0.007359781 -57.62 0.0004456136    1.077    0.071
       341 -10.6593    219.9113    127.0000   2.9006800475e+02   4.9942868882e+00   0.01098448  0.003766352  27.58 0.0008010411    2.933    0.659
       342 -10.6175    174.9180    125.3343   2.9057705410e+02   5.2841450416e+00   0.01042604  0.009048831 -81.09 0.0002954061    1.227    0.185
       343 -10.5002    120.0000    124.0031   2.9120337110e+02   5.6292971623e+00    0.0188938  0.003745208 -61.88  0.001060334    5.016    0.801
       344 -11.0590    187.8838    123.8305   2.9041804110e+02   5.2234764864e+00  0.009427644  0.007638154  55.74 0.0004167809    1.334    0.250
       345 -10.4512    124.8277    124.0851   2.9114807146e+02   5.5993874973e+00  0.009251032  0.007562834 -23.48 0.0003845929    1.335    0.251
       346 -11.5648     66.6165    123.8701   2.9181988801e+02   5.9507029084e+00   0.01982859  0.008817961  25.29  0.001663895    2.341    0.573
       347 -10.5058    109.7832    123.3583   2.9131750483e+02   5.6979998836e+00   0.00951038   0.00631949  11.98 0.0007043353    1.730    0.422
       348 -10.9968    238.8735    122.1553   2.8981930724e+02   4.9357998852e+00    0.0102878  0.009014606  60.39 0.0005283508    1.219    0.180
       349 -10.1858    104.6728    122.2859   2.9136997396e+02   5.7409859395e+00  0.008943319  0.006856423 -88.04  0.000319523    1.523    0.343
       350 -10.8035    107.0366    118.4766   2.9131912736e+02   5.7706609811e+00   0.02009021   0.01149895 -28.99  0.001177741    2.347    0.574
       351 -11.3244     84.5475    121.3840   2.9159714504e+02   5.8719715647e+00   0.01220388   0.01070677  84.74 0.0005691819    1.245    0.197
       352 -10.5513     73.0210    122.0257   2.9173442871e+02   5.9336053096e+00   0.01080526  0.007783787  67.59 0.0007352138    1.706    0.414
       353 -11.3099    232.5631    120.8794   2.8988418918e+02   4.9884819155e+00   0.01010127  0.008871839  28.64 0.0006540113    1.141    0.124
       354 -10.4637     58.8629    120.6199   2.9188955082e+02   6.0345156383e+00  0.009677938  0.008435819 -34.91  0.001139408    1.173    0.148
       355 -11.0187    170.9324    119.0047   2.9058395550e+02   5.3809293865e+00  0.009822046  0.009627858 -16.05 0.0004264189    1.019    0.019
       356 -11.7611     19.2217    118.5430   2.9233548679e+02   6.2953142265e+00   0.01962874   0.01357343  17.53  0.002057788    1.552    0.356
       357 -11.9078      2.6479    109.9060   2.9247416692e+02   6.4936497191e+00   0.01801443   0.01254409 -45.09  0.001913099    1.449    0.310
       358 -10.4980      5.1812    118.8170   2.9249968967e+02   6.3759329834e+00   0.01001383  0.009005555  54.91 0.0005571335    1.162    0.139
       359 -11.7758      1.7721    115.8490   2.9252088572e+02   6.4304410829e+00   0.01348115  0.009231288 -52.44  0.001421931    1.426    0.299
       360 -10.5288    247.9866    118.4754   2.8969144744e+02   4.9231994895e+00  0.009920269  0.006547843  25.83 0.0003857097    1.537    0.349
       361 -10.2831    196.4597    118.5832   2.9028658242e+02   5.2322438680e+00  0.006567627  0.006331055 -20.48 7.532632e-05    1.043    0.042
       362 -13.5759     87.6860    114.9368   2.9152106685e+02   5.9273898187e+00   0.02307657   0.01554556  42.08  0.001432517    1.513    0.339
       363 -10.2937     48.7300    118.6409   2.9199459498e+02   6.1179011353e+00  0.009558268  0.005846007  37.00 0.0008351436    1.619    0.382
       364 -11.9246     60.9404    115.8374   2.9183602944e+02   6.0771493426e+00   0.02126621   0.01184645  54.38  0.001893025    2.258    0.557
       365 -10.7094     31.6594    116.1533   2.9217681534e+02   6.2485610078e+00   0.01013318  0.005575682 -51.70 0.0009502537    1.761    0.432
       366 -10.7412    221.6357    114.9086   2.8997329479e+02   5.1229512311e+00   0.01049935  0.008914755   7.94 0.0008576277    1.248    0.199
       367 -11.6728    172.2772    115.1268   2.9054444788e+02   5.4174593455e+00   0.01756077  0.007612901  26.25  0.001458084    2.368    0.578
       368 -11.6665    180.9862    113.4852   2.9043371243e+02   5.3839726545e+00   0.01652351   0.01016004  67.17  0.001487295    2.324    0.570
       369 -10.4286     44.9018    115.4708   2.9201935614e+02   6.1772879464e+00  0.009830573  0.006540364  25.63 0.0009570143    1.524    0.344
       370 -10.9646    125.9265    114.0765   2.9107355856e+02   5.7079850739e+00  0.009698761  0.009668906 -50.26 0.0003232203    1.013    0.013
       371 -12.8449     20.3202    110.5567   2.9227358798e+02   6.3807146410e+00   0.02571484    0.0198381 -15.98  0.001756258    1.498    0.332
       372 -11.2122     26.6908    108.6522   2.9218811120e+02   6.3646045433e+00   0.01306808  0.008174533  20.87 0.0009380659    1.697    0.411
       373 -11.5950    244.8244    110.9931   2.8968158580e+02   5.0282694152e+00   0.01436232   0.01033741 -44.66 0.0006443623    1.404    0.288
       374 -12.2844    232.9558    110.8163   2.8981737351e+02   5.1018178614e+00   0.01313413   0.01231265  44.46 0.0003612718    1.084    0.078
       375  -9.6527    129.3360    110.2991   2.9101080855e+02   5.7309901550e+00  0.006975614  0.004974856 -24.50 0.0005137555    1.656    0.396
       376 -10.2616    178.9367    109.3042   2.9043152374e+02   5.4443933793e+00  0.009063629  0.008352913  29.38 0.0003670061    1.089    0.081
       377 -10.8970    115.7954    109.0881   2.9115987744e+02   5.8261858197e+00   0.01069259  0.009363469  29.79 0.0003083983    1.144    0.126
       378 -10.2934    112.2358    109.0142   2.9120058045e+02   5.8483896852e+00  0.009265248  0.008287708 -62.13 0.0004209273    1.117    0.104
       379 -12.2997     26.6282    115.4808   2.9223090337e+02   6.2863545848e+00   0.01501227   0.01195436 -40.27 0.0001680808    1.283    0.220
       380 -10.7710     36.5268    108.5029   2.9207333978e+02   6.3075667307e+00   0.01256933  0.006423217 -60.96 0.0005697854    1.928    0.481
       381 -10.1217    209.8536    106.8621   2.9005945793e+02   5.2864270395e+00  0.008815722  0.007608175  66.78            0    1.266    0.210
       382 -13.5445    166.6983    101.9566   2.9052744783e+02   5.6025116790e+00   0.01988194   0.01526435 -45.28 0.0008383416    1.306    0.234
       383 -12.5729    138.0259    103.8869   2.9087072975e+02   5.7525999672e+00   0.02631049   0.01658025 -83.97   0.00143031    2.081    0.519
       384 -10.2982     42.5703    107.1517   2.9199506156e+02   6.2870034033e+00   0.01263172  0.007882542  -3.37  0.001146507    2.249    0.555
       385 -11.7717    234.1968    102.2688   2.8975013749e+02   5.1926052479e+00   0.02050544   0.01168138 -67.47  0.001280355    1.875    0.467
       386 -12.5613     67.5669    100.8083   2.9166664862e+02   6.2105048085e+00   0.01855983   0.01406585 -79.41  0.002025709    1.473    0.321
       387 -10.7868     17.4762    104.4848   2.9226910891e+02   6.4676000810e+00    0.0141238  0.006600097  26.01  0.001215725    2.192    0.544
       388 -10.7563     98.8809    102.1736   2.9131278712e+02   6.0072034031e+00   0.01938391   0.00949533 -62.55  0.001722513    2.052    0.513
       389 -11.3222     82.4920    102.6020   2.9150502373e+02   6.1004867454e+00   0.01429226   0.00641187 -60.92  0.001216638    2.189    0.543
       390 -11.3367     57.8015    102.8116   2.9179201839e+02   6.2458842163e+00   0.01024038   0.00988686  -8.76 0.0003060329    1.044    0.043
       391 -11.8187    148.4295    100.7262   2.9073094255e+02   5.7264708016e+00   0.01693556   0.01492028 -12.95   0.00200524    1.208    0.172
       392 -10.8447    147.8412     95.3275   2.9070435895e+02   5.7921147280e+00   0.01085328  0.009267522 -86.09 0.0006947762    1.276    0.216
       393 -10.0688     73.7201    102.6570   2.9160685542e+02   6.1523889775e+00  0.006985872  0.004858283 -31.46 0.0003429089    1.630    0.387
       394 -10.0375    207.5214    101.5205   2.9005331640e+02   5.3618925976e+00  0.006574452  0.006421949  65.84 3.390314e-05    1.050    0.048
       395 -12.3495     47.2335     99.4907   2.9189384980e+02   6.3473174801e+00   0.03474979    0.0126557 -58.10   0.00155593    2.565    0.610
       396 -11.5323     51.4767     94.2386   2.9181233750e+02   6.3823982571e+00   0.01441576   0.01162373 -82.90  0.001120602    1.373    0.272
       397 -10.9793    109.1009     99.3220   2.9117696749e+02   5.9787338552e+00   0.01306997  0.009664414  -3.22  0.001380868    1.610    0.379
       398 -10.6787     32.4956     98.5405   2.9205859651e+02   6.4463421902e+00   0.01262993  0.006569364 -63.48 0.0007400793    1.951    0.488
       399 -10.5120     16.5019     98.9821   2.9224648814e+02   6.5367665055e+00   0.01444613  0.008037683 -37.25  0.001304507    2.097    0.523
       400 -10.2139     18.4887     95.4847   2.9220193231e+02   6.5651684848e+00  0.009455222  0.006550617 -76.79  0.000596121    1.637    0.389
       401 -11.0193    125.0359     97.2262   2.9097974125e+02   5.9072331544e+00   0.01236835  0.009795167 -82.22  0.001375959    1.406    0.289
       402 -10.6748    103.5183     97.2929   2.9122900164e+02   6.0355657973e+00   0.01498129  0.009391848 -73.10  0.001462501    1.802    0.445
       403 -11.5708     38.6250     95.3467   2.9196794522e+02   6.4464808508e+00   0.01625033   0.01066718  58.37 0.0009758599    1.845    0.458
       404 -10.4881    173.4103     96.0605   2.9041343235e+02   5.6299668300e+00   0.01002884  0.008578186  26.97 0.0002968231    1.174    0.148
       405 -11.3034    166.0625     95.3317   2.9049381380e+02   5.6825389177e+00   0.01217344   0.01112783 -41.60  0.001233628    1.091    0.084
       406 -10.6671    118.8914     96.1086   2.9104388587e+02   5.9569714326e+00  0.009850875  0.008840635  68.92 0.0003357013    1.197    0.165
       407 -10.4794     90.4697     96.2918   2.9137376674e+02   6.1253124835e+00   0.01087917  0.005882599  28.33 0.0003715195    1.843    0.457
       408 -11.1108     84.0291     94.6266   2.9143800067e+02   6.1830688103e+00   0.01193916  0.009848998 -77.28 0.0006961096    1.295    0.228
       409 -10.6865    225.5123     92.4909   2.8978977948e+02   5.3573371509e+00   0.01126466  0.006621929 -77.38  0.001020033    2.129    0.530
       410 -11.5002    160.6747     92.3875   2.9053785709e+02   5.7487978327e+00   0.01745263   0.01196263  -2.37  0.001293697    1.847    0.459
       411 -10.2531     72.5534     93.4844   2.9156374112e+02   6.2649483606e+00  0.006658996  0.006303551 -30.64 8.943934e-06    1.061    0.058
       412 -10.3928    183.9173     92.3167   2.9026889654e+02   5.6098129195e+00  0.009155914  0.008425277  19.59 0.0003195262    1.097    0.089
       413 -11.5970    141.9934     92.1613   2.9075237536e+02   5.8636722638e+00   0.01541116  0.009313659  16.39  0.001380161    1.877    0.467
       414 -10.8334    213.8103     91.0244   2.8991574471e+02   5.4446971945e+00   0.01069554  0.009285131  29.93 0.0002806608    1.153    0.133
       415 -11.8151    202.2121     90.2423   2.9004478986e+02   5.5235409779e+00   0.01871578   0.01395223  54.59  0.001142616    1.480    0.324
       416 -11.0181     57.1788     92.1811   2.9173364007e+02   6.3719707713e+00  0.009343927  0.007654135  59.08 0.0003826636    1.335    0.251
       417 -11.1798     23.9816     89.9716   2.9210434547e+02   6.5958345977e+00   0.01075909  0.007780136  64.75  0.000535035    1.666    0.400
       418 -11.2960    231.3976     89.0249   2.8970040720e+02   5.3617101711e+00    0.0116652  0.009576511  26.26 0.0002721325    1.226    0.184
       419 -10.7286    245.0223     89.0000   2.8954308905e+02   5.2798613802e+00   0.01105274  0.003765114  27.63 0.0007038556    2.952    0.661
       420 -10.7671    128.4789     86.7785   2.9087534295e+02   6.0067643484e+00   0.01429287  0.009923757  78.17  0.001419916    1.899    0.473
       421 -10.7077     11.2105     86.4745   2.9223068365e+02   6.7123231159e+00   0.01233969  0.009307609 -60.65 0.0006562954    1.315    0.239
       422  -9.9514    180.6681     86.3333   2.9026939439e+02   5.6981716453e+00  0.007080479  0.004983169  63.42 0.0007052206    1.728    0.421
       423 -11.1918     93.6320     85.6977   2.9127174175e+02   6.2282690255e+00   0.01855644  0.008704425  45.67  0.001566501    2.361    0.577
       424 -12.3216     70.6516     83.8021   2.9152597370e+02   6.3877623475e+00    0.0333048   0.02088428 -10.50  0.002153541    2.280    0.561
       425 -11.7643     78.5550     84.2594   2.9143732467e+02   6.3351678930e+00   0.02236296   0.01124114  29.91  0.001495045    1.955    0.488
       426 -11.2376     57.1733     85.3443   2.9169150995e+02   6.4506885029e+00    0.0172141  0.007281048 -47.02  0.001073524    2.412    0.585
       427  -9.9741     27.6674     85.2961   2.9203283619e+02   6.6276364895e+00  0.006923985  0.004960738  60.55 0.0007028033    1.642    0.391
       428 -10.8287    169.9939     84.4826   2.9038125903e+02   5.7836725189e+00  0.009226144  0.005695569  -8.98 -0.0001198844    2.375    0.579
       429 -10.8622    118.4710     84.0163   2.9097400486e+02   6.0986212748e+00   0.01037141  0.006457881 -61.02 0.0006837433    1.591    0.372
       430 -10.3838    105.3667     84.2337   2.9112692972e+02   6.1747470426e+00  0.009189981  0.008449319  12.55  0.001111829    1.108    0.098
       431 -10.5449     15.1160     84.1543   2.9217115099e+02   6.7157214868e+00  0.009429662  0.007509934  51.76 0.0006112967    1.337    0.252
       432 -11.5590    132.7267     82.4030   2.9079916540e+02   6.0315902184e+00   0.01150448   0.01080471 -48.43 0.0003185291    1.054    0.051
       433 -10.8957     99.2529     83.0120   2.9119011157e+02   6.2254704064e+00   0.01310914   0.01000045  12.78  0.001090771    1.415    0.293
       434 -12.2737     96.0347     79.6384   2.9120649910e+02   6.2835821043e+00   0.01285238   0.01178107   9.63 0.0004052409    1.117    0.105
       435 -11.2250     53.7830     82.7778   2.9171491754e+02   6.5005071200e+00  0.009735533  0.008774941 -30.73 0.0005936517    1.134    0.118
       436 -12.7478     52.8381     77.6783   2.9169437946e+02   6.5648439939e+00   0.01892058   0.01588062 -46.00 0.0007062715    1.185    0.156
       437 -11.8315     62.0381     75.1222   2.9157208251e+02   6.5392064105e+00   0.02029424   0.01541603 -61.81  0.001534472    1.312    0.238
       438 -11.6236     58.2924     71.4860   2.9159299441e+02   6.6034618759e+00   0.02319836   0.01420244 -62.49  0.001224738    1.635    0.389
       439 -11.2409     47.2729     81.8843   2.9178477521e+02   6.5497287694e+00   0.01345376   0.01177121  66.55 0.0009182092    1.240    0.194
       440  -9.8053     31.2958     83.3292   2.9197868979e+02   6.6285986522e+00  0.006978529   0.00489927 -29.50 0.0002390343    1.634    0.388
       441 -10.4421     19.1056     82.2906   2.9211345492e+02   6.7133559720e+00  0.009335561  0.008294187  27.58 0.0007290504    1.129    0.115
       442 -10.7271    185.0556     81.1485   2.9018661650e+02   5.7313852204e+00   0.01036827  0.008621758 -28.67 0.0004141157    1.279    0.218
       443 -10.2609    141.3037     80.7669   2.9068987457e+02   5.9988868116e+00  0.008762157  0.007377652 -20.19 0.0004514057    1.286    0.223
       444 -10.3607    129.0364     79.4840   2.9082378723e+02   6.0873296434e+00  0.009981882  0.006576221  24.46  0.001016361    1.552    0.356
       445  -9.9216    155.3965     79.5352   2.9051933882e+02   5.9283523109e+00   0.00649095  0.006360768 -73.07 8.724644e-05    1.033    0.032
       446 -11.4330    118.4000     79.4490   2.9094658752e+02   6.1515896251e+00   0.01877293   0.01100733  13.51  0.001741494    2.049    0.512
       447 -10.6256    107.9326     78.0152   2.9105880772e+02   6.2308977494e+00  0.009753485  0.009367693 -27.63  0.001209614    1.043    0.041
       448 -11.8842     68.8760     75.6944   2.9149645566e+02   6.4916876234e+00    0.0261764  0.008357155 -62.78  0.001577792    3.210    0.688
       449  -9.8328    241.7120     77.3319   2.8950897136e+02   5.4339054011e+00  0.006822522   0.00505193  67.10 0.0003433025    1.623    0.384
       450  -9.8672    228.9814     76.7501   2.8965223918e+02   5.5173496210e+00  0.008196837  0.005661015  26.37 0.0002146334    1.462    0.316
       451 -11.7051     43.4744     74.2486   2.9178163123e+02   6.6603109506e+00   0.02278482   0.01372459  70.30  0.001989336    2.526    0.604
       452 -10.7457    173.9743     75.0112   2.9027663843e+02   5.8686379113e+00  0.009629016  0.009480601 -37.87   0.00120915    1.005    0.005
       453 -11.8502     86.8642     68.8393   2.9124588347e+02   6.4627946961e+00    0.0129459  0.009565136  47.47 0.0005309848    1.422    0.297
       454 -11.5310     91.9880     74.5137   2.9122165531e+02   6.3668032846e+00   0.01316278   0.01004091 -38.59  0.000558694    1.363    0.266
       455 -10.2580     93.6917     71.6366   2.9118415600e+02   6.3896876977e+00   0.01225623   0.01015112 -35.10 0.0006301911    1.252    0.201
       456 -11.3747     82.2494     74.7403   2.9133576293e+02   6.4225627329e+00    0.0163143   0.01031735 -32.67  0.000425002    1.859    0.462
       457 -11.3596     35.3641     72.0959   2.9186226912e+02   6.7335624581e+00   0.01720654   0.01106835  34.53  0.001121363    1.535    0.348
       458 -10.7967    115.9698     72.9558   2.9093454637e+02   6.2408687226e+00  0.009798122  0.009563656 -30.15 0.0003747451    1.018    0.018
       459 -11.2672      1.9044     72.2311   2.9225067958e+02   6.9317677210e+00   0.01632566  0.007430948 -40.65  0.001315873    2.592    0.614
       460  -9.6201    249.2783     72.6938   2.8939295415e+02   5.4415603765e+00  0.006655448  0.005048797  66.31 0.0001975716    1.552    0.356
       461 -10.2145     18.7024     72.1323   2.9205547711e+02   6.8326686314e+00   0.01482068  0.008012577  -5.53  0.001098639    3.458    0.711
       462 -10.9177    205.4907     69.4676   2.8987826802e+02   5.7426132309e+00   0.01165162  0.009577765 -82.25 0.0006057274    1.332    0.249
       463 -11.1767    166.7721     70.1103   2.9032952374e+02   5.9683196238e+00   0.01303606  0.009207912  28.36 0.0004311722    1.416    0.294
       464 -10.1799     53.2057     69.7663   2.9164127339e+02   6.6536836324e+00  0.009096005  0.008362943  26.08  0.000225956    1.092    0.084
       465 -10.3529     55.2687     66.6077   2.9159787778e+02   6.6776814522e+00   0.01543796  0.008844323  -9.50  0.001249465    2.906    0.656
       466 -10.5538    126.6571     68.8354   2.9078543740e+02   6.2240974705e+00   0.01193282  0.008617802 -72.36 0.0007943335    1.489    0.328
       467  -9.9961    232.5924     68.5503   2.8955975647e+02   5.5898040421e+00  0.006499514  0.006361472 -46.57 9.955617e-05    1.013    0.013
       468 -10.6120     77.4835     68.5401   2.9135261634e+02   6.5224483240e+00  0.006618682  0.006359443 -26.50 4.766231e-05    1.043    0.041
       469 -10.5758     91.3363     67.3049   2.9118463930e+02   6.4536394020e+00  0.007008597  0.004962877 -24.97 0.0007039554    1.670    0.401
       470 -10.6698     90.0258     71.0216   2.9122278071e+02   6.4187393794e+00  0.009129895  0.008934278  71.19 0.0003106428    1.049    0.047
       471 -11.3762      3.6293     77.9476   2.9226593687e+02   6.8556930780e+00   0.02270319   0.00914826  33.92  0.001879132    2.354    0.575
       472 -10.0244     36.0287     66.4994   2.9182002983e+02   6.7939860058e+00  0.009373493   0.00644824  29.84 -0.0003987215    1.446    0.309
       473 -11.3812    142.9899     64.2989   2.9056847558e+02   6.1781426751e+00   0.01814454   0.01035619   5.94 0.0008457369    2.464    0.594
       474 -11.4947     29.1335     64.6713   2.9188861305e+02   6.8562213957e+00    0.0122182   0.01086181  73.79 0.0003500716    1.222    0.181
       475 -11.0931      6.2527     64.8738   2.9215493498e+02   6.9904925663e+00   0.01076929   0.01066884 -55.67 0.0007081788    1.014    0.014
       476 -10.4269    216.0012     64.5107   2.8972620545e+02   5.7362456217e+00   0.00960596  0.004891307  50.16 0.0005200872    2.356    0.576
       477 -10.0816    120.6420     62.7484   2.9081735736e+02   6.3302213201e+00  0.009015108  0.006321698 -74.60 0.0005261738    1.578    0.366
       478 -10.0574    110.5285     63.4919   2.9093896558e+02   6.3823790346e+00  0.006594309   0.00639951 -29.99 -7.820626e-08    1.027    0.026
       479 -10.6167     88.6890     62.2284   2.9118389536e+02   6.5279032754e+00   0.01112864  0.007919192 -65.32 0.0004105561    1.431    0.301
       480 -12.2590    140.2748     60.4603   2.9057611286e+02   6.2385991604e+00   0.02082759   0.01255951 -30.39  0.001935615    2.080    0.519
       481 -10.7583     38.9783     58.6721   2.9173753831e+02   6.8664067607e+00   0.01391503  0.008332336 -61.42  0.001368029    1.658    0.397
       482 -10.7622     22.2048     59.4727   2.9193679290e+02   6.9574178796e+00   0.01029495  0.008847258 -61.99  0.000486713    1.161    0.139
       483 -10.2842     20.4902     56.4900   2.9193824849e+02   7.0019717050e+00   0.01083888   0.00811583  65.47   0.00115277    1.580    0.367
       484 -11.5420      6.1320     59.7129   2.9212450056e+02   7.0505918360e+00   0.01096177  0.008015167  46.92 0.0004574527    1.435    0.303
       485 -10.6879    174.0072     58.4788   2.9017387740e+02   6.0585038673e+00  0.009788548  0.008771339 -54.63 0.0004502195    1.103    0.094
       486 -10.9167    129.2433     59.6193   2.9069849536e+02   6.3145507047e+00  0.009520138  0.006391373  11.89 0.0009515809    1.706    0.414
       487 -10.3081     15.6979     59.0627   2.9200965118e+02   7.0009867141e+00   0.00931205  0.008658608 -57.96 0.0005718218    1.068    0.064
       488 -11.5704    107.0149     57.4640   2.9094233516e+02   6.4727879316e+00   0.01265078   0.01231281   7.19 0.0003875309    1.032    0.031
       489 -12.4072     93.6144     54.5959   2.9107968735e+02   6.5861565195e+00   0.01557786    0.0145848 -66.74 0.0006714209    1.076    0.071
       490 -10.6713     45.2662     55.6004   2.9164573364e+02   6.8641447520e+00   0.01302725  0.005973769  32.35  0.001130852    2.102    0.524
       491 -10.8120     76.3592     53.6803   2.9127378556e+02   6.7001125001e+00   0.01140793  0.009657564  55.28 0.0005899504    1.258    0.205
       492 -10.9384     27.6746     53.5926   2.9183712435e+02   6.9923922237e+00   0.01847979   0.01157182  61.30  0.001741291    2.076    0.518
       493 -10.1679    124.7933     53.0126   2.9070908452e+02   6.4172460059e+00  0.009040417  0.005262448 -61.88  0.000657935    1.713    0.416
       494 -11.5288     10.9046     50.7477   2.9201387797e+02   7.1252516766e+00   0.01740197   0.01067171 -67.17  0.001477093    1.712    0.416
       495 -10.3335      6.9364     51.5440   2.9206477850e+02   7.1397705632e+00  0.009987686  0.006540218  24.74 0.0005717997    1.558    0.358
       496 -10.2922     32.7314     51.5689   2.9176604073e+02   6.9854551867e+00  0.009315408  0.005991775  39.14 0.0009396946    1.558    0.358
       497 -11.7239    150.9005     50.0519   2.9038879247e+02   6.2943840530e+00   0.01443941  0.009896143  15.23  0.001429839    1.605    0.377
       498 -11.1771    100.7527     49.5169   2.9096564365e+02   6.6017485382e+00    0.0123809   0.01113248 -58.57 0.0006479056    1.104    0.094
       499  -9.7659     41.2744     50.7026   2.9166171948e+02   6.9443531426e+00  0.006589497  0.005038576  65.74 0.0002793741    1.529    0.346
       500 -10.8365    175.8921     49.0431   2.9009363572e+02   6.1556093728e+00   0.01106502  0.007656156 -27.30 0.0008003801    1.707    0.414
       501 -10.1086    161.6278     49.4647   2.9026112616e+02   6.2366100061e+00  0.006513397  0.006260538 -52.87 3.083353e-05    1.032    0.031
       502 -10.2998     79.9987     49.2707   2.9120437970e+02   6.7290180535e+00  0.009271287  0.008275976  36.09 0.0003255422    1.126    0.112
       503 -10.0342     37.6536     48.8110   2.9169198158e+02   6.9877575641e+00  0.008984218  0.006268605 -75.14 0.0003429386    1.596    0.374
       504 -12.3462     14.7954     46.9178   2.9194514924e+02   7.1460827181e+00   0.02316754   0.01806946  72.47  0.001922235    1.514    0.339
       505 -10.1014     63.2720     48.6472   2.9139422047e+02   6.8363788133e+00  0.006807229  0.005057397  69.98 0.0003774544    1.635    0.389
       506 -10.2709     45.7018     47.9802   2.9159361197e+02   6.9491899381e+00  0.009402211  0.008363675 -55.76 0.0004105474    1.111    0.100
       507 -10.6360      1.9827     48.0419   2.9210057764e+02   7.2096063929e+00  0.009892261  0.009590187 -28.29 0.0003964207    1.028    0.027
       508 -11.0730    138.0031     45.2045   2.9050793123e+02   6.4276447926e+00   0.01148162  0.009176924 -60.71 0.0007718108    1.244    0.196
       509  -9.9023     67.3308     46.2844   2.9133260670e+02   6.8392492114e+00  0.006862153   0.00498652 -23.42 0.0002139533    1.613    0.380
       510 -10.8419     55.7274     46.0075   2.9146528726e+02   6.9118969760e+00   0.01266781  0.008616089  52.44 0.0008970399    1.642    0.391
       511 -10.4517    122.7132     45.4060   2.9068606274e+02   6.5171940441e+00  0.009307636  0.006466213  12.86 0.0007617316    1.609    0.379
       512 -11.6077     61.9655     44.8734   2.9138602297e+02   6.8876015383e+00   0.01083183  0.009527535 -62.81 0.0003488508    1.138    0.121
       513 -10.4217     25.5168     44.9126   2.9180852577e+02   7.1051227095e+00   0.01014505  0.006420158 -59.91   0.00101924    1.555    0.357
       514 -11.4641     20.6614     43.4617   2.9185583145e+02   7.1508104860e+00   0.01893036   0.01225413 -61.06  0.001945995    1.531    0.347
       515 -11.3641     22.4813     38.5317   2.9180429233e+02   7.1966398461e+00   0.01814018   0.01357862  64.61  0.001948795    1.574    0.365
       516 -11.5785    151.6064     43.7225   2.9034142374e+02   6.3628917930e+00   0.01501213   0.01067731   8.39 0.0006892999    1.614    0.380
       517 -10.0469     80.4259     43.7445   2.9116525571e+02   6.7900071342e+00  0.009190687   0.00596562 -49.89 0.0006892281    1.515    0.340
       518 -10.3902    167.7392     48.9807   2.9018748126e+02   6.2053993389e+00  0.009086856  0.008265399 -60.04  0.001093862    1.095    0.086
       519 -10.4558     90.5771     43.2821   2.9104486135e+02   6.7344701954e+00  0.009133516  0.005993166 -50.28 0.0006441912    1.497    0.332
       520 -10.3284     87.0140     40.6785   2.9107000609e+02   6.7857707533e+00  0.009099095  0.008592044  31.25 0.0004331164    1.064    0.060
       521 -11.5827     77.2374     39.8286   2.9117795637e+02   6.8541415448e+00   0.01243955    0.0115162 -78.83  0.000446533    1.118    0.105
       522 -12.1333     39.2339     39.2160   2.9161439024e+02   7.0886604205e+00   0.02801223   0.01794888 -16.64  0.002349687    2.130    0.530
       523 -10.6163    120.0436     40.5316   2.9068677480e+02   6.5892627530e+00   0.01000854  0.006525729  26.34  0.000384887    1.549    0.354
       524 -12.5717    111.2331     37.2630   2.9076850052e+02   6.6797394690e+00   0.01444644   0.01330164 -55.72 0.0003818928    1.076    0.071
       525 -12.3359    106.8734     32.9406   2.9079220254e+02   6.7555957741e+00   0.02490971   0.01391309 -73.82  0.002251756    2.154    0.536
       526 -11.9951      6.9801     38.8241   2.9198575954e+02   7.2858140667e+00     0.019022   0.01282043  44.93  0.001293724    1.547    0.354
       527 -10.6162     48.9429     38.2483   2.9149592092e+02   7.0417219216e+00   0.01172786   0.00934496 -60.08 0.0007323758    1.245    0.197
       528 -10.1132    165.3665     38.3084   2.9014877888e+02   6.3423282245e+00  0.007143755  0.004946557 -23.69 0.0007037293    1.754    0.430
       529 -11.2735    153.9449     34.1038   2.9025478568e+02   6.4593695094e+00    0.0180373   0.01075124  77.58  0.001516652    2.743    0.635
       530 -10.8259    152.8727     38.3810   2.9029368811e+02   6.4166665430e+00  0.009195046  0.006318244   8.24 0.0003493529    1.706    0.414
       531  -9.9899    147.8625     38.3664   2.9035153979e+02   6.4469674339e+00  0.008666266  0.006292783   9.70 0.0001153806    1.549    0.355
       532 -10.2724    137.0413     37.7162   2.9047267798e+02   6.5195003028e+00  0.009225274  0.008510991  13.67 0.0004440429    1.101    0.092
       533 -10.7148     97.6010     37.7495   2.9092931053e+02   6.7559534417e+00   0.01054534  0.009928866 -48.35 0.0003820986    1.051    0.049
       534 -10.7813     13.2134     37.2078   2.9190352979e+02   7.2672022589e+00   0.01195155  0.008288965 -47.68  0.001262202    1.432    0.302
       535 -10.4463    129.0064     36.6586   2.9055908369e+02   6.5799429341e+00  0.009085946   0.00861507  19.34  0.000396911    1.061    0.057
       536 -11.8695     56.2347     34.5673   2.9138868526e+02   7.0404147090e+00   0.01776691    0.0134163  59.62  0.001342239    1.507    0.336
       537 -11.8156     61.0560     33.5323   2.9132643241e+02   7.0234537497e+00   0.01243109   0.01119676 -70.38 0.0005615912    1.133    0.117
       538 -11.8520     77.0285     32.8094   2.9113695313e+02   6.9360949959e+00   0.01968526   0.01439265  28.13  0.002152007    1.369    0.269
       539 -11.4938     75.9861     27.3117   2.9111500849e+02   7.0055418877e+00   0.01536747  0.009334558 -57.05 0.0005061643    1.600    0.375
       540 -11.8553    135.0143     32.5779   2.9046429747e+02   6.5907384879e+00   0.01185122  0.009443397 -60.28 0.0002200946    1.246    0.197
       541 -10.3901    117.5712     33.4824   2.9067173813e+02   6.6851406839e+00  0.006563941  0.006367978 -37.18 0.0001407424    1.023    0.022
       542 -10.9782    193.1953    248.9102   2.9112863224e+02   3.7522124282e+00   0.01058608  0.008960053  62.69  0.001222212    1.290    0.225
       543 -11.5424     71.3426     22.3876   2.9113832428e+02   7.0899645419e+00   0.01760412  0.009106059  36.27  0.001626909    1.888    0.470
       544  -9.6157     34.4543     31.4631   2.9162186284e+02   7.2063831069e+00  0.006628868  0.006314006  64.90 0.0003317048    1.091    0.083
       545 -10.7044     25.2307     30.8810   2.9172516217e+02   7.2681924700e+00   0.01980556  0.008863253  21.65  0.001151648    2.521    0.603
       546 -11.3001     18.8963     30.5859   2.9179675843e+02   7.3094194778e+00   0.01168707  0.008426728 -48.00 0.0006284703    1.375    0.273
       547 -11.1518    141.7608     33.5322   2.9039216401e+02   6.5392136604e+00   0.01274072  0.009331862  46.93 0.0007827875    1.431    0.301
       548 -10.0938    212.1642     29.1255   2.8955110551e+02   6.1658827185e+00   0.00881367  0.007577416  63.87 0.0002571189    1.265    0.209
       549 -10.6814    122.4581     28.5716   2.9058476710e+02   6.7122292712e+00   0.01560407  0.007577014  32.08  0.001006994    1.997    0.499
       550 -11.3696    187.0589     27.0249   2.8982809488e+02   6.3413385202e+00  0.009774034  0.009749779  34.51 0.0004111206    1.016    0.016
       551 -11.0622    159.1219     26.3437   2.9014682134e+02   6.5173851084e+00   0.01117484    0.0092776 -67.57 0.0003041466    1.229    0.186
       552  -9.9291     55.8155     27.2017   2.9134799219e+02   7.1276062984e+00  0.008857927  0.007425597 -27.40 0.0003432845    1.268    0.211
       553 -12.7131    203.0985    241.1076   2.9096641075e+02   3.7825518487e+00   0.01649295   0.01363723 -69.03 0.0006073187    1.241    0.194
       554 -11.7320     38.2878     21.7936   2.9151765863e+02   7.2946315246e+00   0.02307147   0.01510217 -85.59  0.002238852    1.974    0.493
       555 -11.4391     33.8819     17.5681   2.9154259790e+02   7.3695431107e+00   0.01552254   0.01207003 -80.28 0.0007813672    1.430    0.300
       556 -10.7151    244.8326     23.8602   2.8914133997e+02   6.0292032490e+00  0.009751355  0.008720463 -24.60 0.0003273886    1.164    0.141
       557 -11.3738     65.6768     24.1417   2.9121481392e+02   7.1037400895e+00   0.01216666  0.009748214  16.50 0.0004270266    1.302    0.232
       558  -9.8586     50.3321     24.2862   2.9139349509e+02   7.1939373742e+00  0.006876627  0.004982129 -23.52 0.0002833939    1.620    0.383
       559  -9.7194     31.3015     24.0245   2.9161242408e+02   7.3107480451e+00    0.0114207  0.003450386 -44.03 0.0007030488    4.135    0.758
       560 -10.7595     18.4474     23.2281   2.9175650053e+02   7.3966949597e+00   0.01217315  0.006133242 -57.18  0.001103387    1.904    0.475
       561  -9.9032     13.9319     23.9556   2.9181334275e+02   7.4152902238e+00  0.007739659  0.007226537  20.71 0.0009399498    1.078    0.072
       562 -10.6023    109.8995     22.8592   2.9069474319e+02   6.8532991470e+00   0.01021762  0.008666092 -27.93 0.0004337136    1.245    0.197
       563  -9.8724     46.6690     23.6493   2.9143200420e+02   7.2231749459e+00   0.00723734  0.004866472 -28.06 0.0007047691    1.773    0.436
       564  -9.6810      5.4860     23.4679   2.9190824746e+02   7.4713032644e+00   0.00650011  0.006472655 -28.76 0.0008096244    1.011    0.010
       565 -10.5609    220.6042     21.7688   2.8940800378e+02   6.1994492809e+00  0.008977049  0.006402263 -78.27 0.0003740391    1.597    0.374
       566 -10.6332    146.7357     21.9905   2.9026309370e+02   6.6419178592e+00  0.009193884  0.008426622 -54.60 0.0002789986    1.080    0.074
       567 -11.0129     54.9474     21.3218   2.9132168005e+02   7.2003932305e+00   0.01127766  0.009184408 -59.57 0.0004088772    1.217    0.178
       568 -11.4725     57.0855     17.2764   2.9127187703e+02   7.2340921847e+00   0.01747927   0.01448991  39.50 0.0008059783    1.216    0.178
       569 -10.9918    180.5487     20.1042   2.8986041329e+02   6.4600498269e+00   0.01587315  0.009439657  -1.93  0.001373989    2.512    0.602
       570 -10.4436    151.0706     20.3202   2.9020259681e+02   6.6350311806e+00  0.009127468  0.008206405  30.62 0.0003634072    1.114    0.103
       571 -11.3477    172.7692    241.4820   2.9131840563e+02   3.9602713107e+00   0.02497729   0.01528595  88.48  0.001858026    2.422    0.587
       572 -10.0514      5.0096     17.9770   2.9187985043e+02   7.5372682648e+00   0.01147666  0.007615491 -27.73  0.001131028    1.816    0.449
       573 -11.4326    131.1327     17.0263   2.9041284788e+02   6.7927683836e+00   0.01098338  0.009578729  24.15 0.0003148965    1.155    0.134
       574 -10.7314    112.5046     15.9964   2.9062207351e+02   6.9165170230e+00   0.01033422  0.006521509 -62.77  0.001032685    1.592    0.372
       575  -9.8088     66.0248     15.9802   2.9116027838e+02   7.1954618662e+00  0.007890569  0.007466925 -57.28 0.0003692439    1.051    0.048
       576 -10.0629    169.6727     14.7985   2.8995323637e+02   6.5864907962e+00  0.009257112  0.006211489 -72.79 0.0009321651    1.644    0.392
       577 -11.2236    165.7854    236.7953   2.9137009692e+02   4.0561144099e+00    0.0269297  0.007552882  32.29  0.001905144    3.211    0.689
       578 -10.6440    117.5342     13.4668   2.9054817607e+02   6.9153737400e+00   0.01137104  0.006583455  11.01 0.0006762432    2.184    0.542
       579 -10.3592    102.1947     17.8480   2.9075290648e+02   6.9571348511e+00  0.009435309  0.007704306 -19.56   0.00106201    1.352    0.260
       580 -12.4137    156.3778    233.3260   2.9145725849e+02   4.1524799329e+00   0.01604178   0.01191105 -48.43 0.0002544977    1.334    0.250
       581 -11.9910    160.9488    232.0368   2.9139658963e+02   4.1399038035e+00   0.01299738   0.01138459 -76.15 0.0003269002    1.192    0.161
       582 -10.9749     65.5003    243.8115   2.9257055362e+02   4.5758955087e+00  0.008697588  0.007975678 -54.63 0.0003605643    1.079    0.073
       583 -11.4615    161.0567    240.6566   2.9144840994e+02   4.0400286285e+00   0.01491539   0.01068491 -75.69 0.0005208522    1.547    0.354
       584 -10.9287    218.6034    240.6561   2.9078492846e+02   3.6946418291e+00   0.01511792   0.01045025   6.24 0.0008359021    1.717    0.418
       585 -12.2529    196.9910    235.1420   2.9100005920e+02   3.8878683398e+00   0.02271978    0.0139165 -41.22 0.0009449782    1.739    0.425
       586 -11.8433    188.1361    238.6243   2.9112360679e+02   3.9009489336e+00   0.02497462  0.009352276  45.43  0.001837068    3.123    0.680
       587 -12.0671    190.5851    235.0705   2.9107347703e+02   3.9271471633e+00   0.02123944   0.01450883  -9.71  0.001876375    1.894    0.472
       588 -10.4321    237.8421    238.1646   2.9054790273e+02   3.6077337438e+00  0.009611141  0.008690686  64.71 0.0003317382    1.176    0.150
       589 -11.0629    216.6955    236.0138   2.9077830065e+02   3.7595109401e+00   0.01323962  0.009133247  25.73  0.001378754    1.468    0.319
       590 -11.1270    219.1115    232.6570   2.9072976193e+02   3.7836181692e+00   0.01416274  0.009524413 -67.91 0.0006148131    1.556    0.357
       591 -10.9221    174.7962    233.8049   2.9124775438e+02   4.0364735345e+00    0.0139961  0.009221782  -4.36 0.0008016989    2.015    0.504
       592 -12.6289    160.2861    248.1613   2.9150348498e+02   3.9582607692e+00   0.02074923   0.01530208 -57.37 0.0009900625    1.332    0.249
       593 -12.3202    142.6925    231.8935   2.9160633709e+02   4.2510328688e+00   0.01830925   0.01179298  27.26  0.001835838    1.560    0.359
       594 -10.8281    137.2194    231.2419   2.9166548137e+02   4.2913451354e+00   0.01093942  0.009183224  84.11 0.0005501616    1.338    0.253
       595 -11.2474    149.9662    231.1987   2.9151813479e+02   4.2154211163e+00   0.01042917  0.009281762 -59.93  0.000330769    1.117    0.105
       596  -9.6057    247.6689    231.3131   2.9039244600e+02   3.6274847446e+00  0.006990658  0.004982181  62.12 0.0007044404    1.676    0.403
       597 -12.7352     58.5011    229.9831   2.9256649601e+02   4.7770235256e+00   0.01419998   0.01177758 -87.85  0.001042585    1.339    0.253
       598  -9.4694    119.1620    228.2007   2.9185517431e+02   4.4345726247e+00   0.02076313  0.009811665  43.95   0.00178552    2.255    0.557
       599 -12.3827    113.8929    223.8229   2.9188907030e+02   4.5165509484e+00   0.02116082   0.01853725 -21.08 0.0006211267    1.207    0.172
       600 -12.4090    101.6176    228.2278   2.9205786813e+02   4.5393316064e+00   0.02097919   0.01377403  67.54  0.001572036    2.025    0.506
