#   1 NUMBER                 Running object number                                     
#   2 MAG_AUTO               Kron-like elliptical aperture magnitude                    [mag]
#   3 X_IMAGE                Object position along x                                    [pixel]
#   4 Y_IMAGE                Object position along y                                    [pixel]
#   5 X_WORLD                Barycenter position along world x axis                     [deg]
#   6 Y_WORLD                Barycenter position along world y axis                     [deg]
#   7 A_WORLD                Profile RMS along major axis (world units)                 [deg]
#   8 B_WORLD                Profile RMS along minor axis (world units)                 [deg]
#   9 THETA_WORLD            Position angle (CCW/world-x)                               [deg]
#  10 FWHM_WORLD             FWHM assuming a gaussian core                              [deg]
#  11 ELONGATION             A_IMAGE/B_IMAGE                                           
#  12 ELLIPTICITY            1 - B_IMAGE/A_IMAGE                                       
         1 -13.8194    207.8005     30.3974   4.4872417772e+00   3.0560440139e+01    0.9750178     0.770574 -48.56  0.003683469    1.073    0.068
         2 -11.0859    227.2623      9.6138   3.5783319982e+02   2.8694431542e+01    0.2502914    0.1936712 -64.35 0.0007378368    1.089    0.082
         3 -11.3003     61.4369    246.1528   8.0006490088e+01   1.4926852651e+01    0.1762843    0.1477335 -19.19  0.001209539    1.760    0.432
         4 -13.8827    246.2559    240.0510   4.4375454502e+01  -6.9337843425e+00     1.530505    0.6047752 -28.42   0.00870351    2.263    0.558
         5 -19.1306     31.5346    138.3389   7.7732596721e+01   4.2947028661e+01     18.99518     6.850049 -79.96   0.06774162    2.846    0.649
         6 -15.8630     67.8566    143.9959   6.7424682030e+01   3.7191579032e+01     2.675343     1.837066  62.44   0.01269736    1.589    0.371
         7  -9.0536     77.2614    218.8877   7.4466201992e+01   1.8232881426e+01    0.2062368    0.1544136  -9.14   0.00116012    2.003    0.501
         8 -12.7582    173.0271    173.9968   4.6218175495e+01   1.2753363264e+01    0.7657145      0.57369 -25.77  0.001893585    1.304    0.233
         9 -11.5911    180.4491    168.0105   4.3485055332e+01   1.2628691405e+01    0.6733945    0.3942054 -57.28  0.002897955    2.449    0.592
        10 -11.2820     40.3403    238.5485   8.3721962244e+01   1.8669004237e+01    0.1044557   0.08985012 -38.10 0.0007333823    1.688    0.408
        11 -10.0398      4.6082    175.6056   8.8167785759e+01   3.5709050156e+01    0.1202783    0.1001947 -84.83 0.0007003181    1.176    0.150
        12 -10.1397      9.0675    166.5018   8.6546216525e+01   3.7584946112e+01    0.1883399    0.1441576 -74.50 0.0004439018    1.246    0.197
        13 -11.5875     71.5625    228.2802   7.6555187695e+01   1.7078480645e+01    0.1675921    0.1593243 -77.02 0.0003918183    1.244    0.196
        14  -9.3978    158.4809    240.5131   6.0004001871e+01   3.5342037210e+00    0.1195958   0.09642305  16.20 7.887468e-05    1.041    0.039
        15 -10.8996    115.8409    154.8273   5.5877611573e+01   2.6843633556e+01    0.3124122    0.2700604  78.30 0.0008888868    1.295    0.228
        16 -11.4261    107.1565    139.7664   5.5143151705e+01   3.2036609471e+01    0.4454211    0.3027531  76.81  0.001317745    2.150    0.535
        17 -11.2931    111.6614    150.1070   5.6048965444e+01   2.8705736962e+01    0.3519191    0.2757965  64.25 0.0004465782    1.452    0.311
        18 -12.0032    108.8657    145.3427   5.5839251057e+01   3.0357752436e+01    0.3691042    0.3460677 -67.47 0.0006651572    1.044    0.042
        19 -11.0244    160.7920    201.0402   5.3690139916e+01   9.7091706723e+00    0.4361237    0.2180804 -51.48  0.002001005    2.337    0.572
        20 -12.2324    133.6244    146.4579   4.9561647361e+01   2.5586445102e+01     1.084313    0.3281686 -54.49  0.003010592    4.086    0.755
        21  -9.8395    171.3529    142.1267   3.9796742241e+01   1.9329906112e+01    0.2173647    0.1301131 -50.65 0.0006527157    1.763    0.433
        22  -9.6124    163.2115    136.2151   4.0191005632e+01   2.2127209960e+01    0.1972424    0.1752615 -68.64 0.0003301364    1.303    0.233
        23 -12.2925     98.2972    130.5569   5.5681609960e+01   3.5915943776e+01    0.5065873    0.3577852 -46.36 0.0005938996    1.392    0.281
        24 -10.6127    223.0287    131.0494   2.7638099235e+01   1.1866897817e+01    0.5386344    0.2084472 -49.96  0.001817581    3.748    0.733
        25 -12.5177    106.7840    130.8579   5.3279652561e+01   3.4321253682e+01    0.6468238    0.4607509  46.48  0.002967615    1.473    0.321
        26 -11.5370    133.7209    128.2075   4.5311071998e+01   2.9781023092e+01     0.553995    0.4134403  69.83  0.002468672    1.762    0.432
        27 -11.0962    151.9774    201.9584   5.5710272702e+01   1.0885761253e+01    0.2017934    0.1825147   4.30 0.0005739356    1.036    0.035
        28 -10.8240    115.7775    125.1010   4.9368169914e+01   3.4052253834e+01    0.2914303    0.2372819  25.28 0.0007779768    1.377    0.274
        29  -9.5606    162.9718    120.9990   3.6505016575e+01   2.5361669757e+01    0.1861765     0.170347 -35.10 0.0009746899    1.010    0.010
        30 -10.7362    157.2496    118.7488   3.7208074197e+01   2.7033566794e+01    0.4757177    0.2578113 -65.29  0.001480725    3.661    0.727
        31 -10.6723    103.9009    119.9325   5.1526057816e+01   3.7584332090e+01    0.3010006    0.2502543   5.80 0.0006778443    1.475    0.322
        32 -10.3172    110.9757    115.1476   4.8230959955e+01   3.7413970193e+01     0.310565    0.2479152 -89.76 0.0005372027    1.558    0.358
        33 -10.1797    107.5065    111.8028   4.8373053788e+01   3.8910147070e+01    0.2691467    0.2349479  87.00  0.001317332    1.295    0.228
        34 -10.0029    210.9404    198.8835   4.3511921483e+01   2.7105130604e+00    0.1880092     0.151934  -3.35 0.0004690099    1.014    0.014
        35 -12.3339    117.5344    109.1018   4.4731492224e+01   3.7555004861e+01    0.7048358    0.4659356 -70.00  0.002813962    2.022    0.505
        36 -11.7985    119.0057    104.7609   4.3108536724e+01   3.8272247595e+01     0.369193    0.2935979  50.12  0.001187157    1.343    0.255
        37 -10.2381     83.0200    110.9489   5.5846245834e+01   4.3595518256e+01    0.2778806    0.2172725 -58.86 0.0004599708    1.198    0.165
        38 -10.7325     83.5699    106.4202   5.4515950362e+01   4.4669301262e+01    0.2950754    0.2659434 -84.86 0.0006775202    1.165    0.142
        39 -11.1532     74.0861    108.2492   5.8192249844e+01   4.5756058602e+01    0.2779351    0.2148936 -59.31 0.0008740005    1.194    0.162
        40  -9.6597    165.7826    106.0056   3.1956076118e+01   2.7842243972e+01    0.2640482    0.1678872 -62.14  0.001064905    2.057    0.514
        41 -10.7791    134.3281    105.0173   3.9046715660e+01   3.4945847817e+01    0.5207865    0.1366413 -47.75  0.001366986    3.887    0.743
        42 -11.6084    112.7669    100.0395   4.3550309787e+01   4.0676326035e+01    0.5224583    0.3412713  73.47  0.001943918    2.500    0.600
        43 -10.8258    107.2252     95.8999   4.3985224579e+01   4.2791413750e+01    0.3881645    0.2912346  78.84 0.0008782065    1.830    0.454
        44  -9.9851    234.3109    191.0214   3.8052752548e+01   7.0689519222e-01    0.1744446    0.1288786 -19.57 0.0004710504    1.103    0.093
        45 -10.4479     94.8767     86.4339   4.4982943798e+01   4.7503713534e+01     0.487199    0.2594316  61.82  0.001248306    3.258    0.693
        46  -9.8522    153.8334     87.1353   2.9168683066e+01   3.4305977210e+01     0.212066    0.1860745  -4.33 0.0004447306    1.302    0.232
        47 -10.6144    112.0342     83.5339   3.8694510019e+01   4.4585604262e+01    0.4786128    0.3119977  76.36   0.00177996    2.599    0.615
        48 -10.4199     71.0598    186.9460   7.2530335952e+01   2.6009321767e+01    0.1956264    0.1709542  63.42 0.0003246862    1.034    0.033
        49 -13.3660    169.0428     68.8403   2.0632601296e+01   3.4070056285e+01     1.242294    0.7438411  37.96 0.0007623262    2.168    0.539
        50 -13.7122    184.7528     55.7372   1.4219590436e+01   3.2436307622e+01     1.081275    0.9533013  16.54  0.003680496    1.401    0.286
        51 -12.1363    190.9517     49.9771   1.1718449818e+01   3.1828488197e+01    0.3835884    0.3622218  19.72  0.000918338    1.275    0.216
        52  -9.1744    108.3339     70.6862   3.5444424225e+01   4.8127163121e+01    0.1590254    0.1241259 -79.56 0.0007045885    1.685    0.406
        53 -10.2808     81.8578     68.1560   4.3297804351e+01   5.4191595136e+01    0.2287184    0.2087069 -85.84  0.001006933    1.282    0.220
        54  -9.0572     92.6420     66.2731   3.8821305894e+01   5.2428939073e+01     0.151638    0.1229259  89.32 0.0003622719    1.649    0.394
        55 -12.5771     55.5672    227.0136   7.9848274727e+01   1.9228247513e+01    0.2820342    0.1822292 -71.95  0.001724413    1.653    0.395
        56  -9.5325    213.4731    247.4674   5.0890994695e+01  -4.2059821220e+00    0.1788976   0.08609559 -23.91 0.0009103051    2.150    0.535
        57 -10.2892     83.2096    182.4592   6.8914422083e+01   2.5405356794e+01    0.3396688    0.1666767 -56.09 0.0005414801    2.053    0.513
        58 -10.0266     60.8541     21.2151   3.0462267069e+01   6.6830923412e+01    0.1905106    0.1872246  33.40 0.0007456801    1.224    0.183
