#   1 NUMBER                 Running object number                                     
#   2 MAG_AUTO               Kron-like elliptical aperture magnitude                    [mag]
#   3 X_IMAGE                Object position along x                                    [pixel]
#   4 Y_IMAGE                Object position along y                                    [pixel]
#   5 X_WORLD                Barycenter position along world x axis                     [deg]
#   6 Y_WORLD                Barycenter position along world y axis                     [deg]
#   7 A_WORLD                Profile RMS along major axis (world units)                 [deg]
#   8 B_WORLD                Profile RMS along minor axis (world units)                 [deg]
#   9 THETA_WORLD            Position angle (CCW/world-x)                               [deg]
#  10 FWHM_WORLD             FWHM assuming a gaussian core                              [deg]
#  11 ELONGATION             A_IMAGE/B_IMAGE                                           
#  12 ELLIPTICITY            1 - B_IMAGE/A_IMAGE                                       
         1 -10.9489     39.7467      7.8523   4.7408235522e+01   6.9415442985e+01    0.5077997    0.1918014 -33.80  0.002396493    3.119    0.679
         2 -13.2401     44.9252     23.5291   5.2553723133e+01   6.6717497656e+01    0.9502549    0.7943463 -55.19  0.006006534    1.717    0.417
         3 -10.3489    116.5207     17.0732   3.0314395404e+01   5.2023411158e+01    0.3230648    0.1559529 -54.75  0.001535135    2.555    0.609
         4 -11.0897    226.8326     16.0335   1.9123531629e+01   2.9466882402e+01    0.3627795    0.2131841  86.06  0.002595104    1.544    0.352
         5 -11.8695     78.0153     14.1035   3.7285911602e+01   6.0973817213e+01     0.373119    0.2689083   6.44  0.002228434    1.794    0.443
         6 -12.5069    156.0276     11.7156   2.3727734471e+01   4.3738745860e+01    0.5459892    0.3621531 -89.15  0.003494708    1.285    0.222
         7 -13.3269    166.7467     11.9792   2.2747894569e+01   4.1432793106e+01    0.8325388    0.3514637  67.91  0.004436767    2.039    0.509
         8 -13.5894    162.6332      3.7954   2.1253526849e+01   4.3068053722e+01      1.80096    0.3894423  74.66  0.006797037    4.035    0.752
         9 -11.2153    232.1427      9.4130   1.7690601853e+01   2.9253186829e+01    0.3510163    0.1928152 -79.24  0.002496344    1.519    0.342
        10 -11.7945    144.1333      3.7614   2.2999975552e+01   4.7046756596e+01    0.5257833    0.3210331 -87.74  0.003219771    1.441    0.306
        11 -11.0185    121.5054      4.5798   2.5896422053e+01   5.2009426998e+01    0.4443146    0.2843929  79.26  0.002718091    1.305    0.234
        12 -11.4490     71.1283      5.8017   3.5829803130e+01   6.3201305180e+01    0.4179837     0.183693  62.47  0.002052901    1.902    0.474
        13 -10.6415    208.1976      4.5835   1.8163313113e+01   3.3971306680e+01    0.2020056    0.1607715 -81.22  0.001108738    1.162    0.139
        14 -10.9768    204.6661      4.6667   1.8389712493e+01   3.4617885794e+01    0.2403192    0.1194988  63.71  0.001498759    2.153    0.536
        15 -10.5207    129.3413      4.3123   2.4815119619e+01   5.0273340191e+01    0.2443075    0.2033938  72.26  0.001236073    1.126    0.112
        16 -10.6287    133.0245      3.6570   2.4196614120e+01   4.9506931570e+01    0.3413993    0.1841502  49.05  0.001895445    2.053    0.513
        17 -10.4804    106.2004      4.6946   2.8187253723e+01   5.5459372305e+01    0.3979004    0.1799919 -86.30  0.001598943    3.495    0.714
        18 -11.8844     83.8749      3.6341   3.1974454201e+01   6.0568359526e+01     0.790531    0.2639746  65.15  0.003440935    2.424    0.587
        19 -10.8266     61.2622      2.3651   3.7131013029e+01   6.5587863851e+01    0.4140669     0.190165  47.68   0.00217146    1.717    0.418
        20  -9.9762    129.7759     13.0800   2.7175069639e+01   4.9400999000e+01    0.2408188    0.1219358  49.45  0.001170869    2.100    0.524
        21 -10.1443     26.4855    180.4863   9.9098690457e+01   3.2840088347e+01    0.1416754    0.1358191  84.18 0.0007507989    1.002    0.002
        22  -9.4249    172.3281    163.6558   5.5758437323e+01   1.5703276747e+01    0.1363069    0.1113858 -84.02 0.0007050749    1.747    0.428
        23 -10.2487     14.4386    160.2208   1.0079685816e+02   3.9347375399e+01    0.2089492    0.1305167  88.50 0.0009552662    1.693    0.409
        24 -11.0418    220.4065    156.2443   4.5766614075e+01   9.9401348762e+00    0.2249557    0.2012038 -61.03  0.001365935    1.310    0.237
        25 -10.1126     20.8069    155.7938   9.8168159421e+01   4.0045426123e+01    0.2083336    0.1656712  64.96  0.001076413    1.338    0.252
        26 -10.3652    162.7558    152.2329   5.5461279560e+01   1.9632814890e+01    0.2709161    0.1721105 -48.23  0.001296517    1.486    0.327
        27  -9.2244    173.5001    144.5065   5.1651963992e+01   1.9368372816e+01    0.1396612    0.1260314 -38.79 -9.053358e-05    1.005    0.005
        28  -9.6757     53.5913    143.3311   8.4857852978e+01   3.9975254594e+01     0.292321    0.1525006 -67.63  0.001126067    2.057    0.514
        29 -12.3456     10.9259    139.9096   9.9718762170e+01   4.5141828769e+01    0.5248261    0.3455003  71.01  0.002487897    1.752    0.429
        30 -13.4488    241.2462    125.2556   3.7332697989e+01   1.2221367903e+01     1.009627    0.8353954  79.10  0.007335674    1.567    0.362
        31 -13.6869    244.2883    109.7779   3.4251983264e+01   1.4205340060e+01     1.611353     0.754923 -49.14  0.009089155    1.693    0.409
        32 -10.8463     17.9258    127.8430   9.5477239910e+01   4.7896629369e+01    0.2377742    0.1839717 -37.73 0.0008146315    1.246    0.198
        33 -11.0144      4.4043    124.5623   1.0026332880e+02   4.9696761157e+01    0.3200159    0.1926319  51.97  0.001482076    1.955    0.489
        34  -9.9441    207.9754    123.3397   4.1421157937e+01   1.7537771948e+01    0.2232979    0.1189351  58.37  0.001102474    2.458    0.593
        35 -11.7148     10.5602    122.0347   9.7509717111e+01   4.9989804025e+01     0.429169    0.2055991  32.32  0.001823054    2.182    0.542
        36  -9.9849    154.4980    120.5230   5.0336681045e+01   2.7655920200e+01    0.1421603     0.134547 -48.88 0.0003295523    1.011    0.011
        37 -11.0221    212.6917    113.3605   3.8799465020e+01   1.8469779050e+01    0.4619907    0.2375726 -41.52  0.002406227    1.661    0.398
        38 -11.5450    190.1342    114.0939   4.2310816065e+01   2.2204327770e+01    0.9167127    0.4126357 -29.34  0.003274739    3.770    0.735
        39 -10.4279    224.6150    111.6071   3.6895393033e+01   1.6853895456e+01     0.445494    0.1324143 -49.20  0.001768088    3.072    0.674
        40 -10.7477    220.3965    107.8078   3.6712095678e+01   1.8134769915e+01    0.2557368    0.2096787 -43.73  0.001632385    1.119    0.106
        41 -10.2650    148.5242    111.3255   4.9478612401e+01   3.0663181558e+01    0.2664379    0.2003181 -64.46  0.001224301    1.459    0.315
        42 -10.8213     17.1229    104.3914   9.1884549776e+01   5.4136299578e+01    0.4184383     0.258354  37.18  0.001986625    1.783    0.439
        43 -10.0592     30.6804    102.0102   8.5506891416e+01   5.3492192659e+01    0.2866274    0.1872263 -20.52   0.00132673    1.665    0.399
        44  -9.5670    208.9714     94.2866   3.5545684727e+01   2.2217302863e+01    0.1688221    0.1463393 -63.54  0.000661321    1.060    0.056
        45  -9.7904    178.9657     92.7483   3.9518485005e+01   2.8007703373e+01    0.2516635    0.1536096 -55.87  0.001284181    1.601    0.375
        46 -10.6731     12.9564     89.6926   9.0864361816e+01   5.8137086219e+01    0.2000909    0.1754272  -8.23   0.00117081    1.104    0.095
        47 -12.5771      4.6811     75.4263   9.1870470794e+01   6.2106837015e+01    0.7256323    0.5522245  84.14  0.003646435    1.764    0.433
        48 -13.1231     14.9546     73.3694   8.6082501921e+01   6.1828463664e+01    0.8823136    0.6452552  25.19  0.004906017    1.414    0.293
        49 -10.6439      2.5152     83.0734   9.4554821703e+01   6.0420713527e+01    0.3176853    0.2121339 -55.57  0.001066237    1.330    0.248
        50 -10.3483    193.5392     87.0248   3.6118562005e+01   2.6164121785e+01    0.3021746    0.1782769  74.25  0.001487733    2.092    0.522
        51 -12.5917     43.0187     80.3891   7.4517209926e+01   5.7105153345e+01     1.145027    0.7570733  -3.46  0.005348637    1.789    0.441
        52  -9.1736    100.6808     83.6515   5.4238885360e+01   4.6050414936e+01     0.150255    0.1156221   4.88 0.0007048568    1.735    0.424
        53  -9.4580    145.2159     81.3841   4.2825750537e+01   3.6883549197e+01    0.1954927    0.1272101  66.72 0.0007718916    1.644    0.392
        54  -9.6963    215.3190     80.0077   3.1977070671e+01   2.3314207586e+01      0.17714    0.1299069 -54.96   0.00116062    1.113    0.102
        55  -9.8136    221.0573     78.1558   3.0992035408e+01   2.2601456320e+01    0.2136435    0.1418146 -78.76 0.0009989308    1.629    0.386
        56 -10.0171    169.5426     76.3070   3.7291993841e+01   3.2593967867e+01    0.2605704    0.2025514  82.79  0.001527446    1.305    0.234
        57 -10.1263    208.0229     72.9972   3.1425112734e+01   2.5643135908e+01    0.1990848    0.1225057 -68.65  0.001138033    1.673    0.402
        58  -9.0374    170.6384     71.3229   3.5970591547e+01   3.3146497129e+01     0.139605   0.09051712 -74.55 0.0007042033    1.780    0.438
        59 -10.4760     75.3059     69.2579   5.7989412074e+01   5.3905082781e+01    0.4285918    0.2733729  28.19  0.001999698    1.683    0.406
        60 -11.9034    214.8074     67.3225   2.9574003742e+01   2.5244081388e+01    0.3554021    0.1816659 -43.80  0.002011163    1.661    0.398
        61  -9.8026     83.8224     68.9272   5.4979397600e+01   5.2266802052e+01    0.2285508    0.1936093  14.72  0.001246622    1.270    0.213
        62 -10.9297     25.5418     65.0098   7.8251673320e+01   6.2609927609e+01    0.3872732    0.2528325 -53.58  0.002013404    1.614    0.380
        63  -9.6557    179.2731     66.5621   3.3648609958e+01   3.2100888255e+01    0.2329794    0.1185724  68.88  0.001136516    2.101    0.524
        64 -10.8086    233.1057     64.1096   2.7217043847e+01   2.2563656128e+01    0.2172639    0.1787383  66.15  0.001645644    1.508    0.337
        65  -9.0702    132.4969     63.5190   4.0684437345e+01   4.2574141871e+01    0.1354595    0.1244287  78.42 0.0001435457    1.010    0.010
        66 -10.4249    218.5116     62.0086   2.8182489678e+01   2.5329703268e+01    0.1767251   0.09559688 -42.92  0.001035423    1.601    0.375
        67 -11.0317    209.8182     60.3602   2.8730331759e+01   2.7109953195e+01    0.3354902    0.1319019 -50.88  0.001649493    2.191    0.544
        68 -10.7023    229.2999     60.5529   2.6910075539e+01   2.3675285074e+01    0.1886252    0.1018414  76.68  0.001134059    2.074    0.518
        69  -9.4389     76.3681     59.1832   5.4270346880e+01   5.5463623951e+01    0.1892132    0.1317413 -50.59 0.0009506497    1.695    0.410
        70 -10.7669      2.4622     88.6375   9.5631677462e+01   5.9069634725e+01    0.4196686    0.2605172 -88.51  0.002015278    2.039    0.510
        71 -11.1764    198.9541     52.4664   2.8272616814e+01   3.0205053126e+01    0.3215154     0.213825 -30.67  0.001934014    1.841    0.457
        72  -9.9871    220.7306     53.5901   2.6386169577e+01   2.6069185011e+01    0.2109132    0.1037366  70.90   0.00121507    2.163    0.538
        73  -9.7099    164.5075     53.9784   3.2805863839e+01   3.6965281006e+01     0.186793    0.1191444 -40.49 0.0007138979    1.590    0.371
        74  -9.9713     34.9413     52.8662   6.9364989129e+01   6.3809261065e+01    0.2521994    0.1715679  30.34  0.001363405    1.364    0.267
        75 -11.4044    215.2916     50.8998   2.6367634167e+01   2.7385124844e+01    0.2629378    0.2355906  59.79   0.00195924    1.506    0.336
        76 -11.7178     81.2685     39.7875   4.5895393967e+01   5.7358653252e+01    0.6199938    0.3806784 -39.44  0.003221301    1.856    0.461
        77 -11.0248     85.2623     47.7834   4.7498280912e+01   5.5389679853e+01    0.4877413    0.3640582  56.33  0.002702321    1.257    0.204
        78 -10.7022    196.5421     44.0106   2.6786624061e+01   3.1767466078e+01    0.1821514     0.139463  87.96  0.000684879    1.194    0.162
        79 -11.4902      3.4630     41.4053   8.3146100931e+01   6.9455587638e+01    0.4507579    0.3713676  21.52  0.002819674    1.335    0.251
        80 -10.5806    181.3709     40.2160   2.7562191914e+01   3.5255507382e+01    0.2796493    0.1384678 -69.39  0.001359517    2.357    0.576
        81 -11.8835    239.8997    228.9200   5.4959363931e+01  -4.1209193668e+00    0.3031284    0.2552865  15.50  0.002348997    1.525    0.344
        82 -11.8645     40.0576     29.6231   5.7481412473e+01   6.6776129551e+01    0.4867436    0.3261178 -30.69  0.002252416    1.641    0.391
        83 -11.7275    248.4649    224.5392   5.2949936811e+01  -4.2340288860e+00    0.5604857    0.2616731 -29.80  0.003331078    1.685    0.407
        84  -9.8217     97.3036     36.6650   4.0447616964e+01   5.4237541999e+01    0.1310026   0.09830682 -80.19 0.0007037813    1.664    0.399
        85 -11.0035      5.6789     35.1685   7.9453895705e+01   7.0434940630e+01    0.3360372    0.2046546  27.03  0.001918781    1.623    0.384
        86  -9.3441     12.6373     32.3211   7.3849851044e+01   7.0244453160e+01    0.1178157    0.0931093  45.89  0.000704138    1.778    0.438
        87  -9.2398    229.3363     29.6939   2.1364294907e+01   2.7519260057e+01     0.114108   0.05823181 -65.58 0.0005287607    1.672    0.402
        88 -10.1587     90.1306     28.2916   3.9374424423e+01   5.6832544634e+01     0.246143    0.2063488  36.73  0.001424713    1.217    0.179
        89 -11.4251     75.6102     26.0390   4.2510593885e+01   6.0267003709e+01     0.378615    0.2906169   8.35   0.00225125    1.582    0.368
        90 -11.8148    178.3848     23.4899   2.4214977733e+01   3.7820910995e+01    0.3447175    0.2823806  71.81  0.002468628    1.290    0.225
        91 -11.5083    173.4698     20.7837   2.4089478400e+01   3.9127014180e+01    0.3509949    0.1777545  75.58   0.00151001    1.756    0.431
        92  -8.9734    102.6700     26.3068   3.5807033229e+01   5.4231072883e+01    0.1289003   0.09220035 -81.11 0.0007038621    1.659    0.397
        93  -9.8784    156.9581     26.0000   2.7067733045e+01   4.2065872988e+01    0.2009741   0.06008063  68.89 0.0004981361    2.977    0.664
        94  -9.7791     12.3110     24.6658   7.0712031423e+01   7.1530879951e+01    0.1100248   0.09370422  44.77  0.000655246    1.679    0.404
        95  -9.9689    224.4925     22.7859   2.0459254845e+01   2.9138111593e+01     0.191302    0.1258037 -89.96  0.001402012    1.357    0.263
        96 -10.1083    187.1844     19.9729   2.2677413704e+01   3.6424336773e+01    0.2041395    0.1405234  85.12  0.001166104    1.255    0.203
        97 -10.4715    128.4462     18.1304   2.8769103219e+01   4.9215862030e+01    0.2532715    0.2113095 -89.16  0.001187639    1.077    0.071
        98 -10.6078      3.6348    230.2778   1.0908101544e+02   2.2292096031e+01    0.2481899    0.1267434  36.28  0.001269782    1.685    0.407
        99  -9.4407    111.6677    228.6775   8.1361532313e+01   1.0684602474e+01    0.1477843   0.09944398 -15.23  0.000705006    1.702    0.413
       100  -9.8351     94.2826     16.9865   3.4484244088e+01   5.7080102664e+01    0.2318522     0.158736  87.90 0.0009863942    1.648    0.393
       101 -10.0404    247.7666     16.1936   1.8005744973e+01   2.5977741676e+01     0.172017   0.08301191 -57.06    0.0011939    1.488    0.328
       102  -9.5210     31.5201    227.4861   1.0194109971e+02   2.0438451455e+01    0.1317248    0.1213089  47.60  0.000225966    1.027    0.026
       103  -9.3757     64.6318     16.3109   4.2015775677e+01   6.3633845872e+01    0.1219464   0.09419836  89.31 0.0007036724    1.765    0.433
       104  -9.8870     19.8935     15.7963   6.1675561501e+01   7.1821705450e+01     0.314864     0.137091  18.23  0.001209568    3.681    0.728
       105 -11.5914    158.6032    225.6074   6.9817004525e+01   5.2489344382e+00    0.2518605    0.2291581  -7.25  0.001379816    1.160    0.138
       106 -12.7782    204.1657    220.6054   5.9760888410e+01   7.5554645419e-01     0.669639    0.4283316  -6.60  0.003915577    1.557    0.358
       107 -12.2154    210.1165    215.3332   5.7813400171e+01   9.8821499699e-01    0.5419539    0.3311229 -17.41  0.003119644    1.573    0.364
       108 -13.0213    182.5443    218.5201   6.3598141843e+01   3.6161885095e+00    0.6766146    0.3887517 -26.24   0.00350504    1.679    0.404
       109 -10.9071     50.4639    218.2708   9.6119075169e+01   2.0657733324e+01     0.319576    0.2758704 -15.44  0.001819201    1.290    0.225
       110 -10.1204     67.5243    217.5025   9.1422405821e+01   1.8856272029e+01    0.1413062      0.13215  25.79 8.472976e-05    1.010    0.010
       111  -9.4172    141.0000    206.9952   7.0806348094e+01   1.1339915796e+01    0.2284774   0.07796297 -51.19 0.0008032458    2.948    0.661
       112 -12.6020    247.8236    184.6756   4.6663265909e+01   1.9076000376e+00     1.136542    0.3613618 -46.08  0.005158335    2.709    0.631
       113 -12.5261    243.9729    200.5790   4.9828938640e+01  -1.8802289280e-01    0.7511672    0.5218413 -36.17  0.004322119    1.166    0.143
       114 -11.2852    247.2280    192.5505   4.8042187062e+01   7.3462573064e-01    0.3570174    0.3186235 -34.64  0.002272495    1.355    0.262
       115  -9.4334    123.8531    206.0105   7.4851068459e+01   1.3984348836e+01    0.1847692    0.1675194 -15.66            0    1.047    0.045
       116 -10.2373    202.6812    197.0182   5.6057486047e+01   5.0291726972e+00    0.1873276     0.142082 -32.21  0.001157566    1.105    0.095
       117 -11.5202    195.9487    185.8645   5.5323716066e+01   7.9245386296e+00    0.3637463    0.3192086 -55.87  0.002300208    1.400    0.286
       118 -10.3338     37.2832    185.4370   9.6350023941e+01   3.0459521696e+01    0.2730119    0.1454802  15.07  0.001132846    2.067    0.516
       119 -11.3361    190.6731     36.5774   2.5824836313e+01   3.3835891610e+01    0.3186161    0.1392245 -59.54  0.001581386    2.305    0.566
