#   1 NUMBER                 Running object number                                     
#   2 MAG_AUTO               Kron-like elliptical aperture magnitude                    [mag]
#   3 X_IMAGE                Object position along x                                    [pixel]
#   4 Y_IMAGE                Object position along y                                    [pixel]
#   5 X_WORLD                Barycenter position along world x axis                     [deg]
#   6 Y_WORLD                Barycenter position along world y axis                     [deg]
#   7 A_WORLD                Profile RMS along major axis (world units)                 [deg]
#   8 B_WORLD                Profile RMS along minor axis (world units)                 [deg]
#   9 THETA_WORLD            Position angle (CCW/world-x)                               [deg]
#  10 FWHM_WORLD             FWHM assuming a gaussian core                              [deg]
#  11 ELONGATION             A_IMAGE/B_IMAGE                                           
#  12 ELLIPTICITY            1 - B_IMAGE/A_IMAGE                                       
         1 -15.7445    164.0590    118.2797   2.3433178623e+01   2.5980273467e+01     5.695257     4.218367  -8.06   0.02265636    1.749    0.428
         2 -16.4763    246.2920    114.6492   9.7551576410e+00   1.2489939021e+01     4.486277     2.134973 -59.22   0.01519849    5.031    0.801
         3 -15.2275    203.4839    120.9085   1.6917900518e+01   1.8291212215e+01     3.319281     1.706919 -22.44  0.006539561    2.618    0.618
         4 -18.0048    240.9468    140.5806   1.5469584308e+01   9.5170723820e+00     5.319919     3.164054 -26.23    0.0237396    1.440    0.305
         5 -14.9991    196.5645    103.2460   1.4046176162e+01   2.2469018847e+01     5.203892     2.077353 -24.32   0.01417266    6.041    0.834
         6 -13.7484     15.8860     94.5781   6.6893295915e+01   5.6313259291e+01     1.670094     1.442412  21.86  0.006572724    1.258    0.205
         7 -14.4201    234.3661      7.8320   3.4843657632e+02   2.8060975108e+01     4.084107     1.197399  80.67   0.01854354    3.745    0.733
         8 -12.9320    215.6791     31.4437   3.5482248388e+02   2.9062877416e+01     1.857482    0.4562381 -53.21  0.006283829    4.465    0.776
         9 -13.4519    204.5369     17.6534   3.5237250497e+02   3.2890265431e+01     1.303188    0.5476934 -84.92  0.005854328    2.864    0.651
        10 -11.6195    227.9550     56.7768   3.5953564282e+02   2.3551894590e+01     0.518705    0.4298064 -83.26  0.003588423    1.305    0.234
        11 -10.5462    212.5373    214.0783   3.2774477082e+01   2.5008327570e+00    0.2091627    0.1828119 -14.29 0.0007018119    1.354    0.261
        12 -10.1427    169.4273    210.2869   4.0134170554e+01   8.2318022182e+00    0.2541226    0.1513322 -21.35  0.001369768    1.818    0.450
        13  -9.6422     66.4959    227.4177   6.5239179922e+01   1.8007739380e+01    0.1978202    0.1786157  30.92 0.0001707351    1.104    0.094
        14 -10.5025    180.5334    208.6327   3.7700308887e+01   7.0871635571e+00     0.217479    0.1641009 -29.31 0.0006932727    1.277    0.217
        15 -10.2555    193.8203    223.9282   3.7561186441e+01   3.2332487069e+00     0.294743    0.1877599 -11.05  0.001045048    1.464    0.317
        16 -10.8714     11.3600    206.5773   7.7200747612e+01   2.7859084100e+01     0.277571    0.1801056   3.24  0.001544682    1.991    0.498
        17 -10.1510     11.5145    200.9506   7.6926424425e+01   2.9102957960e+01    0.1998501    0.1704046   2.52 0.0005469375    1.439    0.305
        18 -11.3179    171.3206    198.1866   3.7833206346e+01   9.9766342653e+00    0.4264733    0.3390455 -76.20  0.002410752    2.263    0.558
        19 -11.1316    161.3616    196.9965   3.9677771378e+01   1.1536425350e+01    0.2875979    0.2254734 -25.98  0.001274703    1.224    0.183
        20 -10.4218    151.1753    196.2584   4.1725404063e+01   1.3084093710e+01    0.2523845    0.1627018  36.78 0.0007530471    1.529    0.346
        21 -10.1899    158.4999    219.8495   4.3765397779e+01   8.0677650071e+00    0.2319102    0.1806595  55.67  0.001253186    1.928    0.481
        22 -10.1004     87.8276    186.1103   5.5510700483e+01   2.4143337141e+01    0.2537712     0.203446   7.61 0.0008260045    1.364    0.267
        23 -13.8768    187.5206    174.2034   3.0490541309e+01   1.1765664780e+01    0.7407097    0.3631232 -38.53  0.001956429    1.880    0.468
        24 -11.4505    154.9741    179.8895   3.8141631661e+01   1.5561668298e+01    0.3036238    0.1945934 -52.88 0.0008920624    1.787    0.440
        25 -15.8417    178.6478    168.3090   3.1101002128e+01   1.4096626898e+01     2.661257     2.221208 -28.56   0.01636118    1.112    0.100
        26  -9.9233    122.1287    165.8445   4.3358285041e+01   2.3560817869e+01    0.2135685    0.1953781  61.84  0.000524457    1.224    0.183
        27  -9.8890    248.2211    247.0436   3.1987293778e+01  -4.9559245655e+00    0.1373881   0.09276024  -8.22 0.0004028864    1.045    0.043
        28 -11.4771     67.8742    143.9024   5.5074908949e+01   3.7238902238e+01    0.8058423    0.4234952  56.30  0.003112886    2.335    0.572
        29 -10.4476      1.8803    138.0166   7.6531847932e+01   4.5407009002e+01    0.1967608    0.1738176  81.90 0.0003459302    1.014    0.014
        30 -10.1387    124.9702    133.0596   3.6021772446e+01   3.0387015026e+01    0.2782699     0.219136 -31.32 0.0005819073    1.343    0.255
        31 -11.6925    125.6526    124.2010   3.3805222744e+01   3.2246371325e+01     0.670432    0.2908291 -51.69  0.001215928    2.375    0.579
        32 -11.7055    113.9029    127.2265   3.7700372683e+01   3.3786709117e+01    0.7304646     0.512353 -29.31  0.001632637    1.687    0.407
        33 -11.7684    113.1352    107.7383   3.3144363561e+01   3.8442363391e+01     1.334923    0.7691553 -55.26  0.005465799    1.831    0.454
        34 -12.3462    123.6959    103.8175   2.9196677646e+01   3.7149782345e+01     1.341166     1.025277  83.33  0.006157558    1.741    0.426
        35 -11.7936    117.9505    117.3154   3.4219029546e+01   3.5300464972e+01    0.7780982    0.5472781  29.72  0.003314199    1.579    0.367
        36  -8.9397     80.0023    122.9887   4.7149378538e+01   4.0826391693e+01    0.1831244    0.1771305  47.83 0.0003346221    1.039    0.038
        37 -12.5004     46.4721     98.5507   5.4319435615e+01   5.2201009848e+01    0.4969161    0.4693069 -48.83 0.0008602913    1.048    0.046
        38 -12.8083     63.0149    105.0229   4.9190536048e+01   4.8177734616e+01     0.862812    0.6298328  48.29  0.001072834    1.432    0.302
        39 -13.9281     56.4315    100.1505   5.0622139330e+01   5.0427153994e+01     2.467713     1.077059  32.51  0.006535626    2.290    0.563
        40  -8.9411    200.8627    218.4822   3.5478816014e+01   3.2006927148e+00    0.1564663   0.09756043  22.55 0.0003702815    1.459    0.315
        41 -10.3980    223.6784    223.2956   3.2344670824e+01   9.8405365562e-02    0.1633647    0.1329383  -1.03  0.001270224    1.244    0.196
        42  -8.9228     95.4775    106.5608   3.8181385824e+01   4.2185602875e+01    0.1527235    0.1515048 -59.98 0.0001170539    1.014    0.014
        43 -12.1604    168.7256     95.5850   1.6927077087e+01   2.9288259780e+01    0.8368809    0.4894915 -17.18  0.001987498    2.839    0.648
        44  -9.5147    107.5135     96.3663   3.1699492331e+01   4.2168111207e+01    0.4056498    0.2041521 -36.22  0.001317216    2.376    0.579
        45 -10.6652    175.6790    222.1913   4.0695207014e+01   5.5987341851e+00    0.1847226    0.1612478 -32.81  0.001305939    1.386    0.279
        46 -15.1883    191.0018    190.8420   3.2792944530e+01   8.5509105056e+00     3.831301     2.817789  79.03   0.01715853    4.213    0.763
        47 -15.4057    198.0929    177.3467   2.9118228031e+01   9.7592625419e+00     3.197969     2.329567  88.01   0.01355196    4.583    0.782
        48  -9.3764     91.9878     88.1557   3.4214157904e+01   4.7208314506e+01    0.2194529    0.2137213 -41.92 0.0004109417    1.033    0.032
        49 -12.1822    173.7343    216.5517   4.0235961446e+01   6.6983449235e+00    0.5086389    0.3342935 -21.75  0.003081133    1.484    0.326
        50  -9.7017    201.0432     82.8037   8.5858814305e+00   2.4912837436e+01    0.2568309    0.1845921  10.58  0.001304045    2.200    0.545
        51 -11.3457    169.8654     70.7696   1.0183400022e+01   3.3310779449e+01       0.5259    0.3562979 -45.54  0.002010545    1.344    0.256
        52 -12.1900      2.7290     60.6095   6.8075984984e+01   6.6050551815e+01     1.021298    0.3726662 -81.93  0.003762714    3.066    0.674
        53 -10.6881    174.2740     64.4278   7.7708875993e+00   3.3342586074e+01     0.382508    0.2634405  29.52  0.001839762    2.142    0.533
        54  -9.8649    214.5583     59.2117   1.3962498986e+00   2.5739718286e+01    0.2821467    0.1684652  34.42   0.00135421    2.900    0.655
        55  -9.1182     41.7291     61.0168   4.6329380438e+01   6.2345914661e+01    0.2014197    0.1674374 -45.78 0.0003769396    1.151    0.131
        56  -9.1412    247.6856     55.1037   3.5750814647e+02   2.0319279567e+01    0.2048625    0.1029014 -48.25  0.001182241    1.570    0.363
        57 -11.3781    233.6850    215.6721   2.9587029476e+01   4.4138483734e-02    0.2286061    0.1909444  19.13 0.0005125991    1.529    0.346
        58  -9.7978    245.1081     46.8531   3.5599452541e+02   2.1773069667e+01    0.2350399    0.1580648  68.53  0.001200991    1.808    0.447
        59  -9.2912    250.3857     46.1211   3.5546564587e+02   2.0969418608e+01    0.1822546    0.1136391 -52.66 0.0004356878    1.288    0.224
        60  -9.8692    243.3017     42.1535   3.5514421276e+02   2.2652098081e+01    0.2377121   0.09461927 -27.00 0.0008955255    2.676    0.626
        61  -9.8475    211.0795     39.0583   3.5699000181e+02   2.9058239395e+01    0.3788568    0.1721523  48.15  0.001702842    3.237    0.691
        62 -10.5012    247.6375     38.0185   3.5399224921e+02   2.2394568822e+01    0.2121508    0.1458763  65.87  0.001102706    1.809    0.447
        63 -11.8210    225.7037     49.9679   3.5822151218e+02   2.4850228435e+01    0.6472197    0.6030697  -3.23  0.004646578    1.405    0.288
        64 -11.4661    183.8901    214.0396   3.7901909701e+01   5.8408607964e+00    0.2824788    0.2667448 -42.03  0.002038327    1.531    0.347
        65 -12.0605    228.8968     30.6349   3.5367686321e+02   2.6610743151e+01    0.4257508     0.237068 -34.71  0.001858553    1.519    0.342
        66 -10.7670    222.8268    213.5938   3.0990395958e+01   1.4445226605e+00    0.2035138    0.1592928 -11.13 0.0003854646    1.121    0.108
        67 -10.9341    226.6819     64.8687   1.4508929238e+00   2.2702281505e+01    0.5192682     0.345342  10.76  0.002579763    2.993    0.666
