#   1 NUMBER                 Running object number                                     
#   2 MAG_AUTO               Kron-like elliptical aperture magnitude                    [mag]
#   3 X_IMAGE                Object position along x                                    [pixel]
#   4 Y_IMAGE                Object position along y                                    [pixel]
#   5 X_WORLD                Barycenter position along world x axis                     [deg]
#   6 Y_WORLD                Barycenter position along world y axis                     [deg]
#   7 A_WORLD                Profile RMS along major axis (world units)                 [deg]
#   8 B_WORLD                Profile RMS along minor axis (world units)                 [deg]
#   9 THETA_WORLD            Position angle (CCW/world-x)                               [deg]
#  10 FWHM_WORLD             FWHM assuming a gaussian core                              [deg]
#  11 ELONGATION             A_IMAGE/B_IMAGE                                           
#  12 ELLIPTICITY            1 - B_IMAGE/A_IMAGE                                       
         1 -15.5694    192.8307    156.8843   4.7626713910e+01   1.2232272752e+01      8.45729     4.476238  60.61   0.03267622    3.329    0.700
         2 -15.7171    169.6529    106.1282   4.0268826694e+01   2.6138509499e+01     5.875101     4.433794 -24.09   0.01696075    1.417    0.294
         3 -14.1184     12.9982    117.7818   8.6738938819e+01   5.0068368543e+01     2.425882     1.452633  83.57   0.01042158    1.534    0.348
         4 -17.6768    243.5155    109.0002   2.8715922642e+01   1.0201130140e+01     6.182418     4.150004  35.93   0.01530985    1.737    0.424
         5 -17.0511    247.3885     82.0225   2.1945235828e+01   1.3291424856e+01     7.429043     3.224998 -53.08   0.01846937    3.040    0.671
         6 -11.7059    231.4232     11.1869   6.0707698395e+00   2.5546963385e+01    0.3363622     0.305965  -8.27  0.002211891    1.345    0.257
         7 -10.6089    236.4774      6.5146   4.6165330393e+00   2.4914779333e+01    0.4178859    0.1776166 -67.16  0.001320412    2.509    0.601
         8 -10.6153    216.5836      2.2945   4.7733723967e+00   2.9827016147e+01    0.3710227    0.2429609  88.86  0.001514495    1.491    0.329
         9 -10.0566    174.0957    220.8307   6.2372640579e+01   5.4959874467e+00     0.176978    0.1467539  44.73 0.0006567722    1.283    0.221
        10 -10.1455    249.6234    249.1837   5.3991232508e+01  -7.8197280353e+00    0.2527584    0.1473688   9.54  0.001824371    1.425    0.298
        11 -11.0189    246.9917    246.7740   5.4038516327e+01  -7.2952663584e+00    0.3602662    0.1934845   9.40  0.002313674    1.753    0.429
        12 -10.5052     38.2148    214.2090   8.8470068881e+01   2.5839514482e+01    0.2739701    0.1361672  56.04  0.001594579    1.609    0.378
        13 -10.5511    235.7762    249.6032   5.6144310031e+01  -6.2354408037e+00    0.1564187    0.1251233 -19.87   0.00128341    1.530    0.346
        14  -9.2034    185.1233    179.4946   5.3516300556e+01   9.9233087341e+00    0.1969903    0.1200377  40.95  0.001018199    1.557    0.358
        15  -8.5218     69.7389    178.2780   7.8463562476e+01   2.9314660830e+01    0.1293192   0.08561639  68.18 0.0001680824    1.473    0.321
        16  -9.3997    188.0055    174.7979   5.2091374014e+01   1.0174490077e+01    0.2533828    0.1841422 -51.98  0.001077625    1.717    0.417
        17 -11.0938    185.4268    168.6573   5.1401127713e+01   1.1631627986e+01    0.5528052    0.2686104 -34.22  0.001879957    2.176    0.541
        18  -9.2731    249.6646    195.8943   4.5501142893e+01  -2.3394638290e+00    0.1931353    0.1422701  31.41 0.0004975434    1.414    0.293
        19 -10.6532    179.0000    174.0339   5.3675513332e+01   1.1886487305e+01    0.3347339    0.2192071 -29.80  0.001748958    1.631    0.387
        20 -11.1380    177.6790    169.9758   5.3160728396e+01   1.2805693567e+01    0.5033542    0.3877717  22.78  0.002009637    1.294    0.227
        21  -9.4365    148.1000    174.7299   6.0111460537e+01   1.7292624241e+01    0.2010414    0.1829219 -70.19 0.0003283948    1.250    0.200
        22  -8.5949    110.4989    167.4527   6.7297691939e+01   2.5356559762e+01    0.1384965    0.1261857  62.45 0.0001103225    1.013    0.013
        23 -11.1365    179.2113    162.9543   5.1481392450e+01   1.3727030213e+01    0.3014683    0.1951356 -38.11  0.001167975    1.571    0.364
        24  -8.3660     40.6974    160.2923   8.3542468054e+01   3.7076626043e+01    0.1349026   0.08130818  66.48 0.0002178311    1.571    0.364
        25  -9.1578    126.1351    192.4342   6.7683893625e+01   1.7754679171e+01    0.1717843    0.1639913  62.95 0.0003522217    1.088    0.081
        26 -12.0130    226.3802    247.9025   5.7365637303e+01  -4.9253675994e+00    0.3661667    0.2345117 -25.37  0.002692171    1.680    0.405
        27  -9.9216      5.1760    155.7157   9.2031986928e+01   4.1592031918e+01    0.2188719     0.127175  82.91 0.0006933308    1.408    0.290
        28 -10.6636     80.3736    154.9038   7.2702507165e+01   3.3040697428e+01    0.4226293    0.1513272  47.07  0.001573839    2.750    0.636
        29  -8.7321    203.4527    187.9280   5.1684411503e+01   5.5797753137e+00    0.1561545    0.1091704 -59.38 0.0006813612    2.437    0.590
        30 -10.2142    233.8106    186.8575   4.6355395072e+01   1.0097879453e+00    0.2090843    0.1572642  33.82 0.0007060668    1.372    0.271
        31 -12.6444     67.7156    144.1598   7.4381553310e+01   3.7450968672e+01    0.7904493    0.5889084  67.40  0.002968719    1.321    0.243
        32 -11.9419     67.5572    136.9982   7.3279258331e+01   3.9206119464e+01     0.511748    0.3626882  56.30  0.001696547    1.405    0.288
        33  -9.6913     25.9761    135.0280   8.4789603524e+01   4.4686680112e+01    0.1954538    0.1608039  88.19 0.0003313684    1.005    0.005
        34 -12.3782    219.4646    247.4986   5.8404688820e+01  -4.0193809292e+00    0.5295723    0.1817992  32.45  0.002761604    2.403    0.584
        35 -14.3126     58.1440    117.7603   7.2677697095e+01   4.5274587712e+01     2.227833     1.318358  33.51  0.006439689    1.862    0.463
        36 -10.8775     47.8589    121.8406   7.6551998105e+01   4.5579981456e+01    0.2571484    0.2168133 -54.22 0.0003100534    1.247    0.198
        37 -12.3672     45.8402    117.7658   7.6505152239e+01   4.6843876427e+01    0.4558731     0.420099  43.42 0.0008378258    1.233    0.189
        38 -11.1114    146.2252    110.8247   4.6605798940e+01   3.0476591065e+01    0.4319607    0.3795819 -46.67   0.00134824    1.112    0.101
        39  -9.7262    109.8042    106.8532   5.4816928859e+01   3.9117221775e+01    0.2336048    0.2128812 -17.46 0.0006817278    1.252    0.201
        40 -12.0824    125.0415    106.0678   5.0529224045e+01   3.6116752691e+01    0.9943063     0.628337 -73.63  0.003777596    2.488    0.598
        41 -10.0103    119.0000     91.9771   4.8165548385e+01   4.0483699088e+01    0.4061732    0.2723592 -73.63  0.001636669    2.143    0.533
        42  -8.9109    111.8881    243.1237   7.6647854702e+01   1.1310371006e+01    0.1630952    0.1206625  52.85  0.000295936    1.168    0.144
        43 -16.0816    243.2657     94.4957   2.5382306392e+01   1.2330038092e+01     2.956259     1.511168  73.92   0.01206289    3.563    0.719
        44  -9.1787    191.6919    241.3521   6.2141146738e+01   3.2204115161e-01    0.0998551   0.08232395  54.86 0.0007043266    1.716    0.417
        45  -8.9112    110.7941     78.2770   4.6209629086e+01   4.5190761964e+01    0.2003634    0.1769254  -6.07 0.0003419833    1.301    0.232
        46  -9.2146    139.6723     75.2885   3.7833675197e+01   3.9076061730e+01     0.235072    0.1971567 -41.77 0.0005929605    1.152    0.132
        47  -9.3675    136.4975     73.5260   3.8010418837e+01   4.0175406215e+01    0.3010694    0.2533717 -77.21  0.001472481    1.342    0.255
        48  -8.8518     96.0996     70.8936   4.8118054829e+01   4.9879029731e+01    0.1977617    0.1715763 -20.91 0.0003666389    1.241    0.194
        49 -10.4205    183.8652     60.1724   2.4655103550e+01   3.0679437000e+01    0.2683741    0.2187575 -11.38 0.0007964871    1.387    0.279
        50  -8.4416    142.2603     53.6262   3.0063514610e+01   4.2238370237e+01    0.1617212     0.111312 -59.41 0.0006977665    1.658    0.397
        51 -10.4885    160.3482     50.8896   2.5666026061e+01   3.8040180933e+01    0.2567604     0.211106  85.99  0.000561735    1.297    0.229
        52 -11.8040    150.1807     45.0461   2.5546420054e+01   4.1533798360e+01    0.6243465    0.4410703 -16.14  0.000959949    1.619    0.382
        53  -9.4881    137.5301     50.2287   2.9874497418e+01   4.3983153326e+01    0.3519954    0.1572205 -21.49  0.001140905    3.125    0.680
        54  -9.2902    220.1237    212.1197   5.2965587749e+01  -1.4962665086e-01    0.1450692     0.132806  39.19  0.001059607    1.527    0.345
        55 -10.0775    140.0935     42.5168   2.6593619739e+01   4.4508041862e+01    0.4096282    0.2249574  -9.29  0.001462554    2.880    0.653
        56  -9.4619     20.4933    211.5155   9.1816209041e+01   2.8259178849e+01    0.1136637   0.08381189  66.23 4.015118e-07    1.009    0.009
        57 -11.2572    241.0423     25.2521   8.8497776124e+00   2.1900904225e+01    0.3419212    0.1909603 -30.15   0.00112945    1.579    0.367
        58  -8.8314    122.4288     24.4965   2.3298792998e+01   5.1476778326e+01     0.143984    0.1369755  31.61 0.0001336712    1.061    0.057
        59 -10.1281    109.8047     23.2349   2.5521005224e+01   5.4804682413e+01    0.2486125    0.2216047  20.44  0.000356307    1.147    0.128
        60  -9.1488    216.1812    201.7379   5.1894831187e+01   1.7227964613e+00    0.2687764     0.121916 -38.74  0.001363816    2.398    0.583
        61  -9.1296     24.3419    202.3272   9.0546778233e+01   2.9685804960e+01    0.1017484   0.08572841 -48.20 0.0007051243    1.739    0.425
        62  -8.8903     56.4535     17.2899   3.9254381285e+01   6.7319589476e+01    0.2383638    0.1216108 -26.36 0.0008686117    1.960    0.490
        63  -9.6458    250.3732     16.2265   6.0816933685e+00   2.0938678135e+01    0.2341679    0.1230198 -40.11  0.001261233    1.482    0.325
        64 -10.5297    245.3112     15.7285   6.2791570994e+00   2.2050576941e+01    0.2300378    0.1939958 -57.60  0.000570177    1.066    0.062
        65 -11.9349    193.4805    194.5776   5.4653021615e+01   6.2260301332e+00     0.702248    0.4684304 -61.01  0.003008545    2.693    0.629
        66 -11.9007    235.6910    237.8982   5.4469013041e+01  -5.0773916335e+00    0.3039908    0.1705941  35.47   0.00203461    1.621    0.383
        67  -9.7298    204.0090    200.0627   5.3708720781e+01   3.7911380667e+00    0.3331627    0.1609671  29.88  0.001659228    2.026    0.506
        68  -8.4186     37.5201    239.5233   9.0064450946e+01   2.1296754617e+01    0.1080292   0.07958554  59.36 0.0008095717    1.039    0.038
