#   1 NUMBER                 Running object number                                     
#   2 MAG_AUTO               Kron-like elliptical aperture magnitude                    [mag]
#   3 X_IMAGE                Object position along x                                    [pixel]
#   4 Y_IMAGE                Object position along y                                    [pixel]
#   5 X_WORLD                Barycenter position along world x axis                     [deg]
#   6 Y_WORLD                Barycenter position along world y axis                     [deg]
#   7 A_WORLD                Profile RMS along major axis (world units)                 [deg]
#   8 B_WORLD                Profile RMS along minor axis (world units)                 [deg]
#   9 THETA_WORLD            Position angle (CCW/world-x)                               [deg]
#  10 FWHM_WORLD             FWHM assuming a gaussian core                              [deg]
#  11 ELONGATION             A_IMAGE/B_IMAGE                                           
#  12 ELLIPTICITY            1 - B_IMAGE/A_IMAGE                                       
         1 -15.1087    160.7488     80.6882   2.4288297640e+01   3.4063573415e+01     1.910426     1.360284 -17.90  0.005611096    2.112    0.527
         2 -14.6426    100.8560     49.8502   2.7828442401e+01   5.2036649062e+01     1.303062    0.8934398  43.61  0.005738268    1.553    0.356
         3 -14.9700      6.4923     71.4308   7.5897440260e+01   6.3612274490e+01     1.206601    0.8887564 -49.90  0.005075616    1.274    0.215
         4 -12.7022    120.3140     26.5961   1.6393024195e+01   5.0690301382e+01    0.6399758     0.514767  64.50  0.003942402    1.203    0.169
         5 -13.4114    135.7163     51.5658   2.1078547486e+01   4.3895617871e+01     1.451876    0.4187313 -39.03  0.005338495    3.325    0.699
         6 -13.2500    140.4208     21.1987   1.1978949761e+01   4.6721168129e+01    0.6508128    0.3148252  72.39  0.001053854    1.852    0.460
         7 -15.0017    166.9150     29.1726   1.1092623070e+01   4.0087708291e+01    0.9333387    0.7496936 -88.13  0.003929514    1.114    0.102
         8 -14.9193    124.5231     35.8275   1.8489732742e+01   4.8583428561e+01     1.707355     0.524555  53.71   0.00645062    3.154    0.683
         9 -15.6502    218.8434     16.0373   4.4011011653e+00   3.1705530894e+01     1.771786    0.9815417 -34.33    0.0118108    1.816    0.449
        10 -15.2574    189.3450     19.7030   6.9976681532e+00   3.6671216676e+01     1.525539    0.6390356 -47.80  0.008514686    1.886    0.470
        11 -16.0263     11.5578     22.7139   5.6620125137e+01   7.3709478463e+01     2.062432     1.272669 -19.05   0.01082933    1.890    0.471
        12 -14.1713     26.7040     13.0073   4.0701029070e+01   7.2960805466e+01    0.7967156    0.4929614  23.21  0.004222001    1.760    0.432
        13 -14.1408     41.4123      5.2063   2.8447172985e+01   7.1053189544e+01     0.974341    0.6151336  22.63  0.004656406    1.972    0.493
        14 -13.7232    242.2678     34.2113   6.3950123998e+00   2.5912032821e+01    0.6352818    0.4301324 -74.61  0.003340565    1.318    0.241
        15 -15.0559    147.7843     29.6582   1.3360841378e+01   4.4118258416e+01     1.364228    0.6788867  68.49  0.006462754    1.848    0.459
        16 -15.4401     99.5212     11.9236   1.5092164523e+01   5.7145722749e+01     1.495757    0.8081838  63.55   0.00340204    1.556    0.357
        17 -11.8919     71.0839     16.1803   2.3275777836e+01   6.3352797186e+01    0.3100259    0.2219172 -22.00  0.001634474    1.734    0.423
        18 -11.8801     74.5271     10.0116   1.9689666847e+01   6.3202784301e+01    0.3898509    0.2576692 -28.60  0.002225518    1.803    0.445
        19 -12.2420     60.2852     15.4283   2.6345425345e+01   6.5870919881e+01    0.5145534    0.2616439  42.39   0.00228852    1.938    0.484
        20 -11.8829     46.6823     12.8524   3.0289667952e+01   6.9103573251e+01    0.3354029    0.2202854  59.03  0.001457714    1.412    0.292
        21 -12.5728    153.0027      8.4043   7.2624374884e+00   4.5281014352e+01    0.2640931    0.2465259  62.21  0.001378883    1.393    0.282
        22 -12.6541     85.6277     13.9923   1.8657124253e+01   6.0209846453e+01    0.3752132    0.3683604 -30.19  0.001872892    1.236    0.191
        23 -12.3611    120.5439      3.1997   9.1117736764e+00   5.3037631026e+01    0.5272079    0.2176746 -83.27  0.002189565    2.990    0.666
        24 -10.8373    176.8782      4.5050   4.5100485317e+00   4.0685318517e+01    0.1569897   0.09263504  84.78 0.0004536147    1.492    0.330
        25 -13.0518      7.6775      2.5501   4.8177655669e+01   7.7448641898e+01    0.6005985    0.4251488  36.52  0.003814861    1.317    0.241
        26 -11.9378     80.6915      1.7379   1.4799134491e+01   6.2513057460e+01    0.6260511   0.07743371  62.95  0.001978246    4.266    0.766
        27 -11.1624     67.7721      2.6160   1.8157033869e+01   6.5453140569e+01    0.2805698    0.1675496  41.33  0.001523369    1.747    0.428
        28 -11.4061     61.2225      1.4663   1.9398293946e+01   6.7056855295e+01    0.3575067     0.103325  63.96  0.001384036    2.823    0.646
        29 -13.7085     22.3058    180.9686   8.3096366261e+01   3.2883701703e+01    0.9050968    0.5308791 -53.46  0.003470886    1.784    0.439
        30 -12.8380    107.9961    243.8840   6.6037278073e+01   9.4805125334e+00    0.5284001    0.3637252  -5.33  0.003051282    1.442    0.306
        31 -13.1712     57.0246    246.7603   7.8678310267e+01   1.4125632415e+01     0.623449    0.3048786  20.14  0.003040181    1.760    0.432
        32 -11.9677     41.0517    248.0495   8.2724135197e+01   1.5361095565e+01    0.4955088    0.2370646 -84.94   0.00234436    2.735    0.634
        33 -13.4705     28.2331    246.4742   8.5795752877e+01   1.6821222627e+01    0.6556023    0.5047587   5.57  0.003644775    1.339    0.253
        34 -12.1837      2.7839    249.6356   9.2097967576e+01   1.8204676704e+01    0.3822862    0.2210207  37.98  0.001788276    1.355    0.262
        35 -14.1316      9.4372    245.5369   9.0356798299e+01   1.8552819532e+01     1.049805    0.4468394  40.62  0.004137784    1.824    0.452
        36 -15.1475      8.2800    183.1867   8.7646417017e+01   3.3398272558e+01     1.331313     1.252388  40.03  0.008074014    1.047    0.045
        37 -15.0746     15.5908    175.1141   8.4782974640e+01   3.4981435808e+01     2.372351    0.7792969  42.99   0.00844078    2.787    0.641
        38 -12.2412    201.0268    191.3006   3.9196506625e+01   8.4995209855e+00    0.2744465    0.1964769 -15.25  0.001427422    1.292    0.226
        39 -11.2427    179.6979    188.6562   4.2549594039e+01   1.1436346958e+01    0.1311113   0.08308188 -18.40  0.000703889    1.681    0.405
        40 -11.7636     97.3384    188.3154   6.1445194323e+01   2.2433890776e+01    0.1524503    0.1053131 -18.31 0.0005700817    1.700    0.412
        41 -13.1321     21.8955    166.3444   8.1968228168e+01   3.6825385980e+01    0.5506192    0.3089962   4.22  0.001787999    2.038    0.509
        42 -12.3665     48.6215    181.3956   7.4841730686e+01   3.0203164233e+01    0.5798253    0.3308816 -47.20  0.002543749    1.877    0.467
        43 -13.7941    197.0122    178.8887   3.7821689273e+01   1.1023364814e+01    0.6580979    0.4234408 -69.25  0.003122985    3.358    0.702
        44 -12.7155     84.6883    172.5357   6.2589527324e+01   2.7943434388e+01    0.5225644    0.1968622 -49.79  0.001863862    2.633    0.620
        45 -13.3501    124.9877    167.9840   5.0794250455e+01   2.3089370841e+01    0.7606289    0.2737647 -52.68  0.002755594    2.773    0.639
        46 -11.0522    101.9870    160.7684   5.5583362201e+01   2.8268470801e+01    0.2053297    0.1210663  30.56 0.0008880641    1.671    0.401
        47 -11.2534      2.1081    159.3427   8.8157332823e+01   4.0169269620e+01    0.2755829    0.2295092 -58.82   0.00144385    1.219    0.179
        48 -11.7489     27.9698    158.9717   7.9152180478e+01   3.8294719078e+01    0.2534687     0.159274  55.53 0.0009357426    1.675    0.403
        49 -12.5741     77.3389    156.9117   6.2259752580e+01   3.2911512984e+01     0.602275    0.4516302  24.97  0.001840536    1.312    0.238
        50 -13.7249     74.0091    153.4915   6.2733864721e+01   3.4267582196e+01    0.7895833    0.6223446  24.41  0.002560489    1.250    0.200
        51 -11.3895    155.5009    157.4921   4.1813803562e+01   2.0626115810e+01     0.234682    0.1227549  48.05  0.001037296    2.359    0.576
        52 -12.7885    111.7359    155.5335   5.1917272868e+01   2.7970190508e+01    0.5593759     0.379365  77.28  0.002327482    2.469    0.595
        53 -12.8985    208.4815    154.1003   3.1696883408e+01   1.3728279283e+01    0.5079435    0.3962032  27.61  0.003473445    1.525    0.344
        54 -12.9210    122.6025    153.8318   4.8737652560e+01   2.6607795445e+01     0.641483    0.3315625 -48.10  0.002739897    1.875    0.467
        55 -11.8800     55.5058    155.8768   6.9245588830e+01   3.6130282536e+01    0.3880723    0.2436941 -10.00  0.001579422    2.135    0.532
        56 -12.2717     85.7602    152.6906   5.8888929191e+01   3.2733182754e+01    0.5758494    0.3139037 -40.14  0.002304966    2.063    0.515
        57 -12.7507      8.4553    149.4391   8.5186681640e+01   4.2478588197e+01    0.7127467    0.4433629  59.72  0.003307847    1.669    0.401
        58 -10.8576     12.6657    148.6714   8.3586354430e+01   4.2396721202e+01    0.2670057    0.1792015  -7.23   0.00119468    1.688    0.408
        59 -12.0138    103.5648    149.6256   5.3038715967e+01   3.0675397672e+01    0.4112131    0.2874176 -26.28  0.001686137    1.711    0.416
        60 -12.3991     62.5111    145.9904   6.5268781011e+01   3.7842936028e+01    0.3194807    0.2021503  43.67  0.001391822    1.592    0.372
        61 -10.4983     38.1867    145.8076   7.3886481861e+01   4.0884402404e+01    0.2115535    0.1703248 -30.38  0.000459312    1.338    0.253
        62 -12.0471     42.6544    138.9371   7.1229432119e+01   4.2265826694e+01    0.2726139    0.2162741   1.67  0.001331287    1.361    0.265
        63 -12.6996    246.4828    132.9076   2.3094008199e+01   1.2289211341e+01    0.3885187    0.2378632 -45.40  0.002706718    1.265    0.209
        64 -14.6504    230.1366    127.7574   2.4108631045e+01   1.5074857015e+01     1.020264    0.8101195 -57.20  0.007552212    1.287    0.223
        65 -12.8599    137.0553    131.8711   4.0708339980e+01   2.8920570248e+01    0.6129627    0.3121463  39.22  0.002639745    2.082    0.520
        66 -14.8092    107.0264    123.3902   4.6510951920e+01   3.6222219223e+01     1.817774     1.069492  32.61   0.00781063    1.827    0.453
        67 -15.3384    105.8018    105.4401   4.2559572762e+01   4.0465418626e+01     1.708529     1.571574 -68.70  0.008848626    1.101    0.092
        68 -12.3997    180.9054    120.1577   2.9619218884e+01   2.3592062623e+01    0.2295262    0.1881924  50.38  0.001266715    1.398    0.285
        69 -12.3225      4.2525    119.4588   8.4052578401e+01   5.1038028406e+01     0.600377    0.2779235   4.54  0.002385545    2.378    0.579
        70 -12.8007     78.9771    110.5081   5.2237958626e+01   4.4332135964e+01    0.3864515    0.3372233 -69.79  0.001640538    1.217    0.178
        71 -13.3417     85.0491    115.0564   5.1280509607e+01   4.2162958619e+01     1.028987    0.5449435  23.51   0.00348654    2.480    0.597
        72 -12.5892     88.2299    109.3484   4.8864970329e+01   4.2937533815e+01    0.6007698    0.3719783 -65.10  0.002536468    1.920    0.479
        73 -11.3273    186.0253    116.0064   2.7954758460e+01   2.3467724695e+01    0.1953641    0.1437694 -73.01 0.0006107702    1.657    0.397
        74 -12.9751     32.5177    111.7751   7.0735393161e+01   5.0797795807e+01    0.6323634    0.4100452 -55.86  0.002908264    1.497    0.332
        75 -12.0896     42.7098     90.1854   6.1557520616e+01   5.5132018342e+01    0.4241166    0.2760612 -59.56 0.0008250934    1.585    0.369
        76 -14.3084     18.2985    110.7903   7.6816811506e+01   5.2435302273e+01     1.102624    0.8008833 -31.24  0.005432349    1.431    0.301
        77 -13.0875     21.7289     86.0928   7.0709758204e+01   5.8659961147e+01    0.8664863    0.5493701   6.78  0.003555719    1.665    0.399
        78 -14.3650     11.1865    102.3806   7.8815939280e+01   5.5260678165e+01     1.029574    0.8731146   7.23  0.005110469    1.192    0.161
        79 -12.4407     36.6924     92.8284   6.4955561077e+01   5.5267569542e+01    0.5810217    0.3773753   5.40   0.00182841    1.780    0.438
        80 -14.2709     23.5967     95.2643   7.1670994810e+01   5.6108102022e+01     1.509232    0.6457582  19.61  0.005542228    2.328    0.570
        81 -12.6567     29.8212     89.7380   6.7499230563e+01   5.6875561755e+01    0.5359516    0.3819608  78.27  0.002506894    1.827    0.453
        82 -13.6621      2.3222     96.9464   8.2311626153e+01   5.7267031824e+01    0.9288096      0.36122 -74.57  0.003539399    2.495    0.599
        83 -13.1166    121.4408    111.7674   3.9928811229e+01   3.6056791795e+01     0.382153    0.2807864  59.09  0.001240723    1.490    0.329
        84 -12.2283     63.0567    110.7241   5.8055794897e+01   4.6948000101e+01     1.008596    0.4432958 -67.81  0.003330825    3.097    0.677
        85 -12.4913     62.0336     98.6022   5.5519871303e+01   5.0115459487e+01    0.5996298    0.4378984  67.19  0.002138187    1.724    0.420
        86 -12.0232    177.1753    110.1368   2.8157829261e+01   2.5980282145e+01    0.3186909    0.2390158 -32.18   0.00186438    1.385    0.278
        87 -11.4918     45.9475    110.1644   6.4732612970e+01   4.9594069359e+01    0.3458955    0.2608461 -38.75  0.001306731    1.387    0.279
        88 -11.1722     43.1232    106.8630   6.5221240983e+01   5.0829563807e+01     0.214504     0.204851 -62.99 0.0005269107    1.073    0.068
        89 -11.7645     47.3227    132.9894   6.8509623917e+01   4.3321642277e+01    0.4854001    0.1696858 -63.71  0.001609519    2.791    0.642
        90 -12.9030    135.9993    102.8085   3.4332260507e+01   3.5022397842e+01    0.8677606    0.3367528  49.60  0.003295109    2.693    0.629
        91 -13.3075    137.3224     95.2124   3.2197154913e+01   3.6214300899e+01    0.5320483    0.4103861 -77.38  0.001423018    1.472    0.321
        92 -13.7841    120.1899    102.3189   3.7935633889e+01   3.8269543352e+01    0.6473573    0.3936386  44.64  0.002976451    1.674    0.403
        93 -10.7570     75.2194    100.7667   5.1126695193e+01   4.7322632458e+01    0.2002715    0.1766593  -5.05 0.0004546557    1.275    0.216
        94 -12.2282     48.8924     92.8041   5.9475273557e+01   5.3596977277e+01    0.7291169    0.5992823 -37.98  0.002224754    1.259    0.206
        95 -11.0999     48.7535    101.0025   6.1529079731e+01   5.1568912485e+01    0.4499914    0.3227618  61.80  0.001580445    1.684    0.406
        96 -12.2597     52.4710     97.5921   5.9147074111e+01   5.1877383571e+01    0.5102699    0.3230087 -23.36  0.001853108    2.153    0.536
        97 -13.3107    248.3216     94.6866   1.6444386513e+01   1.7429799666e+01    0.6958188    0.2388025 -49.22  0.003625985    2.369    0.578
        98 -12.4830    163.5951     97.5595   2.7701184986e+01   3.0641816120e+01    0.3290844     0.259207  66.57 0.0006917526    1.377    0.274
        99 -12.1351     89.8684     97.8289   4.5391226582e+01   4.5253864389e+01    0.4167503    0.2861027 -42.05  0.001939177    1.546    0.353
       100 -12.0254    129.3226     96.1062   3.4187947114e+01   3.7664911446e+01    0.2829234    0.2094146  61.61  0.001453903    1.421    0.296
       101 -12.9032     28.4616    122.0131   7.4175695807e+01   4.8438235059e+01    0.5560179    0.3708516 -49.54  0.002550182    1.480    0.325
       102 -14.1907    188.6167     82.7038   2.0662206770e+01   2.8465795530e+01     1.547107    0.9131519 -85.72  0.007683351    2.529    0.605
       103 -14.4381    198.8438     69.9184   1.6751221748e+01   2.8541339210e+01     1.180738    0.8242392  54.77  0.007591637    1.745    0.427
       104 -14.3829    213.2362     78.3604   1.6890357902e+01   2.4890847251e+01     2.960792     1.087307  74.94  0.009183874    8.330    0.880
       105 -13.1158    215.6042     72.3166   1.5476368171e+01   2.5354040516e+01    0.5617183    0.3169889 -76.07  0.002810091    2.271    0.560
       106 -11.6181    209.5875    249.2390   4.6327861635e+01  -1.0304716487e+00     0.154984    0.0739794 -31.02 0.0009597567    1.699    0.412
       107 -14.7008    169.5676     76.8000   2.2010940879e+01   3.2954501310e+01    0.8540369     0.724851 -11.64  0.003852352    1.629    0.386
       108 -10.4151     78.6332     87.1995   4.6234902607e+01   4.9773229585e+01    0.1966531    0.1396108 -41.14 0.0003779153    1.514    0.340
       109 -12.7302    132.5062     85.5738   3.0804408473e+01   3.8993050301e+01    0.2575491    0.2378872 -70.58  0.001039053    1.025    0.024
       110 -10.8168     35.1536     86.1391   6.4075466624e+01   5.7138543622e+01     0.228003    0.1922626 -21.26 0.0006334006    1.221    0.181
       111 -10.9526     59.0085    125.0222   6.2647107106e+01   4.3875829052e+01      0.18514    0.1751385 -59.88  0.000415826    1.075    0.070
       112 -12.0146     98.0438     84.0648   3.9087920577e+01   4.6529125527e+01     0.266182    0.2281092 -38.64  0.001127439    1.257    0.204
       113 -13.5461    237.9309     80.0023   1.4813763742e+01   2.0862111806e+01    0.5618494    0.3370342 -82.93  0.003570517    2.237    0.553
       114 -12.4299     39.7620     67.5680   5.6615251247e+01   6.0880828738e+01     1.194612    0.3708463  31.77   0.00401146    3.031    0.670
       115 -14.5767    170.0683    242.2446   5.2487962940e+01   3.4507478712e+00    0.9924576    0.6237361   3.48  0.006220625    1.422    0.297
       116 -14.1126     54.1377     66.7527   4.9589524359e+01   5.8710097033e+01     1.557291     1.134174  16.15  0.007651452    1.579    0.367
       117 -13.5371     66.0049     48.8880   3.8332661479e+01   5.9843877342e+01     1.005577    0.6916042 -38.71   0.00517145    1.620    0.383
       118 -13.8367     74.4923     73.7736   4.3705089848e+01   5.3426975420e+01     1.546365    0.7572221  26.40  0.005097295    3.529    0.717
       119 -13.9001     87.6589     64.8587   3.6426263031e+01   5.2430972351e+01    0.9894029    0.6828241 -11.18  0.003647997    2.470    0.595
       120 -13.3102     55.4644     80.9713   5.3420372933e+01   5.5366297015e+01     0.579057    0.5390634 -14.63  0.001895908    1.114    0.103
       121 -13.8349     61.1280     75.9312   4.9539021159e+01   5.5504032434e+01    0.7459758    0.5511347 -38.83  0.001994562    1.465    0.318
       122 -12.2742    114.0030     79.8972   3.3577188361e+01   4.3963691144e+01    0.4538638    0.3618632 -64.48  0.001118331    1.305    0.234
       123 -11.6559     42.6048     79.7669   5.8848820002e+01   5.7665576134e+01    0.3895367    0.2758057 -70.55  0.001861119    1.675    0.403
       124 -11.4511     41.5363     75.9291   5.8265837291e+01   5.8719415530e+01    0.3026526    0.2275564 -51.49  0.000788235    1.370    0.270
       125 -13.1079    135.2027     79.0646   2.8555428151e+01   3.9591062027e+01    0.7577384    0.3864754  55.73  0.003407783    1.978    0.494
       126 -12.9300     25.2464    217.3005   8.4849045637e+01   2.3551682413e+01       1.1823    0.2696681  38.35  0.004132326    3.138    0.681
       127 -14.2339      5.3766     63.3665   7.4831391597e+01   6.5655378232e+01    0.7768627    0.6434972   8.19  0.003904764    1.166    0.142
       128 -11.4875     27.6096     76.3260   6.5364233104e+01   6.0459523247e+01    0.3053954    0.2214077  59.11  0.001097633    1.701    0.412
       129 -12.3775    242.0875     71.1175   1.2888557994e+01   2.1436638499e+01    0.3763944    0.1903742 -66.05  0.002241434    2.250    0.556
       130 -13.3532    133.7356     65.9805   2.5378450332e+01   4.2113875575e+01    0.8237502    0.6844641  15.95  0.004020025    1.740    0.425
       131 -12.3520    100.5343     64.1696   3.2467800959e+01   4.9748381717e+01    0.4019935    0.3324758 -17.43  0.002159538    1.556    0.357
       132 -13.0844     78.9224     59.8587   3.7609471429e+01   5.5204432870e+01    0.6874836    0.4854522 -56.11  0.003450932    1.598    0.374
       133 -12.1251     83.5911     53.5318   3.3921674084e+01   5.5305279958e+01    0.7648197    0.3971142 -21.78  0.002584811    4.223    0.763
       134 -14.3379    177.9787     56.3846   1.6223238711e+01   3.4342410074e+01    0.8699364    0.4714294 -51.36  0.003270363    1.611    0.379
       135 -12.6118     36.4897     54.3052   5.3851596597e+01   6.4212252909e+01    0.3855098     0.265905 -23.51  0.001339487    1.726    0.421
       136 -11.3768     34.4444     60.5446   5.7094217484e+01   6.3199632461e+01    0.3757387    0.2071615 -38.28  0.001661116    2.016    0.504
       137 -11.8526     38.9909     59.9089   5.4502214115e+01   6.2659953510e+01    0.3489962    0.2283501  66.21   0.00151368    2.439    0.590
       138 -12.0936     24.6233     59.5430   6.2221766315e+01   6.4720451904e+01    0.4084359    0.2753956 -39.52  0.001529972    1.504    0.335
       139 -13.6204    157.2644     43.4495   1.5712684375e+01   4.0334204433e+01    0.7437201    0.5804149  25.41  0.004338901    2.067    0.516
       140 -14.2787     26.2613    226.4654   8.5147362859e+01   2.1346328351e+01     1.388349    0.4228986 -57.29  0.005307713    3.456    0.711
       141 -14.8070    119.6275     54.3001   2.4914493248e+01   4.7091168125e+01     1.015497    0.6867224  55.36  0.002073972    1.431    0.301
       142 -14.1082     20.8914    224.4570   8.6452882555e+01   2.2260562868e+01    0.7656313    0.5734567  67.19  0.004484854    1.343    0.255
       143 -12.9569    147.5916    238.8215   5.6579431591e+01   6.2413900307e+00     0.248251    0.2322219 -77.02  0.001081271    1.618    0.382
       144 -13.3191    237.6048    230.3240   3.9346739105e+01  -6.8191909803e-01    0.2749265    0.2557425 -11.89  0.002413161    1.686    0.407
       145 -12.6945    110.1395     41.9429   2.3125513296e+01   5.1072875975e+01    0.4983066    0.1839611  57.79 0.0009647079    2.407    0.585
       146 -12.6070     27.8968    235.4793   8.5259046759e+01   1.9196866949e+01    0.6360366    0.2528717 -46.96  0.002611177    3.250    0.692
       147 -13.1570    248.2701     52.0466   9.1165373653e+00   2.2928552416e+01    0.5643746    0.2606234 -39.45  0.003627884    1.711    0.416
       148 -11.3557     17.5809     55.0278   6.5019403269e+01   6.6528058936e+01    0.3157005    0.2321288 -73.28  0.001674979    1.668    0.401
       149 -11.9696    230.9128     54.9520   1.0864412114e+01   2.5193906470e+01    0.2977552    0.1545076  75.33  0.001891002    2.252    0.556
       150 -10.5618     23.5446     49.9522   5.9672352422e+01   6.6932504250e+01    0.1865814    0.1325629 -50.95 0.0004489493    1.479    0.324
       151 -11.8353    201.8492     46.8307   1.1689819868e+01   3.1122612473e+01    0.1640788    0.1442029 -61.91 0.0009290268    1.196    0.164
       152 -11.8727     38.5203     46.4769   4.9825650045e+01   6.5438361568e+01    0.2382873    0.2148181  15.96 0.0005558226    1.036    0.035
       153 -14.7480     95.0285    235.3508   6.8174969331e+01   1.2514785338e+01     1.207398    0.8157306  63.65  0.006284536    2.149    0.535
       154 -14.9663    212.4484     40.7442   9.5867253201e+00   3.0004929193e+01     1.713407    0.5355173  76.97   0.00743925    4.230    0.764
       155 -13.5323     57.5242    201.9205   7.4445328266e+01   2.4076761435e+01     1.718888    0.5835351 -68.88  0.006096427    3.266    0.694
       156 -14.1215     67.0216    222.9154   7.3996713990e+01   1.8174972270e+01    0.9192713    0.7133475  15.11  0.005239049    1.182    0.154
       157 -13.3163     59.4037    212.7155   7.5034382696e+01   2.1309404039e+01    0.5082877    0.3008505 -12.98  0.001072359    2.252    0.556
       158 -13.3093      6.3585     42.8868   6.8633229063e+01   7.0257596327e+01     1.052943    0.4029295  18.63   0.00438989    2.433    0.589
       159 -12.6029    144.9774    231.9883   5.6216680515e+01   7.7020977686e+00    0.3314962    0.1717111 -46.31   0.00174641    1.941    0.485
       160 -12.3137     40.2230     40.2312   4.6385533047e+01   6.6299157939e+01    0.5909457    0.2684023  40.13  0.002567468    1.981    0.495
       161 -12.9801     32.8631     40.1822   5.0377890489e+01   6.7534383945e+01     0.374281     0.273995  25.95 0.0006363175    1.258    0.205
       162 -12.7951     76.0252     37.0109   3.0280846663e+01   5.9570357721e+01    0.4887834    0.2901097  47.16  0.001132845    1.551    0.355
       163 -11.9759     71.1404     36.3545   3.1627536606e+01   6.0745648413e+01    0.3358506    0.2577186  80.99  0.001249733    1.522    0.343
       164 -13.4489     94.3074    218.2684   6.6344805321e+01   1.6124393238e+01    0.4509058    0.2857191  19.03  0.001673359    1.442    0.307
       165 -12.8892     46.0332     33.2071   4.0427374109e+01   6.6418733346e+01    0.5098467    0.4202147 -13.92  0.003000095    1.394    0.282
       166 -11.7241     35.4009     34.7908   4.6619284115e+01   6.8080169894e+01    0.2389583    0.1536408  19.75  0.001119857    1.750    0.428
       167 -13.3785     56.6758     27.0099   3.2991357799e+01   6.5193221687e+01    0.9006886    0.2898836  51.15  0.002164206    2.670    0.625
       168 -11.9138     64.4791     24.5195   2.8993389366e+01   6.3841362073e+01    0.2572417     0.242499  53.11  0.001044138    1.091    0.083
       169 -14.0304     64.3702    214.5194   7.3854310279e+01   2.0355247834e+01    0.5164776    0.4545681  16.27  0.002284489    1.052    0.049
       170 -11.1335     98.2649     26.9557   2.0666428477e+01   5.5792994535e+01    0.3013574    0.1611816  60.43  0.001056101    1.620    0.383
       171 -12.3532     30.7324     25.2132   4.4785326150e+01   7.0457633385e+01    0.4001157    0.2279767  32.07   0.00159074    1.625    0.385
       172 -11.9822     35.5484     23.4601   4.1169384221e+01   6.9879413658e+01    0.3099382    0.2397718   5.48  0.001365854    1.469    0.319
       173 -10.4498      5.4927    219.5063   9.0299293534e+01   2.4614248095e+01    0.1305069    0.1130172  43.90 7.696474e-06    1.006    0.006
       174 -12.3613     48.5543     19.9236   3.3044724309e+01   6.7839680042e+01    0.7849066    0.1961042  51.76  0.002674362    3.446    0.710
       175 -12.4105     85.6101    215.6206   6.8278522156e+01   1.7710373301e+01    0.2742879    0.2301328  39.55  0.001444061    1.197    0.165
       176 -11.9133    181.5102    215.4931   4.6468013276e+01   6.6314767347e+00    0.1208108   0.09598157 -14.75 0.0003336841    1.006    0.006
       177 -11.4333    136.4596    210.7762   5.5080562308e+01   1.2606880495e+01     0.229807    0.1291503 -55.36  0.001126425    2.014    0.503
       178 -12.4758    105.3839     33.6179   2.1422760174e+01   5.3296705948e+01    0.6847814    0.4062594 -24.20  0.003344726    2.252    0.556
       179 -12.4888     46.4077    208.6964   7.8284707454e+01   2.3615143673e+01    0.5159293    0.2428103  75.35  0.001886708    3.369    0.703
       180 -11.8885     80.5806    208.5755   6.8769700968e+01   1.9875263933e+01      0.30687    0.2121325  52.55  0.001544593    1.630    0.387
       181 -13.3697     16.3213    197.0375   8.6084270748e+01   2.9235899488e+01    0.8163474    0.2677708 -54.61  0.002719954    3.210    0.688
       182 -11.0762    151.7167    205.9954   5.0984094642e+01   1.1677110780e+01     0.269284    0.1465974  -1.99  0.001174411    2.622    0.619
       183 -13.4671     39.8470    195.9293   7.9018108131e+01   2.7407089866e+01    0.8580049    0.5062172  57.49  0.003929246    1.829    0.453
       184 -11.2500    180.6797    197.6628   4.3840652351e+01   9.7436611285e+00    0.1306061   0.08090141 -17.00 0.0006345992    1.709    0.415
       185 -13.5022    164.2846    194.0446   4.6450860807e+01   1.2363011804e+01    0.5732277    0.3392889 -59.48  0.002829304    2.289    0.563
       186 -13.8119     30.1895    169.0742   7.9452963282e+01   3.5346744450e+01     1.054589     0.572997 -34.76  0.003204741    2.257    0.557
