#   1 NUMBER                 Running object number                                     
#   2 MAG_AUTO               Kron-like elliptical aperture magnitude                    [mag]
#   3 X_IMAGE                Object position along x                                    [pixel]
#   4 Y_IMAGE                Object position along y                                    [pixel]
#   5 X_WORLD                Barycenter position along world x axis                     [deg]
#   6 Y_WORLD                Barycenter position along world y axis                     [deg]
#   7 A_WORLD                Profile RMS along major axis (world units)                 [deg]
#   8 B_WORLD                Profile RMS along minor axis (world units)                 [deg]
#   9 THETA_WORLD            Position angle (CCW/world-x)                               [deg]
#  10 FWHM_WORLD             FWHM assuming a gaussian core                              [deg]
#  11 ELONGATION             A_IMAGE/B_IMAGE                                           
#  12 ELLIPTICITY            1 - B_IMAGE/A_IMAGE                                       
         1 -14.6124     68.9540    144.3696   9.9467386530e+01   3.7351673724e+01     4.915102     2.509964  67.91   0.01052446    4.080    0.755
         2 -13.2209    199.6213     42.4122   4.0739157253e+01   3.0212334954e+01     1.083626    0.9486779 -64.79  0.003367194    1.058    0.055
         3 -13.7919    209.2616     32.8688   3.7322649903e+01   2.9233409137e+01     1.395217    0.9830143  -7.56  0.001496619    2.222    0.550
         4 -12.9824    234.6313      6.7664   2.9460787130e+01   2.6749257662e+01    0.8210567    0.6248668 -79.68  0.004520118    1.077    0.071
         5  -8.8243     60.3703      7.7132   5.8662567657e+01   6.6019670626e+01     0.108597    0.0989664  83.31 0.0007020338    1.708    0.415
         6 -11.3004     17.3171      3.7936   7.6823326916e+01   7.2922111515e+01    0.3849669     0.211776 -18.62  0.002323806    1.633    0.388
         7 -10.7581    110.8717    203.1372   9.8064550420e+01   1.6498431547e+01    0.2870367    0.2327362  87.95 0.0008026432    1.419    0.296
         8 -11.7163    139.0247    246.6832   9.7942804526e+01   3.4252707445e+00    0.7345526    0.5475389 -59.57  0.004406543    1.684    0.406
         9 -14.3057     54.1012    184.7776   1.0957504326e+02   2.9094902363e+01     7.590717     3.191326  67.15   0.02384792    4.501    0.778
        10 -17.3041     14.2284    242.3904   1.2286825769e+02   2.0757731227e+01       6.0392      2.31215  25.51    0.0280007    3.589    0.721
        11 -11.1836    194.6553    198.3412   7.8094522911e+01   3.1116011648e+00    0.3310836    0.3034969 -63.72  0.001826805    1.479    0.324
        12 -10.9231    191.9842    192.9858   7.7615510855e+01   4.5462699791e+00    0.8492381    0.5161918 -70.08   0.00269372    5.295    0.811
        13 -11.1113    121.9631    198.2063   9.4605801365e+01   1.5743893569e+01    0.4514709    0.3035837 -81.53  0.001593485    2.146    0.534
        14 -14.5098     10.3852    206.4072   1.2157787458e+02   2.8676891232e+01    0.8911131    0.7218929  19.33  0.002622233    1.649    0.394
        15  -9.9855     59.7452    197.3042   1.0965031479e+02   2.5381542424e+01     0.218186    0.2013412  89.07 0.0002869748    1.092    0.085
        16  -9.9847    142.6870    208.8136   9.1471618208e+01   9.9645132698e+00    0.2692761    0.1716975  57.38  0.001033231    2.004    0.501
        17  -8.8536     21.3803    196.1563   1.1847857610e+02   2.9971833449e+01    0.1949349    0.1073406 -77.98  0.001045645    1.590    0.371
        18  -8.2598     23.5576    193.4551   1.1777058654e+02   3.0388185629e+01    0.1251482    0.1044545  86.16 3.167912e-05    1.042    0.040
        19  -9.0637    151.3256    193.7250   8.6812031574e+01   1.1573087041e+01     0.264016    0.1900906  42.53  0.001069421    1.366    0.268
        20 -10.4465    147.4736    187.7859   8.6611189333e+01   1.3526655020e+01    0.5557156    0.3524458 -73.10  0.002207843    2.663    0.624
        21  -9.8253    118.4870    191.0387   9.4258314346e+01   1.7942479717e+01    0.2163348    0.1463146 -57.63  0.001021252    1.566    0.361
        22 -10.7017    106.4389    249.2516   1.0509597198e+02   7.8403210457e+00    0.3448319    0.2512361  63.96  0.002072106    1.456    0.313
        23 -11.6232    101.6592    243.5655   1.0546078701e+02   9.5955230385e+00    0.8245319    0.3120616 -57.86  0.002517128    2.976    0.664
        24  -9.2087     79.6217    182.6620   1.0278606691e+02   2.6160660173e+01    0.2922615    0.2068819  88.90  0.001125123    1.591    0.371
        25 -10.4371     99.3619    181.0063   9.7415788074e+01   2.3498544466e+01     0.303945     0.260644 -51.03 0.0007166618    1.206    0.171
        26  -8.5129     89.3993    179.5317   9.9767024275e+01   2.5444766670e+01    0.1431307    0.1361994  88.75 6.273534e-05    1.022    0.022
        27 -10.4179    186.9210    175.1339   7.5082364743e+01   8.8731430800e+00    0.4093237    0.3040934 -49.26  0.001213131    1.468    0.319
        28 -12.9420     70.3084    153.6721   1.0072107721e+02   3.4774769312e+01    0.7040093    0.5393446 -47.86  0.001084929    1.312    0.238
        29  -9.7592     93.0966    249.0519   1.0784202387e+02   9.7944906901e+00    0.2281513    0.1395198  39.02  0.001236044    1.375    0.272
        30 -11.1527    240.5954    170.0674   6.3662628226e+01   5.7727220222e-01    0.3993821    0.1876277 -46.11  0.001669671    2.260    0.557
        31  -9.3008     34.3377    171.6103   1.1308560860e+02   3.4574517891e+01    0.2262624    0.1726172  69.85 0.0008332556    1.253    0.202
        32 -12.4301     81.6646    158.7819   9.8379872406e+01   3.1807553114e+01     1.423137    0.7576485  61.88 0.0006187084    2.803    0.643
        33  -9.3228    110.9818    168.0024   9.2043054387e+01   2.4670180983e+01    0.3091534    0.2297096  72.10  0.001023197    1.688    0.408
        34  -8.1934    120.4723    165.5274   8.9047735457e+01   2.3559792530e+01    0.1533905    0.1480129  69.31 0.0008085821    1.064    0.060
        35 -14.0610     42.2612    195.8349   1.1365081782e+02   2.7850004818e+01      4.40532     1.559387  63.23  0.009318762    5.124    0.805
        36  -8.2189    130.4648    159.4301   8.5171735317e+01   2.3134200683e+01    0.1537679    0.1505857  59.12  0.000127527    1.054    0.051
        37  -9.8712     32.3149    156.8601   1.1192277543e+02   3.8470269749e+01    0.2279009    0.1728669  52.74  0.001051774    1.365    0.268
        38 -11.6375     89.2747    151.9396   9.4948787396e+01   3.2345671064e+01    0.7433422    0.4821509 -22.27   0.00301258    2.316    0.568
        39 -10.4598    134.1973    147.2418   8.1510608091e+01   2.5276709124e+01    0.8635145    0.2686213 -53.87  0.002348542    3.959    0.747
        40  -9.8665    132.6197    139.7919   8.0196186004e+01   2.7346511261e+01    0.4143686    0.2123293 -52.16  0.001397667    2.022    0.505
        41 -11.1747     52.9139    147.1712   1.0470554477e+02   3.8712821849e+01    0.7546279    0.5564133  70.54  0.003876515    1.509    0.337
        42  -9.1888    174.9161    149.1421   7.2020953477e+01   1.6536573188e+01    0.2331519    0.2143407 -79.76 0.0007538744    1.292    0.226
        43  -8.7165    111.4156    149.4783   8.8178422363e+01   2.9124252329e+01     0.296048     0.134485  48.22 0.0007716086    2.492    0.599
        44 -10.0063     38.8999    146.2595   1.0867005385e+02   4.0508045550e+01    0.3064078    0.2566746  81.72 0.0009244633    1.182    0.154
        45  -9.4472    143.6021    144.7940   7.8512469967e+01   2.3940465206e+01    0.2268804    0.1508066 -56.72 0.0005267133    1.657    0.397
        46 -10.4842    103.0295    137.9051   8.8022820860e+01   3.3515597528e+01    0.6300821    0.3842331 -17.97  0.002201145    2.947    0.661
        47 -10.2523    105.8197    130.8706   8.5578901199e+01   3.4739318223e+01    0.4293714    0.3380372 -60.70  0.001559984    1.316    0.240
        48 -11.5981     90.1850    137.7635   9.1785980511e+01   3.5783395934e+01    0.3101929    0.2730727 -29.39 0.0004508767    1.198    0.165
        49 -10.2055    135.5794    128.8880   7.6752887953e+01   2.9274096629e+01    0.5178999    0.1547437 -50.33  0.001419225    3.680    0.728
        50  -9.7964    111.9533    129.0343   8.3348312748e+01   3.4023366059e+01     0.360495     0.274597  10.06  0.001217114    1.634    0.388
        51 -11.4479     69.3717    171.7362   1.0386829301e+02   3.0324075102e+01    0.4795286    0.3087864 -30.11   0.00212788    2.222    0.550
        52 -10.2658     99.0730    124.9473   8.6171010136e+01   3.7431307239e+01    0.3410416    0.2678336 -12.99 0.0008946908    1.544    0.352
        53 -10.7596    118.9749    122.8494   7.9789356180e+01   3.4113327809e+01    0.5682134    0.3887899  -2.67  0.002199366    2.309    0.567
        54  -9.1542     89.1111    122.3354   8.8611225389e+01   3.9824717465e+01    0.4485054    0.2605262  68.21  0.001282701    3.515    0.715
        55 -11.3729     34.5378    118.8897   1.0570855586e+02   4.7920923853e+01    0.4110159    0.2487807 -26.62  0.001742127    2.045    0.511
        56 -11.3668     73.8234    166.9532   1.0192824394e+02   3.0899431847e+01    0.3466606    0.3353895  29.71  0.001639889    1.136    0.119
        57  -9.7988    231.3731    113.7343   5.3094446067e+01   1.1999463858e+01    0.2496455    0.2329321 -41.83 0.0008867998    1.072    0.067
        58 -10.1251    135.0000    111.0763   7.2259174604e+01   3.3418119598e+01    0.8047295   0.08993874 -44.26  0.001417193    8.832    0.887
        59  -9.2558    108.0547    118.2329   8.1786841727e+01   3.7369362845e+01     0.228392    0.2043961  -3.75 0.0003698374    1.197    0.165
        60 -10.7774    115.1716    108.6312   7.7125213895e+01   3.8184315009e+01    0.4636377    0.2834836 -38.21  0.001916363    1.673    0.402
        61  -9.4737    205.5712    110.1883   5.6527932532e+01   1.7870073207e+01    0.2997891    0.2136706  41.81  0.001082146    1.565    0.361
        62 -11.8553     45.3913    105.7780   9.9419196825e+01   5.0099089320e+01     0.453927    0.3543687  25.84  0.001867184    1.423    0.297
        63  -8.5536    138.5106    105.4757   6.9800756318e+01   3.3855374900e+01    0.1567873    0.1551399 -35.95 4.122924e-05    1.024    0.024
        64  -9.3539     64.9456    103.4842   9.1984070335e+01   4.8212788398e+01    0.2110771    0.1455896  30.36   0.00052036    1.551    0.355
        65  -9.4136    240.3405    102.3138   4.9255961266e+01   1.2232432378e+01    0.1304841    0.1034676  -0.19 0.0005715312    1.701    0.412
        66 -11.2111     32.3251     99.3727   1.0275452510e+02   5.2973463934e+01     0.472843    0.2357674  37.45  0.002164468    2.319    0.569
        67  -9.0838    156.1607     88.1303   6.0632791039e+01   3.3278190848e+01    0.3514009    0.2247744 -67.96 0.0009444411    2.325    0.570
        68  -8.7977    126.0662     93.5204   6.9720255741e+01   3.9148163430e+01    0.2377671    0.1540083  46.44  0.001018018    1.552    0.356
        69  -9.1405    114.7364     84.0856   7.0087429653e+01   4.3552809995e+01    0.2754661    0.2219353  76.41  0.001012444    1.633    0.388
        70  -9.0753    158.4974     82.9798   5.8655815415e+01   3.3681429856e+01    0.2320794    0.1499511 -37.42 0.0005196682    1.556    0.357
        71  -7.9801     70.0036     81.9652   8.4205636118e+01   5.2423057054e+01     0.168796    0.1532304 -18.24 0.0003018105    1.010    0.010
        72  -9.1112     57.0778     66.8290   8.4359403064e+01   5.7530394967e+01    0.1901462     0.183167 -13.61 0.0003330864    1.195    0.164
        73 -12.8398    188.5488     50.5199   4.4294482328e+01   3.1701683547e+01    0.8844584    0.7756133  31.03  0.000941939    1.396    0.284
        74  -9.3025     89.0547    210.7319   1.0431983931e+02   1.8215661991e+01    0.2143964    0.1850363 -84.42 0.0007440261    1.182    0.154
        75 -15.7820      2.7694    200.4518   1.2280876180e+02   3.0668072242e+01     17.89895          nan -75.57  0.009369153   13.204    0.924
        76  -8.4175     33.3008     37.3441   8.4075031848e+01   6.6097171710e+01    0.1348977   0.08098013 -16.45 0.0003261141    1.678    0.404
        77 -11.1415     21.1585     33.6769   8.8699364399e+01   6.7992490485e+01    0.3362593    0.1910815  31.52  0.001890735    2.015    0.504
        78  -9.2222     67.4337     51.9429   7.4978317528e+01   5.8752376256e+01    0.2407435    0.1885525  47.32 0.0007171803    1.537    0.349
        79  -8.4293     82.6428    194.7202   1.0373604556e+02   2.2826990550e+01    0.1361312    0.1102503 -16.44 0.0007013118    1.661    0.398
        80  -9.1976    197.9169     23.6879   3.6366551842e+01   3.2931816689e+01    0.2003237     0.180033 -22.62 0.0006892752    1.378    0.275
        81  -9.2215    189.6822     14.9800   3.5122412127e+01   3.5808012057e+01     0.176942    0.1547962 -66.07 0.0006999475    1.117    0.105
        82 -11.2582    107.3308    203.8573   9.9023936294e+01   1.6912037145e+01    0.5034399    0.2913064  65.15  0.002077194    2.461    0.594
        83 -10.4470    183.7043    210.9059   8.2738235845e+01   2.6587658210e+00    0.3224219    0.1691802 -49.12  0.001442899    2.249    0.555
