#   1 NUMBER                 Running object number                                     
#   2 MAG_AUTO               Kron-like elliptical aperture magnitude                    [mag]
#   3 X_IMAGE                Object position along x                                    [pixel]
#   4 Y_IMAGE                Object position along y                                    [pixel]
#   5 X_WORLD                Barycenter position along world x axis                     [deg]
#   6 Y_WORLD                Barycenter position along world y axis                     [deg]
#   7 A_WORLD                Profile RMS along major axis (world units)                 [deg]
#   8 B_WORLD                Profile RMS along minor axis (world units)                 [deg]
#   9 THETA_WORLD            Position angle (CCW/world-x)                               [deg]
#  10 FWHM_WORLD             FWHM assuming a gaussian core                              [deg]
#  11 ELONGATION             A_IMAGE/B_IMAGE                                           
#  12 ELLIPTICITY            1 - B_IMAGE/A_IMAGE                                       
         1  -9.9620    204.2823     17.9230   6.9699749983e+01   3.1764386264e+01    0.6372408    0.4440107 -76.14  0.003260288    1.676    0.403
         2 -12.6479    216.1167     35.3527   7.3521505806e+01   2.7149374829e+01     3.189664     1.075647 -44.85    0.0110939    3.244    0.692
         3 -10.4685    197.6985     52.3511   8.0928145864e+01   2.9406745782e+01    0.4968204     0.337364   4.59  0.002008738    1.714    0.417
         4 -11.1153    225.6017     27.4786   7.0310634230e+01   2.5835864024e+01    0.6821569    0.4126818  33.27    0.0015906    2.019    0.505
         5  -9.1421    249.2880     18.9259   6.6040884544e+01   2.1583974132e+01    0.4116278    0.2928205 -36.36  0.002430242    1.194    0.162
         6 -11.4658    237.9175     11.3029   6.4923340169e+01   2.4684518800e+01     0.926774    0.2946592 -50.92  0.003367851    3.604    0.723
         7  -9.6864    221.7003     14.4430   6.7051108344e+01   2.8001659713e+01    0.5797008    0.1969047 -46.99  0.002153181    3.059    0.673
         8 -11.5594    119.8153      9.9939   7.9376392736e+01   5.4168313208e+01    0.8252182    0.6915701  76.54   0.00311521    1.349    0.259
         9  -9.2152    194.6362     10.1077   6.8297020859e+01   3.4862792978e+01    0.6174159    0.2223533 -52.20  0.002055614    3.637    0.725
        10  -8.6657    186.6404     10.0490   6.9118010807e+01   3.6867397650e+01    0.2511374    0.1874642 -72.18 0.0005784991    1.484    0.326
        11  -9.6694    143.2935      7.8880   7.4091972676e+01   4.8303945162e+01    0.4455605    0.2214306   6.19  0.001647963    2.732    0.634
        12 -10.1215    212.1398      4.2493   6.4960167415e+01   3.1137789776e+01    0.5982744    0.1979945 -43.89  0.001705505    2.837    0.647
        13  -9.6183    243.3359      4.6383   6.2843113102e+01   2.4114371478e+01    0.4153163    0.2885372 -25.26   0.00173334    1.261    0.207
        14  -9.7692    249.3336      3.2606   6.2131509030e+01   2.2979650002e+01    0.3922189    0.3111024 -57.21  0.002563277    1.216    0.178
        15  -9.2330    236.6689      1.8611   6.2554683010e+01   2.5777843091e+01    0.2615668    0.2090759  82.10 0.0009646563    1.365    0.267
        16  -9.3352    181.9841      5.8130   6.8237269485e+01   3.8423946439e+01    0.3980686    0.2585734  69.52  0.001831131    1.550    0.355
        17  -9.4292    182.4926      2.3261   6.7037586279e+01   3.8588955034e+01    0.4543663    0.2529984  83.66  0.001818144    1.982    0.495
        18  -7.7723    155.2912      6.6378   7.1799445249e+01   4.5271029214e+01    0.1540129    0.1011566 -51.68 0.0006529306    1.699    0.412
        19  -9.3031    172.0555      2.4815   6.8198695673e+01   4.1254194561e+01    0.3708097    0.2925059 -62.79  0.001845148    1.352    0.260
        20  -9.2410    135.1015    136.1033   1.1658275806e+02   2.8552890735e+01    0.2128641    0.1981964  17.76  0.001252874    1.013    0.013
        21  -9.1724    197.5908    133.4695   1.0252949688e+02   1.7451528395e+01    0.2497586       0.2059  85.46  0.001298102    2.170    0.539
        22 -12.0985    244.7175    117.5042   9.0929126241e+01   1.1139709974e+01     1.256629    0.4353054 -21.61   0.00302471    3.027    0.670
        23 -10.8434    239.8173     99.5160   8.7418596356e+01   1.4287375366e+01    0.7087947    0.5052444 -82.63  0.003339271    3.027    0.670
        24 -10.3442    243.3793    108.2859   8.8992683462e+01   1.2528973546e+01    0.4077916    0.2282042 -33.68  0.001896985    1.656    0.396
        25  -8.6067    199.5633    124.7687   1.0015827859e+02   1.8400376955e+01    0.2505528    0.1848163   6.30 0.0004586598    1.347    0.258
        26  -8.4312    132.0409    121.0948   1.1406435027e+02   3.2077123014e+01    0.2065172     0.198114   3.76 0.0003124078    1.015    0.015
        27  -8.4908    185.3198    118.9831   1.0153461268e+02   2.2075548161e+01    0.2295061    0.1023246 -51.36 0.0007049681    4.311    0.768
        28  -9.4860    167.6506    113.6364   1.0390054653e+02   2.6522449622e+01     0.288837    0.2773533  30.15 0.0006598703    1.166    0.142
        29  -8.6708    186.4909    111.0375   9.9337951850e+01   2.3128053312e+01    0.2238332    0.1343566 -32.68  0.001029892    1.589    0.371
        30  -9.2219    238.1864    110.2296   9.0213348219e+01   1.3215499981e+01    0.1816301    0.1481955 -34.53 0.0004663181    1.363    0.266
        31  -8.1591    194.3126    110.7079   9.7741058818e+01   2.1595678182e+01    0.1321139    0.1151806 -63.86 0.0002648709    1.591    0.371
        32  -9.5981    191.0873    102.0565   9.6142160554e+01   2.3614948381e+01    0.2238391    0.1991102 -10.20 0.0004501553    1.038    0.037
        33 -10.3977    247.3774     96.5030   8.5640534165e+01   1.3275019441e+01    0.4130875    0.2962444  65.14  0.001658829    2.025    0.506
        34  -8.2238    195.1011     97.4880   9.4189440158e+01   2.3485056718e+01    0.2039532    0.1410565  44.38 0.0003524584    1.500    0.333
        35  -8.5785    148.3345     94.9572   1.0337396288e+02   3.3943157021e+01    0.2833139    0.2181132  32.51  0.001013747    1.316    0.240
        36  -8.0473    134.7298     93.1747   1.0625835681e+02   3.7145964476e+01    0.2313268    0.1906352 -62.09  0.001143509    1.463    0.317
        37  -8.9507    157.6817     86.6846   9.8831258084e+01   3.3422909378e+01    0.2534736    0.1854415  25.43 0.0009633654    1.477    0.323
        38  -9.2266    161.0012     85.0000   9.7596869490e+01   3.2980176809e+01     0.243773    0.2224916   1.55  0.001123133    1.034    0.033
        39  -8.9011    250.1644     85.1032   8.2526387668e+01   1.4152450985e+01     0.205787    0.1549183  -3.46   0.00059706    1.212    0.175
        40  -8.9229    142.5353     83.6186   1.0150440528e+02   3.7322511570e+01    0.3024538    0.2540277 -44.91 0.0007470598    1.246    0.197
        41 -10.7425    240.5733     83.0013   8.3254223005e+01   1.6225931382e+01    0.3798961     0.312123  44.36  0.002295147    1.387    0.279
        42 -10.2107    182.0122     79.7876   9.1749010684e+01   2.9103642793e+01    0.6406714    0.4453283 -29.72  0.003084545    1.346    0.257
        43 -10.8763    175.7420     72.0307   9.0660854995e+01   3.1756551717e+01    0.6994112    0.5499597 -27.35  0.001807267    1.195    0.163
        44 -10.9530    237.8767     73.8119   8.1284769739e+01   1.7895006398e+01    0.5995042    0.3617065 -48.29  0.002932369    1.964    0.491
        45 -10.1645    157.2192     74.0824   9.5139047894e+01   3.5721711306e+01    0.3770233    0.2719665 -19.87 0.0008310249    1.400    0.286
        46  -7.4496    215.0176     75.0563   8.4802143402e+01   2.2476528374e+01    0.1716748    0.1453696 -15.70 0.0003716365    1.037    0.036
        47  -8.4205    214.5023     67.3939   8.2778286476e+01   2.3609599970e+01    0.3841788      0.25425 -78.11  0.001332857    2.625    0.619
        48  -9.1107    209.6574     63.3239   8.2348347714e+01   2.5218635950e+01    0.6852022    0.2978339 -56.49  0.001778974    6.427    0.844
        49  -7.9433    206.7940     65.9502   8.3520127659e+01   2.5510440726e+01    0.2446902    0.1423018 -49.46 0.0007094117    2.067    0.516
        50  -9.2107    182.3256     65.0907   8.7320964592e+01   3.1269685322e+01    0.2736739    0.2473423 -16.46 0.0003935551    1.029    0.028
        51  -7.6925    247.6547    247.6737   1.1408600908e+02  -3.0069815035e+00    0.1084395   0.05366538  11.60 0.0007050419    1.745    0.427
        52  -9.3653     71.2488    243.5793   1.4338235073e+02   1.8597469031e+01    0.1686694    0.1357584  50.16 0.0004890839    1.093    0.085
        53  -7.8618    160.0161     59.2366   8.9777192439e+01   3.7488131169e+01    0.2013321     0.191769  11.06 0.0002513709    1.046    0.044
        54  -8.3964    202.5182     56.0173   8.1297574327e+01   2.7803389594e+01    0.3462692    0.1678249 -57.71  0.001135056    3.826    0.739
        55  -9.6263    192.4331     56.1947   8.2900212490e+01   3.0140228024e+01    0.3512702    0.2526914  27.01 0.0008822737    1.529    0.346
        56  -6.9952    180.3174    238.2952   1.2367925422e+02   6.0609132436e+00    0.1082853   0.06626622  13.19 0.0005646373    1.607    0.378
        57  -9.9648    150.8047     45.3309   8.6927037838e+01   4.1849611288e+01     0.409862    0.2525705 -56.09  0.001657056    2.186    0.543
        58  -9.6390    137.0903     44.8170   8.9774862293e+01   4.5306090205e+01    0.3221869      0.27346  85.98            0    1.477    0.323
        59  -7.8758    137.8249    229.1609   1.3015175697e+02   1.2697535809e+01    0.1460458    0.1102097  16.55 0.0005601715    1.312    0.238
        60 -11.6646    172.8971     54.0690   8.5575093439e+01   3.5134756425e+01     1.323948    0.8962206  60.47  0.006159871    1.609    0.379
        61  -9.7992    140.9744     40.0686   8.7113948842e+01   4.5057756716e+01    0.3095145    0.2396742  63.43  0.001502235    1.420    0.296
        62  -9.3561    134.6817     37.9316   8.7721682785e+01   4.6926865630e+01    0.4675925    0.1963653 -18.84  0.001514998    3.040    0.671
        63  -8.5098    131.0000     37.9549   8.8595903808e+01   4.7829422643e+01    0.2573928   0.08432589 -29.06 0.0008050256    2.960    0.662
        64  -8.2462    245.0205     31.7309   6.9643015647e+01   2.1207811779e+01    0.3058421    0.1528189 -15.95  0.001429535    1.948    0.487
        65  -8.7811    101.3296     30.1732   9.3358877030e+01   5.6017400041e+01    0.3135329     0.136332 -23.59  0.001106629    2.601    0.616
        66  -7.2987    179.2497     29.3215   7.6385125060e+01   3.6754982893e+01    0.1464218     0.106773  19.01 0.0003269084    1.533    0.348
        67 -10.3808    145.8898     21.0024   7.8815618670e+01   4.6272873350e+01    0.2707188     0.228909 -18.03            0    1.159    0.137
        68  -7.5847     63.6987    227.7287   1.4373186877e+02   2.1772732651e+01   0.08754379   0.07589777   9.84 0.0002476575    1.531    0.347
        69 -12.0184      7.1482    220.7761   1.5355367544e+02   2.8132892250e+01    0.6677514    0.4827907  66.12  0.004411194    1.085    0.078
        70  -7.9787    164.4133     20.6336   7.5594487123e+01   4.1514285638e+01     0.269357    0.1384883  -4.35   0.00101917    2.452    0.592
        71  -8.6735     48.9166    222.6858   1.4614256052e+02   2.4093435641e+01    0.1671231    0.1265856  73.80 0.0005402114    1.236    0.191
        72  -7.2870    156.6359     16.2536   7.5196047392e+01   4.3994692326e+01    0.1484432    0.1088732 -65.21 0.0006961679    1.624    0.384
        73 -12.3975     37.7316    194.5590   1.4667644334e+02   3.0042021839e+01    0.7150803    0.6199324 -11.65  0.005484426    1.671    0.401
        74  -7.6405    228.2048     12.6464   6.6019259912e+01   2.6696506173e+01    0.1832837    0.1408146 -36.55  0.000967841    1.155    0.134
        75 -11.9157     50.4705    183.1617   1.4322448293e+02   3.0926372790e+01    0.7735212    0.6929364  71.55  0.003845853    1.103    0.094
        76 -10.0656    190.8965    188.7767   1.1462637669e+02   1.0626444932e+01    0.2226835    0.1809979  -5.07 0.0004975163    1.168    0.144
        77  -7.9371    190.8999    173.8913   1.1202731000e+02   1.2662690138e+01    0.1606843    0.1400106  33.20  0.000468768    1.304    0.233
        78  -7.2249     65.6808    158.3118   1.3737294306e+02   3.4260303139e+01    0.1300544   0.08247798  63.40 0.0001769472    1.646    0.393
        79  -7.8337     18.7678    151.3754   1.4819179842e+02   4.0311475722e+01    0.1340206    0.1089365  13.81 0.0002840611    1.566    0.361
        80  -9.6082    239.0078    149.2921   9.8731209301e+01   8.1528777065e+00    0.1804515     0.141231  12.51  0.001155877    1.115    0.103
        81  -8.5230     70.0208    145.5147   1.3470600037e+02   3.6480566920e+01    0.2624999    0.1834765  67.30  0.001467634    1.528    0.346
        82  -9.0290     66.4148    144.3031   1.3548145499e+02   3.7184250190e+01    0.3561416    0.2593891 -81.97  0.001382868    1.387    0.279
        83  -7.2473    143.7212    144.6871   1.1630162498e+02   2.5406130324e+01    0.1370221    0.1032943  -3.06 0.0004192982    1.566    0.361
        84  -7.6477    204.3215    137.2772   1.0211953769e+02   1.5655053888e+01    0.1398211   0.09317162  10.08 0.0002508029    1.580    0.367
