#   1 NUMBER                 Running object number                                     
#   2 MAG_AUTO               Kron-like elliptical aperture magnitude                    [mag]
#   3 X_IMAGE                Object position along x                                    [pixel]
#   4 Y_IMAGE                Object position along y                                    [pixel]
#   5 X_WORLD                Barycenter position along world x axis                     [deg]
#   6 Y_WORLD                Barycenter position along world y axis                     [deg]
#   7 A_WORLD                Profile RMS along major axis (world units)                 [deg]
#   8 B_WORLD                Profile RMS along minor axis (world units)                 [deg]
#   9 THETA_WORLD            Position angle (CCW/world-x)                               [deg]
#  10 FWHM_WORLD             FWHM assuming a gaussian core                              [deg]
#  11 ELONGATION             A_IMAGE/B_IMAGE                                           
#  12 ELLIPTICITY            1 - B_IMAGE/A_IMAGE                                       
         1 -11.6450    248.4909     51.5629   3.7348971866e+01   1.9029719790e+01     1.331571    0.4138398 -36.92  0.005536681    2.873    0.652
         2 -10.7012    231.9326      4.1676   2.9174846563e+01   2.8185402900e+01    0.6177638    0.2161073 -65.13  0.002656766    3.187    0.686
         3 -11.2825    249.3970     18.4043   3.0757175805e+01   2.3123325848e+01    0.6159667    0.2323519 -41.02  0.003189436    2.160    0.537
         4 -12.1369    241.9891      8.8691   2.9429330520e+01   2.5659567746e+01    0.9476967    0.5489029 -32.19   0.00575014    1.935    0.483
         5 -12.5437    244.9283     28.6458   3.3073243507e+01   2.2754819107e+01     1.012385    0.5443053 -51.44  0.005902241    1.506    0.336
         6  -9.9541    213.0197     23.7800   3.4792869619e+01   2.9981324563e+01    0.3752384    0.2812934 -37.79  0.002190002    1.423    0.297
         7 -10.0409    194.7498     23.1055   3.6474035256e+01   3.4142755127e+01    0.7023601    0.1548351 -35.58  0.002544136    3.801    0.737
         8 -10.2497    161.4543      9.5843   3.6860515656e+01   4.3343723678e+01    0.2608317    0.2329213 -44.11  0.001514534    1.253    0.202
         9  -9.2032    111.6728      4.8209   4.3084543464e+01   5.5446777565e+01    0.2264196    0.1188212  -6.43   0.00108422    2.602    0.616
        10  -8.3207      5.5518      1.5184   8.1240591573e+01   7.4383760612e+01    0.1093263   0.08210912  -7.91 0.0002456302    1.068    0.064
        11 -10.2530    150.8982    221.8732   9.0500270216e+01   5.9882220804e+00    0.3516929    0.2785898 -71.33  0.001944749    1.662    0.398
        12  -8.5236    250.1947    249.7942   7.5690604477e+01  -1.2244845373e+01    0.1621911     0.102703  -3.82 0.0008397275    1.337    0.252
        13  -8.9177    180.4543    223.1534   8.4405318794e+01   1.0626598079e+00    0.2325329    0.1719312  65.25  0.001183856    2.225    0.551
        14  -8.2456    165.5118    217.5060   8.6612424687e+01   4.4534518814e+00     0.135544    0.1234454  20.99 1.440011e-05    1.055    0.052
        15 -10.3596    228.7208    213.1703   7.3225913737e+01  -4.4102985593e+00    0.4259892     0.150259 -46.71  0.001629828    3.635    0.725
        16  -9.4133    193.6018    223.2959   8.1748084800e+01  -9.7005219391e-01    0.2389412    0.1229613 -46.12  0.001051945    2.156    0.536
        17  -8.9324    234.0009    212.6655   7.2183487995e+01  -5.0544700872e+00    0.2064939    0.1996279  71.45  0.001407612    1.667    0.400
        18  -8.7007    184.3313    210.6534   8.1436325649e+01   2.6812552176e+00    0.1295525     0.110285  75.35 0.0007049633    1.762    0.432
        19  -9.9842    228.3999    206.0488   7.1987788997e+01  -3.2339142110e+00    0.3514487     0.164626 -41.37  0.001682707    2.059    0.514
        20  -9.3677    149.0139    205.0070   8.8137717780e+01   9.6451553537e+00    0.2230634    0.1765994  74.91 0.0008393018    1.711    0.415
        21  -8.9397    220.1376    203.5010   7.3039608669e+01  -1.6188486730e+00    0.2516426    0.1641811 -50.78  0.001168555    1.943    0.485
        22 -10.3885    248.8075    197.0131   6.6752237860e+01  -4.6226979166e+00    0.7726708    0.2911488 -42.29   0.00343034    2.515    0.602
        23  -9.3550    232.6992    199.1481   6.9932820192e+01  -2.7302690471e+00    0.2833458    0.2261763 -38.74  0.001638356    1.341    0.254
        24  -9.7908    233.4268    194.3091   6.8892055223e+01  -2.0439210196e+00    0.3533693    0.3506937  83.65  0.002402773    1.460    0.315
        25  -8.6515    202.4308    198.2203   7.5461907058e+01   2.0228918000e+00     0.183642    0.1255327 -48.88 0.0008183719    1.655    0.396
        26  -9.2239    205.6678    191.4224   7.3521762201e+01   2.7263874217e+00    0.3641446    0.1946869 -41.27  0.001706452    1.786    0.440
        27  -9.3127    235.4929    188.6418   6.7447578291e+01  -1.4085238601e+00    0.3911146    0.2448784 -52.76  0.001982761    2.124    0.529
        28  -8.6383    129.9033    189.7434   8.9956086360e+01   1.6237117040e+01    0.2454835    0.1615983  60.97 0.0009656752    1.917    0.478
        29  -8.6775    192.5850    188.2768   7.5539430713e+01   5.4876269727e+00    0.2743217    0.1312147 -46.40   0.00114915    2.136    0.532
        30  -8.0384    158.4784    189.4740   8.3177104457e+01   1.1225585269e+01    0.1433859    0.1387439  21.96 0.0001113562    1.060    0.057
        31 -10.6570    248.4306    176.7216   6.2961377427e+01  -1.3236371576e+00    0.5587915    0.2721198 -47.89  0.002606612    2.268    0.559
        32  -8.7326    203.5053    182.3240   7.2160263156e+01   4.7581265825e+00     0.287466    0.2185555   1.54  0.001533044    1.418    0.295
        33  -9.8001    218.8407    179.0219   6.8563414564e+01   2.8228508668e+00    0.2180557    0.1583613 -62.93  0.001092386    2.049    0.512
        34 -10.6398    221.3293    167.3039   6.5736131027e+01   4.5280740914e+00    0.8828948    0.7190903 -86.55  0.004734388    1.964    0.491
        35  -8.8693     70.0821    169.0743   1.0192555775e+02   3.0919081095e+01    0.2263864    0.2009964  79.71 0.0006015739    1.081    0.075
        36  -8.8275    162.9922    166.5087   7.7549324670e+01   1.5309215475e+01    0.2130063    0.1305094  62.68 0.0008100981    2.532    0.605
        37  -8.7536     42.6834    166.6708   1.0899487694e+02   3.4991554482e+01    0.1399106   0.09758298 -41.61 0.0007046077    1.680    0.405
        38 -10.3057    245.1071    163.0026   6.0800558480e+01   1.4626246521e+00    0.4696959    0.4343706 -82.21  0.003048272    1.498    0.333
        39  -9.6034    152.0378    163.1465   7.9404483354e+01   1.8162969782e+01    0.4973943    0.2320645 -33.77  0.001677794    2.880    0.653
        40 -10.3981    182.5760    160.5267   7.1931334540e+01   1.2822924108e+01    0.7282536    0.2446605 -50.70  0.002227893    3.574    0.720
        41 -11.6324    248.7197    154.4164   5.8510496189e+01   2.3608866432e+00     0.843262    0.5472104 -61.59  0.004208408    2.292    0.564
        42 -10.9462    249.6266    146.9987   5.6876292859e+01   3.4781149100e+00    0.4936801    0.2119671 -39.23   0.00224007    1.924    0.480
        43 -10.0527    226.3662    154.1067   6.2108446053e+01   6.0731809057e+00    0.4379263    0.3223138  34.93   0.00241338    1.525    0.344
        44  -8.5836     49.4500    148.7268   1.0459393674e+02   3.8814655344e+01      0.27018    0.1320965 -72.33  0.001112443    2.033    0.508
        45 -12.2275    236.6238    138.2436   5.7078247297e+01   7.1531067798e+00      1.97402    0.8105111 -33.24  0.007869372    2.462    0.594
        46 -10.5780    218.9409    144.7633   6.1418398230e+01   9.1051640201e+00    0.3122077    0.2276133 -21.42  0.001617403    1.449    0.310
        47 -11.1182    181.5928    142.5034   6.8129953065e+01   1.6760626057e+01    0.4296465    0.2622937  34.94  0.001859325    1.847    0.458
        48 -13.2328    204.7839    127.9999   6.0231793377e+01   1.4992089530e+01     1.840237    0.7276686 -39.59  0.006870255    2.334    0.572
        49 -11.6933    154.9803    125.7868   7.0096004332e+01   2.5922176522e+01    0.7444993    0.3745398 -43.33  0.002857163    1.931    0.482
        50 -11.7969    249.3004    125.8848   5.2605728538e+01   7.1289858626e+00    0.7514669    0.3593581 -48.22  0.003500079    1.923    0.480
        51  -8.5509     74.4826    124.4671   9.2380872897e+01   4.1689136956e+01       0.2934     0.116627 -46.89  0.001032908    2.438    0.590
        52 -12.1762    226.9849    118.6497   5.4378045556e+01   1.2399233093e+01    0.7051159    0.3468339 -39.26  0.003135097    1.780    0.438
        53  -9.5547    118.2360    119.6740   7.8044495260e+01   3.5047066077e+01     0.462115    0.2057585 -50.49   0.00163857    2.239    0.553
        54 -11.3218    249.0253    113.3932   5.0056325473e+01   9.2892711385e+00    0.6526204    0.5869959 -56.38  0.003542605    1.127    0.113
        55  -9.3996    249.5084    106.4763   4.8555190488e+01   1.0359656500e+01    0.2565456    0.2007237 -63.28  0.001139886    1.300    0.231
        56 -10.4293    159.8393    114.8362   6.6209752207e+01   2.7214523426e+01    0.3785461    0.2819121 -13.66  0.001675212    1.780    0.438
        57 -12.8312    235.1281    108.1314   5.0865310592e+01   1.2709681145e+01     1.028669    0.5467952 -40.16  0.004953096    1.610    0.379
        58 -12.1137    235.1008     94.6165   4.7936650986e+01   1.5010915873e+01    0.9797844    0.3314799 -47.22  0.003741891    2.668    0.625
        59  -8.4787     13.8101    114.6256   1.1048235098e+02   5.0843683325e+01    0.1695592    0.1154532  37.09 0.0009459823    1.705    0.414
        60 -12.2274    153.4116    106.7784   6.5595818287e+01   3.0333192276e+01     1.081051    0.4987393 -51.94  0.003827004    2.430    0.588
        61 -10.4766    190.8232    110.5342   5.8701944113e+01   2.1274573435e+01    0.4466579    0.3065366  29.59  0.002025562    1.925    0.481
        62  -9.5919    136.5972    107.8235   6.9987296280e+01   3.3846188638e+01    0.2355982    0.1448597 -55.05 0.0009549058    1.779    0.438
        63 -10.1661    201.4590    105.6906   5.5613226824e+01   1.9912058791e+01    0.4094177    0.2593164 -51.04  0.001823873    1.523    0.343
        64 -12.1479    189.7995     92.8063   5.4519779005e+01   2.4829905073e+01    0.9841028    0.7177752 -25.21  0.004800504    1.588    0.370
        65 -11.5235    180.9059    104.9306   5.9224468532e+01   2.4533894663e+01    0.6898713    0.3316006 -53.58  0.002550484    2.406    0.584
        66 -11.4310    180.9006     98.1260   5.7506307112e+01   2.5840190335e+01    0.6733561    0.3489965 -47.32  0.002762331    1.874    0.467
        67  -9.5892     46.5479    102.3696   9.6827676214e+01   5.0908873497e+01    0.4086552    0.1841857 -64.01  0.001636297    2.250    0.556
        68  -9.6024    237.5757     68.8090   4.2061018801e+01   1.8653111096e+01    0.3181899   0.09336949 -42.17  0.001038765    2.730    0.634
        69 -11.9138    242.3354     80.5365   4.4002686305e+01   1.5903152426e+01     1.236373    0.1711811 -43.78  0.003503283    5.097    0.804
        70 -10.1207    248.2181     99.1535   4.7195779062e+01   1.1800590065e+01    0.4425688    0.3540253 -10.37  0.002573366    1.666    0.400
        71 -11.6941    247.1299     91.3062   4.5691667857e+01   1.3278134999e+01     1.222725     0.717766 -33.21  0.006357711    1.675    0.403
        72  -8.8494      2.1699    101.8364   1.1254502942e+02   5.4670925692e+01    0.1882841    0.1197094 -49.73  0.001081487    1.340    0.254
        73 -10.9770    173.8966     99.6495   5.9276622337e+01   2.7130782465e+01    0.4359639    0.2203918 -38.42  0.001733096    1.951    0.488
        74 -12.1050    213.9922     91.8439   5.0317949872e+01   1.9744120659e+01    0.7958006     0.441656 -34.25   0.00328934    1.805    0.446
        75 -12.8154    215.0550     84.5130   4.8459742977e+01   2.0769579423e+01      1.60863     1.023508   6.27  0.005629848    4.547    0.780
        76  -9.0745    118.4929     98.4827   7.2268607380e+01   3.9768980141e+01    0.1531601    0.1507874 -60.62 0.0008100806    1.039    0.038
        77 -10.1894    158.0323     90.5706   6.0192767673e+01   3.2518085345e+01    0.4179395    0.3104065 -28.23  0.001647667    1.491    0.329
        78  -8.4424     17.6824     91.6926   1.0519203291e+02   5.6159625711e+01    0.1393725   0.08006745 -38.61 0.0003584544    1.633    0.388
        79  -9.0460    119.3249     79.3308   6.6390738466e+01   4.3500283325e+01    0.1558946    0.1188455   7.00 0.0003033884    1.704    0.413
        80 -12.5335    218.1822    109.6077   5.3746086576e+01   1.5741476985e+01     1.099298    0.5115995 -45.08  0.004680581    1.915    0.478
        81  -9.4558    195.6682     77.3918   4.9693633991e+01   2.6207751469e+01    0.3399375    0.2646643  22.53   0.00156274    1.832    0.454
        82  -8.3993     16.6317     78.1970   1.0275820037e+02   5.9370100171e+01    0.1973102   0.09002062 -52.08 0.0009472289    1.710    0.415
        83 -10.7963    215.3575     74.2294   4.6034387412e+01   2.2395210670e+01    0.5331684    0.3688395  24.92  0.002512422    2.506    0.601
        84  -9.3516    183.0958     67.6962   4.9272340773e+01   3.0689696389e+01    0.4008641    0.2812385  -8.53  0.001830849    2.224    0.550
        85 -11.1426    226.9004     66.1363   4.2724421155e+01   2.1228447113e+01    0.6780549    0.2200035 -45.26  0.002671524    2.615    0.618
        86 -11.2857    227.3465     59.1341   4.1127016025e+01   2.2185745839e+01    0.5315608    0.3435102  82.66  0.002901259    1.670    0.401
        87  -8.9370    151.0278     69.4810   5.5765478607e+01   3.7978711377e+01    0.2182561     0.115974  35.73 0.0008103086    2.598    0.615
        88  -9.4066    204.5900     66.5161   4.5705273997e+01   2.5971516015e+01    0.3662314    0.2634062  81.07  0.001956855    1.466    0.318
        89  -9.1680     47.3666     62.0441   8.5379847340e+01   5.9809125491e+01    0.3346553    0.1524234 -48.56  0.001457901    2.060    0.514
        90  -9.7265    242.6077    248.3856   7.6767519260e+01  -1.1204164044e+01    0.2611111    0.1600883 -26.13  0.001688046    1.452    0.311
        91  -8.9198    234.3091    246.8932   7.7984865750e+01  -1.0028194125e+01    0.1919892    0.1421748  25.42  0.001311538    1.374    0.272
        92 -11.8845    214.2493    239.0629   8.0377364693e+01  -6.3824312270e+00    0.8248932    0.7144122 -41.87  0.005602517    1.557    0.358
        93 -10.0943    175.2865    240.2430   8.8218600820e+01  -1.0563428944e+00    0.5245612    0.3801432  84.59  0.002504367    3.183    0.686
        94 -11.2709    247.9702    235.6220   7.3735788015e+01  -1.0142023132e+01     0.660139    0.3471895 -37.31  0.003842652    1.859    0.462
        95  -9.0093    123.0000     41.0080   5.3122674556e+01   4.8944323220e+01    0.2156899   0.07992293 -31.63 0.0007978436    2.911    0.656
        96  -9.8079    213.6552     39.1216   3.8173592130e+01   2.7918247077e+01    0.3104049    0.2252182   8.07  0.001586622    2.584    0.613
        97 -10.2885    226.0148     34.1968   3.5842953016e+01   2.5905522492e+01    0.4446142    0.2893292   6.34  0.001883604    4.270    0.766
        98  -9.6031    146.6960     36.8385   4.6952861432e+01   4.3868316750e+01    0.2071207    0.1644699  58.01  0.001158539    1.169    0.144
        99  -9.2978    173.3237     34.6506   4.2055441607e+01   3.7756039040e+01    0.3366028    0.1660928 -28.00  0.001502781    2.351    0.575
       100  -8.5244    177.5102     48.0035   4.4992587440e+01   3.4983041758e+01    0.2027888    0.1326716 -37.06  0.001023397    1.562    0.360
       101  -9.1582    161.7708     34.6412   4.3774143235e+01   4.0519650097e+01    0.2364452    0.1780664 -12.81    0.0012734    1.718    0.418
       102 -10.2025    247.5785    226.7868   7.2298130181e+01  -8.8787024249e+00    0.2892021    0.1994769 -34.89  0.001771002    1.470    0.320
       103  -8.4708     77.3676     56.8169   7.1967700423e+01   5.6123540223e+01    0.2010992     0.123166 -28.29 0.0007324127    1.723    0.420
       104 -10.3242    249.9233    221.1368   7.0917026721e+01  -8.3655706378e+00    0.4775099    0.1684444 -33.47  0.002143573    2.533    0.605
       105  -9.1358    225.2245     15.5815   3.1976672698e+01   2.8321198805e+01    0.1579237   0.09879705  68.21 0.0008083145    1.598    0.374
       106  -9.9774    209.0910    224.3284   7.8878257933e+01  -3.4118409315e+00    0.3752938    0.2254535 -47.18  0.001923671    1.994    0.499
       107 -11.8334    243.6246     39.0282   3.5255460726e+01   2.1681895924e+01    0.5345534    0.3450099 -31.65  0.003143823    1.743    0.426
       108 -10.1184    231.5493    221.9738   7.4278087010e+01  -6.1442714206e+00    0.3445542    0.2796506  73.81  0.001917371    2.806    0.644
