#   1 NUMBER                 Running object number                                     
#   2 MAG_AUTO               Kron-like elliptical aperture magnitude                    [mag]
#   3 X_IMAGE                Object position along x                                    [pixel]
#   4 Y_IMAGE                Object position along y                                    [pixel]
#   5 X_WORLD                Barycenter position along world x axis                     [deg]
#   6 Y_WORLD                Barycenter position along world y axis                     [deg]
#   7 A_WORLD                Profile RMS along major axis (world units)                 [deg]
#   8 B_WORLD                Profile RMS along minor axis (world units)                 [deg]
#   9 THETA_WORLD            Position angle (CCW/world-x)                               [deg]
#  10 FWHM_WORLD             FWHM assuming a gaussian core                              [deg]
#  11 ELONGATION             A_IMAGE/B_IMAGE                                           
#  12 ELLIPTICITY            1 - B_IMAGE/A_IMAGE                                       
         1 -13.7349    248.9389    176.9991   8.0144120079e+01   2.4531744419e+00     3.062893      0.46011 -28.95  0.009519815    6.923    0.856
         2 -14.6062    115.4761    166.8183   1.0392006269e+02   2.5977744438e+01     2.813067     2.032447 -64.84   0.01628616    1.615    0.381
         3 -14.8993     95.0321    195.4916   1.1194760476e+02   2.3880062324e+01     4.209659     2.713267  68.10    0.0253633    1.686    0.407
         4 -11.7590     32.7622     28.9359   1.0124346027e+02   6.9105752083e+01    0.6742689    0.2234907 -61.04  0.002479617    3.107    0.678
         5 -11.6665     47.4185     16.4664   8.7098496115e+01   6.9760670167e+01    0.5889395    0.4548335 -68.96   0.00319239    1.810    0.448
         6 -10.3218     44.7864    239.0079   1.2478832810e+02   2.2882492170e+01    0.9681073    0.3265345  64.30  0.005132711    3.050    0.672
         7  -9.6595     57.1854    249.3902   1.2309276860e+02   2.0038255466e+01    0.3333316   0.07694411  43.69  0.001767391    2.422    0.587
         8  -9.7533     44.1166    250.5687   1.2538166023e+02   2.1256830466e+01    0.3883356   0.06553067  34.13  0.001664847    4.130    0.758
         9  99.0000     28.7735    248.7842   1.2791123378e+02   2.3050134977e+01    0.5187921    0.1463722  37.82  0.003057891    2.233    0.552
        10 -10.7537      2.4809    249.4879   1.3225904349e+02   2.5342509189e+01    0.2741794     0.111338  52.34  0.002032464    1.486    0.327
        11 -11.5985     10.1165    219.2220   1.3034249310e+02   2.9372703503e+01     1.350015    0.4822075  48.73   0.00855682    1.766    0.434
        12  99.0000     50.4173    230.3235   1.2337066507e+02   2.3613693881e+01     1.127264    0.5520057  47.96  0.007596061    1.407    0.289
        13 -12.1884     37.6041    212.9307   1.2494861093e+02   2.7809276707e+01     1.429847    0.3364507  60.65   0.00547686    4.862    0.794
        14 -11.4256     31.4802    238.4784   1.2710883185e+02   2.4317079451e+01     1.048859    0.2157659  50.79  0.005426059    2.773    0.639
        15 -12.9092     30.5515    223.9735   1.2674728130e+02   2.6687114433e+01     1.439964    0.4702136  61.77   0.00779843    2.613    0.617
        16  -9.5284     85.0538    242.6849   1.1780603741e+02   1.7784992119e+01    0.4052241    0.2373205  31.00  0.002776588    1.587    0.370
        17 -10.2546     70.5934    238.8260   1.2016134606e+02   2.0054459913e+01    0.6624098    0.1032753  46.39  0.002791003    3.655    0.726
        18  -9.1969     10.9922    249.4891   1.3087708171e+02   2.4600465842e+01    0.1413847   0.06316192  39.20 0.0006080634    1.571    0.363
        19 -13.3052    242.8490    224.0555   8.8603842424e+01  -1.1503822501e+00     1.105444    0.7511778 -17.86   0.00750615    1.569    0.363
        20 -13.5379    246.6604    210.0251   8.5939638595e+01  -4.0498570821e-01     2.075678    0.7709678 -35.57   0.01092078    3.472    0.712
        21 -11.2303     12.2246    196.9018   1.2931663357e+02   3.3048575042e+01     2.032226          nan  52.68  0.007476062    4.949    0.798
        22 -12.7797    141.2052    175.5532   9.9547773338e+01   2.0187874494e+01     1.178952    0.6631531 -48.27  0.006184442    2.106    0.525
        23 -13.1208    125.4705    195.9351   1.0564468977e+02   1.9364559054e+01     1.378739     1.162024 -31.83   0.00909829    1.532    0.347
        24 -13.2917     45.1015    179.0473   1.2145566229e+02   3.3205221700e+01     3.359128    0.3556305  46.90   0.01130677    4.754    0.790
        25 -11.3069      8.7120    179.6690   1.2948993236e+02   3.6563686124e+01      2.05747    0.2831859  59.19  0.007010581    5.580    0.821
        26  -9.6378     35.9486    199.7461   1.2463928209e+02   3.0286248525e+01    0.3447242   0.04715442  47.60  0.001388259    3.663    0.727
        27  -8.9416     48.8804    211.3538   1.2266360936e+02   2.6877758180e+01      1.47007    0.3420835  54.00  0.006132601    3.700    0.730
        28 -10.7468    148.4831    186.5845   9.9680912862e+01   1.7220452291e+01    0.4375686    0.3368866   4.84  0.002689052    1.573    0.364
        29  -9.9176     22.6711    185.8150   1.2674775159e+02   3.4163916801e+01    0.5322548    0.1454731  57.27   0.00243853    2.952    0.661
        30 -12.8918     16.9305    110.8273   1.2373617302e+02   5.0764849115e+01     1.143433    0.8834576 -49.48  0.007344776    1.508    0.337
        31 -11.5097      7.0585    163.2484   1.2929099906e+02   3.9946366614e+01      1.08451    0.4085947  54.37  0.005906431    2.013    0.503
        32 -11.2574      2.1377    111.8654   1.2834247407e+02   5.1493713040e+01    0.7630184    0.2101676 -83.98  0.003109669    3.064    0.674
        33 -12.6853      9.7960    150.4383   1.2812630019e+02   4.2396825877e+01     1.464288     0.625636  56.87  0.008011034    1.896    0.473
        34 -11.6096     10.2466    141.0996   1.2757616950e+02   4.4373295801e+01    0.7155194    0.2975774  53.97  0.003787767    1.988    0.497
        35 -12.0106      4.6625    131.7314   1.2860303021e+02   4.6833510262e+01    0.6546147    0.5127884  79.59  0.004392059    1.042    0.040
        36 -12.1948      4.2194    123.6585   1.2833992879e+02   4.8671565494e+01     1.041078     0.446548  33.89  0.005619623    2.183    0.542
        37 -13.2951     45.0953    195.8838   1.2253743860e+02   3.0021693976e+01      2.68056    0.3678524  52.00  0.008467084    5.972    0.833
        38 -12.8562     72.0628    198.2403   1.1704466396e+02   2.6437981308e+01    0.9491793    0.5674429  66.23  0.004801298    1.625    0.385
        39 -12.0257     84.5852    154.6654   1.0963126894e+02   3.3155141762e+01    0.5049229    0.2999849  34.18  0.002623208    1.637    0.389
        40 -13.6317    134.8671    131.0219   9.3075038524e+01   2.9419009350e+01    0.9744131    0.8343503 -29.04  0.005429452    1.313    0.238
        41 -14.1265    141.5070    143.3071   9.3954396348e+01   2.5814522620e+01      1.64991     1.183503  37.38  0.008750042    1.286    0.223
        42 -10.8870     32.9369    142.6683   1.2172703047e+02   4.2076245325e+01    0.4987527    0.2169722 -80.44  0.002442454    2.171    0.539
        43 -13.3277    122.7547    137.1565   9.7252032505e+01   3.0482734785e+01      1.13753    0.7822065 -74.91  0.005507052    1.945    0.486
        44  -9.0862      1.4520    226.9095   1.3205038100e+02   2.8867461832e+01    0.1331653   0.04259133  61.60 0.0006690896    2.162    0.537
        45 -11.0006     33.4369    153.9763   1.2245510678e+02   3.9564466319e+01    0.6268354     0.307725  59.54   0.00316649    1.801    0.445
        46 -10.4502     24.1806    135.9385   1.2356441920e+02   4.4386517271e+01    0.3419148     0.238296  52.32  0.002173148    1.267    0.210
        47 -11.6946     41.3512    149.3854   1.2008382705e+02   3.9745386583e+01     1.015174    0.3785401  63.64   0.00411069    3.175    0.685
        48  -9.9452     32.9040    129.0246   1.2056675395e+02   4.5160300272e+01    0.3462164    0.1395847 -84.15   0.00152132    2.494    0.599
        49 -10.0928     27.6476    129.0584   1.2206487924e+02   4.5640061036e+01    0.3897886    0.1470039  76.29  0.001520656    3.320    0.699
        50 -12.7505     70.0961    210.5428   1.1839445084e+02   2.4558354282e+01     1.241078    0.5233604  59.05  0.006486176    2.356    0.576
        51 -13.3283    147.4574    119.0094   8.7447719199e+01   2.9209308933e+01     1.012882    0.6630647  40.90  0.004809258    1.459    0.315
        52 -10.4029     32.4085    115.0756   1.1933101756e+02   4.8465176719e+01    0.3916018    0.1509941 -73.16  0.001730083    2.297    0.565
        53 -11.6707    127.7348    108.0253   8.9728797079e+01   3.5468994785e+01     0.530799    0.2328669 -53.63  0.001923017    2.676    0.626
        54 -12.4670    140.2612    102.7658   8.5237709232e+01   3.3878431170e+01    0.5914398     0.484933  18.99   0.00297967    1.389    0.280
        55 -12.3248      5.3142    102.9930   1.2683068573e+02   5.3378983455e+01    0.8898844    0.4355789  58.26  0.004751685    1.897    0.473
        56 -11.2301    128.0002     96.0085   8.6613109539e+01   3.7885437086e+01     0.325607    0.2165143 -44.54  0.001482489    1.540    0.350
        57  -9.7019    162.9765     93.3221   7.7453218277e+01   3.0540121404e+01    0.2452812    0.1286304  71.84 0.0004169598    4.376    0.771
        58 -11.1514     32.8092     67.6216   1.1218914377e+02   5.9981637135e+01     1.063918    0.1404017 -67.60   0.00261909    6.509    0.846
        59 -12.1287     19.0604     89.4476   1.2095219734e+02   5.5741668104e+01      0.52148    0.3354029 -27.66   0.00283994    2.108    0.526
        60 -10.3411     29.6386     88.4581   1.1698312247e+02   5.5146832650e+01     1.031098    0.4285007  50.85  0.004443502    2.633    0.620
        61 -11.4626     31.0313     82.0965   1.1550534522e+02   5.6586360607e+01     1.485385    0.5010987  37.01   0.00616807    2.871    0.652
        62 -10.9052    114.9929     76.9825   8.4818486328e+01   4.4640311068e+01    0.5572353    0.1714963 -49.06  0.001631705    3.613    0.723
        63 -10.7042     83.3218     52.6912   8.7085390120e+01   5.6283223455e+01    0.4418003    0.1698156 -48.61  0.001563865    2.576    0.612
        64 -12.2854     26.8571     38.5181   1.0785157386e+02   6.7498189156e+01    0.6254238     0.340584  22.47  0.003183967    2.109    0.526
        65 -11.8138     32.9293     40.6811   1.0529516999e+02   6.6427661059e+01      1.05368    0.1513351 -62.07  0.002576049    6.663    0.850
        66 -11.0380     92.6633     39.0842   7.8348580161e+01   5.7058788173e+01    0.3737845    0.2916658  80.84  0.001792469    1.713    0.416
        67 -12.6095     12.0210    240.3215   1.3050829817e+02   2.5867584116e+01     1.194779    0.4271833  39.52  0.007899201    1.830    0.454
        68 -10.5995     39.5087     31.0024   9.8304999610e+01   6.7885718077e+01    0.2007026    0.1835552   6.61  0.001260931    1.183    0.155
