#   1 NUMBER                 Running object number                                     
#   2 MAG_AUTO               Kron-like elliptical aperture magnitude                    [mag]
#   3 X_IMAGE                Object position along x                                    [pixel]
#   4 Y_IMAGE                Object position along y                                    [pixel]
#   5 X_WORLD                Barycenter position along world x axis                     [deg]
#   6 Y_WORLD                Barycenter position along world y axis                     [deg]
#   7 A_WORLD                Profile RMS along major axis (world units)                 [deg]
#   8 B_WORLD                Profile RMS along minor axis (world units)                 [deg]
#   9 THETA_WORLD            Position angle (CCW/world-x)                               [deg]
#  10 FWHM_WORLD             FWHM assuming a gaussian core                              [deg]
#  11 ELONGATION             A_IMAGE/B_IMAGE                                           
#  12 ELLIPTICITY            1 - B_IMAGE/A_IMAGE                                       
         1 -13.8507      7.2479     13.7873   1.2295564329e+02   7.2066863866e+01      2.32936    0.6952226 -46.95   0.01166851    2.316    0.568
         2 -14.1323    201.3083     10.7029   6.5839918793e+01   3.3405075705e+01     2.345904     1.383356  38.34   0.01067353    2.146    0.534
         3 -13.2758    189.8963     27.2724   7.2075106546e+01   3.4543028163e+01     1.285739    0.9413622  -4.29  0.006299426    1.719    0.418
         4 -10.5541    228.5697    227.9953   1.1254102805e+02  -4.7019443595e+00    0.2783458    0.2173116 -61.18  0.001462227    2.386    0.581
         5 -10.6759    249.4139    249.5241   1.1244081638e+02  -1.0050809274e+01    0.2697522      0.13448  35.48  0.001684692    1.542    0.351
         6 -12.2605    140.0398    249.0999   1.3083680619e+02   6.9429201789e+00    0.5376858    0.2430476  48.04  0.002953649    1.692    0.409
         7 -11.5099    124.0575    249.9498   1.3368831412e+02   9.3080864118e+00     0.488739    0.1336604  42.32  0.002108812    2.830    0.647
         8 -10.5460    110.9064    250.5401   1.3599919617e+02   1.1210387582e+01    0.2949642   0.08576326  42.75   0.00133478    2.635    0.620
         9 -11.4104     98.4962    250.0322   1.3806265012e+02   1.3110276241e+01    0.3087207    0.2250722  66.43  0.001620841    1.143    0.125
        10 -11.6277    102.0334    247.4534   1.3723577589e+02   1.2995992630e+01    0.3198919    0.1996686  57.10  0.001489056    1.228    0.186
        11 -10.6345     88.8620    249.1544   1.3961462513e+02   1.4620688766e+01    0.2009635    0.1121206  54.38  0.000615904    1.326    0.246
        12 -11.2350     82.0830    242.9016   1.4026084999e+02   1.6571648624e+01    0.3237406    0.1795048  64.22  0.001998548    1.535    0.349
        13 -11.4669     81.4661    248.5845   1.4080922390e+02   1.5738424308e+01    0.3648009    0.2258662  66.10  0.001991495    1.316    0.240
        14 -10.6074     67.0790    250.1961   1.4330054381e+02   1.7402842850e+01    0.2617934    0.1074467  47.15 0.0009711738    1.792    0.442
        15 -14.6600     35.1010    246.3256   1.4819068070e+02   2.1930661277e+01      8.63306     2.321083  33.87   0.03082368    7.112    0.859
        16 -10.6067    174.1153    222.2585   1.2131840052e+02   5.1632776605e+00    0.3423009    0.2540141  79.12  0.001839126    1.996    0.499
        17 -10.1145     27.7840    221.7339   1.4806851370e+02   2.7000586264e+01    0.1859897     0.124906  73.61 0.0004170361    1.067    0.063
        18 -14.5587      3.1909    235.7412   1.5266301200e+02   2.7038776698e+01     6.388155          nan -72.70   0.01369575    9.117    0.890
        19 -10.2774    233.8973    237.7525   1.1317276669e+02  -6.6064054726e+00    0.1753581     0.153169 -68.20  0.001220788    2.142    0.533
        20  -8.7901    152.5459    212.9239   1.2403785735e+02   1.0378031740e+01     0.155214    0.1281689 -53.67 0.0003386527    1.453    0.312
        21 -10.0024     34.6963    229.2462   1.4733167275e+02   2.4894169301e+01     0.215347    0.1214634  62.97 0.0009246323    1.302    0.232
        22 -14.4909     57.5674    212.4380   1.4216796446e+02   2.5223675362e+01     4.470098    0.5986317  50.27   0.01437241    5.567    0.820
        23  -9.8444    192.0316    193.0763   1.1325502954e+02   6.3354900952e+00    0.2789339    0.1869854 -68.30  0.001311336    2.654    0.623
        24 -11.4089     68.7284    197.7627   1.3872626081e+02   2.6597020461e+01    0.3226407    0.2096131 -53.27  0.001417102    1.978    0.494
        25 -11.5636     73.8803    190.1537   1.3690272535e+02   2.7415518310e+01    0.2480242    0.2130884 -64.40 0.0005038642    1.400    0.286
        26  -8.7481    104.8720    180.7678   1.2918299982e+02   2.4599733597e+01    0.1758701    0.1314758  71.49 0.0002923759    1.276    0.216
        27 -10.9222     82.7201    177.6698   1.3357355379e+02   2.8727362442e+01    0.2288872    0.1970779 -89.21 0.0004166504    1.110    0.099
        28 -13.2448     70.1784    175.4359   1.3602849901e+02   3.0995255253e+01    0.4580884    0.2752785 -47.52  0.001741357    2.230    0.552
        29 -14.0490     50.7977    222.7413   1.4416174546e+02   2.4164413908e+01     1.055755    0.6419904  79.44  0.007101498    1.395    0.283
        30 -11.9805     89.1529    168.0640   1.3086017163e+02   2.9800453427e+01    0.7704146    0.5033034  61.27  0.004142109    1.467    0.318
        31 -13.0656     66.3510    142.9623   1.3262739577e+02   3.8706623349e+01     1.561801    0.7624821  82.35  0.003048886    3.695    0.729
        32  -9.2051    103.9473    147.7489   1.2413020868e+02   3.1837079123e+01    0.2536182     0.189283 -35.93  0.001288165    1.741    0.426
        33 -12.0357     90.1095    151.3982   1.2810849271e+02   3.3316801859e+01    0.2683505    0.2456585 -48.77 0.0005852472    1.301    0.231
        34 -11.3492    152.5359    229.0057   1.2621880807e+02   7.8520325178e+00    0.4807728    0.1396969  38.07   0.00176434    3.492    0.714
        35  -8.5416    192.0324    143.9888   1.0343859086e+02   1.4653118476e+01     0.172702    0.1642555 -19.83 0.0003938361    1.076    0.070
        36 -12.2589     29.8547    139.0396   1.4114471846e+02   4.3760120119e+01    0.4451901    0.2101671  52.62   0.00232196    2.168    0.539
        37  -9.5857    242.0234    138.9844   9.3148506887e+01   4.9609323295e+00     0.166811    0.1506887  -4.51 0.0004268944    1.002    0.002
        38  -9.6899    111.5378    136.9511   1.2020538200e+02   3.2893122399e+01    0.3373638    0.2450637 -25.09  0.001329708    2.039    0.510
        39 -13.8910     10.2897    206.8616   1.5027347523e+02   3.1522743189e+01     1.085661    0.6798456  81.77  0.003222198    1.176    0.149
        40 -10.4272     99.1544    134.3134   1.2281527877e+02   3.5685961133e+01    0.2701942    0.2273996 -38.38 0.0007134004    1.396    0.284
        41 -15.2695     19.2565    171.0688   1.4641461747e+02   3.7790321631e+01     6.599443      1.96155 -89.29   0.02375123    4.633    0.784
        42  -9.3925    108.1461    123.9697   1.1835102840e+02   3.6433931467e+01    0.2070427    0.1946228 -83.18 0.0003297677    1.009    0.009
        43  -9.8925    101.0595    151.9951   1.2557216294e+02   3.1388649066e+01    0.2702453    0.2366879 -55.16 0.0007964047    1.247    0.198
        44 -10.9048    168.1778    113.2764   1.0110206087e+02   2.5907231996e+01    0.3754898      0.31542 -81.28 0.0008732019    1.398    0.285
        45  -8.9322    203.3333    111.3268   9.3410942614e+01   1.7952186262e+01     0.158519    0.1178688  14.44 0.0007051514    1.715    0.417
        46  -9.6451     42.0000    108.9604   1.3380262557e+02   4.9442554418e+01    0.2216477   0.06183426 -65.18  0.000325299    3.016    0.668
        47 -12.7404     44.4608    232.3122   1.4588130554e+02   2.3225622739e+01    0.3119707    0.2671073  76.46  0.000787273    1.347    0.258
        48 -10.2883    198.8205    246.7835   1.2038950158e+02  -2.1573306056e+00    0.1528587    0.1202795  49.59 0.0009098588    1.345    0.256
        49  -8.6124     73.6384     38.4908   1.0375599070e+02   6.0210214223e+01    0.1322336    0.1138942 -21.13 9.754858e-05    1.041    0.039
