#   1 NUMBER                 Running object number                                     
#   2 MAG_AUTO               Kron-like elliptical aperture magnitude                    [mag]
#   3 X_IMAGE                Object position along x                                    [pixel]
#   4 Y_IMAGE                Object position along y                                    [pixel]
#   5 X_WORLD                Barycenter position along world x axis                     [deg]
#   6 Y_WORLD                Barycenter position along world y axis                     [deg]
#   7 A_WORLD                Profile RMS along major axis (world units)                 [deg]
#   8 B_WORLD                Profile RMS along minor axis (world units)                 [deg]
#   9 THETA_WORLD            Position angle (CCW/world-x)                               [deg]
#  10 FWHM_WORLD             FWHM assuming a gaussian core                              [deg]
#  11 ELONGATION             A_IMAGE/B_IMAGE                                           
#  12 ELLIPTICITY            1 - B_IMAGE/A_IMAGE                                       
         1 -13.2319    192.5930     30.5931   6.8240135302e+01   3.3198468472e+01     1.169056     1.077004 -50.55  0.006200636    1.092    0.084
         2 -13.9692    205.8115     13.4497   6.2047025581e+01   3.1875001921e+01     1.661843     1.187655  38.74  0.009000143    1.731    0.422
         3 -12.6541     13.4944     12.5483   1.1247494768e+02   7.1497052253e+01    0.8046997    0.3044246  31.45  0.004175977    3.004    0.667
         4 -12.3842      2.2340     13.0686   1.1874089375e+02   7.2271789321e+01     2.342533    0.1252567 -52.64  0.004797902   14.906    0.933
         5 -12.3734     12.3926      3.3071   1.0854456727e+02   7.2988033547e+01    0.7529196    0.4293516  11.12  0.004789457    1.815    0.449
         6 -13.8942     46.2536    220.4507   1.4133301464e+02   2.3964111205e+01     1.065469    0.6168475  52.81  0.004684576    1.420    0.296
         7 -10.8775    248.5116    249.2717   1.0795038317e+02  -1.0508249543e+01    0.2646932    0.1695276  14.47  0.001820248    1.278    0.218
         8 -11.2045    140.0801    250.0697   1.2694754310e+02   5.5397725136e+00    0.4282981    0.1308908  41.81   0.00187496    2.559    0.609
         9 -11.7298    125.8464    249.4050   1.2943898165e+02   7.8153893846e+00    0.4905118    0.1722393  35.59  0.002115596    2.895    0.655
        10 -11.9408    100.9101    245.8031   1.3356056457e+02   1.2094252625e+01    0.4900562    0.2739226  74.94  0.002612944    2.335    0.572
        11 -11.5905    105.1147    245.8766   1.3281053693e+02   1.1469767108e+01    0.2978503    0.1919297  65.66  0.001363833    1.521    0.342
        12 -10.1581     66.6839    250.1001   1.3993731685e+02   1.6069988941e+01     0.189028    0.1297216  47.86 0.0003198707    1.256    0.204
        13 -13.2315     29.9610    245.8737   1.4579778695e+02   2.1190748240e+01     1.368971    0.6109523  48.28  0.005318158    1.708    0.415
        14 -10.8960     41.3138    206.4924   1.4117765575e+02   2.7286917533e+01    0.2408659    0.1665099  82.49 0.0002101806    1.204    0.169
        15 -13.3112      5.7570    241.1817   1.4944494444e+02   2.4512047941e+01     2.066382    0.6242459 -82.19   0.01101021    2.985    0.665
        16 -14.3913     10.5934    204.7726   1.4682918947e+02   3.0841553688e+01     2.980627     1.167033  87.38   0.01202966    2.405    0.584
        17 -15.2871     15.1171    163.1894   1.4301523351e+02   3.9172628889e+01     5.983365     1.975815 -86.82   0.02350061    3.516    0.716
        18  -8.8882    152.6699    213.0326   1.1963428309e+02   9.4112759107e+00    0.1650331    0.1560317  43.68 0.0002864039    1.089    0.082
        19 -12.4953     39.4856    229.4294   1.4319151334e+02   2.3065262598e+01    0.2770174    0.2416065  86.33 0.0007374407    1.315    0.240
        20  -8.8979    180.2725    232.6329   1.1727436509e+02   1.7056516842e+00    0.1128367   0.09274144  70.50 0.0007001276    1.668    0.401
        21 -11.4973     65.2422    195.8717   1.3538979891e+02   2.6505834037e+01     0.367829    0.2347294 -46.60  0.001612079    2.125    0.529
        22 -11.7228     70.5239    188.0505   1.3339728355e+02   2.7447710441e+01    0.3576424    0.2466249 -79.93 0.0007978972    1.378    0.275
        23 -10.0125    192.5782    194.2729   1.0860302671e+02   5.4846187051e+00    0.3350678    0.1946154 -66.09  0.001192963    4.532    0.779
        24  -9.3519     47.9043    193.0640   1.3870077005e+02   2.9280513822e+01    0.1750641    0.1396822  78.04 0.0002843315    1.003    0.003
        25  -8.5486    229.6976    230.3056   1.0806891144e+02  -5.7361501905e+00    0.1008707   0.09194407  49.13 0.0002968991    1.597    0.374
        26  -8.9291    119.9886    188.4718   1.2266805269e+02   1.9670580593e+01    0.2044289    0.1262356  37.09   0.00100728    1.610    0.379
        27 -10.8719     80.0186    176.1376   1.2978252302e+02   2.8694346515e+01     0.238201    0.2138586 -67.47 0.0003655271    1.198    0.165
        28 -13.1298     67.2002    173.8208   1.3239889486e+02   3.1009858869e+01    0.4768491    0.2705711 -46.29  0.001639784    2.234    0.552
        29 -11.7592     87.1821    167.0743   1.2681099072e+02   2.9640541522e+01    0.6456295    0.5064298  58.03  0.003694145    1.217    0.179
        30 -12.7037     67.3523    144.1582   1.2810574910e+02   3.7802465267e+01      1.15023    0.6483985  87.02  0.003938094    2.508    0.601
        31 -11.9599     57.6593    131.8613   1.2864768620e+02   4.1969874618e+01     1.731969    0.5720279 -74.56  0.004028969    7.855    0.873
        32 -14.7686     54.7301    210.6020   1.3892689203e+02   2.4853595912e+01      8.59792          nan  45.20   0.02207751    8.326    0.880
        33  -9.9234     99.5296    151.1432   1.2114131766e+02   3.1274391099e+01    0.2965305    0.2523582 -65.34 0.0007735583    1.135    0.119
        34  -8.9740    102.1993    146.9128   1.1968131788e+02   3.1789575283e+01    0.2187723    0.1883572 -36.68 0.0005479527    1.323    0.244
        35 -11.9861     88.2385    150.3371   1.2382149460e+02   3.3296559720e+01    0.2810118    0.2489622 -44.13  0.000600961    1.267    0.211
        36  -8.8921    134.3309    148.2647   1.1206788286e+02   2.5541118678e+01    0.2063799    0.1358343 -58.57 0.0004280753    1.634    0.388
        37  -9.2648     76.4801    235.9963   1.3707243480e+02   1.7214852539e+01    0.1597487   0.08186454  78.95 0.0006924155    2.459    0.593
        38  -8.8339    192.1788    144.1917   9.8404377533e+01   1.4369885141e+01    0.1906186    0.1735618 -71.97 0.0004262161    1.294    0.227
        39  -9.7013    110.5494    136.6537   1.1548824149e+02   3.2658936630e+01    0.3359386    0.2418292 -31.10  0.001172963    1.724    0.420
        40 -10.3899     97.9867    133.7116   1.1814048980e+02   3.5558889518e+01    0.2728277    0.2291676 -23.73 0.0005874577    1.459    0.315
        41 -10.7605     50.2258    129.9841   1.3036309046e+02   4.3309090330e+01    0.2471286    0.2255117  74.35 0.0006291456    1.138    0.121
        42 -10.0975     43.9598    130.4872   1.3214628381e+02   4.3894183489e+01    0.1765774    0.1283055  35.83 0.0005810934    1.567    0.362
        43  -9.3902    107.2281    123.4938   1.1344751172e+02   3.6277328729e+01    0.2019904    0.1873281 -58.99    0.0007249    1.036    0.034
        44 -10.9132     49.6073    234.1610   1.4173684880e+02   2.1001396789e+01    0.3173919    0.1832821 -78.48  0.001212664    1.681    0.405
        45 -10.3585    168.0676    113.1718   9.5914435099e+01   2.5671456273e+01    0.3497758    0.2854052 -81.39  0.000791311    1.528    0.346
        46  -9.1589    203.8183    111.3746   8.8274099294e+01   1.7837443659e+01    0.2157658    0.1350621  40.33 0.0007971281    1.736    0.424
        47 -10.2714     46.2965    248.7987   1.4328267986e+02   1.8817032432e+01     0.253634    0.1331816  64.57   0.00164131    1.550    0.355
        48 -10.7095     81.8475    248.9315   1.3722498338e+02   1.4255349786e+01    0.1933334    0.1390035  83.08  0.001360369    1.359    0.264
        49 -11.6543    113.6916    243.7147   1.3103231854e+02   1.0551259030e+01    0.3983081    0.1670883  57.78  0.001785539    2.835    0.647
        50 -10.6578    144.2273    243.4826   1.2540585588e+02   5.8830084480e+00    0.1813513    0.1716642 -73.69 0.0004964856    1.290    0.225
