#   1 NUMBER                 Running object number                                     
#   2 MAG_AUTO               Kron-like elliptical aperture magnitude                    [mag]
#   3 X_IMAGE                Object position along x                                    [pixel]
#   4 Y_IMAGE                Object position along y                                    [pixel]
#   5 X_WORLD                Barycenter position along world x axis                     [deg]
#   6 Y_WORLD                Barycenter position along world y axis                     [deg]
#   7 A_WORLD                Profile RMS along major axis (world units)                 [deg]
#   8 B_WORLD                Profile RMS along minor axis (world units)                 [deg]
#   9 THETA_WORLD            Position angle (CCW/world-x)                               [deg]
#  10 FWHM_WORLD             FWHM assuming a gaussian core                              [deg]
#  11 ELONGATION             A_IMAGE/B_IMAGE                                           
#  12 ELLIPTICITY            1 - B_IMAGE/A_IMAGE                                       
         1 -13.5078    207.2671     34.8205   5.3012510122e+01   2.8729085287e+01     1.285048     1.190694 -37.90   0.00598605    1.040    0.038
         2 -13.9004    226.1310     16.7705   4.5931588114e+01   2.6140465464e+01     1.140804    0.9039987  13.85  0.001321804    1.437    0.304
         3 -13.3303      4.0899      4.7331   1.0696018631e+02   7.6197744132e+01     1.305411     0.548906 -60.42   0.00650247    1.958    0.489
         4 -11.4511    154.5817    246.8750   1.0661143954e+02   8.7088395100e+00    0.2620955    0.1822715 -39.75  0.002043168    1.942    0.485
         5 -10.9480    161.5080    250.2406   1.0581561415e+02   7.4515409992e+00      0.26257    0.1087044  30.83  0.001523085    2.012    0.503
         6 -12.8493    133.7121    248.7619   1.1029209533e+02   1.1152112076e+01    0.8649579    0.2271554  39.07  0.004255319    2.653    0.623
         7 -11.5294    117.5033    249.8589   1.1312076344e+02   1.3038433756e+01    0.4353623    0.2647484  46.72  0.002690315    1.290    0.225
         8 -11.0381    122.5372    249.0652   1.1220337828e+02   1.2514381590e+01    0.3092619    0.2100729  40.22  0.001472563    1.058    0.055
         9 -11.3845     99.6982    248.4455   1.1602466809e+02   1.5376663589e+01    0.4065526    0.2494272  36.76  0.003038595    1.258    0.205
        10 -11.5619     89.9465    225.2830   1.1594853778e+02   1.9801285706e+01    0.4032797    0.2841751  38.69  0.002986559    1.181    0.153
        11  -9.6513     90.9912    220.0618   1.1532315148e+02   2.0462821914e+01    0.1988557    0.1133242  66.44 0.0008998446    2.022    0.506
        12 -11.6988     87.7291    248.6220   1.1806793871e+02   1.6759483492e+01    0.4930712     0.291096  39.44  0.002827155    1.251    0.201
        13 -10.2049     81.6214    248.1721   1.1907280016e+02   1.7521141039e+01    0.2969387    0.1215183 -80.12  0.001616675    4.123    0.757
        14 -11.0776     83.2052    240.5163   1.1829093558e+02   1.8396199523e+01    0.3472061    0.1932194  57.33  0.002425777    1.605    0.377
        15 -12.1991     88.6875    238.2591   1.1717283746e+02   1.8069683407e+01    0.6164863    0.3297455  64.93  0.003956659    2.136    0.532
        16 -10.2586     84.1820    230.2930   1.1738617420e+02   1.9753635192e+01    0.1827786    0.1621657  85.05  0.001072707    1.321    0.243
        17 -13.0336     61.0601    246.6629   1.2245800097e+02   2.0000928255e+01     1.884353    0.4007036  34.19  0.008521766    3.743    0.733
        18 -12.5578     35.3978    206.0285   1.2493352457e+02   2.9043874481e+01     0.629032    0.4439275  51.30  0.004822124    1.105    0.095
        19 -15.0196     22.1875    219.8045   1.2798259490e+02   2.7986590172e+01     1.168107    0.9504136  56.99   0.01023435    1.194    0.162
        20 -11.1392     68.9810    237.5391   1.2057699871e+02   2.0443740821e+01    0.2855571    0.2141627  10.63  0.001304099    2.038    0.509
        21 -10.7666     73.2456    236.9411   1.1979270175e+02   2.0051098218e+01    0.2138861    0.1811625  52.13  0.001013234    1.186    0.157
        22 -10.0815    197.9714    245.4824   9.9392655607e+01   3.2781260649e+00    0.1621673   0.07389747  34.63  0.001016633    1.590    0.371
        23 -11.3799    181.2719    243.4528   1.0183324857e+02   5.6230559763e+00    0.2462359    0.1352482  50.05  0.001530583    2.266    0.559
        24 -11.5448     97.3657    239.4790   1.1574428325e+02   1.6859065295e+01     0.410545    0.2572095 -35.98  0.002699694    2.794    0.642
        25 -11.6681    101.8168    240.1472   1.1501926162e+02   1.6226033864e+01    0.3358242    0.2232151 -79.64  0.001564667    2.036    0.509
        26 -12.0188    104.4431    236.7734   1.1428312037e+02   1.6362736644e+01    0.3570081    0.2292271  49.07   0.00207788    1.245    0.197
        27 -11.5482    116.6827    238.9099   1.1231815810e+02   1.4541047584e+01    0.2929921    0.2262453 -12.78  0.002192904    1.967    0.492
        28 -11.4431     73.9398    243.4329   1.2008244566e+02   1.9044629788e+01     0.323547    0.2045499 -70.29  0.002502148    1.975    0.494
        29  -9.0844     60.2958    238.9242   1.2216786082e+02   2.1194273765e+01    0.1350928   0.09939846  55.68 0.0004693961    1.066    0.062
        30  -9.1401     48.7254    237.4354   1.2408730741e+02   2.2635278695e+01      0.20288   0.03084623  44.36 0.0009425451    3.209    0.688
        31 -11.5031    110.4995    247.7520   1.1413453189e+02   1.4162542876e+01    0.4045516    0.3092609  80.25  0.003308335    1.657    0.397
        32  -9.4253     55.7759    236.0193   1.2279331116e+02   2.2107626699e+01     0.233583   0.09172873  53.62  0.001168679    2.007    0.502
        33  -9.2947     52.4989    231.6551   1.2313374734e+02   2.3113457276e+01    0.1473508   0.09081125 -74.21 0.0006298859    1.880    0.468
        34  -9.4875     53.6975    241.0459   1.2341454018e+02   2.1585729582e+01    0.1315963    0.1013053  60.49 0.0006160202    1.132    0.116
        35  -9.6939    123.3124    229.6705   1.1027945372e+02   1.4919661512e+01     0.121858    0.1025732 -38.72 0.0009576615    1.580    0.367
        36 -11.8594    106.1244    229.5487   1.1336280076e+02   1.7158751179e+01       0.4245    0.1670083  43.74  0.002386339    1.911    0.477
        37  -9.2008    153.5007    230.4770   1.0502105722e+02   1.0774334707e+01    0.1095477    0.0819803  32.39 -5.483304e-05    1.018    0.018
        38 -11.2503     98.8015    230.8167   1.1479257141e+02   1.7897781726e+01    0.3066477    0.1735577  28.53  0.001506216    1.771    0.435
        39 -10.7828     56.5403    228.1819   1.2222234908e+02   2.3215838971e+01    0.1913211    0.1684184  51.10 0.0003522697    1.267    0.211
        40 -10.6363     79.1959    225.6939   1.1795135469e+02   2.1034756867e+01      0.31085    0.1587812 -64.27  0.002011656    2.368    0.578
        41 -10.8755     99.5600    223.0977   1.1399222628e+02   1.8927407277e+01    0.3055841    0.1754234 -60.92  0.002019213    2.176    0.540
        42  -9.0248     65.2274    223.8056   1.2037919651e+02   2.2939227271e+01    0.2650999    0.1135936 -49.48  0.001382082    3.933    0.746
        43 -11.1636    108.6402    218.1855   1.1184568284e+02   1.8484188115e+01    0.4916524    0.2089084  59.00  0.002169387    3.707    0.730
        44 -10.3291     71.6249    219.6743   1.1891340430e+02   2.2857422745e+01     0.321114    0.1970839  58.84  0.002233315    1.405    0.288
        45  -9.1949     60.0116    220.4789   1.2112602349e+02   2.4047460888e+01    0.1510706   0.08109624  39.24 0.0003361636    1.476    0.323
        46  -9.8334     50.8997    218.6306   1.2270064645e+02   2.5334449193e+01    0.2232153     0.104912  59.69 0.0009525968    1.849    0.459
        47  -9.8786     46.2783    214.3557   1.2331851624e+02   2.6523940420e+01    0.3159805   0.08287142  49.32   0.00154864    2.742    0.635
        48 -14.2277      7.3536    213.6172   1.3043173188e+02   3.0309769672e+01     2.205199    0.8006059 -88.40   0.01319302    2.631    0.620
        49  -9.4478    117.2300    215.3700   1.0994701027e+02   1.7754967674e+01    0.1690892   0.07947772  44.22 0.0009497458    1.700    0.412
        50  -9.5010     88.2030    212.7106   1.1522009971e+02   2.1960918267e+01    0.2114204    0.1504164 -83.97  0.001084511    1.646    0.393
        51 -10.0098     56.0067    208.7526   1.2112635349e+02   2.6419197626e+01    0.2770601    0.1501722 -74.99   0.00179329    2.013    0.503
        52  -8.5605    110.6935    211.3358   1.1076964020e+02   1.9245251186e+01    0.1146175   0.07295892  60.18 0.0007040895    1.672    0.402
        53  -8.8653     77.2890    221.2733   1.1797532826e+02   2.1941243572e+01   0.09046713   0.07778841  17.27  0.000165693    1.512    0.339
        54 -10.2165     63.1220    208.9342   1.1976279669e+02   2.5590232370e+01    0.2928393   0.08520298  46.87  0.001415424    2.568    0.611
        55  -9.7433     65.5822    205.3220   1.1901846132e+02   2.5918566673e+01    0.3743854   0.09681801  43.11  0.001734568    2.704    0.630
        56  -9.3473    113.7473    204.5803   1.0945611710e+02   1.9875661352e+01    0.1773475    0.1280147  80.06 0.0005589051    1.785    0.440
        57  -9.6537    106.8552    203.6999   1.1071454252e+02   2.0962301430e+01    0.1581497    0.1528975 -57.37   0.00049646    1.286    0.223
        58  -9.6322     73.9653    200.9512   1.1700510002e+02   2.5672383488e+01    0.1767668    0.1042506  61.37 0.0004525534    1.599    0.375
        59  -9.8501    250.5335    200.0909   8.4743316015e+01   6.9734878867e-01    0.1510577   0.09015405 -17.37 0.0009072654    1.556    0.358
        60 -11.2740     45.8969    198.6747   1.2246058656e+02   2.9261735578e+01    0.3648542     0.213093  24.43  0.002254042    2.054    0.513
        61 -11.9632     49.4561    191.7310   1.2127874804e+02   3.0135393755e+01    0.2871676     0.232505 -43.78 0.0007497135    1.769    0.435
        62 -10.2187     26.1189    192.4053   1.2606748312e+02   3.2364411086e+01    0.2098058    0.1461856  34.13  0.001522582    1.471    0.320
        63 -10.2925     19.9645    190.7799   1.2722485886e+02   3.3225400692e+01    0.4116721    0.1332908  68.37  0.001934941    3.186    0.686
        64 -10.5158     35.7335    191.6717   1.2408544561e+02   3.1571935495e+01     0.322628    0.1517138  45.40  0.001427325    1.651    0.394
        65  -9.1020    191.5395    191.5222   9.2954113893e+01   1.0121059846e+01    0.1199233   0.09565259  20.80 0.0001145069    1.002    0.002
        66  -9.4822    109.1409    191.2033   1.0884987024e+02   2.2701001073e+01    0.1659921    0.1370231  38.40 0.0002830911    1.098    0.089
        67 -14.6577     11.4379    244.9093   1.3056907694e+02   2.5064194033e+01      2.34706    0.6926186  32.15   0.01370798    2.846    0.649
        68 -12.5736      3.3807    226.4503   1.3145151495e+02   2.8555204287e+01    0.6100282    0.3139405  79.96  0.003376407    1.677    0.404
        69  -8.8213     71.0938    187.3317   1.1640158795e+02   2.8445436487e+01    0.1655782   0.08014812  45.81            0    1.694    0.410
        70 -12.1804     56.2851    184.2357   1.1928462887e+02   3.0770949440e+01    0.3142073    0.2008291  42.20  0.001108421    1.346    0.257
        71 -13.0465    125.1811    240.6493   1.1099806894e+02   1.3235141333e+01    0.7899029    0.3857254  25.36  0.004470743    2.370    0.578
        72  -9.7770     36.9747    180.0446   1.2311352013e+02   3.3637122500e+01    0.1737387    0.1334916  61.64 0.0005578695    1.031    0.030
        73 -11.6766     12.0532    173.2044   1.2808397742e+02   3.7246548511e+01    0.3923692    0.2999065 -67.05   0.00293563    1.527    0.345
        74  -8.8174    110.4730    178.4670   1.0697999599e+02   2.4716011271e+01     0.122898    0.1058461  47.38 2.730155e-05    1.001    0.001
        75  -9.5554     60.1817    177.3468   1.1785661404e+02   3.1636531391e+01    0.2030239    0.1188841  45.78 0.0009306184    1.438    0.304
        76  -8.8216     87.8309    175.5475   1.1155706710e+02   2.8475572303e+01    0.1609866   0.09626061  48.97 0.0003564524    1.467    0.319
        77 -11.3969    248.4094    172.4103   8.0270754097e+01   3.7127220334e+00     0.380295    0.2497249  10.11  0.002475835    1.285    0.222
        78 -10.8355     68.8412    172.3852   1.1545533462e+02   3.1558276692e+01    0.2043974    0.1869344  77.79 0.0003411871    1.134    0.118
        79 -10.8020      3.0362    172.5566   1.2997535891e+02   3.8086266104e+01     0.300621    0.1588396  47.89 0.0009827324    1.509    0.337
        80 -12.6277     10.0503    165.3944   1.2817242569e+02   3.8959098505e+01    0.6145852     0.438022  28.08  0.004388698    1.608    0.378
        81 -10.9830     26.9329    171.8454   1.2478366371e+02   3.6212718520e+01    0.2066732    0.1773157  33.23 0.0003891101    1.383    0.277
        82  -9.2990     18.4719    172.4744   1.2666678043e+02   3.6847781067e+01    0.1623823    0.1376982  42.10  0.001251315    1.309    0.236
        83 -10.9923     19.9516    168.3419   1.2612612312e+02   3.7540791701e+01    0.2085821    0.1836075 -74.71 0.0003275539    1.347    0.258
        84 -10.8470     40.1740    168.1579   1.2157479683e+02   3.5656893593e+01      0.25914    0.2323178  53.28  0.001175864    1.208    0.172
        85  -8.8913     90.6820    168.3409   1.1004788507e+02   2.9456583114e+01    0.1314359   0.08436142  65.91 0.0007049189    1.712    0.416
        86 -12.0544     77.0250    164.5618   1.1272953812e+02   3.2060161243e+01    0.4535303     0.398094  57.83  0.001713167    1.046    0.044
        87 -11.2558    245.1744    162.2888   7.8865430384e+01   5.2723312654e+00    0.2468194    0.1818673 -12.43  0.001408894    1.195    0.164
        88 -11.5948    245.6391    156.9764   7.7770083913e+01   5.7848103214e+00     0.501495    0.3215895  52.95  0.002865196    2.251    0.556
        89  -8.7470     37.2690    162.6548   1.2182438649e+02   3.7073598849e+01    0.1231718   0.06956954  66.01 0.0003999153    1.613    0.380
        90 -10.3594     23.8165    161.9427   1.2488422541e+02   3.8497693018e+01    0.1759002    0.1412237  53.82 0.0003793171    1.157    0.136
        91  -8.3581     58.6866    159.3181   1.1647622166e+02   3.5424652852e+01    0.1296902   0.07727254  64.19 0.0003482114    1.647    0.393
        92 -11.0219     53.5674    171.2724   1.1879620614e+02   3.3588178581e+01    0.2646517     0.228204  43.97 0.0009771886    1.214    0.176
        93 -11.7337     24.9577    155.8638   1.2422810339e+02   3.9657800136e+01    0.4944023    0.2060558  37.27  0.001943127    2.108    0.526
        94 -11.1574     23.8575    149.6493   1.2406986377e+02   4.1073085539e+01    0.2642601    0.2039595  55.64  0.001498789    1.162    0.139
        95 -11.5063      8.9297    156.1569   1.2799717379e+02   4.0932539370e+01      0.32355     0.128888  69.74  0.001662279    2.277    0.561
        96 -11.4212     12.6667    153.6744   1.2700039512e+02   4.1157472073e+01    0.2972474    0.1614291 -77.16  0.001813569    1.654    0.395
        97  -8.6159     68.2620    166.6279   1.1499097646e+02   3.2770476969e+01    0.1266515   0.07883203  69.22 0.0006712786    1.658    0.397
        98  -9.1014     73.6672    154.2483   1.1228691859e+02   3.4608679406e+01     0.129003   0.08210252  60.35 0.0002271634    1.553    0.356
        99 -10.7599    249.7274    151.0145   7.5986350237e+01   5.8096708958e+00    0.2914653    0.2083863 -22.47  0.001883243    1.328    0.247
       100 -11.0046     91.8573    149.7704   1.0723378806e+02   3.2995214281e+01    0.2859466    0.2666625  60.90 0.0009292067    1.049    0.046
       101 -10.5669     80.1899    148.6045   1.0994238558e+02   3.4910160012e+01    0.2192854    0.2018351  73.40 0.0003440242    1.045    0.043
       102  -9.8083     38.8377    148.9688   1.2032138985e+02   3.9800554293e+01    0.1680236     0.149722 -64.99 0.0004240858    1.302    0.232
       103 -11.5646     68.3813    143.4988   1.1223602074e+02   3.7585297693e+01    0.6125257    0.3136836  64.88  0.002103457    2.445    0.591
       104 -12.8376      4.6650    142.7426   1.2836289294e+02   4.4078655151e+01    0.5832126    0.3489462 -67.50  0.001948558    1.650    0.394
       105 -12.9366      9.2419    143.0011   1.2724872086e+02   4.3691435472e+01    0.6792813    0.1945941 -78.69  0.003008771    2.943    0.660
       106 -12.0231    239.3899    120.1851   7.0992496281e+01   1.1142064430e+01    0.4701989    0.2708972  -2.96  0.002305153    1.960    0.490
       107 -12.9959    248.2483    134.5598   7.2827401396e+01   7.9064628759e+00     1.264257    0.3973128 -23.99  0.004965337    3.147    0.682
       108 -10.2563    249.7964    117.5911   6.8923418041e+01   9.6253400593e+00    0.2436305    0.1918759  25.71  0.000736213    1.260    0.206
       109 -12.9464    247.7442    112.7299   6.8115754650e+01   1.0560748869e+01    0.8846662    0.4917485 -10.74  0.004439488    1.811    0.448
       110  -9.7831     45.0379    139.8046   1.1785064155e+02   4.1160212585e+01    0.2046615    0.1570937 -85.26 0.0003083878    1.176    0.149
       111 -10.0867    105.8783    135.6730   1.0142824694e+02   3.3727348614e+01    0.3921826     0.265859   1.86  0.001736155    2.635    0.621
       112 -11.8242     17.2841    132.9474   1.2455281284e+02   4.5282619270e+01    0.3610127    0.1879799  30.82  0.001812531    1.998    0.500
       113 -13.4662     15.1127    122.4575   1.2435310712e+02   4.7825492006e+01    0.6500223    0.4918717 -82.88  0.002711452    1.133    0.117
       114 -13.2311      8.9016    113.4111   1.2543631531e+02   5.0351971229e+01    0.7513558    0.2656333 -66.55  0.003542753    2.341    0.573
       115 -12.9913      3.7538    121.7523   1.2746179377e+02   4.8775065688e+01    0.6472062    0.4291063 -77.32  0.004200945    1.299    0.230
       116  -8.5368     92.3357    133.2617   1.0447011322e+02   3.6406385614e+01    0.1269363    0.1064345  -7.01  0.000345267    1.580    0.367
       117  -9.4766     44.3818    130.1866   1.1696275173e+02   4.3393696123e+01    0.1751828    0.1058243 -87.85 0.0005500639    1.613    0.380
       118 -12.9962    248.3887    101.5380   6.5452159025e+01   1.1782588475e+01     1.020217    0.4601974 -19.59  0.004593903    2.100    0.524
       119 -10.4611    231.9398    116.1705   7.1194430853e+01   1.2999551424e+01    0.1954815    0.1714766 -30.51 0.0007054076    1.281    0.219
       120  -9.8031     32.3304    116.3112   1.1880194540e+02   4.7810328601e+01    0.1236412   0.08784756 -44.74 0.0007042722    1.671    0.401
       121  -8.8927    235.9595    145.9927   7.7057329860e+01   8.5961587006e+00    0.1521944    0.1216993   2.01 0.0005107829    1.010    0.010
       122 -12.8322      3.2249    101.2103   1.2623170925e+02   5.3555080021e+01    0.8159142    0.2555294 -79.41   0.00354133    2.565    0.610
       123 -11.4691      2.8615    132.5556   1.2830321676e+02   4.6418993538e+01    0.4403643    0.2112562  85.95  0.002457082    1.753    0.430
       124  -9.3032     95.8846    145.6702   1.0561699679e+02   3.3237015022e+01    0.1804676    0.1555497  55.83 0.0004660068    1.076    0.071
       125 -12.2832      1.9337     84.3363   1.2525162311e+02   5.7636001485e+01    0.7050478     0.199356 -85.45  0.002651173    3.345    0.701
       126 -12.0456    248.0289    142.4058   7.4495089511e+01   7.0430332194e+00    0.5568227     0.397886   6.01  0.003510679    1.209    0.173
       127  -9.5946    161.6369     80.1815   7.4356243987e+01   3.3365588156e+01    0.2199808    0.1403915 -22.05 0.0006212541    1.707    0.414
       128 -12.0795      3.6019     68.4415   1.2293568183e+02   6.1387324380e+01    0.3342222    0.2479578 -73.83  0.002156147    1.075    0.070
       129 -10.8007    238.0023    249.1456   9.3757624748e+01  -1.9368635094e+00    0.2337699   0.09373119  44.19    0.0012858    3.165    0.684
       130 -10.9678    172.4985    245.9982   1.0355645581e+02   6.4928919656e+00     0.146828    0.1101373  27.29 0.0007171578    1.062    0.058
