#   1 NUMBER                 Running object number                                     
#   2 MAG_AUTO               Kron-like elliptical aperture magnitude                    [mag]
#   3 X_IMAGE                Object position along x                                    [pixel]
#   4 Y_IMAGE                Object position along y                                    [pixel]
#   5 X_WORLD                Barycenter position along world x axis                     [deg]
#   6 Y_WORLD                Barycenter position along world y axis                     [deg]
#   7 A_WORLD                Profile RMS along major axis (world units)                 [deg]
#   8 B_WORLD                Profile RMS along minor axis (world units)                 [deg]
#   9 THETA_WORLD            Position angle (CCW/world-x)                               [deg]
#  10 FWHM_WORLD             FWHM assuming a gaussian core                              [deg]
#  11 ELONGATION             A_IMAGE/B_IMAGE                                           
#  12 ELLIPTICITY            1 - B_IMAGE/A_IMAGE                                       
         1  -9.7544     12.7833     21.5600   1.1679926390e+02   6.8518667438e+01    0.1295485   0.09406868  24.53 0.0007280411    1.677    0.404
         2 -11.4985    154.7385    240.9155   1.2539354148e+02   2.8647977503e+00    0.3376942    0.1725169 -54.80   0.00167652    2.399    0.583
         3 -12.2548    157.3242    246.3881   1.2566262942e+02   1.5249503531e+00    0.4613982    0.3061089 -23.97  0.002425651    2.491    0.599
         4 -12.1460    160.0217    237.6884   1.2392886324e+02   2.4725605666e+00    0.4451881    0.1968186 -47.66  0.002058821    2.678    0.627
         5 -12.0957    166.4715    248.4039   1.2423539223e+02  -3.6652053817e-01    0.3676074    0.2349552  39.86  0.001204454    1.315    0.240
         6  -9.0302    107.6748    248.6878   1.3509884510e+02   9.4419384407e+00     0.107485   0.09522697  19.22 0.0007040814    1.661    0.398
         7 -10.9890    167.9377    242.4943   1.2312009984e+02   3.0454392572e-01    0.2010785    0.1068694  43.54  0.001024278    1.567    0.362
         8 -10.9005    144.5554    232.0602   1.2610620101e+02   6.1722180778e+00    0.3684933    0.1669065 -65.26  0.001456139    3.597    0.722
         9 -11.2997    229.9406    230.1374   1.0955006063e+02  -8.4615298556e+00    0.3442645    0.1648671 -45.09   0.00164066    2.672    0.626
        10 -10.1683    161.3219    227.6566   1.2218558389e+02   3.9420897900e+00    0.2100881     0.176704  72.80 0.0008132405    1.305    0.234
        11 -10.0358    114.6726    222.4706   1.3065727080e+02   1.3154097510e+01    0.2255466    0.1183312 -59.46  0.001106211    2.063    0.515
        12 -11.8255    164.4372    226.2218   1.2135284195e+02   3.6254988733e+00    0.4895984    0.3340252  43.86  0.002366138    1.270    0.213
        13 -10.5646    126.0437    220.8097   1.2817524924e+02   1.1518210569e+01    0.2400824    0.1581408  59.94 0.0008280696    1.435    0.303
        14  -9.7657    143.8335    216.6900   1.2399360315e+02   9.1207381382e+00    0.2161264    0.1849551 -45.28   0.00100289    1.368    0.269
        15 -10.4571    111.9569    214.9494   1.3020006585e+02   1.5105703789e+01    0.3335392     0.154766 -46.98  0.001434735    2.780    0.640
        16  -9.8969    131.4714    214.5370   1.2618137044e+02   1.1776323433e+01    0.2231869    0.1237996 -43.59   0.00102887    2.283    0.562
        17  -9.9072    185.5145    213.5133   1.1508431170e+02   1.9318276407e+00    0.2604485    0.1360028 -44.37  0.001200515    2.131    0.531
        18 -10.0576    116.2518    210.4053   1.2869716160e+02   1.5289952276e+01    0.2324749    0.1549346 -88.50 0.0008078667    1.784    0.440
        19  -9.8402     99.3439    206.6653   1.3165811749e+02   1.8916585363e+01    0.1447819   0.09004623  72.70 0.0007050056    1.764    0.433
        20 -10.0764    185.9243    204.0761   1.1331982748e+02   3.5129008449e+00    0.2720128    0.2018353 -58.75  0.001254008    1.647    0.393
        21  -9.1282    198.6551    204.3285   1.1082783263e+02   1.0460335457e+00     0.135851    0.1093329  78.63 0.0007050526    1.750    0.429
        22 -10.8330    164.6084    201.8492   1.1728204801e+02   8.0394594133e+00    0.5521576    0.3039637 -53.99  0.002483529    2.080    0.519
        23 -10.2953    162.6156    194.2012   1.1633013722e+02   9.9161884951e+00    0.4032305    0.2702506 -81.77  0.001299627    2.375    0.579
        24 -10.8847    250.0577    200.6081   1.0049504100e+02  -7.5230690957e+00    0.3980145    0.1615269 -27.44  0.001612223    2.883    0.653
        25  -9.2744    211.5415    201.5277   1.0778484199e+02  -8.9176405489e-01    0.1333609    0.1255134  30.85 0.0001627408    1.114    0.102
        26  -9.2271    244.6593    199.2902   1.0119484608e+02  -6.4251238028e+00    0.1166923    0.1063777  86.98 0.0007024315    1.647    0.393
        27 -10.1253    113.3709    198.4925   1.2756184167e+02   1.8274647605e+01     0.295295     0.165743  66.78  0.001277835    2.211    0.548
        28 -10.1378     88.9858    199.0739   1.3279779356e+02   2.2198659859e+01    0.2273198    0.1407788  74.83  0.001131497    1.767    0.434
        29  -9.5390    148.9942    198.2583   1.1993288742e+02   1.1757529543e+01    0.2452827     0.147963  89.45 0.0008858859    3.420    0.708
        30 -10.1986    125.5056    197.8355   1.2486948283e+02   1.6248632681e+01    0.3577432    0.2363916  43.14  0.001806488    1.448    0.309
        31 -10.7672    172.8415    195.8047   1.1448015209e+02   7.5897026109e+00    0.2597679    0.2477767  32.05 0.0007358654    1.050    0.047
        32 -10.1001    173.3552    191.6635   1.1360015971e+02   8.2859128233e+00    0.2968554    0.2343528 -79.76 0.0009259966    1.633    0.388
        33  -9.1348    209.3004    194.6581   1.0689588266e+02   6.9650009928e-01    0.1328083    0.1122797 -88.63 0.0006343495    1.672    0.402
        34  -9.3659    186.5081    194.0137   1.1132550536e+02   5.2338039911e+00    0.1902775    0.1261827 -71.08 0.0008095431    2.459    0.593
        35  -9.0179    215.3294    193.6631   1.0553252888e+02  -2.7352378380e-01    0.1333327    0.1121538  89.20 0.0007051997    1.731    0.422
        36 -10.9671    245.9363    191.9691   9.9529651755e+01  -5.5197350874e+00    0.1893857    0.1641285 -67.90 0.0009042832    1.689    0.408
        37  -9.2034    224.7036    192.3094   1.0348048655e+02  -1.7919513810e+00    0.1254188      0.11086 -85.40 0.0004262554    1.593    0.372
        38  -9.6279    179.4701    190.5031   1.1210422973e+02   7.2907743310e+00    0.2466588    0.1372862 -57.16  0.001024545    2.298    0.565
        39  -9.8102    139.0579    189.5775   1.2056315992e+02   1.5453600613e+01    0.3046827      0.18084 -74.15  0.001251052    2.437    0.590
        40  -9.5946    129.6853    188.9377   1.2250167207e+02   1.7366155872e+01    0.2608564    0.1394739  70.87 0.0008922803    3.420    0.708
        41 -10.2105     87.0227    189.2160   1.3187589506e+02   2.4671372643e+01    0.2067512    0.1352548  87.33  0.001045113    1.647    0.393
        42  -9.2205    192.4852    187.9860   1.0893770911e+02   5.1699617726e+00    0.1955082    0.1266575 -68.21 0.0008100863    2.516    0.603
        43 -10.7511     94.6994    186.7762   1.2985236245e+02   2.3991446012e+01    0.3408096    0.1929643 -87.30  0.001454657    2.392    0.582
        44  -9.7938    165.4840    186.5515   1.1429654004e+02   1.0870254082e+01     0.254154    0.1392516 -59.90  0.001024144    2.349    0.574
        45  -9.6831    156.1837    187.0711   1.1639233072e+02   1.2625267892e+01    0.2392651    0.1670367 -80.62  0.001076683    2.003    0.501
        46 -10.6369    120.5882    185.8624   1.2398834091e+02   1.9715292139e+01    0.4468623    0.2106648 -70.23   0.00158298    3.229    0.690
        47  -9.8227    229.6803    186.3339   1.0135320161e+02  -1.7161197496e+00    0.1301266    0.1114682 -80.90 0.0003468467    1.699    0.411
        48 -10.1820    109.3589    186.0363   1.2650511198e+02   2.1682637367e+01    0.2705735     0.179564  68.67  0.001078536    1.645    0.392
        49 -11.1394    247.9637    184.3108   9.7637127872e+01  -4.6693225302e+00    0.2654231    0.1979129   3.21   0.00148111    1.413    0.292
        50  -9.8062    203.8625    184.1259   1.0587632256e+02   3.6201788376e+00    0.2144094    0.1989654 -81.41  0.001107036    1.294    0.227
        51  -9.1906    183.3651    184.6755   1.1016010407e+02   7.6280649016e+00    0.1498049     0.114968  81.08 0.0007038817    1.794    0.443
        52 -10.2231    174.4059    183.3937   1.1178786192e+02   9.6964697179e+00    0.3461235    0.2405166 -72.12  0.001531202    2.031    0.508
        53  -9.5727    197.5301    182.7591   1.0687033302e+02   5.1342666491e+00    0.1966475    0.1382649 -54.25 0.0006997364    1.653    0.395
        54 -11.7129    243.8984    180.7219   9.7625665569e+01  -3.3770518514e+00    0.3529595    0.1747089 -40.99  0.001565935    2.004    0.501
        55  -9.3947    211.5472    182.5244   1.0403543926e+02   2.3951723476e+00    0.1405112    0.1319446   9.80 0.0008082615    1.008    0.008
        56 -10.1353    147.7879    180.4089   1.1697983667e+02   1.5688431865e+01    0.3444642    0.2006169 -67.28  0.001400344    2.305    0.566
        57  -9.9543    138.0068    178.8237   1.1886087220e+02   1.7958636905e+01    0.2731909    0.1884751 -71.23  0.001274319    1.692    0.409
        58 -10.8489    250.0457    177.5183   9.5888758922e+01  -3.9497200318e+00      0.25389    0.1813492 -46.84  0.001280747    1.570    0.363
        59  -9.2798    205.2784    177.6338   1.0426619627e+02   4.5277803168e+00    0.1415675    0.1153616 -78.46 0.0003784006    1.679    0.404
        60 -10.0284    182.9677    175.5224   1.0839807910e+02   9.4981412244e+00    0.2831231    0.2082978 -61.10  0.001256748    1.609    0.378
        61 -10.2926    105.8372    175.5443   1.2558206246e+02   2.4651783434e+01     0.275617    0.1710265  79.92  0.001184773    2.187    0.543
        62 -10.8078     77.0803    175.8565   1.3217331819e+02   2.9204347790e+01    0.3843568    0.1770193  59.50  0.001556339    2.683    0.627
        63  -9.9435    177.3504    171.3292   1.0872270397e+02   1.1509216370e+01    0.2960137    0.2164845  89.26  0.001266626    2.026    0.506
        64  -9.0759    142.6327    172.3239   1.1658621231e+02   1.8460117777e+01    0.1594668    0.1136844  78.70 0.0007036827    1.799    0.444
        65  -9.8140    134.8499    171.7469   1.1824555960e+02   2.0128696064e+01    0.2920014    0.1938765 -84.11  0.001239317    2.115    0.527
        66 -12.5465    248.3497    168.8408   9.4382598687e+01  -2.2303266332e+00    0.6780487    0.2367529 -45.74  0.002403899    3.299    0.697
        67 -10.9836    121.9304    169.6233   1.2082234580e+02   2.3086058812e+01    0.4435513    0.2893056  88.34  0.001567707    2.164    0.538
        68  -9.5517    206.1723    169.7493   1.0243269104e+02   5.8148025159e+00    0.2336099    0.1625898 -86.38 0.0009401812    2.717    0.632
        69  -9.5952    149.9911    169.8004   1.1442593050e+02   1.7520170215e+01    0.2551203    0.1678631  70.68  0.001069282    2.033    0.508
        70  -9.6185    168.1745    169.0191   1.1022684615e+02   1.3910547677e+01    0.2467129    0.1726575 -75.03  0.001065124    1.994    0.499
        71  -9.8684    111.8712    167.5548   1.2279070126e+02   2.5409696544e+01    0.2949507    0.1877602 -78.08  0.001303907    1.917    0.478
        72  -9.4623    185.3698    166.5993   1.0602254475e+02   1.0772663128e+01    0.2793206    0.1304109 -56.43 0.0009244437    3.033    0.670
        73 -10.1390    192.4028    164.7332   1.0415226754e+02   9.6539383127e+00    0.4164178    0.1367699 -48.06  0.001294539    3.417    0.707
        74 -10.8263    139.3578    164.7671   1.1584322524e+02   2.0783418232e+01    0.5347077    0.3442233 -86.30  0.002105636    2.484    0.597
        75 -10.1981     99.2191    166.1222   1.2551436288e+02   2.7951024817e+01    0.2866123    0.1684824  65.11  0.001238379    2.085    0.520
        76 -10.0251    159.7195    164.0927   1.1106890427e+02   1.6730405680e+01    0.3357765    0.2072466 -66.99   0.00134732    2.203    0.546
        77 -10.5884     79.6385    163.6699   1.2973310952e+02   3.1646723239e+01    0.4439639    0.2326124  83.24  0.001586856    3.506    0.715
        78  -9.7311    213.2482    163.4438   9.9683922724e+01   5.5411010834e+00    0.2521265    0.1796053 -60.62  0.001176859    1.788    0.441
        79  -9.1758    219.5434    163.4916   9.8481691455e+01   4.2471484650e+00    0.1431206    0.1362576 -10.89 0.0001701132    1.015    0.015
        80 -10.3295    204.9839    162.0032   1.0099945165e+02   7.5305000139e+00    0.3147717    0.2012746 -40.47  0.001355059    1.559    0.359
        81 -10.1979    177.7912    160.1507   1.0624771541e+02   1.3704878557e+01    0.3855169     0.200618 -54.30  0.001476924    2.244    0.554
        82 -10.1345    151.6842    160.5305   1.1213725643e+02   1.9188389425e+01    0.3121997     0.227638 -79.95  0.001396944    1.775    0.437
        83 -10.5097     92.6049    160.1311   1.2604807747e+02   3.0446124045e+01      0.33174    0.2227081  88.80  0.001245523    1.777    0.437
        84 -10.7486    196.4458    157.0589   1.0163829886e+02   1.0306815086e+01    0.4510108    0.2743195 -54.39  0.001704051    1.902    0.474
        85 -10.0039    128.5038    159.0385   1.1723250701e+02   2.4229228675e+01    0.2765066    0.2007517  84.59  0.001260604    1.728    0.421
        86 -10.7065    105.4659    157.7369   1.2250763027e+02   2.8823680241e+01    0.4197309    0.2827281 -83.75  0.001529133    1.805    0.446
        87 -10.1738    212.1503    156.7972   9.8440369875e+01   7.0174038936e+00    0.3938646    0.1035323 -38.60   0.00112773    3.944    0.746
        88  -9.8063    188.4634    157.4444   1.0338003871e+02   1.1952193116e+01    0.2720615    0.1403274 -53.46  0.001026702    2.287    0.563
        89 -10.3482    167.8213    156.7434   1.0768503932e+02   1.6570686056e+01     0.462747     0.216084 -53.20  0.001676077    2.426    0.588
        90 -10.9496    119.5051    155.4438   1.1866465932e+02   2.6787835935e+01    0.4190392    0.2706778 -74.78    0.0015261    1.918    0.479
        91  -9.8848    157.7167    155.8072   1.0975060297e+02   1.8943410222e+01    0.3125742    0.1882966 -69.17  0.001174532    2.470    0.595
        92 -10.6402    204.8214    154.2658   9.9321574543e+01   9.0556681854e+00    0.3776501    0.2096538 -46.27  0.001334408    1.837    0.456
        93 -10.1069    145.0848    154.9284   1.1247194848e+02   2.1802753692e+01    0.3316695    0.2255685  85.80  0.001345989    2.214    0.548
        94 -10.4883     81.2461    153.9351   1.2773137821e+02   3.3689568997e+01    0.3578005    0.2129261  85.91  0.001517617    2.383    0.580
        95 -10.0286     49.9788    155.4951   1.3552403529e+02   3.7534281137e+01    0.1859135   0.08852064  58.29 0.0008103809    2.577    0.612
        96 -12.6072    243.3736    148.8516   9.0955019514e+01   2.1147563998e+00    0.4974574    0.1994201 -35.67  0.001914278    2.387    0.581
        97 -11.2690    133.5800    152.6633   1.1470780749e+02   2.4670825485e+01    0.5133126     0.332119 -73.06  0.001948836    2.013    0.503
        98 -10.1779     67.4066    153.2315   1.3099846577e+02   3.5846792942e+01     0.198255    0.1167913 -75.75 0.0009475243    1.709    0.415
        99 -10.6913    190.5037    150.2824   1.0134598734e+02   1.2954193514e+01    0.5149044    0.3351603 -72.99  0.001991648    2.535    0.606
       100 -11.9605    248.8576    149.3957   9.0141725652e+01   9.6107640368e-01    0.4224175    0.1547671 -43.78  0.001568746    2.664    0.625
       101 -10.1129     98.2672    150.1495   1.2283460475e+02   3.1846937210e+01    0.3247049      0.16877 -67.23  0.001308071    2.175    0.540
       102  -9.7449     90.8195    151.0056   1.2484601355e+02   3.2880711567e+01    0.2424831    0.1555659 -87.20  0.001076655    1.994    0.498
       103  -9.7222    162.3938    150.2045   1.0745127898e+02   1.9149127498e+01    0.2277254    0.1440605 -58.08  0.000947993    1.774    0.436
       104 -10.7436    200.1909    147.7072   9.8768106281e+01   1.1342176450e+01    0.5072396    0.2574111 -44.13  0.001919569    1.958    0.489
       105 -10.2891    142.6824    148.7301   1.1169213905e+02   2.3689751403e+01    0.3083413    0.1815236 -68.74  0.001156189    2.407    0.585
       106  -9.9234     39.8004    148.1940   1.3693273463e+02   4.0370371019e+01    0.2224839    0.1119411  71.36 0.0009542359    2.861    0.650
       107 -10.0305    234.3605    147.1881   9.2162260292e+01   4.2024279829e+00    0.2150656    0.1240436 -46.27 0.0009527224    1.743    0.426
       108 -11.9071    149.4983    144.3988   1.0911482996e+02   2.3212060026e+01    0.7891251    0.4975402 -68.03  0.003047783    2.108    0.526
       109 -11.5820    106.9298    144.0275   1.1944786372e+02   3.1769387221e+01    0.7328006    0.4375044 -76.74  0.002684795    2.341    0.573
       110 -11.0684     56.4357    146.1293   1.3256636592e+02   3.8941428337e+01     0.491201    0.2201432  63.26  0.001746744    3.979    0.749
       111  -9.7211    175.7887    145.9749   1.0350615411e+02   1.7100627226e+01    0.2553349    0.1791349 -71.98  0.001072089    1.935    0.483
       112  -9.5816     77.6805    146.3495   1.2728629105e+02   3.6012456739e+01     0.147099    0.1008259  80.76 0.0007048362    1.738    0.425
       113 -10.2973    138.0257    144.3592   1.1183644880e+02   2.5644423474e+01     0.282486    0.2175916 -81.01 0.0009855959    1.547    0.353
       114 -11.6895    124.7360    141.8889   1.1453717227e+02   2.8902590338e+01     0.688363    0.3931247 -67.91  0.002434361    2.318    0.569
       115  -9.7793    182.4594    150.4903   1.0309450717e+02   1.4682920783e+01    0.2809422    0.1415836 -53.86  0.001028609    2.340    0.573
       116 -10.5995    165.9177    143.4476   1.0511447432e+02   1.9831204080e+01    0.4343091    0.2638148 -58.84  0.001754898    1.934    0.483
       117 -10.9772     87.8198    142.4734   1.2399209885e+02   3.5375131325e+01    0.4907358    0.1922348 -61.92  0.001780715    2.661    0.624
       118  -9.0553    208.3340    143.6626   9.6220224638e+01   1.0351911025e+01    0.1552364    0.1199389 -78.95 0.0007051908    1.744    0.427
       119 -10.1406    182.0266    141.3321   1.0107531412e+02   1.6674182143e+01    0.3535372    0.2099681 -51.90  0.001289438    1.797    0.444
       120  -9.2626    203.3892    141.1582   9.6616563591e+01   1.1928310725e+01    0.2190569    0.1377971 -51.16 0.0009376221    1.689    0.408
       121 -10.8186     68.8242    139.8444   1.2837850088e+02   3.8807406493e+01    0.3298315    0.1624835 -85.00  0.001069761    4.176    0.761
       122 -10.3052    197.8951    136.3968   9.6602235187e+01   1.4099041640e+01    0.6675123    0.2011586 -44.73  0.002005024    3.322    0.699
       123 -10.4754    172.1595    137.3859   1.0229592307e+02   1.9727264430e+01    0.4654726    0.2648068 -61.26  0.001721796    2.373    0.579
       124  -9.8430     23.7353    138.9643   1.3957404577e+02   4.4048349657e+01    0.2187635   0.09590245  64.49 0.0008862027    3.622    0.724
       125 -10.8851    138.6068    137.8125   1.1020968265e+02   2.7001387275e+01    0.3107654    0.2334004 -80.54  0.001358122    1.655    0.396
       126  -9.0886    219.6571    137.3426   9.2601702193e+01   9.0972863050e+00    0.1547394    0.1170216 -75.47 0.0007047625    1.783    0.439
       127 -10.9888    162.7221    135.8975   1.0406545976e+02   2.2170242780e+01    0.4080208    0.2610272 -56.87  0.001712318    1.722    0.419
       128 -11.1920    249.0138    135.2316   8.7005424608e+01   3.3844652102e+00    0.2685916    0.1633161 -47.66  0.001269436    1.628    0.386
       129  -9.8044    187.8006    135.1133   9.8377502882e+01   1.6646817087e+01    0.3530768    0.1763095 -45.38  0.001347317    1.995    0.499
       130  -9.5388     39.3143    136.6367   1.3538957158e+02   4.3095858775e+01    0.1333724   0.08637617  79.49 0.0007040752    1.761    0.432
       131 -10.5404    179.5090    133.1706   9.9677310275e+01   1.8940624016e+01    0.4125565    0.2487711 -53.06  0.001679849    1.789    0.441
       132 -11.6638    143.2535    130.6433   1.0739026937e+02   2.7616922512e+01    0.6018597    0.2945594 -50.21  0.002003112    2.063    0.515
       133 -11.8220    131.9644    129.4007   1.0987212562e+02   3.0287260998e+01    0.8236443    0.3733087 -53.05  0.002986997    2.297    0.565
       134 -10.6532    112.4199    132.3016   1.1551767446e+02   3.3492446850e+01    0.3771646    0.2556021 -62.63  0.001383206    1.526    0.345
       135 -11.6756     82.9499    129.0071   1.2257185103e+02   3.9305766234e+01    0.8944011    0.2173371 -57.04  0.002635095    3.979    0.749
       136  -9.9112    205.3353    130.7047   9.3771289192e+01   1.3542818822e+01    0.2449534    0.1828933 -76.70  0.001095795    1.786    0.440
       137 -11.4628    153.0165    128.1133   1.0443775139e+02   2.6030875324e+01    0.7391894    0.3457873 -52.39  0.002638161    2.326    0.570
       138 -10.2031    192.9878    129.5195   9.5956411794e+01   1.6594015945e+01    0.3276576    0.2342176 -43.31  0.001382337    1.375    0.272
       139 -11.5272    168.5685    128.8463   1.0103506648e+02   2.2354504893e+01    0.5142133    0.3319615 -59.04  0.002137164    1.791    0.442
       140  -9.3865    186.4065    129.2348   9.7253258695e+01   1.8166978459e+01    0.2249251    0.1440283 -52.05 0.0009458312    1.643    0.391
       141 -11.6820     98.2859    125.1995   1.1763153241e+02   3.7688524956e+01    0.8897558    0.3412868 -57.35   0.00310072    2.738    0.635
       142 -10.2312     72.6994    128.7350   1.2526860409e+02   4.0880923738e+01    0.2896614    0.1633147 -80.29  0.001181843    2.539    0.606
       143 -11.7626    117.5429    123.4078   1.1211738899e+02   3.4552716216e+01    0.6599318    0.3589601 -51.27  0.002654475    1.784    0.439
       144 -11.1406     60.1090    124.9934   1.2794555127e+02   4.3432695559e+01    0.4763902     0.260103  75.64  0.001768274    3.711    0.731
       145 -11.1742    179.8793    123.6473   9.7266104258e+01   2.0825995776e+01    0.5365131    0.3357279 -41.06  0.002282697    1.591    0.371
       146  -9.7934    208.0551    138.0130   9.4965010692e+01   1.1509729457e+01    0.2471317    0.1902208 -81.81   0.00113792    1.751    0.429
       147 -10.8789     44.7261    123.9506   1.3192318288e+02   4.5460354176e+01    0.4416603    0.2453424  72.03  0.001934001    2.892    0.654
       148 -10.1758    188.7123    123.4926   9.5364631201e+01   1.8798214947e+01    0.3858657    0.2064775 -50.25  0.001491585    1.977    0.494
       149 -10.5705     29.2836    123.5433   1.3597994218e+02   4.7069114437e+01    0.2992264    0.1550454  78.52  0.001284814    3.154    0.683
       150 -12.3897    158.4981    120.0194   1.0113340130e+02   2.6537956212e+01    0.6277872    0.3484689 -46.81  0.002504683    1.797    0.443
       151  -9.9670    195.1257    121.5577   9.3577972275e+01   1.7690687755e+01     0.333544    0.1903794 -54.42  0.001309636    1.998    0.499
       152 -11.4166    172.3721    120.0363   9.7995395334e+01   2.3324099977e+01     0.516057    0.2654441 -48.03   0.00196482    1.981    0.495
       153  -9.4694    203.2931    121.6650   9.1989864160e+01   1.5774577832e+01    0.1576316    0.1192252 -72.78 0.0005200816    1.640    0.390
       154 -12.4410    141.9351    116.5106   1.0420066472e+02   3.1013403662e+01    0.9417101    0.4312117 -45.00   0.00346041    2.155    0.536
       155 -11.5405    130.5066    116.9450   1.0717460880e+02   3.3374663456e+01    0.6313126    0.3368181 -47.81  0.002346749    1.836    0.455
       156 -10.0255      3.5001    118.0069   1.4191304405e+02   5.0262050807e+01    0.1678938   0.08132925  86.34 0.0008105945    2.578    0.612
       157 -10.6293    193.0363    114.6619   9.2283240897e+01   1.9545310746e+01    0.4369138     0.221222 -43.25  0.001690544    1.928    0.481
       158 -10.7529    185.9057    115.2301   9.3882132885e+01   2.1119114792e+01    0.4054165    0.2277684 -44.11  0.001637798    1.751    0.429
       159 -12.1147    166.9697    112.5400   9.7278595450e+01   2.6141253923e+01    0.6238963    0.3435689 -29.47  0.002306271    2.311    0.567
       160 -10.8197    153.4148    114.7452   1.0097415472e+02   2.8820645629e+01    0.3088903     0.148801 -47.74  0.001131886    2.098    0.523
       161 -11.5409    108.6324    111.0022   1.1142807900e+02   3.9052941009e+01    0.8637207    0.2946449 -50.44  0.002865518    2.868    0.651
       162 -10.9964     78.7575    112.1760   1.2005031725e+02   4.3831695526e+01    0.5612909    0.3022691 -77.97  0.001913745    3.819    0.738
       163 -12.2400    174.3796    110.1380   9.5021523771e+01   2.4880184520e+01    0.7552295    0.2984818 -47.78  0.002491139    2.673    0.626
       164 -12.1469    175.3622    100.8537   9.2372409701e+01   2.6494172084e+01    0.5297036    0.3095307 -37.95  0.001472124    1.736    0.424
       165 -11.9285    159.3746    110.6307   9.8508659520e+01   2.8312192784e+01    0.6213001    0.3316466 -38.56   0.00205577    1.933    0.483
       166 -11.7896    122.2773    110.2675   1.0758924767e+02   3.6544285711e+01    0.5847395    0.3492055 -32.68  0.002396861    1.986    0.496
       167 -11.1576     92.0017    109.6823   1.1570560153e+02   4.2300786240e+01    0.8991503    0.2440839 -53.70  0.002686114    3.774    0.735
       168 -10.8489     14.1650    110.2469   1.3799798034e+02   5.1262078409e+01    0.3189437    0.2068423  87.56  0.001814751    1.706    0.414
       169 -11.3693    182.6240    108.3059   9.2794859743e+01   2.3279785206e+01    0.4347748     0.243422 -48.17  0.001555382    1.819    0.450
       170 -12.3228    150.1904    100.1002   9.7844057856e+01   3.2607527155e+01    0.9423624    0.3366691 -41.13  0.003053485    2.803    0.643
       171 -11.0669    133.3206    108.3421   1.0422743163e+02   3.4650273381e+01    0.4492054    0.2767773 -39.36  0.001484939    1.654    0.395
       172 -10.1872     66.3193    110.6567   1.2326771713e+02   4.5931926671e+01    0.1375761     0.102662  84.87 0.0007049529    1.722    0.419
       173 -11.1209    189.3122    107.2223   9.1145343591e+01   2.1891000468e+01    0.4467797    0.1975919 -44.25  0.001609133    2.225    0.551
       174 -10.7107    154.2918    108.6576   9.9173889966e+01   2.9899722264e+01     0.294263    0.1877786 -53.49  0.001083674    1.671    0.402
       175 -11.5832     45.9712    102.8330   1.2753687093e+02   5.0123268602e+01    0.6351495    0.3388063  72.67  0.002104064    5.522    0.819
       176 -11.3402     23.1217    102.9163   1.3426606144e+02   5.2210697177e+01    0.5403161    0.2938369  76.33  0.002412996    3.343    0.701
       177 -12.5384    166.7115    102.8662   9.4789668672e+01   2.8169232997e+01    0.6963536    0.3418849 -32.02  0.002475652    2.447    0.591
       178 -12.0028    139.8953    102.1814   1.0091842490e+02   3.4513863916e+01    0.6695827    0.3621792 -35.72  0.002593789    2.008    0.502
       179 -11.5672    160.1131     99.3114   9.5316747254e+01   3.0446586911e+01    0.5814555    0.2747872 -36.74  0.002111487    2.238    0.553
       180 -11.7932    128.9460     99.5375   1.0297449572e+02   3.7451269458e+01    0.6355419    0.3906826 -29.45  0.002631463    1.953    0.488
       181 -11.8497    107.9150     95.5936   1.0754631807e+02   4.2529140806e+01    0.8160669    0.3187883 -46.49  0.002960632    2.459    0.593
       182 -11.7033    183.7822     96.0703   8.9357255522e+01   2.5376632700e+01    0.4139207    0.1893909 -47.71  0.001491393    2.283    0.562
       183 -10.9816     94.9493     93.9836   1.1079409841e+02   4.5229097468e+01    0.7137378    0.2084645 -43.84  0.002286331    3.301    0.697
       184 -11.0897     64.1301     96.6608   1.2067717041e+02   4.9340574201e+01    0.3532749    0.2345967  71.36  0.001646404    2.507    0.601
       185 -12.2314    176.8340     92.6441   8.9865880103e+01   2.7719748076e+01    0.6231061    0.2428106 -43.15  0.002124686    2.539    0.606
       186 -11.9582    164.8913     92.9760   9.2513576528e+01   3.0550455178e+01    0.4904655    0.3317269 -24.00  0.001925958    1.807    0.447
       187 -10.5704    188.3692     92.8153   8.7585007364e+01   2.4870207499e+01    0.2214878    0.1474161 -28.24 0.0009504817    1.706    0.414
       188 -11.1736    157.9810     90.2434   9.3303504367e+01   3.2730834173e+01    0.4113152    0.2286112 -32.82  0.001626225    1.982    0.496
       189 -11.5901    138.8773     89.6709   9.7682366689e+01   3.7275945323e+01    0.5728338    0.3424071 -32.62  0.002282406    1.827    0.453
       190 -11.4007    124.0000     90.0228   1.0159819343e+02   4.0449434694e+01    0.3893017    0.2452512 -47.49  0.001451382    1.596    0.373
       191 -11.5880    125.2699     85.3067   9.9898168907e+01   4.1115750640e+01     0.540174    0.3700573  -1.47  0.002240008    2.297    0.565
       192 -10.6968     34.9899     90.2084   1.2818470167e+02   5.3968937734e+01    0.2950831     0.161607 -76.31  0.001388525    2.469    0.595
       193 -11.3090    151.0811     87.8057   9.4207836324e+01   3.4830540541e+01    0.3850835    0.2554034 -24.56  0.001644777    1.824    0.452
       194 -11.9325    179.4273     85.3862   8.7370840348e+01   2.8434538217e+01    0.4194592    0.2509774 -47.48  0.001447993    1.705    0.413
       195 -10.2989    163.9936     86.2593   9.0849564139e+01   3.2043463875e+01    0.2865852    0.2053466 -22.83  0.001277843    1.661    0.398
       196 -10.3372     86.4471     86.9541   1.1135907682e+02   4.8131924162e+01    0.2695304    0.1741777  76.08   0.00103109    3.413    0.707
       197 -10.7430     48.4621     84.4634   1.2256845161e+02   5.3834697802e+01    0.2701244    0.1890594  78.93  0.001377182    2.416    0.586
       198 -11.1863    185.6816     83.0094   8.5496610432e+01   2.7322679790e+01    0.3268034    0.2007316 -29.72  0.001377498    1.828    0.453
       199 -10.2505    170.8663     82.4791   8.8326384167e+01   3.1066934161e+01    0.3071893    0.2107906 -18.06  0.001309676    1.912    0.477
       200 -11.0300    158.4313     81.9108   9.0850633507e+01   3.4191493983e+01    0.3863433     0.286097 -20.70   0.00137506    1.603    0.376
       201 -11.3827    140.8925     80.8763   9.4640429851e+01   3.8506001407e+01    0.4885245    0.3062434 -26.53  0.001973684    1.875    0.467
       202 -10.7480    104.3829     82.5950   1.0483323520e+02   4.5853598726e+01    0.3644819    0.2333891 -62.25  0.001591761    2.110    0.526
       203 -11.0301    104.2549     77.7432   1.0342098208e+02   4.6823494860e+01    0.3403088    0.1876315 -28.20  0.001402102    2.190    0.543
       204  -9.9479    194.3289     81.6619   8.3513404627e+01   2.5428185939e+01    0.1623229    0.1146662 -72.82 0.0007051879    1.733    0.423
       205 -11.1901    150.2947     78.8816   9.1825697615e+01   3.6686267659e+01    0.4578874    0.2680665 -28.41  0.001877482    1.982    0.496
       206 -10.6823     24.3370     80.8812   1.2953597440e+02   5.6843392571e+01    0.2222523    0.1683263 -83.26  0.001303388    1.602    0.376
       207 -11.1159    189.2522     77.5897   8.3366259586e+01   2.7394751664e+01    0.5588695    0.1902496 -30.70  0.001633019    3.892    0.743
       208 -10.4735    174.7842     77.5820   8.6161790858e+01   3.0979519978e+01    0.3649215    0.2051432 -33.40  0.001497375    1.893    0.472
       209 -10.7253    167.5088     77.0265   8.7500913132e+01   3.2868114489e+01    0.4219204    0.2577229 -13.18  0.001571186    2.711    0.631
       210 -10.4592    119.2477     77.6632   9.9228047448e+01   4.3851724130e+01    0.3761256    0.2233138 -23.22  0.001543339    2.189    0.543
       211 -11.1318    184.2558     76.2382   8.3939364880e+01   2.8868189322e+01    0.4547127    0.2206898 -30.51  0.001700842    2.375    0.579
       212 -10.2584    157.6563     75.0972   8.9065289250e+01   3.5607172859e+01    0.3539233    0.1924821 -29.21  0.001176033    2.128    0.530
       213 -11.1571    140.4405     73.3486   9.2516666811e+01   3.9983459112e+01    0.4211819    0.2837264 -25.51  0.001829514    1.680    0.405
       214 -11.8973    128.2411     71.7493   9.5062709626e+01   4.3012947077e+01    0.6758695    0.3612302 -25.11  0.002624386    2.429    0.588
       215 -11.5700    163.1944     70.7634   8.6620310978e+01   3.5014233093e+01    0.5053074    0.2581271 -29.74  0.001959786    2.250    0.556
       216 -10.0411    151.4408     72.1883   8.9602471338e+01   3.7609097424e+01    0.2839974    0.1508904 -31.26  0.001127276    2.078    0.519
       217  -9.9352    175.6205     71.3897   8.4271061927e+01   3.1843266367e+01    0.3701838    0.1528233 -30.34  0.001252287    2.911    0.657
       218 -10.7128     51.5078     69.9990   1.1770815105e+02   5.6429632463e+01     0.289834    0.1169411 -56.09  0.001203692    2.671    0.626
       219 -10.1652    170.4854     70.0262   8.4908228791e+01   3.3345987794e+01    0.2289399    0.1509736 -32.98  0.001027532    1.602    0.376
       220 -11.1494    157.5719     67.3542   8.6826147735e+01   3.6961363569e+01    0.5939773    0.2703393 -21.16  0.001790527    4.109    0.757
       221 -10.2182    193.6303     67.7863   7.9959862454e+01   2.7960171216e+01    0.2159372    0.1307179 -46.44 0.0009364131    1.653    0.395
       222 -11.1045    147.1830     65.4177   8.8549255313e+01   3.9776716016e+01    0.5130622    0.2730064 -21.61  0.001928168    2.638    0.621
       223  -9.8460    203.4838     66.5086   7.7969041105e+01   2.5725233296e+01    0.2968228    0.1414133 -36.83  0.001082671    2.089    0.521
       224 -10.6851    121.5502     62.9935   9.4060700151e+01   4.5984816357e+01    0.4476389    0.1884972 -25.82  0.001457546    3.584    0.721
       225 -11.2571    138.6348     64.3316   9.0209265141e+01   4.1955450465e+01    0.4509166    0.2310344 -28.86  0.001798672    2.231    0.552
       226  -9.3597    182.3667     68.1690   8.2088737297e+01   3.0704363857e+01    0.2213175    0.1315249 -46.75 0.0009495558    1.723    0.419
       227  -9.5122    187.7772     63.0018   7.9697199515e+01   3.0193003989e+01    0.1992873    0.1213014 -36.15 0.0008795372    1.686    0.407
       228  -9.7612     37.3312     64.6507   1.2108643056e+02   5.8978332903e+01    0.1131762   0.09439735  89.39 0.0007048426    1.769    0.435
       229 -10.4775     73.1592     59.7447   1.0730624168e+02   5.5460465679e+01    0.2384544    0.1680936 -48.07  0.001315961    1.490    0.329
       230  -9.9719    147.0000     57.9588   8.6325036182e+01   4.1029547732e+01    0.2385293    0.0839586 -34.34  0.000804626    2.958    0.662
       231  -9.7573      7.3246     57.6405   1.2999071107e+02   6.2635683611e+01    0.1025088   0.08226481  86.97 0.0007043344    1.779    0.438
       232 -10.7415     82.8103     73.3067   1.0848854333e+02   5.1445142007e+01    0.2611893    0.1848379 -65.79  0.001288104    1.963    0.491
       233 -10.4467    100.4866     54.2851   9.7011572187e+01   5.1699031152e+01    0.2323457    0.1982228  19.63 0.0002399796    1.129    0.115
       234 -10.1989     63.0000     54.9909   1.0915114877e+02   5.7762386641e+01    0.2099121   0.06535096 -44.04 0.0007999529    2.925    0.658
       235  -9.8850     92.6587     51.3338   9.8321583709e+01   5.3631990713e+01    0.1291579    0.1095651 -78.79 0.0007051084    1.754    0.430
       236 -10.0234    130.3114     46.3099   8.6484883256e+01   4.6655924861e+01    0.1458213    0.1040163  22.02 0.0002736131    1.625    0.385
       237  -9.7852    113.6831     41.6563   8.9066528558e+01   5.0944689470e+01    0.1451693   0.09940042  16.89 0.0007048653    1.716    0.417
       238  -9.1405     84.2959     39.7212   9.6783745457e+01   5.6884457429e+01    0.1131887    0.1050087 -75.62 0.0002228479    1.534    0.348
       239  -9.1643    220.6559     29.3082   6.6341470139e+01   2.6898300544e+01    0.1453085   0.08964346 -70.35 0.0007043888    1.696    0.410
       240  -9.2177     44.4286     25.5431   1.0525349645e+02   6.4804990317e+01    0.1180059   0.09140256 -10.18 0.0001059301    1.026    0.025
       241  -9.8012    110.4754     24.5254   8.3888863797e+01   5.3785903846e+01    0.1323871    0.1150717  28.59 0.0001451191    1.016    0.016
