#   1 NUMBER                 Running object number                                     
#   2 MAG_AUTO               Kron-like elliptical aperture magnitude                    [mag]
#   3 X_IMAGE                Object position along x                                    [pixel]
#   4 Y_IMAGE                Object position along y                                    [pixel]
#   5 X_WORLD                Barycenter position along world x axis                     [deg]
#   6 Y_WORLD                Barycenter position along world y axis                     [deg]
#   7 A_WORLD                Profile RMS along major axis (world units)                 [deg]
#   8 B_WORLD                Profile RMS along minor axis (world units)                 [deg]
#   9 THETA_WORLD            Position angle (CCW/world-x)                               [deg]
#  10 FWHM_WORLD             FWHM assuming a gaussian core                              [deg]
#  11 ELONGATION             A_IMAGE/B_IMAGE                                           
#  12 ELLIPTICITY            1 - B_IMAGE/A_IMAGE                                       
         1 -14.6195     68.6025    144.0374   1.0032134563e+02   3.7067249337e+01     4.941971      2.44182  65.10  0.003338664    4.379    0.772
         2 -13.1374    197.6858     42.1850   4.2694366133e+01   3.0874516396e+01     1.028585     0.923907 -59.22  0.003372546    1.061    0.057
         3 -13.8441    206.7432     33.4150   3.9436699593e+01   2.9942163596e+01      1.56651      1.10012  -0.87  0.001304154    2.236    0.553
         4 -12.3596    234.4449      7.5563   3.1154900230e+01   2.6945138001e+01    0.6630396    0.4583134 -23.74  0.004211052    1.801    0.445
         5 -12.5899    228.8999      5.6626   3.1171979562e+01   2.8280628739e+01    0.6882949    0.4813626 -26.30  0.004419665    1.700    0.412
         6 -12.0894     42.2151      7.1086   6.7484239458e+01   6.8325512548e+01    0.3786575    0.2962184  -0.19  0.002603706    1.082    0.076
         7 -11.4774     52.4371      5.5164   6.2513427793e+01   6.6867736581e+01     0.355636    0.2950203 -53.74  0.002270394    2.042    0.510
         8 -10.0782     61.8213      8.2024   6.0311337917e+01   6.4972600789e+01    0.1770191    0.1209938  16.23 0.0006196471    1.324    0.245
         9  -9.7221    155.6911    213.5750   9.0725513554e+01   7.4794003300e+00    0.2738021    0.1236807  31.94  0.001146122    2.157    0.536
        10 -10.6615    140.0521    249.6112   9.9299819072e+01   3.5272436844e+00    0.2922364    0.2251207  52.01  0.001841779    1.367    0.269
        11 -11.6360    125.0874    246.5822   1.0194323093e+02   6.2267872931e+00    0.5377134     0.359233 -50.73  0.003189867    1.744    0.426
        12 -10.6401    119.5459    245.7555   1.0296889224e+02   7.1764411279e+00    0.2647206    0.1953932  38.12 0.0006499243    1.153    0.133
        13 -10.6528    107.4688    250.0292   1.0589723816e+02   8.1475676321e+00     0.295643    0.2447835  51.09  0.001633523    1.081    0.075
        14 -13.9850     44.2866    195.9009   1.1361303986e+02   2.7503334698e+01     3.204624     1.337713  63.30  0.009248974    3.272    0.694
        15 -17.5885     11.1215    244.2961   1.2372064435e+02   2.0828146067e+01     10.51769     5.311254 -80.57   0.02168361    1.800    0.444
        16  -9.8036     31.9862    203.4692   1.1701321088e+02   2.7129309761e+01    0.2794628    0.1577741 -78.33  0.001247255    1.609    0.378
        17 -11.0221    193.0673    194.9340   7.9444896981e+01   4.7257298279e+00     1.107522    0.6343033 -65.72  0.003490671    5.534    0.819
        18 -10.7517    111.0063    203.4288   9.9150961281e+01   1.6732043092e+01    0.3545571    0.2433911  82.99  0.001058637    2.043    0.511
        19 -10.7344    203.6969    199.8933   7.8244647113e+01   2.1246078135e+00    0.2673036    0.1936905  35.11   0.00148385    1.404    0.288
        20 -11.1613    121.5776    197.2830   9.5737435807e+01   1.6358658641e+01    0.5078691    0.2962989 -74.45  0.001582557    2.673    0.626
        21 -10.8480     61.1752    198.3954   1.1002962869e+02   2.4932094272e+01    0.2685988    0.2465012 -23.52 0.0005184177    1.380    0.275
        22  -8.8427     82.0212    194.9703   1.0473904396e+02   2.2933203219e+01    0.2079486    0.1641737 -25.22  0.001126622    1.665    0.399
        23  -9.2243     24.5453    193.9121   1.1782736001e+02   3.0010556343e+01    0.4762917    0.1439712  50.46  0.001910982    3.313    0.698
        24  -9.4327     89.2800    211.3373   1.0519406234e+02   1.8292568050e+01    0.2249047    0.1860826  83.74 0.0003983828    1.240    0.194
        25  -9.2416     69.8896    184.0101   1.0618947046e+02   2.7134042788e+01    0.2269291    0.1823376  62.10  0.000399745    1.223    0.183
        26 -13.0163     56.6659    185.3298   1.0956609086e+02   2.8505472126e+01     1.018174    0.7231184  48.01  0.005737334    1.379    0.275
        27 -10.8749     65.6470    179.4611   1.0662528802e+02   2.8768089766e+01    0.4007634    0.3302492  68.27 0.0009199401    1.192    0.161
        28 -10.5028    147.5477    187.5645   8.7990853478e+01   1.4012829645e+01    0.4304529    0.3028785 -73.53  0.001713168    2.100    0.524
        29  -8.9562     72.1708    188.4275   1.0622210528e+02   2.5795279422e+01    0.2125644    0.1637745  79.45 0.0004097079    1.335    0.251
        30  -8.6960     77.4568    185.9691   1.0460675380e+02   2.5646402192e+01    0.2164965    0.1603778  89.02 0.0006861677    1.453    0.312
        31  -8.8499     80.2060    183.6048   1.0359802180e+02   2.5814877431e+01    0.2370136    0.1969559 -63.71 0.0008117933    1.181    0.153
        32 -10.0920     99.3276    181.0194   9.8460756367e+01   2.3569603219e+01    0.2874435    0.2277433  32.81 0.0006303159    1.286    0.222
        33  -8.5810     90.1823    181.1915   1.0076437498e+02   2.4929281186e+01    0.1862095    0.1547421  75.69   0.00028167    1.268    0.211
        34 -10.3523    187.0715    175.5781   7.6847302342e+01   9.3655480965e+00    0.3707321    0.2946616 -42.02  0.001093911    1.287    0.223
        35  -9.4288     39.3755    176.9892   1.1278214433e+02   3.2447472403e+01    0.2324672     0.154893  53.77 0.0006578572    1.497    0.332
        36  -9.1954    148.0258    174.5180   8.5373331303e+01   1.6693982881e+01    0.2238767    0.1936426 -42.47 0.0003921555    1.167    0.143
        37 -13.0859     71.8538    153.6887   1.0109644589e+02   3.4226158315e+01    0.7061352    0.5598754 -57.63  0.001098454    1.180    0.152
        38 -11.8582    114.0723    245.2824   1.0402595566e+02   8.0503765156e+00    0.8137071    0.4926537  67.03  0.004144125    2.307    0.567
        39 -11.5541     71.1733    171.5720   1.0411607206e+02   2.9933077845e+01    0.4469541     0.313399 -33.35  0.002228941    1.797    0.444
        40  -9.3585     47.3443    172.0038   1.1023584811e+02   3.2774718547e+01    0.2282117    0.1816882 -28.14  0.001045327    1.610    0.379
        41  -8.5708    193.4046    170.2068   7.4408473605e+01   9.2562714177e+00    0.1985101    0.1319373 -48.80 0.0006673225    1.643    0.391
        42 -11.8243     54.1122    148.1974   1.0512380450e+02   3.7855434668e+01    0.8004878    0.7671697 -46.59   0.00408143    1.127    0.112
        43 -10.2114    240.6275    169.3145   6.5326146398e+01   1.4215072685e+00     0.185608    0.1559992 -59.24 0.0006673599    1.672    0.402
        44  -9.1635    184.7160    167.9637   7.5756293999e+01   1.1274593064e+01    0.2122423     0.179977 -33.32 0.0007261735    1.138    0.121
        45 -16.5265      5.3887    211.6182   1.2301849075e+02   2.7891111931e+01     8.951455    0.6970175 -71.74   0.02797365    6.158    0.838
        46  -9.1794     36.9574    167.9087   1.1235577989e+02   3.4878953034e+01    0.2304029    0.1654356  58.17 0.0007140262    1.412    0.292
        47  -9.4358     32.6059    165.0962   1.1313006292e+02   3.5993988147e+01    0.2313536    0.1927719  36.72 0.0007968048    1.345    0.256
        48 -11.6912     83.3061    158.9227   9.8880279656e+01   3.1302885687e+01    0.6718549    0.5179158 -67.95  0.003491996    1.277    0.217
        49 -11.5291     90.4429    151.5636   9.5591948652e+01   3.2020584273e+01    0.7484919    0.4663519 -30.54   0.00317742    2.110    0.526
        50 -10.7714    133.8519    145.2678   8.2660194267e+01   2.5876155360e+01     1.229355    0.3406296 -54.44  0.002953555    5.391    0.814
        51  -8.9575    111.1947    149.3566   8.9502375102e+01   2.9101805112e+01    0.3676998    0.2334437  74.11  0.001363309    2.816    0.645
        52  -9.2487    174.7306    148.9926   7.3758953554e+01   1.7007407270e+01    0.2201495    0.1885888 -36.04 0.0005524037    1.120    0.107
        53 -10.0571     40.1365    146.7712   1.0880897220e+02   3.9747700687e+01    0.2778377    0.2352047 -16.32  0.001055427    1.445    0.308
        54 -10.1059    103.6040    138.2117   8.9189755612e+01   3.3102131589e+01    0.5404332    0.3289479 -24.92  0.002095401    2.399    0.583
        55 -10.1884    106.0065    130.8475   8.6849085339e+01   3.4446157355e+01    0.3836519    0.3260974 -57.81  0.001417058    1.182    0.154
        56 -11.6303     91.1109    137.6527   9.2609967467e+01   3.5325690608e+01     0.291748    0.2611647 -34.40 0.0004448119    1.126    0.112
        57 -12.2564     42.4930    128.4565   1.0528323898e+02   4.4069261966e+01     1.048829    0.5366564  86.62  0.003752081    3.590    0.721
        58 -12.6191     43.0482    110.3439   1.0176307555e+02   4.8482302570e+01    0.8451415    0.4415938 -53.09  0.002333649    1.608    0.378
        59 -10.0514    135.9008    130.5653   7.8681017032e+01   2.8813081376e+01    0.6255456   0.09371106 -48.33  0.001218784    7.485    0.866
        60 -10.6122     33.3938    130.8522   1.0839989261e+02   4.4362914380e+01    0.3162502     0.222673 -68.44  0.001614553    1.229    0.186
        61 -10.0636    112.5084    129.0846   8.4606679494e+01   3.3682992177e+01    0.3600456    0.2857541 -16.32 0.0008877046    1.465    0.317
        62  -9.0836    160.9985    128.0203   7.1902049836e+01   2.4194588949e+01    0.2493059    0.1990133 -81.77  0.001145484    1.719    0.418
        63 -10.2969     99.6014    124.9770   8.7311737250e+01   3.6975420715e+01     0.325649    0.2606553 -15.13  0.001009113    1.446    0.308
        64  -8.9391     93.1596    125.5182   8.9328762898e+01   3.7942318157e+01    0.2259377    0.2006187  86.38 0.0005012752    1.300    0.231
        65 -11.0557    119.0813    123.1303   8.1331076304e+01   3.3826367995e+01    0.5755414      0.41355  -1.60  0.002463432    1.940    0.485
        66 -10.0903    135.0000    121.3014   7.6605134434e+01   3.1066093920e+01    0.5303029   0.08723184 -45.51  0.001153856    5.910    0.831
        67  -9.9437    231.3329    113.7141   5.4904768072e+01   1.2522532183e+01    0.2611085    0.2349493 -45.08 0.0007662277    1.082    0.076
        68  -9.2270    108.2945    118.1948   8.3132384935e+01   3.7011008359e+01    0.2366179    0.2056702  13.08 0.0004374304    1.233    0.189
        69 -11.8488     52.5668    109.6312   9.8471593552e+01   4.7605006818e+01    0.5618729    0.3716967 -62.40  0.002530199    1.423    0.297
        70 -11.2133    116.8624    109.4716   7.8420911682e+01   3.7355964891e+01    0.6657693    0.4334028  51.87  0.002886345    1.754    0.430
        71  -9.2464    205.5708    110.1172   5.8345633254e+01   1.8288633693e+01    0.2592122    0.2113234  38.54 0.0007185476    1.348    0.258
        72 -11.4248     75.1306    167.0961   1.0240742507e+02   3.0477845425e+01     0.427409    0.3436278 -49.87 0.0007167862    1.257    0.204
        73  -9.0309     66.4941    104.4901   9.2672019428e+01   4.7065099095e+01    0.1456301    0.1312672 -40.61 0.0008105818    1.005    0.005
        74 -11.3419     34.1918     99.6936   1.0258592732e+02   5.1918946114e+01    0.4882537    0.2970253 -32.87  0.002247896    1.709    0.415
        75  -8.4268     66.4818    100.3762   9.1655754768e+01   4.8035721667e+01    0.1408388    0.1307797 -33.38 0.0001189081    1.039    0.037
        76  -9.0895    128.9154     96.0261   7.1388940019e+01   3.7763998170e+01    0.2298493    0.2263044   8.39 0.0005515105    1.048    0.046
        77 -11.2260     52.3554     93.2816   9.4744189269e+01   5.1515482489e+01    0.5373027    0.4016652 -89.87  0.002357565    1.917    0.478
        78 -10.5765     42.6475     89.2511   9.7228033895e+01   5.3540470727e+01    0.3958919    0.1790213  39.25   0.00169365    2.645    0.622
        79  -9.3142    156.3784     88.6202   6.2562269381e+01   3.3131240130e+01    0.3124985    0.2352686 -72.65 0.0008690024    1.760    0.432
        80 -11.0171    185.3380    210.9079   8.3988130021e+01   3.1607351980e+00    0.3082519    0.1768654  17.84  0.001418687    2.029    0.507
        81  -8.1086    117.3370     86.2763   7.1703831590e+01   4.2181462923e+01    0.1544773     0.117095   6.81 0.0004576831    1.610    0.379
        82  -9.2776     75.2700     85.0445   8.4486504233e+01   5.0198295552e+01    0.2250089    0.2005397  18.30 0.0004257589    1.159    0.137
        83  -9.9479    234.7835    172.8149   6.7049475248e+01   1.7585753652e+00    0.3120351   0.09256674 -33.34  0.001046424    3.484    0.713
        84  -8.9637    157.7371     82.9692   6.0672525594e+01   3.3858546994e+01     0.212607    0.1931713 -36.49  0.000520147    1.085    0.079
        85  -9.3522     59.1483     67.6983   8.4970847715e+01   5.6221526264e+01    0.2119686     0.176982 -43.05 0.0003483362    1.203    0.169
        86 -12.9074    186.4849     51.1030   4.6570180009e+01   3.2247967521e+01    0.9417497    0.8544391 -16.89  0.000830395    1.243    0.195
        87 -10.1103    142.7832    209.0523   9.2815500324e+01   1.0456919787e+01    0.2564355    0.1897482 -27.48  0.001357567    1.542    0.351
        88 -10.0254    142.7064    237.6329   9.7148064402e+01   5.1650260866e+00    0.2011632    0.1620089  89.56  0.001009341    1.760    0.432
        89  -9.0341     72.6678     54.0289   7.5283982402e+01   5.6730485233e+01    0.1936687     0.166535 -18.89 0.0005260695    1.078    0.072
        90 -11.0295     27.2346     35.6389   8.7179097509e+01   6.6095548415e+01    0.3023283    0.2013377  26.62 0.0008612481    1.629    0.386
        91  -9.5906     29.3192     26.6477   8.2545187926e+01   6.7369581438e+01    0.1031061    0.1000292 -74.93 0.0007047344    1.745    0.427
        92  -9.5895    198.1490     23.6462   3.8045399543e+01   3.3034993832e+01    0.2156948    0.1540268 -47.96 0.0005309432    1.345    0.256
        93  -8.0638    224.2543    206.6487   7.5560642376e+01  -2.1304100126e+00    0.1130179    0.1009238 -49.21 0.0003423652    1.599    0.375
        94  -8.9658    189.5067     15.0170   3.6872176020e+01   3.5946060443e+01    0.1773148    0.1218934 -32.40 0.0007801333    1.552    0.356
        95  -8.2034    168.7187    233.7166   9.1205603421e+01   1.8759582619e+00    0.1256248   0.09053867   2.08 0.0002071409    1.516    0.340
        96 -12.1382    111.1359    198.1096   9.8314817590e+01   1.7859401419e+01    0.9465477    0.5464612  12.00  0.003680714    3.042    0.671
        97 -11.3841    107.3170    203.6441   1.0003494199e+02   1.7259529827e+01    0.3694176    0.3019001  82.35  0.001482316    1.377    0.274
        98 -10.3784    164.0342    212.7369   8.8787764129e+01   6.2773218868e+00    0.2448886    0.1715456 -24.48  0.001283575    1.586    0.369
