#   1 NUMBER                 Running object number                                     
#   2 MAG_AUTO               Kron-like elliptical aperture magnitude                    [mag]
#   3 X_IMAGE                Object position along x                                    [pixel]
#   4 Y_IMAGE                Object position along y                                    [pixel]
#   5 X_WORLD                Barycenter position along world x axis                     [deg]
#   6 Y_WORLD                Barycenter position along world y axis                     [deg]
#   7 A_WORLD                Profile RMS along major axis (world units)                 [deg]
#   8 B_WORLD                Profile RMS along minor axis (world units)                 [deg]
#   9 THETA_WORLD            Position angle (CCW/world-x)                               [deg]
#  10 FWHM_WORLD             FWHM assuming a gaussian core                              [deg]
#  11 ELONGATION             A_IMAGE/B_IMAGE                                           
#  12 ELLIPTICITY            1 - B_IMAGE/A_IMAGE                                       
         1 -13.8972    169.8858     36.0644   7.6140761799e+01   3.8758294415e+01     1.296938     1.004786  16.61  0.004741924    1.588    0.370
         2 -12.8770    186.1191      4.1625   6.4064142963e+01   3.8131363577e+01    0.8941885    0.5221984  71.28   0.00439235    1.555    0.357
         3 -10.7554     74.0000      4.9901   8.6023364763e+01   6.4648774357e+01     0.202369   0.06622079 -25.16 0.0008079596    2.981    0.665
         4 -11.6818    159.6808    237.5405   1.2452245195e+02   4.9113717512e+00    0.2912326    0.2009456  46.07  0.001855498    1.171    0.146
         5 -18.6633     64.2748    244.1817   1.4197708367e+02   1.8138586060e+01     5.100777     4.073312  53.00   0.03079051    1.304    0.233
         6 -11.6316     10.4994    206.3757   1.4884728021e+02   3.1180451663e+01    0.2992741    0.2143884  59.43  0.002303659    1.241    0.194
         7 -11.3185    164.5505    205.7010   1.1907228924e+02   9.0328569745e+00    0.2786099    0.2264016 -47.28 0.0008289885    1.421    0.296
         8 -12.6706    193.3875    193.0660   1.1139845303e+02   5.8315031465e+00    0.7559674    0.4744972 -57.82  0.003274361    2.319    0.569
         9 -19.2154     54.8163    106.7096   1.2769817983e+02   4.8552973071e+01      17.5571     1.108688 -61.02   0.02871084   14.485    0.931
        10 -10.4883    180.0724    192.7542   1.1390061894e+02   8.3515465066e+00    0.2271313    0.1898213  88.64 0.0009924155    1.591    0.371
        11 -10.9544    157.3005    192.0381   1.1829529887e+02   1.2716862583e+01    0.1798426    0.1718681  87.70 0.0004833662    1.132    0.117
        12 -11.7903    210.7415    179.3146   1.0556687599e+02   4.7724248282e+00    0.6095589    0.3639348  -9.06  0.002653566    2.582    0.613
        13 -11.5283     39.7658    183.2717   1.4169795798e+02   3.2818584706e+01    0.1904105    0.1548712  88.14 0.0002998035    1.123    0.110
        14 -11.9473    197.8673    175.3759   1.0721739400e+02   7.8663720478e+00    0.4572788    0.3279572 -44.74  0.001407847    1.533    0.348
        15  -9.7303    185.4649    174.5337   1.0947005307e+02   1.0432823839e+01    0.1382358    0.1286019  34.53 0.0003922426    1.022    0.022
        16 -13.1088    137.5215    171.6552   1.1894036872e+02   2.0334414727e+01    0.6778845    0.3514998  56.81  0.002845192    2.159    0.537
        17 -11.5165    203.6190    167.4378   1.0452645853e+02   8.0686107899e+00    0.5001215    0.3496854  44.84  0.002010618    1.388    0.280
        18 -11.3567    103.6854    160.4076   1.2463841138e+02   2.8842311233e+01    0.2550686    0.2359923 -87.48 0.0002200602    1.079    0.073
        19  -9.6609     33.3120    161.3172   1.4103486175e+02   3.8288772390e+01    0.1135115   0.08390779 -52.49 0.0004165307    1.642    0.391
        20 -10.8820    164.7742    157.2447   1.1025709395e+02   1.7816829680e+01    0.1998566    0.1739617   5.93 0.0007989866    1.337    0.252
        21 -10.5079     23.6941    156.3656   1.4271403847e+02   4.0343319235e+01    0.3019798    0.1550779  51.17   0.00121851    1.874    0.466
        22 -12.9151    133.6768    145.6082   1.1480569313e+02   2.6556562755e+01     1.052191    0.3169674 -54.78   0.00308734    4.040    0.752
        23 -10.9211    129.0025    144.0000   1.1557519713e+02   2.7829473268e+01    0.3021424    0.2046812  65.18  0.001225738    1.701    0.412
        24 -11.1157    169.0257    235.7285   1.2260864117e+02   3.6419034948e+00    0.1819155    0.1781331 -27.67 0.0003966254    1.266    0.210
        25 -11.9420    184.7125    222.0172   1.1780622889e+02   2.9809318549e+00    0.4495679    0.1458888  36.31  0.001721542    3.139    0.681
        26 -10.3755    174.7864    149.3869   1.0646519777e+02   1.7250362994e+01    0.2113934     0.134074  36.77 0.0005091198    1.648    0.393
        27 -12.2681    115.2130    138.8857   1.1785939482e+02   3.1608882489e+01    0.5030876    0.2823789 -42.57  0.002146625    2.007    0.502
        28 -11.8359    104.9062    138.8938   1.2042576842e+02   3.3481121783e+01    0.2919897    0.2659363  66.21 0.0005685452    1.082    0.076
        29 -11.7945    106.0307    130.8534   1.1849861488e+02   3.5121769310e+01    0.3877706     0.317083 -80.16  0.001286931    1.245    0.197
        30 -10.9575    108.4806    125.6113   1.1673363874e+02   3.5875613983e+01    0.2761381     0.250335 -16.52  0.000529886    1.344    0.256
        31 -11.5396    119.5196    129.6698   1.1481537530e+02   3.2864871278e+01    0.3058394     0.273443  87.57 0.0009125851    1.121    0.108
        32 -10.9511    125.9683    127.9811   1.1282409664e+02   3.1970272604e+01     0.248322    0.1833402  88.17 0.0008156289    1.730    0.422
        33 -11.9377      2.4912    124.1345   1.4473483849e+02   4.9271977416e+01    0.3601155    0.1224676 -82.99  0.001598309    2.647    0.622
        34 -11.4119    135.4046    122.2868   1.0915685850e+02   3.1283213892e+01    0.5245137    0.1407041 -51.51  0.001393043    4.368    0.771
        35 -10.7202    113.8632    118.8328   1.1378076691e+02   3.6403635952e+01    0.2159627    0.2057359 -21.78 0.0004711279    1.184    0.156
        36 -10.1193    168.2119    113.6648   9.9374835142e+01   2.5775868671e+01    0.3651012    0.1717524 -54.28  0.001232819    2.743    0.635
        37 -11.2979      8.0300    111.5108   1.4194507363e+02   5.1757750904e+01    0.2131935    0.1225642   6.84  0.001207209    2.707    0.631
        38 -10.0618    205.8043    110.2003   9.0965542964e+01   1.7654852941e+01    0.2073802     0.177719  13.20 0.0005047017    1.312    0.238
        39 -11.0451     95.0889    110.1802   1.1680179577e+02   4.1817254258e+01    0.2214811    0.1992981 -26.07 0.0008363578    1.272    0.214
        40  -9.9299     95.6913     80.0449   1.0853998114e+02   4.8395872683e+01    0.2342743    0.1948574  55.67 0.0005631165    1.338    0.253
        41 -11.2184      5.5330    222.2883   1.5045230156e+02   2.8667827962e+01    0.1411799   0.07252301 -70.17 0.0008128513    1.974    0.494
        42  -9.8807     14.1773     58.9574   1.3111732926e+02   6.3065447501e+01     0.230671    0.1181677 -31.95  0.001238043    2.153    0.536
        43 -12.8223    157.6415     51.2645   8.3313839832e+01   3.9742205530e+01    0.4868745    0.4400561  69.15  0.001069045    1.108    0.097
        44 -10.9070     13.9683    248.0035   1.5022448923e+02   2.3330372022e+01    0.1923996   0.09673512  52.50 0.0009664492    1.459    0.314
        45 -12.2412    173.8770     28.4564   7.3086276196e+01   3.8687146213e+01    0.5648273    0.4118046  -5.28   0.00164224    1.690    0.408
        46  -9.8436    134.8662     30.1408   8.0760744794e+01   4.8439153529e+01    0.2187209    0.1918798 -75.82 0.0007820466    1.298    0.229
        47 -10.2234     20.1354    238.6550   1.4885485030e+02   2.4282078173e+01    0.1227296   0.08109818  68.61 0.0009477162    1.026    0.025
