#   1 NUMBER                 Running object number                                     
#   2 MAG_AUTO               Kron-like elliptical aperture magnitude                    [mag]
#   3 X_IMAGE                Object position along x                                    [pixel]
#   4 Y_IMAGE                Object position along y                                    [pixel]
#   5 X_WORLD                Barycenter position along world x axis                     [deg]
#   6 Y_WORLD                Barycenter position along world y axis                     [deg]
#   7 A_WORLD                Profile RMS along major axis (world units)                 [deg]
#   8 B_WORLD                Profile RMS along minor axis (world units)                 [deg]
#   9 THETA_WORLD            Position angle (CCW/world-x)                               [deg]
#  10 FWHM_WORLD             FWHM assuming a gaussian core                              [deg]
#  11 ELONGATION             A_IMAGE/B_IMAGE                                           
#  12 ELLIPTICITY            1 - B_IMAGE/A_IMAGE                                       
         1 -13.4502    220.4127      7.2486   3.6001341550e+01   2.9021140647e+01     1.269774    0.9424989  57.05  0.004688621    1.485    0.327
         2 -14.3420    194.3093     38.1941   4.6714319529e+01   3.1721092251e+01     2.886055     1.742214  25.57    0.0119669    2.743    0.635
         3  -9.6487     61.6706      9.3378   6.6435704105e+01   6.5804340836e+01    0.1111844    0.1005996 -57.12 7.946157e-05    1.733    0.423
         4 -10.0486     80.4394     15.2630   6.2684185893e+01   6.1652800216e+01    0.2352984    0.1936018  53.74 0.0009128058    1.388    0.279
         5  -9.6859     53.1509    229.8658   1.1948312836e+02   2.0299887012e+01    0.2876808    0.1438921 -85.84    0.0010289    2.117    0.528
         6 -19.5278     14.7972    144.7068   1.2031795415e+02   4.3007743842e+01     19.14932     4.559064 -76.11   0.06527901    3.963    0.748
         7  99.0000     57.1472    218.9832   1.1780896993e+02   2.1947098324e+01    0.4421631    0.1995235  64.36  0.002096078    2.405    0.584
         8  -8.6504     80.9621    220.4683   1.1314249743e+02   1.8451447182e+01    0.1790597    0.1088595  40.83 0.0003442823    1.490    0.329
         9  -9.5033    163.3367    217.6650   9.5578637925e+01   5.7319734851e+00    0.1323636    0.1005232  66.22 0.0007051899    1.745    0.427
        10 -10.1403     72.0350    244.7953   1.1714822831e+02   1.5083379727e+01    0.2910463    0.1665536  70.50  0.001115095    1.758    0.431
        11 -11.0741     62.4358    250.3301   1.1932973197e+02   1.5351498695e+01    0.2377069    0.1311692  62.63 0.0005654466    1.565    0.361
        12 -12.0842     49.1294    249.5501   1.2163040124e+02   1.7142820161e+01    0.1877405    0.1380713  77.18 0.0004353351    1.161    0.138
        13 -10.1773    184.1991    212.3534   9.0427370557e+01   3.0392889503e+00      0.18688    0.1590022   6.33  0.001131221    1.126    0.112
        14  99.0000     57.4736    208.3827   1.1678202423e+02   2.4085777521e+01    0.3779199    0.1806175 -45.47  0.001643524    3.468    0.712
        15 -11.0015     65.5440    204.8862   1.1474073482e+02   2.3775897828e+01    0.3599223    0.1933513 -74.39  0.001105338    1.872    0.466
        16 -12.8676     31.7279    206.2285   1.2184101761e+02   2.7556831428e+01    0.3123034    0.1569064  54.93  0.001166715    1.723    0.420
        17 -11.3587    196.3138    204.7908   8.6648415408e+01   2.1875145018e+00    0.4788413    0.2444186  25.13  0.002079692    2.235    0.553
        18  -9.7674     96.4065    202.2890   1.0772470493e+02   1.9876984908e+01    0.2594644    0.2107037 -63.98 0.0009598648    1.310    0.237
        19 -12.5538     55.0097    197.7722   1.1627533382e+02   2.6662766777e+01    0.6083556    0.2739103 -51.34  0.002780575    2.751    0.637
        20 -10.7415    192.8682    194.7725   8.5481894372e+01   4.4649487407e+00     0.917622    0.5095711 -64.50  0.002834595    5.766    0.827
        21  -8.4389     93.4799    205.5163   1.0878113360e+02   1.9651864453e+01    0.1897307    0.1240974  28.12 0.0007475431    1.775    0.437
        22  -8.7561     69.7932    199.4754   1.1324410244e+02   2.4362905655e+01    0.1773913    0.1163839  41.46 0.0009859643    1.457    0.314
        23  -9.0031     44.5069    230.3648   1.2114459742e+02   2.1249522912e+01    0.1338142    0.0879579  76.00 0.0008660529    1.295    0.228
        24  -9.3274     81.8900    194.6581   1.0998771496e+02   2.3702179751e+01    0.2443005    0.1844558 -85.61  0.001088106    1.314    0.239
        25  -8.7504     77.6638    192.3744   1.1065769763e+02   2.4814826912e+01    0.1991929    0.1261069  68.29 0.0004749901    1.670    0.401
        26  -8.2964    195.6956    190.2721   8.4043073613e+01   4.7278625919e+00    0.1257496    0.1111298  68.75 0.0002019873    1.538    0.350
        27  -9.1482     96.9615    190.5432   1.0599794043e+02   2.2309629896e+01    0.2057179    0.1247571  41.31 0.0007659705    1.545    0.353
        28 -11.0667    149.4056    187.9480   9.3542724016e+01   1.3738766793e+01    0.3591338    0.3224509  69.90  0.001280035    1.236    0.191
        29  -8.9748     73.9580    188.6372   1.1103846242e+02   2.6170297250e+01    0.2295369    0.1526269  74.49 0.0006255336    1.577    0.366
        30  -9.6768     94.0426    186.9103   1.0615642253e+02   2.3569916977e+01    0.2916124    0.2114358 -57.98 0.0007109354    1.430    0.301
        31 -11.1962     98.8796    181.5265   1.0421770591e+02   2.4001928647e+01    0.4869606    0.3692699 -36.81  0.001777418    1.649    0.394
        32 -11.0377    124.0863    186.3701   9.9059985561e+01   1.8662693027e+01    0.2767601    0.2189466 -68.92  0.001478739    1.389    0.280
        33  -8.7866    238.3217    185.6729   7.4982869960e+01  -1.9044408940e+00    0.1172331    0.1071614 -64.77 0.0005324365    1.687    0.407
        34 -11.2415    143.9896    177.9922   9.2944501744e+01   1.6790436980e+01    0.4525439    0.3057956 -51.87   0.00130277    1.583    0.368
        35 -10.1950    189.0443    177.0495   8.2782682402e+01   8.3188290725e+00    0.4410155    0.3459994 -55.42  0.002289361    1.570    0.363
        36  -9.9037     58.7611    229.2105   1.1836045796e+02   1.9722673040e+01    0.1569896    0.1213259  69.59  0.000346147    1.046    0.044
        37  -9.4316     50.4593    224.5719   1.1958167309e+02   2.1663681984e+01    0.1707644   0.09375989  85.74  0.000575823    1.840    0.457
        38  -9.9449     56.2639    174.9955   1.1350196197e+02   3.1633832334e+01    0.3648773    0.1578957  47.79   0.00163056    2.249    0.555
        39  -9.5585     84.1331    173.7792   1.0660716986e+02   2.8078333442e+01    0.2039253     0.169981  74.82  0.000382065    1.151    0.131
        40  -9.9627     46.3758    173.0538   1.1561931710e+02   3.3270331458e+01    0.3392198    0.2433363  20.71  0.001767691    1.833    0.454
        41  -8.4502    194.4710    172.4840   8.0710709857e+01   8.1156829201e+00    0.1464451    0.1308862   5.08 0.0001640135    1.038    0.037
        42 -10.3892    131.7187    172.4438   9.4791780024e+01   2.0283129163e+01    0.3735487    0.1415209  37.71  0.001307186    2.638    0.621
        43 -10.5655    138.9789    170.7728   9.2742202842e+01   1.9275739126e+01    0.3678437    0.2632618  35.44 0.0009740597    1.379    0.275
        44  -9.9456    149.7148    177.4307   9.1516707068e+01   1.5819329677e+01    0.2584003    0.2300119 -74.45 0.0007198142    1.290    0.225
        45 -10.5113     40.4075    224.3446   1.2148160346e+02   2.2902062377e+01     0.226427    0.1196596  72.21 0.0006964245    1.768    0.434
        46 -10.2374    164.9970    222.8297   9.6051500681e+01   4.5796455913e+00    0.2270335    0.1430687  14.78  0.001101492    2.057    0.514
        47  -9.0619    187.6019    162.7227   8.0069854504e+01   1.1287404496e+01    0.3106787    0.2266936 -65.87  0.001324656    1.986    0.497
        48 -11.6912     94.6210    151.2926   1.0017925862e+02   3.1744231620e+01    0.6885254    0.5726759 -33.78  0.002919089    1.385    0.278
        49 -10.7585    133.9760    145.8629   8.8805913687e+01   2.5780172445e+01     1.337098    0.3456618 -54.55  0.003067432    6.006    0.834
        50  -9.5080    187.2109    151.7568   7.7720691203e+01   1.3483342210e+01    0.2144187    0.1737753   1.48 0.0009204139    1.357    0.263
        51  -9.3834    112.7398    150.7400   9.5304188990e+01   2.8726560436e+01    0.3039293    0.1678607  58.38  0.001012544    2.361    0.576
        52  -9.4431    109.1515    147.6102   9.5610403779e+01   3.0114152619e+01    0.2591809    0.2061428 -57.64 0.0004222339    1.243    0.195
        53  -9.7815    174.5816    149.1657   7.9879847549e+01   1.6636122995e+01    0.2835108    0.2186774  43.56 0.0006647243    1.298    0.229
        54  -9.4558    143.4879    145.9675   8.6453613957e+01   2.3824646565e+01    0.2196438    0.1381985 -71.78 0.0008100188    2.549    0.608
        55  -9.3395     86.9480    143.7451   1.0082698577e+02   3.4805552453e+01     0.276842    0.1896953  58.32 0.0007970601    1.624    0.384
        56 -10.7701    106.5226    137.7374   9.4244152612e+01   3.2934120839e+01    0.5241558    0.3394964 -30.79   0.00173675    2.001    0.500
        57 -10.5763    105.9238    130.7688   9.2867230995e+01   3.4703605038e+01    0.3905804    0.3340723 -62.32  0.001234907    1.162    0.139
        58 -11.6155     94.4829    137.5597   9.7523636016e+01   3.5077278295e+01    0.3007643    0.2717822 -36.57  0.001634284    1.178    0.151
        59 -10.0943    135.9784    129.4631   8.4472991156e+01   2.9080002337e+01    0.4553845    0.1732698 -51.52  0.001361742    2.882    0.653
        60 -10.6463    114.3064    129.1265   9.0169346669e+01   3.3522564975e+01      0.36764    0.3278181 -23.49 0.0007404094    1.215    0.177
        61  -8.4130     99.6598    131.2289   9.4723977446e+01   3.5714893314e+01    0.1477206    0.1129591  66.94 0.0002311395    1.539    0.350
        62  -9.1469    160.6158    127.7746   7.7963954611e+01   2.4110137433e+01    0.2278533    0.1468541 -51.75 0.0008310362    1.667    0.400
        63 -10.4129    101.6739    124.9030   9.2718789985e+01   3.6871518069e+01    0.3054626    0.2536342 -24.05  0.000690278    1.369    0.269
        64 -10.7142    120.4121    123.2416   8.7077296851e+01   3.3696759156e+01    0.4641081    0.3506188 -19.24  0.002096899    1.658    0.397
        65  -9.9875     72.0000    249.0826   1.1750573934e+02   1.4326083848e+01    0.1747527    0.1173675 -84.06  0.001153016    1.558    0.358
        66  -9.3904    109.7507    118.1329   8.8781531724e+01   3.6971605119e+01    0.2378861    0.2189301  39.65 0.0004108182    1.121    0.108
        67 -10.1548    231.2371    113.6742   6.0405883839e+01   1.1267398928e+01    0.2897321    0.2781067 -13.23 0.0007544718    1.076    0.071
        68  -9.3210    167.6911    112.4042   7.2359024102e+01   2.5696023613e+01    0.3390212    0.2593291 -77.90  0.001485246    1.787    0.441
        69  -9.9756    134.7947    105.1542   7.8439981364e+01   3.4713604531e+01    0.6485605    0.1583486 -44.90  0.001698212    4.081    0.755
        70 -11.3735    118.4182    110.3494   8.4319249144e+01   3.7048869298e+01    0.6434036    0.4606882  69.30  0.002328962    1.904    0.475
        71  -9.5563    205.5733    110.1376   6.3990514083e+01   1.7426286273e+01    0.2755249    0.2196436  41.13 0.0007207803    1.327    0.247
        72  -9.6989     65.3365     99.9924   9.7937330601e+01   4.8602999483e+01    0.3094358    0.2103625  31.62  0.001119696    1.623    0.384
        73 -11.0268     53.6048     90.1939   9.9508089565e+01   5.2401160108e+01     0.360433    0.2186453 -39.63  0.001770597    1.576    0.366
        74  -8.6892    155.5988     82.2314   6.6641183920e+01   3.4482589110e+01    0.2137799    0.1506804 -24.77 0.0003486716    1.568    0.362
        75 -10.4071     54.6244    222.0723   1.1857028054e+02   2.1645147186e+01    0.2331129    0.1294258  49.99 0.0005090364    1.507    0.336
        76 -12.0553    248.5349    243.5068   8.3695922824e+01  -1.1046525392e+01    0.5873352    0.2962527 -32.71  0.003453999    2.099    0.524
        77 -12.7215    178.7873     52.1919   5.3060320844e+01   3.3686551793e+01    0.7823821    0.7385944  41.11 0.0008649529    1.117    0.105
        78  -8.0679     84.2300    245.6916   1.1495254311e+02   1.3262128829e+01    0.1134712   0.07316025  67.87 0.0006821886    1.483    0.326
        79  -9.8732    189.7225     14.9914   4.0987612844e+01   3.5594267693e+01    0.2358718    0.1830641  76.88 0.0008658554    1.167    0.143
        80  -9.4983    168.1189    232.4129   9.6884821514e+01   2.5128913410e+00    0.1892622     0.187783 -63.76 0.0004557857    1.271    0.213
