#   1 NUMBER                 Running object number                                     
#   2 MAG_AUTO               Kron-like elliptical aperture magnitude                    [mag]
#   3 X_IMAGE                Object position along x                                    [pixel]
#   4 Y_IMAGE                Object position along y                                    [pixel]
#   5 X_WORLD                Barycenter position along world x axis                     [deg]
#   6 Y_WORLD                Barycenter position along world y axis                     [deg]
#   7 A_WORLD                Profile RMS along major axis (world units)                 [deg]
#   8 B_WORLD                Profile RMS along minor axis (world units)                 [deg]
#   9 THETA_WORLD            Position angle (CCW/world-x)                               [deg]
#  10 FWHM_WORLD             FWHM assuming a gaussian core                              [deg]
#  11 ELONGATION             A_IMAGE/B_IMAGE                                           
#  12 ELLIPTICITY            1 - B_IMAGE/A_IMAGE                                       
         1 -14.9590    104.1306    114.8847   4.2150501388e+01   3.8747861448e+01     4.682474     3.338068  -5.20   0.01884776    2.231    0.552
         2  -9.6768     99.9633     45.9839   2.1331600650e+01   5.4201651100e+01     2.154336     1.488348  17.42  0.009097981    2.153    0.535
         3 -14.8626     93.0477      9.9300   7.2800409039e+00   6.0814032420e+01     4.926763     1.330256  63.16   0.01652678    2.901    0.655
         4 -12.4892    137.8027      4.1728   3.5758466135e+02   4.9184516643e+01    0.7032422    0.3660602  72.73    0.0016461    1.659    0.397
         5 -14.9008     11.7444     30.3661   6.1178702339e+01   7.3467952154e+01     6.231439     1.546947 -59.54   0.02267261    3.264    0.694
         6 -13.4850     62.6644     38.9238   3.2326627233e+01   6.4183348809e+01     4.891555     2.478878  50.47    0.0201191    1.994    0.499
         7 -14.3923      8.8191    117.4333   7.8150130211e+01   5.1359535252e+01     3.652582     1.424863 -79.17   0.01469027    2.349    0.574
         8 -12.1662    241.7485     22.4848   3.5443178474e+02   2.2875090630e+01    0.4654332    0.2587009 -55.86  0.001874051    1.457    0.314
         9 -11.2511    151.0489     20.8502   1.6347814880e+00   4.3977711492e+01    0.6182033    0.3374313  71.89  0.002839195    1.664    0.399
        10 -11.0534    208.3758     18.3352   3.5555507893e+02   3.0190267817e+01    0.5727335    0.2484216 -70.06  0.002249412    2.494    0.599
        11 -10.5550    213.4056     16.8583   3.5486519549e+02   2.9245890672e+01    0.2028316    0.2012023 -75.93 0.0003023691    1.325    0.246
        12 -11.5292    175.1967     13.1428   3.5674635888e+02   3.8567820058e+01    0.3424264    0.3087717  41.42  0.001008888    1.403    0.287
        13 -10.6499    187.8776      4.8932   3.5352160860e+02   3.6284161891e+01    0.2953701    0.2590825 -63.47 0.0009542097    1.117    0.105
        14 -12.4934    185.4683     11.4940   3.5545698285e+02   3.6213413318e+01     1.003332    0.4116805 -46.42  0.004197641    2.062    0.515
        15  -9.9876    178.4988      8.4956   3.5516688079e+02   3.8213690325e+01    0.2299907    0.1985143 -79.32 0.0006064915    1.073    0.068
        16 -11.5202    193.5423      7.6987   3.5388516455e+02   3.4671505937e+01    0.4330567    0.3317796  34.35 0.0006512349    1.864    0.463
        17 -11.3293    191.6675      2.1033   3.5255408422e+02   3.5648626520e+01    0.4282681    0.2818441 -76.18  0.001110057    1.304    0.233
        18 -11.5646    242.3377      9.0639   3.5157693104e+02   2.4157312261e+01    0.2654475    0.1820843 -38.09 0.0008546722    1.272    0.214
        19 -10.9661    155.8719     10.0031   3.5760817994e+02   4.3833468613e+01    0.2950798    0.2022807 -47.67  0.001051848    1.387    0.279
        20 -11.6825    149.4739      8.3035   3.5771989682e+02   4.5684593962e+01    0.6927187    0.3008434  84.47  0.002818731    2.239    0.553
        21 -10.4578     45.9998      8.7232   2.3657899520e+01   7.2400549817e+01     0.478106    0.3366185  63.59  0.002070084    1.672    0.402
        22 -11.5320     51.0415      5.3375   1.8750049752e+01   7.1718248092e+01    0.5546748    0.3021407  46.74  0.001925946    1.589    0.371
        23  -9.3426    233.4955      9.4994   3.5207652906e+02   2.5834245978e+01    0.1183311   0.09097315 -56.59 -5.01665e-05    1.020    0.020
        24 -11.0531    168.4659      8.1155   3.5586836206e+02   4.0763543477e+01    0.3349582    0.2402408 -81.84 0.0007888604    1.219    0.179
        25  -9.8918    202.5688     11.0846   3.5415840378e+02   3.2250862519e+01    0.2266274    0.1632311  76.49 0.0007497168    1.405    0.288
        26 -10.2016    205.2691      2.6536   3.5192827738e+02   3.2472802111e+01    0.2094917    0.1986106 -63.23    0.0008408    1.267    0.211
        27 -10.3892    168.3047      2.2954   3.5417377190e+02   4.1347108170e+01    0.3694681     0.221091  88.91  0.001917105    1.483    0.326
        28  -9.1515    215.6705      2.6968   3.5141118899e+02   3.0188438006e+01    0.1719086    0.1058552  83.25 0.0005464163    1.576    0.365
        29 -10.2132    211.9845      1.4251   3.5129316946e+02   3.1106703025e+01    0.2390475    0.1048609  87.68 0.0005625602    2.197    0.545
        30  -9.5501    174.8782      1.6864   3.5352175180e+02   3.9752225163e+01    0.1844978    0.1446645 -74.85 0.0005140748    1.055    0.052
        31  -8.9407    231.6221      1.2335   3.5037146816e+02   2.7019885379e+01    0.1232967   0.06213083 -62.16 0.0006907555    1.618    0.382
        32 -14.2824     25.4150     58.3161   6.0725755759e+01   6.5702598361e+01     2.111479     1.666869   5.44   0.01159048    1.312    0.238
        33 -11.4581    144.7869     75.7455   2.0157021900e+01   3.7565574174e+01    0.6648375    0.4724903 -64.58   0.00258344    1.620    0.383
        34 -12.0346    155.3513     75.7850   1.7973771747e+01   3.4951206270e+01    0.7785665    0.6699636 -10.05  0.003538134    1.398    0.285
        35 -10.1716    150.4624     74.2623   1.8515739545e+01   3.6419905914e+01    0.4068921    0.2542464 -33.58    0.0015066    1.691    0.409
        36  -9.8834    197.6234     78.0575   1.1532126257e+01   2.4792010845e+01    0.4067148    0.1646795  49.41  0.001630046    2.781    0.640
        37 -11.4452    234.7230     75.1451   6.3897505430e+00   1.7813764958e+01    0.3642227    0.2922459 -67.88  0.001155069    1.310    0.237
        38 -10.3798    250.1169     74.6401   4.7835320150e+00   1.5169707170e+01    0.2538834    0.1529489 -24.21 0.0009989038    1.655    0.396
        39  -8.9652    213.0004     76.0294   9.0301106287e+00   2.1877709289e+01    0.1541279    0.1365503 -49.34 0.0003642958    1.021    0.021
        40  -9.5376    204.7772     74.8378   9.7802769944e+00   2.3747849688e+01    0.2547081    0.1618216 -74.67   0.00118676    2.065    0.516
        41  -8.8835    104.2788     75.3048   3.0704995567e+01   4.7619837580e+01    0.1538206    0.1270093   8.11 0.0003649122    1.550    0.355
        42 -10.4171    193.5853     73.2445   1.0893469864e+01   2.6398775393e+01    0.4256341    0.2599896  89.22   0.00191687    2.278    0.561
        43 -11.1692    171.0535     72.1851   1.4082497739e+01   3.1749225784e+01    0.6057662    0.3534093  79.13  0.002520485    2.253    0.556
        44  -9.4710    171.6928     68.6986   1.3012177643e+01   3.2152066979e+01    0.2086069     0.144192  61.87 0.0002548982    1.465    0.317
        45  -9.5514    218.9595     72.3408   7.4677943327e+00   2.1201981971e+01     0.168457    0.1558007 -81.82 0.0005045795    1.158    0.137
        46 -10.2313     95.9633     71.4234   3.2120741146e+01   5.0376958319e+01     0.386778    0.2633612  44.37  0.001027365    1.417    0.294
        47 -11.5940    246.1722    146.3647   1.9542154230e+01   6.2695114791e+00    0.5316628    0.3323613 -58.27  0.002749101    3.033    0.670
        48 -10.4899    200.3501     65.3350   8.0073909763e+00   2.6071132987e+01    0.3819348     0.217512 -31.98 0.0009938333    1.682    0.405
        49  -9.9619    209.3439     65.7405   7.0192038516e+00   2.4085897576e+01     0.335382    0.2733914 -37.03  0.002030251    1.144    0.126
        50 -12.2003    215.0172     60.5090   5.1359427081e+00   2.3619058545e+01    0.4259295    0.3336225 -39.69 0.0006587461    1.138    0.121
        51 -10.2258    250.3978     64.6990   2.7009286767e+00   1.6371461455e+01    0.2180794     0.119353 -36.70  0.000815665    1.433    0.302
        52  -8.9114    229.4567     65.5295   4.8020854852e+00   2.0074931938e+01    0.1238386    0.1053279 -42.83  0.000119446    1.055    0.052
        53 -10.9804    184.9278     62.5521   9.3320699547e+00   2.9957030792e+01    0.4367779    0.3339064  18.01  0.001564054    1.872    0.466
        54 -11.6351     53.4586     61.3909   4.6200071229e+01   6.1235064710e+01    0.8703613    0.4325337  33.63  0.002918606    1.991    0.498
        55  -9.4789    167.8857     58.1469   1.0647156380e+01   3.4706986251e+01    0.2236993    0.1767931 -65.91 0.0002973836    1.249    0.199
        56 -10.5078    170.1293     62.3750   1.1495687253e+01   3.3514292396e+01    0.3153243    0.2268399 -60.89 0.0005093071    1.417    0.294
        57 -10.5134    165.6898     62.1892   1.2165691974e+01   3.4632401976e+01    0.3052462    0.2325216  58.21 0.0004440757    1.330    0.248
        58  -9.3891    123.9454     62.3594   2.0769963420e+01   4.5231974726e+01    0.5153736    0.3065795  61.39  0.002152121    1.663    0.399
        59 -11.6998    193.8595    248.9260   4.5007739062e+01  -3.3939466667e-01    0.4348003    0.1677954  26.10  0.002316141    2.099    0.524
        60 -10.2863    240.3181     60.4633   2.6751624272e+00   1.8693155023e+01    0.2937686   0.09615181  58.29  0.001304178    3.423    0.708
        61 -10.2661    222.1431     58.1812   3.8596844946e+00   2.2474993079e+01    0.4104756    0.2348549 -25.75  0.002120139    1.822    0.451
        62  -9.4920    191.5229     60.2670   7.8423868135e+00   2.8767379504e+01     0.276351    0.1639448  83.58  0.001277966    2.033    0.508
        63 -10.7219    250.2018     56.6729   1.0512150180e+00   1.7391238620e+01    0.3319986    0.1166204 -37.69  0.001401821    2.088    0.521
        64  -9.7016    202.9964     57.5279   5.7442265498e+00   2.6583480778e+01    0.2257462    0.1844867  49.61 0.0006535749    1.441    0.306
        65 -10.9992    209.5029     54.7103   4.3329586722e+00   2.5554759708e+01    0.4517856    0.2438666  56.80  0.001852081    2.052    0.513
        66 -11.2691    174.4081     55.9855   9.0420949988e+00   3.3426197723e+01    0.2511862    0.2354632  81.16 0.0003543415    1.100    0.091
        67 -10.4687    124.7896     56.7367   1.8640380429e+01   4.5986219499e+01     0.365334    0.2323315  49.59  0.001190332    1.542    0.352
        68  -9.4345    137.7991     54.8194   1.5076952843e+01   4.2906714244e+01    0.3443531    0.1614741  57.30   0.00132892    2.000    0.500
        69 -10.2627    245.0817     54.4976   1.0019220892e+00   1.8566779923e+01    0.2700326    0.1160651  69.34  0.001370802    2.758    0.637
        70  -8.7057    154.3015     54.3155   1.1767278297e+01   3.8708445450e+01    0.1454783    0.1153076  28.70 0.0007021177    1.616    0.381
        71 -11.1157    195.7902     52.1583   5.2195467315e+00   2.8923236240e+01    0.2579468    0.2029628 -63.49 0.0003061958    1.173    0.147
        72  -9.4884    132.1039     53.1711   1.5739334336e+01   4.4661188129e+01    0.2381643     0.196002  39.73 0.0006328757    1.348    0.258
        73 -10.7674    145.3560     50.3031   1.2117960323e+01   4.1631553072e+01    0.3032617    0.2590251 -80.66 0.0006008027    1.139    0.122
        74 -10.2755    147.1333     46.8065   1.0668321488e+01   4.1684051571e+01     0.474672    0.2552989  71.57  0.001969693    1.901    0.474
        75 -10.5481    212.8239     49.7546   2.7966239211e+00   2.5495599662e+01    0.3968654    0.2179195 -66.69  0.001053579    2.051    0.512
        76  -9.6437    208.8128     46.3757   2.3729200981e+00   2.6790044880e+01    0.1634821    0.1550813  26.91 0.0003958638    1.344    0.256
        77 -10.3434    247.8798     48.3701   3.5949618183e+02   1.8800981976e+01    0.2056125    0.1270605 -45.01 0.0008512668    1.255    0.203
        78 -10.4693    138.1427     41.4984   1.0544773801e+01   4.4822364797e+01    0.6115071    0.2358504 -39.94  0.002240554    2.516    0.603
        79 -10.8795    133.9618     48.0588   1.3603811064e+01   4.4969775384e+01    0.3427701    0.2401441  53.36 0.0004670427    1.397    0.284
        80  -9.9937    137.3470     47.2844   1.2657520462e+01   4.4191206024e+01    0.2614751    0.2432688  72.22 0.0005054925    1.063    0.059
        81 -10.4608    173.2814     39.0940   4.3945754103e+00   3.6033801056e+01    0.4163368    0.2382786  53.00  0.001935107    1.899    0.473
        82 -10.9378    176.4362     44.0791   5.4119754256e+00   3.4595557486e+01    0.5448834    0.3260737 -73.55  0.002493117    1.902    0.474
        83 -10.5305    180.2517     41.7201   4.2758262007e+00   3.3974856060e+01    0.3918568    0.2558374  76.75  0.001688947    1.522    0.343
        84  -9.4473    121.0475     44.6458   1.5223534841e+01   4.8915365391e+01    0.3193022    0.2183184 -18.21  0.001420102    1.874    0.466
        85  -9.9170    223.1968     45.2145   7.7169527051e-01   2.3911127518e+01    0.2469851    0.1567227  76.10 0.0007851147    1.712    0.416
        86 -10.9630    202.7218     43.4857   2.2630451008e+00   2.8499373512e+01    0.3712804    0.2336795  61.69  0.001986313    1.707    0.414
        87 -11.0585    196.9282     40.8060   2.1707008570e+00   3.0150233106e+01     0.357799    0.2589236 -21.66  0.001540725    1.589    0.370
        88 -11.4572    157.3067     43.1511   7.8318773456e+00   3.9551937016e+01    0.4500204    0.2376391  67.36 0.0005754632    1.817    0.450
        89 -10.0630    247.1488     42.2265   3.5826040744e+02   1.9655608338e+01    0.1596026    0.1421578 -38.76 0.0004785504    1.220    0.180
        90  -9.8955    241.7895     42.3033   3.5865594714e+02   2.0634042784e+01    0.1822917    0.1217431 -65.67 0.0006689262    1.414    0.293
        91 -12.1595    214.8714     38.5188   3.5991847013e+02   2.6464941282e+01     0.417222    0.3217141  60.99  0.001048516    1.500    0.333
        92 -11.1728    225.8561     39.2797   3.5919175000e+02   2.4092050897e+01    0.3470988    0.2361321 -56.14 0.0006180152    1.248    0.198
        93 -10.1494    235.8727     41.2700   3.5886683538e+02   2.1877769947e+01    0.1889715    0.1567882  52.28 0.0006113313    1.559    0.358
        94  -9.3841    190.9604     39.6282   2.4892526479e+00   3.1683779961e+01    0.1830789    0.1516212 -83.19 0.0004563324    1.132    0.117
        95  -9.3614    164.8855     39.7947   5.7062132984e+00   3.8058843946e+01    0.2087235    0.1841039  45.17 0.0006907677    1.323    0.244
        96  -8.9983    148.5589     40.4092   8.3581331850e+00   4.2212895072e+01    0.1483308    0.1311939 -84.24 0.0001327692    1.036    0.034
        97  -9.3238    130.3014     37.4183   1.0621700547e+01   4.7490785302e+01    0.2449726    0.1561085 -54.23 0.0006993443    1.673    0.402
        98 -10.9280    159.7065     36.0449   5.2877315672e+00   3.9879405743e+01     0.251964    0.2285202  82.88 0.0004511964    1.082    0.076
        99 -11.1988    240.1328     34.3198   3.5705793669e+02   2.1870805865e+01    0.2756368    0.2398797  24.96  0.001117319    1.657    0.396
       100  -9.5710    232.7664     35.7199   3.5787183278e+02   2.3132911882e+01    0.2399755    0.1043885  77.75  0.000943282    2.606    0.616
       101  -9.5666    197.6855     35.1786   6.4775675675e-01   3.0674910549e+01    0.2187759    0.1598021 -82.66  0.000477591    1.315    0.240
       102 -11.7344    151.2284     31.8593   5.1788344350e+00   4.2629387665e+01    0.5983987    0.2866732  64.12  0.002526745    1.913    0.477
       103 -10.8809    141.5242     34.5183   7.5758207665e+00   4.4869249102e+01    0.5677133    0.2082399  58.18  0.002075228    2.440    0.590
       104 -12.0799    175.5345     32.4430   2.2202405942e+00   3.6311659818e+01    0.3927143    0.2511462 -61.90 0.0006057709    1.505    0.335
       105 -10.3366    249.4393     31.2938   3.5583376632e+02   2.0481458407e+01    0.2605799    0.1775188 -65.53 0.0009795909    1.317    0.241
       106  -9.5173    223.9050     29.8579   3.5718549772e+02   2.5590971987e+01    0.1673267    0.1598423 -49.37 0.0004994604    1.259    0.206
       107 -10.1683    103.5012     30.0152   1.3750280425e+01   5.5687414635e+01    0.3795947    0.2133577  48.18  0.001629965    1.720    0.419
       108 -10.6858    109.0147     27.5083   1.1357716239e+01   5.4544517213e+01    0.3702943     0.242641  59.46 0.0009120799    1.368    0.269
       109 -10.0256    215.8934     28.0886   3.5735746833e+02   2.7473268946e+01    0.2515339    0.1629381  73.35 0.0009038721    1.617    0.381
       110 -11.5296    167.0616     27.1214   1.6443780832e+00   3.9087297322e+01    0.4926495    0.2820004  83.87  0.001782569    1.728    0.421
       111  -9.6494    160.3572     24.2108   1.5525813585e+00   4.1153411624e+01     0.420593    0.2168635  46.92  0.001786003    2.364    0.577
       112 -10.9368    245.8125     15.1985   3.5269300907e+02   2.2876553918e+01    0.3315052    0.1561332  63.36  0.001856759    2.536    0.606
       113  -9.8272    200.3535    236.2926   4.2109667826e+01   4.2897010308e-01    0.1186063   0.06826442   4.03 0.0007030003    1.682    0.405
       114 -11.4010    235.8151     20.6796   3.5437858844e+02   2.4213823338e+01    0.3486491    0.2210058  66.27  0.001579037    1.829    0.453
       115 -10.2867    184.8797     25.6142   3.5933996051e+02   3.4828896748e+01    0.2279847     0.180315 -42.19  0.000393824    1.219    0.180
       116 -10.1012    201.5569     21.4421   3.5681963142e+02   3.1382719165e+01    0.2195217    0.1780679 -79.22 0.0008027135    1.116    0.104
       117  -8.9991    178.6865     21.9794   3.5892678578e+02   3.6754745872e+01    0.2571634    0.1494313 -36.37 0.0006813249    1.624    0.384
       118  -9.2585    178.7567     18.4253   3.5792296076e+02   3.7127653650e+01    0.1808218    0.1145134  66.26 0.0005795316    1.568    0.362
       119  -9.9817    214.5049    232.0177   3.9020754438e+01  -6.8641217456e-01    0.1217184   0.09792043 -53.31 0.0008101265    2.518    0.603
       120  -9.0701    146.5058     17.4340   1.0851979957e+00   4.5558959522e+01    0.2268471    0.1626972  70.88 0.0005137641    1.272    0.214
       121  -9.8926    124.9102    128.9329   3.9438286570e+01   3.1240900653e+01    0.3980936    0.2123841  31.96  0.001514544    2.098    0.523
       122  -9.7047    211.0078    198.0000   3.4310871155e+01   4.0530332767e+00     0.186946   0.05994138  35.52 0.0008059494    2.967    0.663
       123 -11.0560    227.6502    178.9889   2.8255918016e+01   4.4185956634e+00    0.2927379    0.2836575   5.25   0.00128774    1.508    0.337
       124  -9.5266    139.6550     18.4571   2.3461580200e+00   4.7290056702e+01    0.3119623    0.2445506 -43.54   0.00168779    1.306    0.234
       125 -10.1195    250.3254     18.9571   3.5324670539e+02   2.1650718232e+01    0.1663525    0.1139873 -43.89 0.0007795325    1.136    0.120
       126 -12.9831    122.3908     78.4398   2.6425782707e+01   4.2607957055e+01     1.673788     1.165403 -55.62  0.007423856    1.567    0.362
       127 -11.2806    179.0926    113.5358   2.3268281286e+01   2.2897930235e+01    0.5275229    0.4129159 -45.99  0.002490565    1.266    0.210
       128  -9.4340    159.9167    118.7360   2.8410515688e+01   2.5970059890e+01    0.1980262    0.1851454  41.89 0.0002662989    1.073    0.068
       129  -9.6350    189.3117    118.3061   2.2511176098e+01   2.0010765748e+01    0.1387296    0.1056256   4.46  0.000420211    1.618    0.382
       130 -10.4775     66.5700    113.2849   5.4784695896e+01   4.6100163830e+01     0.320605    0.2608398 -15.96 0.0007461993    1.515    0.340
       131 -10.5007    186.1999    112.4629   2.1709343066e+01   2.1626712938e+01    0.3081304    0.2543598 -75.05   0.00167266    1.503    0.334
       132  -9.2571     40.0510     17.2232   3.2821332071e+01   7.2342710904e+01    0.2136962    0.1660925  54.50  0.001177075    1.494    0.331
       133  -8.8736    208.5381    123.4591   2.0427001947e+01   1.5550907705e+01    0.1307705    0.1162055 -23.18 0.0001790595    1.002    0.002
       134  -8.9090    228.5177     16.5127   3.5387590224e+02   2.6111224540e+01    0.1230406   0.09268524 -56.81   0.00081009    1.031    0.030
       135  -9.3238    143.0218     13.7679   2.8672107144e-01   4.6873709797e+01    0.1929654     0.153431  86.15 0.0003314729    1.104    0.094
       136 -10.0762    231.2574    110.6861   1.4423325184e+01   1.3496458973e+01    0.2187998    0.1642766  84.97  0.001282042    1.997    0.499
       137 -11.7716    246.1452    106.7396   1.1782316987e+01   1.1603925658e+01    0.5956084    0.3571401 -78.90   0.00261055    4.210    0.762
       138 -10.3931     66.2357    101.8590   5.2330077614e+01   4.9120197908e+01    0.5222745    0.2014868  35.96   0.00179189    2.439    0.590
       139 -10.6798    236.3920     96.2818   1.0749216147e+01   1.4643189750e+01    0.2332363    0.1309489 -41.39  0.001282405    1.504    0.335
       140 -12.8580    114.8532     94.8221   3.3498976375e+01   4.0990765733e+01     1.227242    0.8603476 -27.59  0.003742283    1.790    0.441
       141 -10.6840    188.2929     93.3981   1.6748281322e+01   2.4382323872e+01     0.575716    0.3972151 -80.32  0.002709797    2.065    0.516
       142  -9.9198    203.8210     93.5782   1.4393586428e+01   2.1123730702e+01    0.2474458    0.2369555 -16.58 0.0008319271    1.104    0.095
       143 -11.3009    246.3031     92.8984   8.9343971841e+00   1.3431158606e+01    0.3522223    0.2300777 -59.19  0.001767719    1.774    0.436
       144 -12.5145    248.7895     84.9826   7.0455032089e+00   1.4060647068e+01    0.6848404    0.3365628 -46.51  0.003254227    1.803    0.445
       145 -12.3986    242.6133     85.3635   7.7563032432e+00   1.5053805933e+01    0.5751867    0.4342556  19.62  0.003032242    1.828    0.453
       146  -9.8653    152.6808     87.9025   2.1964000030e+01   3.3434310580e+01    0.2808574      0.21299  62.22 0.0006285238    1.349    0.259
       147  -9.3034    163.0154     83.0238   1.8520037065e+01   3.1849152030e+01    0.2312884    0.1819805  18.33 0.0009687672    1.676    0.403
       148 -10.2123    174.6824     81.4400   1.5969665962e+01   2.9385015262e+01    0.3090652    0.2276203 -66.34 0.0009501989    1.518    0.341
       149  -9.8432    161.0285     69.9322   1.5206910039e+01   3.4544214138e+01    0.3941497     0.251751 -89.62  0.001658689    2.116    0.527
