#   1 NUMBER                 Running object number                                     
#   2 MAG_AUTO               Kron-like elliptical aperture magnitude                    [mag]
#   3 X_IMAGE                Object position along x                                    [pixel]
#   4 Y_IMAGE                Object position along y                                    [pixel]
#   5 X_WORLD                Barycenter position along world x axis                     [deg]
#   6 Y_WORLD                Barycenter position along world y axis                     [deg]
#   7 A_WORLD                Profile RMS along major axis (world units)                 [deg]
#   8 B_WORLD                Profile RMS along minor axis (world units)                 [deg]
#   9 THETA_WORLD            Position angle (CCW/world-x)                               [deg]
#  10 FWHM_WORLD             FWHM assuming a gaussian core                              [deg]
#  11 ELONGATION             A_IMAGE/B_IMAGE                                           
#  12 ELLIPTICITY            1 - B_IMAGE/A_IMAGE                                       
         1  -9.9184     39.1933      7.3360   9.5854020418e+01   6.7156765089e+01    0.5433204    0.2765394 -19.45   0.00320444    1.890    0.471
         2 -10.3837     39.2931     30.0019   1.0498849693e+02   6.4319016209e+01    0.4589779    0.3067746 -41.91  0.002207775    1.688    0.407
         3 -11.7887     43.3139     20.6449   9.9772140952e+01   6.5069869786e+01     1.101738    0.9397485 -50.55  0.007609369    1.947    0.486
         4  -8.4272     27.4466     35.3800   1.1171814439e+02   6.4799517974e+01     0.233713     0.152789 -18.22   0.00151786    1.318    0.241
         5 -11.9657     82.7092      6.6570   8.1011848758e+01   6.0208798330e+01     1.811909    0.9447293  12.53  0.008984874    2.451    0.592
         6 -11.0660    131.4156      3.5884   6.9105434449e+01   5.0232699554e+01    0.9374008     0.598488  39.33  0.005322584    1.495    0.331
         7 -11.1730    144.1251      4.7495   6.7309734899e+01   4.7217029715e+01    0.9102598    0.5447042  63.30  0.004629418    1.378    0.274
         8 -11.3852    109.9818      4.2730   7.3498203409e+01   5.4908868477e+01     1.530239    0.3416604  58.93  0.005448882    3.573    0.720
         9 -10.6726    121.4636      3.9348   7.1052352409e+01   5.2437156041e+01    0.5966614    0.4156953  61.83  0.003289948    1.257    0.205
        10 -13.9406    166.8719     10.8717   6.5579346185e+01   4.1305921450e+01     3.700638     1.550418  61.20   0.01703843    1.922    0.480
        11 -10.0867     71.2731      5.6387   8.3932427772e+01   6.2376184535e+01    0.5079997    0.2896142  38.50  0.002367346    1.440    0.306
        12 -10.1427    116.4973     15.8779   7.5960385978e+01   5.2490711418e+01    0.8409994    0.3646616 -33.71  0.003912364    2.587    0.613
        13  -9.5112     93.9012     17.8444   8.2116807533e+01   5.7007149861e+01    0.3840559    0.3301164 -41.82   0.00219493    1.492    0.330
        14 -10.5667    248.6792     16.6735   5.8015411574e+01   2.1911234057e+01    0.4721751    0.2176003 -37.80  0.002479536    2.151    0.535
        15  -9.4970     64.7288     16.8604   9.0493822715e+01   6.2376403380e+01    0.2188072    0.1909494 -25.73  0.001376672    1.422    0.297
        16  -8.7367     19.8985     14.5841   1.0705049334e+02   6.8504409314e+01    0.4161271    0.1891578 -18.20  0.002175004    2.509    0.601
        17  -9.5824    226.0314     14.0565   5.9501134395e+01   2.7132358431e+01    0.4064967    0.1929312 -74.62  0.001840785    2.536    0.606
        18  -8.7526     69.3954     13.9492   8.7815914548e+01   6.1907808511e+01     0.252996    0.2238127  71.88   0.00170627    1.773    0.436
        19 -10.0133    103.5497     11.4768   7.7423006910e+01   5.5655599647e+01    0.3936089    0.2898823  23.60  0.001804265    1.306    0.234
        20  -8.2209     49.9822      6.2330   9.1280540107e+01   6.5764625783e+01    0.2640525    0.1013997  31.34  0.001091717    2.517    0.603
        21 -10.2849     60.5596      3.3960   8.6413702675e+01   6.4388523864e+01    0.6686862    0.4064965  -0.09  0.004113823    1.654    0.396
        22 -10.3026    243.5116      8.4526   5.6862818105e+01   2.3942536681e+01    0.2675139    0.1835494  56.18  0.001674414    1.728    0.421
        23 -10.2504    249.2599      5.2998   5.5821613051e+01   2.3080657012e+01    0.3968618    0.2512355 -44.89  0.002530849    1.533    0.348
        24  -9.7298    229.9904      6.4180   5.7586490550e+01   2.7088511879e+01    0.2734557    0.2009832 -75.95  0.001783443    1.142    0.124
        25 -11.3390    156.3190     20.4609   6.9787273309e+01   4.2875105442e+01    0.9351693    0.3453758  57.22  0.003581607    2.184    0.542
        26 -10.5676    214.9642      3.5825   5.8344516193e+01   3.0739861635e+01    0.5369547    0.2622362  51.21  0.002685562    2.356    0.576
        27  -8.6145     26.3732      2.3678   9.8962995970e+01   6.9274355567e+01    0.2019958    0.1563745  -9.85  0.001564967    1.217    0.179
        28  -8.5450     52.4116      1.8259   8.8527761399e+01   6.5818528446e+01    0.2634549    0.1295898  35.13  0.001528526    1.699    0.411
        29  -8.7042     16.7665      1.7677   1.0296561128e+02   7.0381949458e+01    0.1801841    0.1267615  18.84  0.000734961    1.357    0.263
        30 -10.6327    200.8925      8.3158   6.0780614920e+01   3.3498238951e+01    0.5485712    0.1778686  75.65  0.002077457    3.152    0.683
        31  -8.3388     33.6908     68.9853   1.1970267176e+02   5.8353439567e+01    0.2322402    0.1502571 -18.52  0.001345615    1.611    0.379
        32  -8.3408     92.5801     56.8741   9.6046139559e+01   5.2200092267e+01    0.2736266    0.1848936  60.12  0.001338272    2.037    0.509
        33  -9.2234    227.7121     78.8749   7.3491150512e+01   1.7854809211e+01    0.3758115    0.2908488  17.11  0.001910299    1.957    0.489
        34 -10.1607     24.5814     65.1257   1.2196421071e+02   5.9901909918e+01    0.6540627    0.2893706 -50.73  0.002929252    1.853    0.460
        35  -9.0534    198.6007     54.8976   7.2130958925e+01   2.8334404510e+01    0.2518711    0.2146648  65.54 0.0004830733    1.124    0.110
        36  -8.1216     34.8415     52.5485   1.1449254767e+02   6.1245163949e+01    0.2121589    0.1109363  19.11  0.001140115    2.085    0.520
        37  -8.0554     23.0429     52.4530   1.1899037464e+02   6.2356436522e+01    0.1590357    0.1065654  13.38  0.001022395    1.573    0.364
        38 -10.1442     84.1174     47.8978   9.5638580052e+01   5.5107442228e+01    0.5383735    0.5040992  78.30  0.003403483    1.488    0.328
        39  -9.6442     80.6007     40.2918   9.4097810935e+01   5.6814311881e+01    0.4368249    0.3126957  -1.49  0.002498989    1.446    0.308
        40  -8.2053    111.0132     46.3151   8.7358726003e+01   5.0122656808e+01    0.2001618    0.1647525  35.65  0.001031838    1.100    0.091
        41 -10.2870      3.3027     39.4330   1.2305308179e+02   6.6030703691e+01    0.4938044    0.3644538 -45.74  0.002850382    1.252    0.201
        42  -9.1099     12.1132     34.3280   1.1774758077e+02   6.6283096127e+01     0.393541    0.2422863 -33.88  0.002471132    1.253    0.202
        43  -7.9978     97.5210     43.4912   9.0120344247e+01   5.3243702657e+01    0.1340652    0.1179599  19.55 0.0001846767    1.004    0.004
        44 -10.1013    182.6373    246.1207   1.1673014550e+02  -3.0161572630e+00    0.2680255    0.1690753  31.81  0.001473239    1.398    0.285
        45 -10.4517    171.4842    243.0125   1.1844508421e+02  -6.2535131448e-01    0.3403031    0.2153678 -39.57  0.001854922    1.864    0.464
        46 -10.1956     50.4251     34.7537   1.0248403588e+02   6.2243031186e+01    0.5422454    0.4883687  86.35  0.003559349    2.067    0.516
        47  -9.4079    162.8224    243.5772   1.2024791152e+02   7.7317399179e-01    0.1918928    0.1053745  48.60  0.000721847    1.691    0.409
        48  -8.4447     38.3088     37.3284   1.0806023853e+02   6.3356077481e+01    0.2145866    0.1511554 -12.37  0.001013752    1.236    0.191
        49  -8.6293     69.2031     37.2792   9.6739162047e+01   5.9135863946e+01    0.2614437    0.2201675  -7.02  0.001714219    1.086    0.079
        50  -9.6906     66.6083     30.6383   9.5169287428e+01   6.0436500899e+01    0.5500877    0.2136897 -28.19   0.00242525    2.757    0.637
        51  -9.1969    159.8385    240.0037   1.2030997635e+02   1.8876585150e+00    0.2065746    0.1498523 -10.60  0.001092493    1.998    0.499
        52  -9.7403     86.6619     31.6769   8.9159192175e+01   5.6849101258e+01     0.288367    0.2195776 -26.45  0.001520668    1.381    0.276
        53 -10.5473    225.2866     28.8162   6.2691520620e+01   2.5564531190e+01    0.3782232    0.3590744 -89.84  0.001348697    1.230    0.187
        54 -10.5698    210.2266    224.8773   1.0779229973e+02  -4.3829599239e+00    0.4401664    0.1961355  35.01  0.001961015    2.089    0.521
        55 -12.6442    241.1294    133.2852   8.3527529073e+01   5.6842349405e+00     1.491977     1.116712  54.14  0.004806022    1.484    0.326
        56 -10.0016     10.4866    135.4893   1.3944552238e+02   4.5993900194e+01    0.2298032    0.1820095 -36.47  0.001369622    1.453    0.312
        57 -10.9735     12.0316    127.0676   1.3793864959e+02   4.7765844879e+01    0.5683232    0.1102339 -54.01  0.002144207    3.467    0.712
        58  -9.8245     17.6624    127.2472   1.3646179823e+02   4.7300870329e+01    0.1863623    0.1768983 -60.51  0.001289694    1.179    0.152
        59  -8.0496     22.4929    125.5093   1.3489541817e+02   4.7302891908e+01    0.1239965    0.1018126 -65.38 2.836286e-05    1.005    0.005
        60  -8.6857    125.0354     28.6952   7.8239977414e+01   4.9276768118e+01    0.2550973    0.1986759  -1.91  0.001468259    1.460    0.315
        61  -8.9252     40.9251    141.8649   1.3247691692e+02   4.1809942489e+01    0.3023265    0.1160307  53.16  0.001086531    4.049    0.753
        62  -9.4675    132.4837     25.8674   7.5765456597e+01   4.7899065427e+01    0.2934174    0.2899345 -60.64   0.00168656    1.167    0.143
        63  -9.2141    102.9833     26.2351   8.2695267848e+01   5.4293371681e+01      0.29077    0.1636574  50.28  0.001494615    1.582    0.368
        64  -8.0150     11.1673     25.6141   1.1515485401e+02   6.7711401703e+01    0.2536933    0.1272301  -0.20  0.001449711    2.265    0.558
        65  -8.3362     10.0159     22.5425   1.1455082003e+02   6.8257785797e+01    0.1633913    0.1356362 -32.15 0.0007845476    1.370    0.270
        66  -8.7530    147.3695     39.7551   7.6949138651e+01   4.2796478435e+01    0.2943944    0.2051942  17.34  0.001453339    1.887    0.470
        67 -11.2257     11.3074    140.6912   1.3988289273e+02   4.4765530159e+01    0.4739153    0.3545291 -21.91  0.003083498    1.786    0.440
        68  -9.4320    110.9783     16.2665   7.7329139061e+01   5.3645884622e+01    0.3375049    0.1929109  49.91  0.001070682    1.459    0.315
        69  -8.2673     19.3118     22.1057   1.1028329837e+02   6.7535983058e+01    0.1867791    0.1226788   2.06 0.0008736813    1.357    0.263
        70 -10.2438      9.4277    117.8297   1.3734088748e+02   5.0000079080e+01    0.3104584    0.1612408 -54.79  0.001443532    1.533    0.348
        71 -10.0942     17.1972    104.2366   1.3293170783e+02   5.2435680514e+01    0.4678118    0.3463317  65.24  0.002939817    1.744    0.427
        72  -8.7221     97.6661     28.1108   8.4758400629e+01   5.5156468319e+01    0.4522144    0.2154615 -10.73  0.001814206    3.331    0.700
        73  -9.5897     29.7789    101.9148   1.2866133954e+02   5.1928580345e+01     0.351831     0.165488 -38.38   0.00167932    2.194    0.544
        74  -9.4783     46.8797     99.7256   1.2285506618e+02   5.0712349202e+01    0.3343186    0.1376235 -48.67  0.001480892    2.049    0.512
        75  -7.9558      8.0095     16.9755   1.1336732815e+02   6.9215931613e+01    0.1793832   0.09360256 -19.37  0.001120132    1.714    0.417
        76  -9.3178      2.3101     89.3634   1.3489619766e+02   5.6550972150e+01    0.3677662    0.1977078 -65.05  0.001796458    1.525    0.344
        77 -11.6824     43.5552     82.0966   1.1971593134e+02   5.4770613248e+01     1.034953    0.7481585 -22.02  0.005093596    1.392    0.281
        78  -9.0281     19.5101     88.8365   1.2927932673e+02   5.5553418141e+01    0.2036237    0.1705287   7.32  0.001415483    1.382    0.276
        79  -9.8166     15.1860     63.6910   1.2503976341e+02   6.0895307510e+01    0.4397556    0.3583434  88.50  0.002966019    1.844    0.458
        80 -10.4520      3.7563     75.9049   1.3187446924e+02   5.9221554006e+01    0.5977525    0.4056525 -54.66  0.003474958    1.155    0.134
        81 -10.9654     15.6049     74.8055   1.2755658570e+02   5.8701532994e+01    0.9195647    0.3753694 -36.23  0.004483625    2.361    0.576
        82  -9.9632     11.2777     70.4926   1.2808998267e+02   5.9844896313e+01    0.5040871    0.2518418 -49.61  0.002853888    1.516    0.341
        83  -7.9138     71.4652     80.4875   1.1001280109e+02   5.1528573086e+01    0.1352007    0.1211841 -20.77 0.0008095226    1.006    0.006
        84  -8.4995     83.4330     69.5438   1.0291767111e+02   5.1680203348e+01    0.2563632    0.2380081  20.22   0.00157185    1.124    0.110
        85  -9.5045     74.6924     68.1860   1.0530213479e+02   5.3344404709e+01    0.5110347    0.3477247  -8.90   0.00262313    1.736    0.424
        86  -9.2930     81.7347     26.6029   8.8793809870e+01   5.8359970422e+01    0.3464224      0.15064  35.69   0.00158497    2.210    0.547
        87  -8.9682     45.8691     62.8531   1.1357487902e+02   5.8221702612e+01    0.2946438    0.2053049  -2.42  0.001734175    1.518    0.341
        88  -8.5802     49.7487     61.8947   1.1189427877e+02   5.7937337440e+01    0.3646681    0.2288882 -56.40  0.001946079    1.960    0.490
        89  -8.2778     69.5043     61.5014   1.0491631910e+02   5.5318675981e+01    0.1325382    0.1141293  -8.41 -5.623729e-05    1.020    0.019
