#   1 NUMBER                 Running object number                                     
#   2 MAG_AUTO               Kron-like elliptical aperture magnitude                    [mag]
#   3 X_IMAGE                Object position along x                                    [pixel]
#   4 Y_IMAGE                Object position along y                                    [pixel]
#   5 X_WORLD                Barycenter position along world x axis                     [deg]
#   6 Y_WORLD                Barycenter position along world y axis                     [deg]
#   7 A_WORLD                Profile RMS along major axis (world units)                 [deg]
#   8 B_WORLD                Profile RMS along minor axis (world units)                 [deg]
#   9 THETA_WORLD            Position angle (CCW/world-x)                               [deg]
#  10 FWHM_WORLD             FWHM assuming a gaussian core                              [deg]
#  11 ELONGATION             A_IMAGE/B_IMAGE                                           
#  12 ELLIPTICITY            1 - B_IMAGE/A_IMAGE                                       
         1 -16.5275    133.4511     24.0244   7.8910780270e+01   4.9180124753e+01     11.73342     5.004346 -41.70   0.04162937    2.759    0.638
         2 -18.5789    235.3115     51.6309   7.0186170064e+01   1.9823392358e+01     7.693485     3.708207 -19.10   0.03183763    2.015    0.504
         3 -10.6064    231.6241      8.9387   5.8623473416e+01   2.5166468706e+01    0.1273309   0.06048052  65.22 0.0004138699    2.086    0.521
         4 -14.8944    215.5064     72.1803   7.8913346470e+01   2.1928571518e+01     1.502031    0.7693036 -51.63  0.005026075    3.054    0.673
         5 -10.6374    213.3687      5.1051   5.9299866497e+01   3.0095578899e+01    0.1356462   0.07660866  59.77 0.0003658156    1.701    0.412
         6 -10.1044    159.1056      1.8559   6.5089221916e+01   4.4845406677e+01    0.2297736    0.1883345  28.86 0.0006695074    1.161    0.139
         7 -10.5472    210.3705    178.7228   1.0472617532e+02   8.3896023963e+00    0.4078582    0.3138533  86.61  0.002034978    3.232    0.691
         8 -14.7907     23.9270    243.9127   1.4418653194e+02   2.4785537850e+01     2.698428    0.5146165  38.30   0.01482213    3.408    0.707
         9 -13.3260     30.8422    168.5248   1.3935696547e+02   3.6410728435e+01     1.246976    0.4552085  58.98  0.006458879    2.664    0.625
        10 -10.5758    192.7276    171.7716   1.0672324621e+02   1.2395960384e+01    0.4687549    0.2474262  57.56  0.001973315    3.059    0.673
        11 -10.2644    188.8956    169.9379   1.0711875270e+02   1.3335537341e+01    0.2980673    0.1660465  48.85 0.0008786523    1.821    0.451
        12 -12.3880     35.2686    164.3085   1.3817397061e+02   3.6797982221e+01    0.9258646    0.3430973  55.69  0.004803131    2.555    0.609
        13 -10.5337    213.8600    169.0230   1.0230072315e+02   8.9812053162e+00    0.4527911    0.1705737  45.07   0.00192803    2.435    0.589
        14  -9.1869    195.8140    167.7946   1.0540692311e+02   1.2384711242e+01    0.1673371    0.1466602  48.60 0.0006159937    1.363    0.266
        15  -9.7558    202.5046    166.4518   1.0389680639e+02   1.1354447064e+01    0.2578311    0.2056662  83.91 0.0009153164    2.442    0.591
        16 -10.6034    180.6120    165.4096   1.0789580496e+02   1.5481692160e+01    0.4271167    0.2338726  57.32  0.001875412    2.611    0.617
        17  -9.5484    203.6392    160.9051   1.0261368610e+02   1.1891716456e+01    0.1789743    0.1557604  -0.94 0.0007485172    1.153    0.133
        18  -9.5448    156.0609    160.1185   1.1190329731e+02   2.0742381078e+01    0.1975652    0.1561845  72.99 0.0006712486    1.701    0.412
        19  -9.7178    146.9798    158.0228   1.1344124469e+02   2.2703646913e+01    0.1968341    0.1768579  41.62 0.0004139012    1.047    0.044
        20 -10.1471    206.9177    177.4363   1.0511837751e+02   9.1489095288e+00    0.2651686    0.1781532  50.85  0.001240094    1.725    0.420
        21 -10.3105    181.5291    152.8448   1.0531196894e+02   1.7195580161e+01    0.2604279    0.2085767  58.79  0.001040374    1.532    0.347
        22 -10.2648    132.6610    138.2144   1.1296489532e+02   2.8796091664e+01    0.6205301    0.1857725 -50.85  0.002103534    3.812    0.738
        23 -12.1588    200.2894    144.3433   9.9862850048e+01   1.4842078294e+01    0.5221718     0.372008  67.72 0.0005952384    2.320    0.569
        24 -11.0395    192.2827    144.0208   1.0135644135e+02   1.6456001300e+01    0.2432083    0.1850241  25.99 0.0004152015    1.176    0.150
        25 -10.0955    133.8530    147.0682   1.1434741153e+02   2.6941815646e+01    0.3892414    0.1604038 -52.15  0.001597704    2.777    0.640
        26  -9.1681    124.5538    145.2537   1.1612075460e+02   2.8873699652e+01     0.158633    0.1261875 -37.00  0.000253924    1.416    0.294
        27  -9.9406    157.8947    140.2111   1.0770519174e+02   2.3766165799e+01    0.2011067    0.1818506  67.47 0.0005839342    1.299    0.230
        28 -11.0530    218.8154    154.7963   9.8593186603e+01   9.8878335697e+00    0.3503194    0.2370773  22.14  0.001934144    1.319    0.242
        29  -9.6181    135.1905    131.3886   1.1102371028e+02   2.9629777604e+01     0.321732    0.2134373  63.57  0.001514113    1.980    0.495
        30 -11.7153    135.2857    124.1849   1.0948858234e+02   3.0988088001e+01    0.8801278    0.4120888 -57.50  0.003300324    3.030    0.670
        31 -10.9845    154.4687    126.5149   1.0554159373e+02   2.6852737778e+01    0.3170034    0.2533182   0.36  0.001592662    1.423    0.298
        32 -11.3413    153.0341    122.0169   1.0485313288e+02   2.7952823379e+01     0.390192    0.3221505 -34.48  0.001283234    1.258    0.205
        33 -14.2484     67.7394    146.4886   1.2941669602e+02   3.6864346607e+01     1.273298     1.093305  -1.13  0.005846987    1.621    0.383
        34 -12.3079    160.2262    128.8007   1.0476062652e+02   2.5302510127e+01    0.5793694    0.3866312  36.14  0.002865095    1.421    0.296
        35 -10.4854    129.0120    115.4585   1.0908679103e+02   3.3863716073e+01    0.3140748    0.2207121 -70.70 0.0008937165    1.972    0.493
        36 -12.9878    123.2020    105.9620   1.0834731282e+02   3.6848651738e+01    0.9954558    0.7992657 -51.64  0.004337122    1.282    0.220
        37  -9.8746     98.2914    113.8753   1.1662426258e+02   3.9488067285e+01    0.5926684    0.2667758 -71.43  0.001705955    5.592    0.821
        38  -8.8342    143.3207    181.6181   1.1798952874e+02   1.9448257192e+01     0.124822   0.09016468  70.42 0.0007020654    1.833    0.454
        39 -10.5261    158.1897    107.0735   1.0005999132e+02   2.9602988001e+01    0.3591106    0.2236094 -55.52  0.001150904    2.169    0.539
        40 -12.0804    119.1697     93.0839   1.0618511114e+02   4.0222031988e+01    0.3872537    0.3004587 -28.48  0.001982859    1.354    0.261
        41  -9.5626     85.2358    104.8180   1.1831977348e+02   4.3404610326e+01    0.3462015    0.1561017 -69.84   0.00114206    3.485    0.713
        42  -8.9382     37.1069    105.7916   1.3194438758e+02   4.8756096705e+01    0.1567255    0.1184205 -55.58 0.0003642552    1.290    0.225
        43 -12.1455    152.3671     98.9753   9.9318169559e+01   3.2323677322e+01    0.5856449    0.4879103   8.71  0.002391313    1.263    0.208
        44 -11.8970    168.1331     98.7018   9.5615554500e+01   2.8918296035e+01    0.5669858    0.4633094   2.74  0.002194496    1.271    0.213
        45 -12.4011    164.6609     92.5905   9.4726364146e+01   3.0758437355e+01    0.6817021    0.5203366  22.19  0.001382267    1.367    0.269
        46 -11.0573    170.5420     89.0125   9.2410832247e+01   3.0032145803e+01     0.310245    0.2779778  43.16 0.0003506052    1.151    0.131
        47 -11.1298    142.5765    104.3080   1.0306511826e+02   3.3377778968e+01    0.5445531    0.3127012  27.73  0.002222612    2.171    0.539
        48 -11.7851    124.7798     90.3820   1.0395704397e+02   3.9682770496e+01     0.411716    0.3530794 -52.16  0.001508555    1.229    0.187
        49 -11.0403     82.2701     85.1822   1.1479438811e+02   4.8133933451e+01    0.5694057    0.2833509 -64.33  0.002331444    2.461    0.594
        50 -11.6805    149.1584     90.8130   9.7863847088e+01   3.4522014118e+01    0.3290479    0.2806794 -38.61  0.001085274    1.204    0.170
        51 -12.2652     56.9099    153.6354   1.3265429264e+02   3.6675289572e+01     0.343896    0.2973167  81.02 0.0008557526    1.042    0.040
        52 -10.3288    229.8744    172.9264   1.0021459303e+02   5.7108553970e+00    0.3880517       0.1552  44.68  0.001253413    2.323    0.570
        53 -10.6409    191.7604     38.4047   7.2626008077e+01   3.2272069400e+01    0.5677215    0.3200648 -36.99  0.002385561    1.794    0.442
        54  -8.9043    182.6159     41.8192   7.5305972855e+01   3.4223480484e+01    0.1583438    0.1000997  39.68 0.0006675206    1.580    0.367
        55  -9.1311    171.4782     34.8582   7.4978892849e+01   3.8025899575e+01    0.2160436    0.1493164 -20.66 0.0007281365    1.432    0.301
        56  -9.5017     91.8494     34.8597   9.5386655934e+01   5.6727387717e+01    0.2195974    0.1750444 -12.89 0.0005361969    1.183    0.155
        57  -9.4475    204.3310     29.4121   6.7860946083e+01   3.0046945197e+01    0.1468785    0.1305258 -38.20 4.245223e-05    1.162    0.139
        58 -12.0243    198.4414     26.0416   6.7626085596e+01   3.1951438135e+01     0.378897    0.2926991 -12.14  0.001511683    1.286    0.223
        59  -9.7436    198.8797    152.8068   1.0189793119e+02   1.3904023663e+01    0.2180182    0.1604617  15.97 0.0007873626    1.294    0.227
        60  -9.5537    177.4925     25.5525   7.0689794425e+01   3.7551729227e+01    0.1543772    0.1413151  25.05 7.792497e-05    1.031    0.030
        61  -9.6422     78.6208     21.2620   9.4169355495e+01   6.1435680168e+01     0.271539    0.1182258 -38.27   0.00112717    2.137    0.532
        62 -10.1275    200.3115     18.7869   6.5056022370e+01   3.2218942505e+01    0.1979733    0.1296717  -0.70 0.0004324971    1.677    0.404
        63  -8.2868    203.4449     17.4656   6.4234109265e+01   3.1528875066e+01    0.1940572    0.1271949  48.36 0.0009037262    1.492    0.330
        64 -10.7257    162.4250     18.6201   7.0814305344e+01   4.2333996446e+01    0.3314902    0.2208988  37.85 0.0001323142    1.462    0.316
        65 -10.1429    201.1462     12.2540   6.2876020415e+01   3.2635368936e+01    0.1261811   0.09643881   7.36 0.0004028638    1.383    0.277
        66  -9.5949    178.9540    199.2143   1.1382295415e+02   1.1095787582e+01    0.1653265    0.1301067  39.91 0.0002799837    1.145    0.127
        67  -9.9192    191.7560    192.6399   1.1047223560e+02   9.8236914917e+00    0.3198158    0.1922414 -63.76  0.001241527    5.531    0.819
        68 -12.2118     25.6367    181.4573   1.4114493969e+02   3.4516500553e+01    0.2889795     0.242926  13.93  0.002357382    1.782    0.439
