#   1 NUMBER                 Running object number                                     
#   2 MAG_AUTO               Kron-like elliptical aperture magnitude                    [mag]
#   3 X_IMAGE                Object position along x                                    [pixel]
#   4 Y_IMAGE                Object position along y                                    [pixel]
#   5 X_WORLD                Barycenter position along world x axis                     [deg]
#   6 Y_WORLD                Barycenter position along world y axis                     [deg]
#   7 A_WORLD                Profile RMS along major axis (world units)                 [deg]
#   8 B_WORLD                Profile RMS along minor axis (world units)                 [deg]
#   9 THETA_WORLD            Position angle (CCW/world-x)                               [deg]
#  10 FWHM_WORLD             FWHM assuming a gaussian core                              [deg]
#  11 ELONGATION             A_IMAGE/B_IMAGE                                           
#  12 ELLIPTICITY            1 - B_IMAGE/A_IMAGE                                       
         1 -16.5976    140.1380    102.7124   7.6366603407e+01   3.4040541119e+01     6.156773     3.452173 -48.53   0.02295313    1.849    0.459
         2 -15.6734     24.2036     74.6321   1.0648854294e+02   5.8842319589e+01     2.722846     1.683244 -54.56   0.01549617    1.293    0.227
         3 -14.8174     48.6921     89.4815   1.0105245560e+02   5.3137633968e+01     2.298857     1.188836 -67.00   0.01008959    2.144    0.534
         4 -15.5543     65.6599     47.1848   8.1482693773e+01   5.9688447304e+01     2.762972     2.079419  35.67   0.01567152    1.421    0.296
         5 -13.5026     82.4850     49.3842   7.6179484670e+01   5.6446411082e+01     1.002215    0.6773331 -31.36  0.005142984    1.418    0.295
         6 -13.0406      2.5612     51.7702   1.0985451665e+02   6.5126321423e+01     1.518734    0.3133936 -65.98  0.004926372    5.005    0.800
         7 -13.1925     10.1980     47.1578   1.0525263045e+02   6.5672884252e+01     1.162752    0.6390734 -59.96   0.00588683    1.609    0.379
         8 -14.6749     17.9559     11.3004   8.7734235510e+01   7.1534680375e+01     1.545833     1.055202  -3.22  0.007493165    1.273    0.214
         9 -13.8681    164.0689      5.3071   4.1384375655e+01   4.2958214414e+01     1.735546    0.9647995  85.26  0.008165236    1.899    0.474
        10 -14.0252    186.6131     11.9741   4.0528585821e+01   3.6678049125e+01     1.855624    0.6403824  63.25  0.007455328    2.447    0.591
        11 -13.5491    193.9203      4.2656   3.7693449082e+01   3.5632014716e+01      1.62191    0.5870949  76.24  0.006484997    2.652    0.623
        12 -12.4318     64.7711      8.4299   6.4844291470e+01   6.5351729772e+01    0.5941194    0.4774377 -26.05  0.003823028    1.400    0.286
        13 -12.3379     55.4270     12.0861   7.0228412718e+01   6.6545329200e+01    0.5227814    0.3837705  15.09    0.0032836    1.167    0.143
        14 -12.8277     56.0922      4.4357   6.6122206318e+01   6.7287719642e+01     0.773881    0.4984927  23.10  0.004316435    1.363    0.266
        15 -11.6190     88.2050      2.7908   5.4811017583e+01   6.1262575699e+01    0.3773777    0.2152224  30.34  0.001963855    1.660    0.397
        16 -11.9694     10.6579    230.2197   1.2721349414e+02   2.4924014783e+01    0.4716482    0.1398961  37.22  0.002424975    2.882    0.653
        17 -12.2707    185.9272    248.4893   9.5804303966e+01  -2.6690810491e+00    0.4658074    0.2485279  40.63  0.002575223    1.595    0.373
        18 -11.0420    192.0852    190.7694   8.4876366111e+01   5.2970217898e+00    0.3511069    0.2622506  60.41  0.001788612    1.823    0.451
        19 -10.1526    143.6494    188.6830   9.4971654975e+01   1.4652281142e+01    0.1459923    0.1113293   1.58 0.0007047409    1.734    0.423
        20 -10.9165     13.3023    187.6550   1.2424128341e+02   3.3352111038e+01    0.2685849    0.1401215  67.23  0.001528779    1.727    0.421
        21 -11.6476      8.8847    186.3399   1.2506035242e+02   3.4026941229e+01    0.4115928    0.2299778 -63.68  0.002489293    1.746    0.427
        22 -14.4313     73.3308    182.6112   1.1042080464e+02   2.7618094173e+01      1.54868    0.9103539  41.16  0.007902928    1.642    0.391
        23 -11.4799    134.9586    168.7269   9.3306365817e+01   2.0485205846e+01    0.5183821    0.2012522  46.91  0.001812838    2.634    0.620
        24 -11.6250    148.7416    202.9342   9.6277861791e+01   1.0936683187e+01    0.3729391    0.2752709 -80.27   0.00188983    1.955    0.488
        25 -11.2170    207.2126    166.0181   7.6762070532e+01   6.8373642117e+00    0.2644947    0.2020334  33.53  0.001165262    1.288    0.223
        26 -11.7623    151.5898    210.4729   9.6891056728e+01   9.0328022513e+00    0.4440821    0.3795356 -43.81  0.002471438    1.320    0.242
        27 -10.8035    219.1852    160.6161   7.3279429351e+01   5.5114140305e+00     0.272789    0.1009025 -39.94   0.00100537    2.604    0.616
        28 -12.5227     20.3707    153.6643   1.1982770264e+02   4.0439308768e+01    0.6572316    0.6500171 -72.27   0.00417225    1.302    0.232
        29 -11.6302    199.5823    150.0175   7.4756260128e+01   1.1270725655e+01    0.4728813    0.2072803  33.99  0.001668519    2.804    0.643
        30 -11.6495    107.0505    147.8695   9.6218728977e+01   3.0429062274e+01    0.5362474    0.3187737  23.69  0.002176463    2.259    0.557
        31 -12.5102    106.3097    142.2497   9.5261718130e+01   3.1897211683e+01    0.8288532    0.7096362  32.19  0.003038093    1.238    0.192
        32  -9.0782     51.6705    149.2964   1.1129811564e+02   3.8310126573e+01    0.1393258   0.09284765  70.18 0.0006597218    1.636    0.389
        33  -9.1211     90.6428    145.2999   1.0011587735e+02   3.3837627672e+01    0.1538687    0.1093605  71.84 0.0004347691    1.708    0.414
        34 -14.4209    134.4384    116.8873   8.1695091884e+01   3.2222825918e+01     1.920954     1.140711 -55.43  0.007684473    1.889    0.471
        35 -14.6248    147.9727    132.1460   8.2099824387e+01   2.5932553993e+01     1.731637      1.07503  43.67  0.005947292    1.615    0.381
        36 -10.8217    239.1082    244.1674   8.5434130399e+01  -9.8655460041e+00    0.3251964    0.1593338  32.48  0.001851389    1.720    0.419
        37 -12.9993    188.7123    116.3329   6.8849540446e+01   2.0079816668e+01     1.349613    0.6662754  27.87  0.004067103    3.908    0.744
        38 -13.9508    185.2164    110.5364   6.8073253212e+01   2.2000604261e+01     1.661215     1.063419  19.72  0.006446622    2.382    0.580
        39 -10.6010    123.1439    194.5775   1.0060921388e+02   1.7100911587e+01    0.3382833     0.199526  49.17  0.001599158    1.619    0.382
        40 -11.1860    200.3286    238.7939   9.1623343926e+01  -3.5566882291e+00    0.3593211    0.1545173 -34.46  0.001728958    2.685    0.628
        41 -10.4006     21.6460    133.6204   1.1729311173e+02   4.5101172085e+01    0.1954691    0.1740192  25.98  0.001317316    1.394    0.283
        42 -14.9565     36.5352    107.6385   1.0898396313e+02   5.0080048650e+01     1.940529     1.507353  39.68    0.0115736    1.486    0.327
        43 -11.4059    176.8715     89.9399   6.4239156647e+01   2.7878327099e+01    0.4971925    0.2083434 -26.44  0.001487004    3.530    0.717
        44 -11.9901      6.5805     84.2793   1.1488071444e+02   5.7782665314e+01    0.4791253    0.1812855 -67.29  0.002251512    2.056    0.514
        45  -9.9478     89.8471     83.8723   8.5422809711e+01   4.8410128479e+01    0.2730308    0.1923423 -49.54   0.00115283    1.402    0.287
        46  -9.3046     85.7006    108.7011   9.3570088098e+01   4.3478951683e+01    0.1488875    0.1125088 -21.76 0.0004101165    1.578    0.366
        47 -11.5676     93.1255     74.5420   8.1432986125e+01   4.9763121677e+01    0.7677032    0.5208309 -17.02  0.003474181    1.807    0.447
        48 -12.6069    103.8589     76.3867   7.8640652547e+01   4.7308246792e+01     1.055501    0.6810916  34.85  0.004786765    1.619    0.382
        49 -11.9976    105.5348     69.4548   7.5850995742e+01   4.8322790326e+01    0.7554577    0.5801554  89.16  0.003441836    2.080    0.519
        50 -11.6685     98.9348     69.4527   7.7894675455e+01   4.9655257432e+01    0.5425802    0.3709559  51.45  0.001780569    1.651    0.394
        51 -11.6747    177.5236     71.8808   5.8991252347e+01   3.0904891933e+01    0.5366769    0.4093179 -72.98  0.002147024    1.576    0.366
        52 -11.7843    177.4514     64.9254   5.6997576175e+01   3.2066168412e+01    0.8001584    0.3659465  59.34  0.003042848    2.204    0.546
        53 -10.7652    182.3356    129.2975   7.3447959451e+01   1.8967427650e+01    0.2692484    0.1890283  42.28 0.0007899504    1.449    0.310
        54  -9.6934    209.6516     70.3219   5.3047930311e+01   2.3311346796e+01    0.1559623      0.10623 -67.69 0.0007049114    1.742    0.426
        55 -12.0600    164.7252    131.1013   7.7829625702e+01   2.2499908142e+01    0.5488857    0.2450285 -38.78  0.001949517    2.299    0.565
        56 -11.2750    182.2123    238.8292   9.5087274543e+01  -7.2865764390e-01    0.2507686    0.2103079 -82.90  0.001537596    1.956    0.489
        57  -9.5760    195.3123    235.3017   9.2025861191e+01  -2.2907827619e+00    0.1270415   0.08446052   9.97 0.0007017818    1.610    0.379
        58 -12.4556    204.9080    229.8017   8.9309257882e+01  -3.0195670382e+00    0.5876511    0.2981742  27.90  0.002955706    1.828    0.453
        59 -12.1263    212.5072    227.9620   8.7568196771e+01  -3.9456604099e+00    0.5779033    0.1684518  32.53  0.002086622    3.585    0.721
        60 -10.3378    250.5808     63.2106   4.5934535028e+01   1.5232382072e+01    0.3550378    0.1147789 -34.88  0.001359445    2.687    0.628
        61 -10.6150    250.0517     57.9793   4.4810122499e+01   1.6091216524e+01    0.3517126    0.1982516 -48.38   0.00116227    1.563    0.360
        62 -12.0524    249.6758     50.7090   4.3213164827e+01   1.7184857443e+01    0.7060515    0.3883857 -31.44  0.003444029    1.772    0.436
        63 -10.5259    250.4830     43.4977   4.1523547849e+01   1.7989073681e+01    0.2632554    0.1766575 -46.09  0.001173301    1.274    0.215
        64 -10.1413    214.3271     61.6645   5.0124396203e+01   2.3539303709e+01    0.1537334    0.1010813 -64.92 0.0004439789    1.721    0.419
        65 -10.8043    194.4726     55.5000   5.1432589415e+01   2.9271918344e+01    0.3489928    0.2013895 -68.58  0.001384284    2.442    0.590
        66 -11.4439    126.7038     43.0162   6.0781918445e+01   4.7998508014e+01    0.4167109    0.3288758  42.51  0.001850146    1.194    0.162
        67 -10.7563    123.4948     40.4940   6.0672671135e+01   4.9114948429e+01    0.4229614    0.2363584  43.24  0.001553383    1.714    0.416
        68 -12.1467    222.9040    219.6717   8.4201237463e+01  -4.4016510846e+00     1.090173    0.4199771 -23.37  0.003918348    4.281    0.766
        69 -15.3499     71.5663    198.0301   1.1269247595e+02   2.4432911906e+01     3.028076     1.337037  55.00   0.01337265    2.338    0.572
        70 -14.6316     93.2516    192.4479   1.0711622377e+02   2.2474218919e+01     1.872029     1.202844 -85.12  0.009292781    1.849    0.459
        71 -11.7714    147.1695    209.5295   9.7683316312e+01   9.9758328087e+00    0.3592466    0.3140368 -51.13  0.001734057    1.297    0.229
        72 -11.4770    217.8695    207.1345   8.2883984224e+01  -1.7979094378e+00    0.2381628     0.220311  -6.94  0.001560062    1.251    0.200
        73 -10.1386    124.0131    206.0067   1.0215934588e+02   1.4631689255e+01    0.2003769     0.175469  50.91            0    1.022    0.022
        74 -10.0872      1.5986    205.7453   1.2760698844e+02   3.0576606074e+01    0.1581427   0.07922698  85.09 0.0009486708    1.625    0.384
