#   1 NUMBER                 Running object number                                     
#   2 MAG_AUTO               Kron-like elliptical aperture magnitude                    [mag]
#   3 X_IMAGE                Object position along x                                    [pixel]
#   4 Y_IMAGE                Object position along y                                    [pixel]
#   5 X_WORLD                Barycenter position along world x axis                     [deg]
#   6 Y_WORLD                Barycenter position along world y axis                     [deg]
#   7 A_WORLD                Profile RMS along major axis (world units)                 [deg]
#   8 B_WORLD                Profile RMS along minor axis (world units)                 [deg]
#   9 THETA_WORLD            Position angle (CCW/world-x)                               [deg]
#  10 FWHM_WORLD             FWHM assuming a gaussian core                              [deg]
#  11 ELONGATION             A_IMAGE/B_IMAGE                                           
#  12 ELLIPTICITY            1 - B_IMAGE/A_IMAGE                                       
         1 -14.7782    164.8001     41.0020   7.8106385581e+01   3.8968659592e+01     1.306329     1.058547  -5.63  0.004034438    1.410    0.291
         2 -14.5925    180.6209      7.9475   6.5489180038e+01   3.8712162799e+01     1.491755    0.8800434  60.34  0.005897308    1.543    0.352
         3 -11.8684    133.8057    247.4613   1.2985811290e+02   7.5785208970e+00    0.1595814     0.150492  69.99 0.0002804319    1.239    0.193
         4 -20.1390     69.4411    177.1918   1.3432146633e+02   3.0245782000e+01     16.62593     6.209928 -67.19   0.07146701    2.629    0.620
         5 -12.3077    157.7151    202.0390   1.1925689435e+02   1.0874609465e+01    0.5287865    0.3472641  74.71  0.002204787    2.444    0.591
         6 -10.8780    139.2060    200.7827   1.2278122126e+02   1.4378880387e+01    0.2336594    0.1842799  83.76 0.0007284931    1.494    0.331
         7 -11.0985    112.9782    195.8950   1.2746138083e+02   1.9772356024e+01    0.4781733    0.3202353  -1.80  0.001921101    4.035    0.752
         8 -12.7676    180.5471    193.1898   1.1324707499e+02   8.2028588622e+00    0.3640968    0.2770259 -73.97  0.001717419    1.981    0.495
         9 -12.9092    174.6426    193.0778   1.1439206491e+02   9.3139420201e+00    0.5500509    0.3842233 -81.48  0.001930533    2.605    0.616
        10 -13.5216    175.3578    186.1788   1.1301870881e+02   1.0357155258e+01    0.6276162     0.397569 -63.21  0.002545873    2.376    0.579
        11 -13.2974    166.9944    188.2703   1.1508032301e+02   1.1567071700e+01    0.4513493    0.4162685  -4.29  0.002030638    1.179    0.152
        12 -12.2349    163.4654    188.4731   1.1583313586e+02   1.2191754526e+01    0.2912486    0.2639626  11.51 0.0008905767    1.180    0.153
        13 -11.4989    169.9223    195.4921   1.1574682960e+02   9.7761930796e+00    0.1882806    0.1848566   7.89 0.0009299539    1.122    0.109
        14 -11.8464     13.8640    239.8439   1.4959383011e+02   2.4573182439e+01    0.3113939    0.1103348 -77.65  0.001836055    2.535    0.606
        15 -12.2008     11.0247    240.9880   1.5008574073e+02   2.4661817299e+01    0.2179414    0.1401789  60.41  0.001739002    1.155    0.134
        16 -10.6277    155.3024    189.3181   1.1765032264e+02   1.3558720735e+01    0.1326482    0.1050019   6.89 0.0002286849    1.623    0.384
        17 -11.7078    153.7220    185.2903   1.1728516310e+02   1.4590174537e+01    0.2425387     0.205753  67.86  0.001397002    1.262    0.208
        18 -10.7262    150.7595    245.8628   1.2666643137e+02   5.1593080979e+00    0.1576274    0.1354975  36.20 0.0004883223    1.147    0.128
        19 -12.9411    207.3187    178.0576   1.0524415683e+02   5.6473935320e+00    0.5662169    0.4050074  10.82  0.002587187    1.581    0.367
        20 -12.0238    203.6079    172.2882   1.0479760450e+02   7.2849919251e+00     0.527121    0.3662613 -24.81  0.002742679    1.536    0.349
        21 -10.7574    219.2898    177.3595   1.0288981139e+02   3.5265202597e+00    0.1400614    0.0963726   4.75 0.0002420291    1.689    0.408
        22 -11.2421    170.4230    185.2335   1.1384249608e+02   1.1455428754e+01    0.2747472    0.2369083  67.60 0.0006711223    1.315    0.240
        23 -11.2235     10.3751    174.9406   1.4657761997e+02   3.7289839683e+01    0.2030098    0.1497047 -74.80 0.0004212291    1.284    0.221
        24 -13.2729    195.7496    170.1279   1.0587952650e+02   9.1738632685e+00    0.5923623    0.4322184 -44.07  0.001938512    1.497    0.332
        25 -11.8335    193.8221    164.9966   1.0520835291e+02   1.0434907220e+01    0.3434571     0.302823  56.19  0.001224449    1.250    0.200
        26 -13.9750    145.3573    170.0612   1.1633646716e+02   1.9092749617e+01     1.052731    0.6045811  71.36  0.003849053    3.324    0.699
        27 -11.7374    141.4659    174.4756   1.1798769257e+02   1.8958080740e+01    0.2940912    0.2234962  51.65 0.0008403189    1.239    0.193
        28 -13.0729    138.0898    171.2067   1.1813938173e+02   2.0244186436e+01    0.5462064    0.4140075  54.69  0.001981179    1.272    0.214
        29 -11.8561    125.7968    171.8625   1.2097751216e+02   2.2380143989e+01    0.3096398    0.2420254 -65.21  0.001057309    1.350    0.259
        30 -11.9568    177.4221    170.1313   1.0955104876e+02   1.2793137075e+01    0.3358272    0.1377706 -45.40  0.001294545    2.643    0.622
        31 -10.3216    131.6635    235.7905   1.2890954962e+02   9.6990093745e+00    0.1668196     0.125296  51.90 0.0002637201    1.087    0.080
        32  -9.9407    135.2063    234.6305   1.2812162956e+02   9.3178652847e+00    0.1636352    0.1420363  62.18 0.0003396487    1.131    0.116
        33  -9.6624     13.0806    228.1936   1.4917308995e+02   2.6690024246e+01    0.1321407    0.1003837  80.61 0.0004939002    1.177    0.150
        34 -11.3715    201.3723    164.0321   1.0353387869e+02   9.0969414275e+00    0.5082772    0.2881838 -41.35  0.002350356    1.846    0.458
        35 -10.5447    123.0612    166.0559   1.2057988602e+02   2.4083820998e+01    0.2249897    0.1589841  71.90   0.00055257    1.667    0.400
        36 -10.3130    219.1685    224.1764   1.1137160600e+02  -2.9612840268e+00    0.1476352    0.1325676  35.62 0.0002379958    1.311    0.237
        37 -10.6997     14.6393    163.9078   1.4487424836e+02   3.9254608543e+01    0.2295883      0.16827  29.88  0.001583559    1.747    0.428
        38 -10.9268    139.2469    249.8911   1.2917045856e+02   6.3816394886e+00    0.2550959    0.1456685  51.44   0.00153454    1.472    0.321
        39 -10.6638    222.4739    161.7203   9.9106858169e+01   5.3529340126e+00    0.2327074     0.185641 -47.00 0.0007804708    1.466    0.318
        40 -11.7277    129.8173    161.2475   1.1816516317e+02   2.3845705455e+01    0.3005778    0.2199336  46.70  0.001018572    1.304    0.233
        41 -12.6969    163.0858    155.3049   1.0954895905e+02   1.8479325124e+01    0.3915066     0.333768 -54.66  0.001036908    1.258    0.205
        42 -14.0936    133.8492    145.5638   1.1412163344e+02   2.6393726895e+01     1.362508    0.4278412 -55.85   0.00386516    4.431    0.774
        43 -12.2493    128.2569    143.1481   1.1494620824e+02   2.8008819907e+01    0.3279524    0.2420828  51.85  0.001061628    1.346    0.257
        44 -13.6601    144.1192    145.4607   1.1170275702e+02   2.4356704868e+01    0.7894104    0.4325424 -64.63  0.002965409    2.703    0.630
        45 -11.3393    174.5521    148.9980   1.0573635679e+02   1.7312389872e+01    0.2716194    0.2512281  61.74 0.0008023756    1.142    0.124
        46 -11.4281     14.1383    221.9811   1.4868944865e+02   2.7707235821e+01    0.1676889    0.1124052 -69.53 0.0004598408    1.664    0.399
        47 -14.4852    135.6577    127.5966   1.0969898263e+02   2.9885207234e+01     1.522206    0.4658279 -48.73  0.004695465    3.349    0.701
        48 -10.1691      7.7797    221.2780   1.4970966154e+02   2.8452504498e+01    0.1154091   0.09659193  75.21 0.0004305017    1.315    0.240
        49 -11.1280      5.9312    137.0896   1.4454825495e+02   4.5813688516e+01    0.2121299    0.1783599 -31.20  0.001209741    1.646    0.393
        50 -12.5770    116.1278    212.0209   1.2895856597e+02   1.6223638834e+01    0.4126054     0.282243 -66.17   0.00221941    1.639    0.390
        51 -11.4299    102.7417    209.0581   1.3123875283e+02   1.8892407438e+01    0.5201902    0.3011233  65.05  0.001798349    1.851    0.460
        52 -12.3087    160.5076    127.9767   1.0396383260e+02   2.4483903736e+01    0.4237493    0.3296903 -54.35   0.00204154    1.363    0.267
        53 -12.4931    110.5046    211.9973   1.3006256069e+02   1.7127729159e+01    0.5566481    0.3023261  73.01  0.002519391    2.749    0.636
        54 -12.7564    134.8042    112.4070   1.0617649020e+02   3.3314464522e+01    0.6335289    0.1775923 -44.58   0.00185431    3.530    0.717
        55 -10.8355    167.6012    112.6249   9.8540159075e+01   2.5945542265e+01    0.3172166    0.2282273 -80.78  0.001329517    2.074    0.518
        56 -12.2877    108.4673    207.5369   1.2991328402e+02   1.8278152543e+01    0.2882408    0.2369124  30.03 0.0006491918    1.438    0.305
        57 -10.7708      1.7413    214.0312   1.5037351031e+02   3.0344325084e+01    0.1407038    0.1071979 -82.26  0.001140419    1.364    0.267
        58 -10.7323    205.4640    110.1815   9.0294124083e+01   1.7635067386e+01    0.2678258    0.2115897  48.24 0.0006873195    1.300    0.231
        59 -10.8810    125.0602    245.4092   1.3118284813e+02   9.2336051689e+00    0.3739357    0.1333732 -55.95  0.001788592    3.478    0.713
        60 -10.9310      7.2594    101.9536   1.4035517059e+02   5.3593086147e+01    0.2015368    0.1770731  24.75   0.00104803    1.471    0.320
        61 -12.1492    161.4241    197.8296   1.1783453838e+02   1.0929471813e+01    0.2795647    0.2452267  57.75  0.001479798    1.154    0.134
        62 -12.3347    163.7533    203.0100   1.1821680572e+02   9.6278927812e+00    0.2859956    0.2516844 -86.78 0.0006667103    1.390    0.281
        63 -11.5970    154.9487    196.4434   1.1890985395e+02   1.2347391713e+01    0.3814503    0.2493044  75.51   0.00175525    2.469    0.595
        64 -14.4674    153.4660     55.7550   8.5066691384e+01   3.9674717310e+01     1.237624     1.075997  55.12  0.001041455    1.133    0.118
        65 -10.4558    159.9671    248.5151   1.2536127563e+02   3.3360645672e+00    0.1537438    0.1494558  40.13 0.0005606291    1.250    0.200
        66 -12.8771    169.0219     32.9591   7.4825366234e+01   3.8936702191e+01    0.4306792    0.3622828  28.26 0.0008456626    1.305    0.234
        67 -10.6293     13.4221     59.8753   1.3086380615e+02   6.2449610948e+01    0.1623399    0.1558025 -67.01 0.0004201558    1.243    0.195
        68 -10.5310    141.3630     32.8585   7.9922233564e+01   4.5968728107e+01    0.2377461    0.1913791  71.36 0.0003737136    1.308    0.235
