#   1 NUMBER                 Running object number                                     
#   2 MAG_AUTO               Kron-like elliptical aperture magnitude                    [mag]
#   3 X_IMAGE                Object position along x                                    [pixel]
#   4 Y_IMAGE                Object position along y                                    [pixel]
#   5 X_WORLD                Barycenter position along world x axis                     [deg]
#   6 Y_WORLD                Barycenter position along world y axis                     [deg]
#   7 A_WORLD                Profile RMS along major axis (world units)                 [deg]
#   8 B_WORLD                Profile RMS along minor axis (world units)                 [deg]
#   9 THETA_WORLD            Position angle (CCW/world-x)                               [deg]
#  10 FWHM_WORLD             FWHM assuming a gaussian core                              [deg]
#  11 ELONGATION             A_IMAGE/B_IMAGE                                           
#  12 ELLIPTICITY            1 - B_IMAGE/A_IMAGE                                       
         1 -15.3346      9.4570    206.9494   1.4578588675e+02   3.0075307833e+01     11.05029     2.314869 -74.65   0.02464018    3.952    0.747
         2 -13.1256     66.1792    142.7538   1.2457420113e+02   3.8777321086e+01     1.837717    0.9885209  85.86  0.004312226    3.914    0.744
         3 -15.3454     53.9240    209.5972   1.3701328526e+02   2.4430229857e+01     10.71854     3.549628  58.76   0.03522477    4.433    0.774
         4 -13.1933    195.1873     32.8049   6.5013090330e+01   3.2500695932e+01      1.16294    0.9377542  65.17  0.006202676    1.187    0.158
         5 -14.0148    208.1303     16.8208   5.9801296604e+01   3.1342303676e+01     1.513679     1.095826  38.07  0.008684952    1.974    0.493
         6 -10.6281      2.3489     14.2102   1.1392206368e+02   7.0808910131e+01    0.2089312    0.1494276 -34.31  0.001090159    1.312    0.238
         7 -11.1271      2.1506      5.8257   1.1055304197e+02   7.1960105560e+01    0.5088637     0.123693 -40.74  0.002447453    3.286    0.696
         8 -10.6001     53.2303    228.5330   1.3903716617e+02   2.0385157704e+01    0.2674307    0.1781481  73.64  0.001593512    1.308    0.236
         9 -12.5372    139.2023    248.7984   1.2396400425e+02   2.8451691727e+00    0.7450665    0.3696955  37.73  0.003544978    1.780    0.438
        10 -11.9024    125.8476    246.6190   1.2639449378e+02   5.5131158055e+00    0.3591425    0.2772906  77.83  0.001808886    1.433    0.302
        11 -12.3396    108.1262    245.4444   1.2984493948e+02   8.6874676554e+00    0.6179129    0.3627913  65.78  0.003102317    1.887    0.470
        12 -12.3642    100.8555    248.8752   1.3169952470e+02   9.2058770008e+00    0.6994922     0.488704 -83.08  0.003557283    1.581    0.367
        13 -11.8680     92.7295    249.3977   1.3335915780e+02   1.0388430062e+01    0.4989038    0.3446759 -53.69 0.0005597199    1.789    0.441
        14 -11.3946     89.1240    244.6321   1.3355595294e+02   1.1877118492e+01      0.36225    0.2188441  76.09  0.001553289    1.845    0.458
        15 -12.4502      5.0637    246.3803   1.4902203845e+02   2.2411004510e+01     1.096995    0.5556901  66.73   0.00675875    1.535    0.348
        16 -12.3479     17.3714    230.4190   1.4595141174e+02   2.4301154027e+01    0.6887754    0.4654791   9.98  0.003873489    3.192    0.687
        17  -9.7359     29.5339    241.0107   1.4450391547e+02   2.0774291283e+01    0.1986547    0.1209624  61.83 0.0006035516    1.312    0.238
        18 -12.3757     16.9736    241.9370   1.4676584834e+02   2.2016471853e+01     1.070364    0.2510936  53.47  0.003678987    3.452    0.710
        19 -12.6673     39.2399    246.0425   1.4313249175e+02   1.8593374768e+01    0.9366251    0.4956363  68.47   0.00540183    1.655    0.396
        20 -11.6234     30.5265    248.6049   1.4485456396e+02   1.9150505619e+01    0.5825753    0.3463394  42.06  0.003700727    1.675    0.403
        21 -11.4401    149.9053    229.0893   1.1885049662e+02   4.6099008325e+00    0.4227815    0.1880949  38.64  0.001772802    2.027    0.507
        22 -10.9786    227.6230    203.7409   9.8230614460e+01  -4.7141151706e+00    0.3540176    0.2508775 -57.35  0.001041657    1.992    0.498
        23  -9.8421    192.0179    193.0376   1.0331305529e+02   3.6988652560e+00    0.4957363    0.2418265 -63.02  0.001378608    5.522    0.819
        24  -9.1496     42.7476    231.4382   1.4132757774e+02   2.1129481148e+01    0.1486743    0.1130642  35.74 0.0007474002    1.609    0.379
        25 -11.5948     62.9363    192.9637   1.3309582412e+02   2.7038328684e+01    0.3843435    0.2730625 -40.39  0.001388234    1.900    0.474
        26  -8.4847    181.5124    192.4486   1.0545436599e+02   5.8618349450e+00    0.1473053    0.1382366  20.52 3.706491e-05    1.018    0.018
        27 -11.7617     68.5705    185.7322   1.3082391383e+02   2.7958242971e+01     0.322198    0.2552865 -47.78 0.0009676524    1.463    0.316
        28 -11.0432     78.2959    173.9725   1.2670706668e+02   2.9357211399e+01    0.2695533    0.2312369 -69.57 0.0004051035    1.106    0.096
        29 -13.2351     65.3249    171.3740   1.2955337563e+02   3.1881223906e+01    0.5388421    0.2870052 -44.74  0.001603359    2.255    0.557
        30 -12.0787     85.5203    165.3552   1.2343166579e+02   3.0332472297e+01    0.9951546    0.6020609  58.30  0.004425923    1.869    0.465
        31 -11.2914    162.2048    248.9609   1.1930735756e+02  -1.1216860865e+00    0.3833203    0.2331847  23.97  0.001908886    1.874    0.467
        32 -10.7181    184.0136    250.0000   1.1507049404e+02  -4.9731065842e+00    0.3708638   0.06346413  39.70  0.001054162    4.960    0.798
        33  -9.8052     98.5368    149.7205   1.1702035588e+02   3.1977693706e+01    0.2951196    0.2777369 -36.72 0.0007859693    1.148    0.129
        34  -9.3006    101.3976    145.8319   1.1543613685e+02   3.2416521965e+01    0.3036507    0.2253183 -16.86  0.001340571    1.917    0.478
        35 -11.9913     87.0519    148.7573   1.1994971617e+02   3.4161510815e+01    0.3042921    0.2532762 -42.38 0.0004364767    1.266    0.210
        36 -10.2225     38.7561    146.4624   1.3270237146e+02   4.1199240443e+01    0.2331203    0.1225265  35.90   0.00114426    2.090    0.522
        37 -13.9780     43.6217    216.4803   1.3983113843e+02   2.4223869500e+01     1.075588    0.7145196  66.59  0.004610667    1.307    0.235
        38  -9.5079    109.8952    135.5530   1.1084006805e+02   3.3318663084e+01    0.3281791    0.2295817 -25.09  0.001227363    1.903    0.474
        39 -10.5820     97.2558    132.5519   1.1368515632e+02   3.6364636632e+01    0.2865582    0.2358984 -26.05 0.0003904598    1.389    0.280
        40  -9.0520    106.9227    122.8357   1.0865409050e+02   3.6882467163e+01    0.2097503    0.1976698 -14.42 0.0003024542    1.123    0.109
        41 -12.7899     36.5233    225.4902   1.4202258468e+02   2.3149310397e+01    0.3522203    0.3064604  70.51 0.0007869389    1.226    0.184
        42 -10.9886     53.3317    117.1876   1.2333677505e+02   4.6572225761e+01    0.3889221    0.1756448 -62.70  0.001580167    2.151    0.535
        43 -10.6856    167.9935    112.9812   9.0455035832e+01   2.5711168282e+01    0.3794973    0.2919504 -81.72 0.0008263455    1.627    0.385
        44  -9.4672    204.6129    110.8393   8.2437145594e+01   1.7557074875e+01    0.3791731    0.1966314  38.44  0.001426329    2.534    0.605
        45 -10.9808    198.9507    246.5063   1.1154413352e+02  -6.8859457833e+00    0.3051612    0.1086916  33.94  0.001217287    2.651    0.623
        46  -9.7738    230.7896    167.3799   9.0274111712e+01   1.1922654550e+00      0.30334     0.164446 -64.16 0.0009627377    4.492    0.777
        47 -10.4936    242.5841     92.7656   7.2193747786e+01   1.2469579036e+01    0.2076728    0.1122426 -50.11 0.0009589622    1.684    0.406
        48 -11.1319      1.6977     89.0351   1.3438650466e+02   5.7247076715e+01    0.4240715    0.1162249 -67.17  0.001709171    3.155    0.683
        49 -10.9325     54.1708    238.4619   1.3975487642e+02   1.8191026280e+01    0.2922179    0.1926828  45.60 0.0007287551    1.425    0.298
        50 -10.6042     51.8589    233.8899   1.3979271310e+02   1.9442387201e+01    0.2796732    0.1518627 -70.74 0.0006220291    1.765    0.433
        51 -10.9417    189.8551     15.6174   6.1587775058e+01   3.5780907050e+01     0.236403    0.1776757 -53.27 0.0008015704    1.376    0.273
        52 -10.7139    249.1905    248.5468   1.0237596046e+02  -1.4683645804e+01    0.3335638    0.1852404 -21.00  0.001896785    1.804    0.446
