#   1 NUMBER                 Running object number                                     
#   2 MAG_AUTO               Kron-like elliptical aperture magnitude                    [mag]
#   3 X_IMAGE                Object position along x                                    [pixel]
#   4 Y_IMAGE                Object position along y                                    [pixel]
#   5 X_WORLD                Barycenter position along world x axis                     [deg]
#   6 Y_WORLD                Barycenter position along world y axis                     [deg]
#   7 A_WORLD                Profile RMS along major axis (world units)                 [deg]
#   8 B_WORLD                Profile RMS along minor axis (world units)                 [deg]
#   9 THETA_WORLD            Position angle (CCW/world-x)                               [deg]
#  10 FWHM_WORLD             FWHM assuming a gaussian core                              [deg]
#  11 ELONGATION             A_IMAGE/B_IMAGE                                           
#  12 ELLIPTICITY            1 - B_IMAGE/A_IMAGE                                       
         1 -13.6721    206.7853     29.8118   2.1549803070e+01   3.1509482772e+01    0.7516512    0.5538241 -66.85   0.00386481    1.069    0.064
         2 -10.0380     60.9702     21.4672   4.4240259263e+01   6.3320469043e+01    0.2023291    0.1043868  51.09  0.001026123    1.577    0.366
         3 -14.0795    245.7831    239.8751   5.2329378047e+01  -5.7731460442e+00     1.633546    0.5613686 -38.84  0.008896071    2.156    0.536
         4 -10.6295     67.6534    212.8978   8.7990227117e+01   1.9702023397e+01    0.2137258    0.1784854  10.77 0.0002812695    1.158    0.136
         5  -9.7721     75.1057    212.6604   8.5852369722e+01   1.8844641987e+01    0.2344366    0.1902802 -87.92  0.001210783    1.481    0.325
         6 -16.9336     69.1026    144.9104   7.7012602216e+01   3.7152637788e+01     5.383186     4.059381  69.89   0.02434619    1.704    0.413
         7 -10.8325    160.8512    200.6164   6.1867651362e+01   9.9166706772e+00    0.3719552     0.187015 -49.09  0.001296949    1.957    0.489
         8 -10.0310    210.9148    198.7770   5.1685245672e+01   4.0156044429e+00    0.1822805      0.13619 -19.50 0.0004992909    1.170    0.146
         9 -10.6733     69.5616    195.7831   8.5207909325e+01   2.3756256577e+01    0.4717618    0.2615535 -78.07  0.001856353    2.393    0.582
        10 -10.3225     62.9567    197.5792   8.7419148904e+01   2.4120934078e+01    0.1894329    0.1865966 -56.76 0.0002480706    1.075    0.070
        11 -18.9726     29.0397     95.1726   8.2383459979e+01   5.4980326934e+01     16.24409    0.9834031 -61.83   0.02455596   16.190    0.938
        12 -10.4216     83.2417    182.8379   7.9164422053e+01   2.5230958135e+01    0.6291621    0.1658246 -51.24  0.001699844    3.488    0.713
        13 -12.5023     55.5906    227.3047   9.2957171570e+01   1.7620253254e+01    0.3424509    0.2325102 -61.28  0.001748547    1.588    0.370
        14  99.0000     43.6562    207.3352   9.4255593831e+01   2.3830116800e+01     7.558887     4.275271  85.22   0.03168963    2.318    0.569
        15 -10.4924    175.4556    179.5038   5.5023715466e+01   1.2123937782e+01    0.2689014    0.2079514 -29.50 0.0009836361    1.173    0.148
        16 -12.4801    172.5509    174.5806   5.4721084827e+01   1.3525556346e+01    0.5635769    0.4127269 -15.60  0.001267804    1.485    0.327
        17 -12.0007    179.7120    168.8482   5.2221141846e+01   1.3606773030e+01    0.5378647    0.4549255 -48.17  0.002618986    1.182    0.154
        18 -11.1685    235.4087    173.6793   4.3656561302e+01   5.4736788722e+00    0.2248765   0.09034204 -47.13  0.001044652    2.089    0.521
        19 -12.0313    139.6705    172.1001   6.1664607318e+01   1.9120763392e+01    0.3088909    0.2804552 -73.79 0.0004124518    1.314    0.239
        20 -12.4477    131.4936    168.7815   6.3075878490e+01   2.1188665509e+01    0.4156515    0.4123464  -4.85 0.0007006613    1.108    0.098
        21 -15.3137    118.7281    234.3102   7.7191346146e+01   8.4296431457e+00     6.990682     5.604137 -75.99   0.03851695    1.741    0.426
        22 -10.2900      9.1619    166.4791   1.0087498076e+02   3.7766471762e+01    0.1799808     0.169048 -53.62 0.0004679024    1.052    0.049
        23  -9.6677     61.5866    222.0459   9.0754485925e+01   1.8196660629e+01    0.2782292    0.1609915  87.42 0.0006733752    2.503    0.600
        24  -8.4917      2.4961    157.5772   1.0229005274e+02   4.0608886662e+01    0.1395513    0.1300823 -54.15 0.0001176829    1.043    0.041
        25  -9.4136    139.1541    156.1073   5.8662217988e+01   2.2764617298e+01    0.1890217     0.173969 -89.02 0.0003901299    1.280    0.219
        26 -11.9639    111.6548    150.0175   6.4671167111e+01   2.8928468879e+01    0.5135753    0.3761027  83.62  0.001408063    2.071    0.517
        27 -11.9245    133.8752    146.4336   5.7983578494e+01   2.5836333488e+01     1.091821    0.3144367 -55.51  0.002869864    4.939    0.798
        28 -12.0837    108.9612    145.4614   6.4489526011e+01   3.0486371427e+01    0.4817114     0.363278 -54.97  0.001742707    1.375    0.273
        29 -12.5396    106.9558    131.3732   6.2001083238e+01   3.4172497708e+01     0.696259    0.5967519  75.84  0.003350897    1.393    0.282
        30 -12.2013     98.6239    130.2330   6.4240581694e+01   3.5958341467e+01    0.3953166    0.3363965 -33.65 0.0002359877    1.213    0.176
        31 -11.4853    135.6049    127.4109   5.3449459783e+01   2.9664673779e+01    0.5346351    0.2017407 -52.49  0.001837909    2.891    0.654
        32 -10.5286    133.3303    128.6753   5.4287181271e+01   2.9826167093e+01    0.2881157    0.2096239 -88.20 0.0006623121    2.040    0.510
        33 -10.2701     57.9553    221.1755   9.1665524200e+01   1.8821512813e+01    0.1846413    0.1655604  58.50 0.0006603705    1.165    0.142
        34 -10.2996    116.1538    125.1333   5.7966850183e+01   3.3871238294e+01    0.2317047     0.203519  -7.03 0.0006205541    1.264    0.209
        35  -9.0800    218.3142    124.6920   3.7661691940e+01   1.5872797785e+01    0.1178845     0.083359 -69.18  0.000524413    1.627    0.385
        36 -10.7167    104.3349    119.9612   6.0137135982e+01   3.7281461734e+01    0.2867619    0.2414851  -5.60 0.0005949393    1.364    0.267
        37  -9.4104    111.1565    115.2195   5.7029534374e+01   3.7020730369e+01     0.198728    0.1728559  71.54 0.0003068869    1.289    0.224
        38 -11.5145    109.0506     97.1159   5.3111318671e+01   4.1238005872e+01     0.722524    0.3972182  71.29  0.002189937    4.481    0.777
        39 -12.0463    117.6436    108.8996   5.3715739203e+01   3.7084177976e+01    0.5597941    0.4498399 -87.70  0.002403398    1.554    0.357
        40 -11.1902    119.4788    104.5397   5.2162759482e+01   3.7611209999e+01    0.2625036    0.2383485 -40.84 0.0007364981    1.146    0.128
        41 -11.7093    115.2286    101.9110   5.2636847412e+01   3.9009127530e+01    0.4318844    0.2891086  73.58  0.001844162    2.183    0.542
        42 -11.4904     79.1902    107.3788   6.5146220359e+01   4.4797867693e+01    0.3128865    0.2748374  37.40 0.0007640151    1.105    0.095
        43 -11.0870     83.3257    110.6943   6.4553070470e+01   4.3297263410e+01    0.2797503    0.2375342  87.65 0.0008148638    1.472    0.321
        44 -12.1413     85.9659    107.3452   6.2827142037e+01   4.3577109104e+01    0.8144841    0.3426799  49.10  0.002742721    2.847    0.649
        45 -10.7632     81.7541    103.1615   6.3184629295e+01   4.5287251880e+01    0.3115718    0.2547551  43.00 0.0004588532    1.198    0.165
        46  -9.6841     77.7231    218.5957   8.5877821589e+01   1.7091288558e+01    0.1550274    0.1017461 -28.04 9.946143e-05    1.769    0.435
        47 -10.2598    133.0311     94.5116   4.6378791557e+01   3.6775535265e+01    0.2566653    0.1943675 -68.74  0.001317573    1.498    0.332
        48 -10.7356    118.4797     92.0051   4.9272902906e+01   4.0286410584e+01    0.3584716    0.2484008 -79.30  0.001609075    2.098    0.523
        49  -9.6707    101.0157     89.5305   5.3414326585e+01   4.4389231149e+01    0.2203105    0.1371986  45.03 0.0005286174    1.507    0.337
        50 -10.5714     65.9255     88.3296   6.4955885539e+01   5.1348599658e+01    0.2509395    0.2096963 -33.83 0.0002202326    1.251    0.201
        51 -10.4851     94.9075     86.3365   5.4378389841e+01   4.6260081723e+01    0.3706313    0.2249989  63.29   0.00117803    2.225    0.551
        52  -9.1860    153.6663     86.6952   4.0244844782e+01   3.3901008838e+01    0.1283219    0.1074158  17.05 0.0007038529    1.664    0.399
        53 -10.4945     87.3971     86.1211   5.6698555027e+01   4.7807659744e+01    0.2798479     0.197153  48.42 0.0005512294    1.375    0.273
        54  -9.5701    112.4934     83.9097   4.8711046843e+01   4.3062272719e+01    0.1975065    0.1423165 -46.59 0.0005689598    1.474    0.322
        55  -9.1198      7.2770     75.3240   8.8522695474e+01   6.1542678882e+01    0.1453843    0.0841171 -32.18 0.0004547237    1.585    0.369
        56 -13.1141    168.3901     68.2072   3.3601949231e+01   3.3857360473e+01    0.4740341    0.4207443 -88.93  0.001087081    1.056    0.053
        57  -9.1659    109.6632     71.3364   4.6027099835e+01   4.5888252401e+01    0.1450378    0.1075824  89.78 0.0007051674    1.750    0.428
        58 -11.9407     59.5567    230.7605   9.2237195983e+01   1.6364761426e+01      0.34742    0.1495629 -51.61  0.001423782    2.461    0.594
        59  -9.8961    152.1003     68.8326   3.6364953567e+01   3.7131453395e+01    0.1968775    0.1584302 -84.26 0.0004246209    1.214    0.176
        60  -9.8389     83.8254     68.8606   5.2833150759e+01   5.1766973964e+01    0.1964673    0.1635129  65.72 0.0006949572    1.332    0.249
        61 -13.8008    184.1035     55.3721   2.8759695502e+01   3.2567978654e+01    0.9187086    0.7982665  40.19  0.003898271    1.629    0.386
        62 -12.1231    190.1931     49.4116   2.6855895518e+01   3.2188678546e+01    0.3160192    0.2709648  85.29 0.0008795568    1.180    0.152
        63 -11.7652     71.5633    228.5609   8.8758859972e+01   1.5493001080e+01    0.2176691    0.1852453 -34.93 0.0006075323    1.258    0.205
        64  -9.7950     13.6521     59.9598   8.1188346285e+01   6.4403518133e+01    0.1814268    0.1548984 -28.26 0.0005071331    1.129    0.114
        65  -9.9148    102.2068     53.8713   4.2930503968e+01   5.0287268317e+01    0.1981568    0.1675683  76.91 0.0005640134    1.213    0.175
        66 -10.5109     70.3860     49.6202   5.1226011362e+01   5.7662868133e+01    0.2484485    0.1821882  48.74 0.0008121376    1.236    0.191
        67 -11.7470     61.8033    245.7388   9.3130628927e+01   1.2722817801e+01    0.2724959    0.1544117 -25.72  0.001197383    2.432    0.589
