#   1 NUMBER                 Running object number                                     
#   2 MAG_AUTO               Kron-like elliptical aperture magnitude                    [mag]
#   3 X_IMAGE                Object position along x                                    [pixel]
#   4 Y_IMAGE                Object position along y                                    [pixel]
#   5 X_WORLD                Barycenter position along world x axis                     [deg]
#   6 Y_WORLD                Barycenter position along world y axis                     [deg]
#   7 A_WORLD                Profile RMS along major axis (world units)                 [deg]
#   8 B_WORLD                Profile RMS along minor axis (world units)                 [deg]
#   9 THETA_WORLD            Position angle (CCW/world-x)                               [deg]
#  10 FWHM_WORLD             FWHM assuming a gaussian core                              [deg]
#  11 ELONGATION             A_IMAGE/B_IMAGE                                           
#  12 ELLIPTICITY            1 - B_IMAGE/A_IMAGE                                       
         1 -13.9781    188.4253     21.9359   6.9993856409e+01   3.5133727259e+01     2.250413     1.335539  -4.93  0.007857044    1.886    0.470
         2 -13.5686    194.8842     16.2710   6.7239372180e+01   3.4005582305e+01     1.912426    0.8630672 -28.19  0.005486034    2.058    0.514
         3 -13.9638    201.0809      9.1727   6.4185444852e+01   3.3044688236e+01     1.693888    0.9275146  50.47  0.001637533    1.793    0.442
         4 -12.1359     31.3334      3.7904   1.0625572373e+02   7.1253399720e+01    0.3879457    0.3130311 -52.87  0.002564758    1.535    0.348
         5 -13.0472     49.3016    229.0728   1.4050467073e+02   2.5061424836e+01    0.3469934    0.2803585  83.16 0.0008962338    1.293    0.227
         6 -10.7787    249.2189    249.3803   1.1157718692e+02  -3.7948262034e+00    0.2306987    0.1320739  18.38  0.001725124    1.423    0.297
         7 -11.2445    162.7663    248.4161   1.2432999166e+02   8.2371722704e+00    0.2253949    0.1845975  75.87   0.00188655    1.674    0.403
         8 -11.6362    140.3817    250.1389   1.2792836864e+02   1.1115900248e+01    0.3616297    0.1195759  41.81  0.002022282    2.170    0.539
         9 -12.1847    139.6536    245.5676   1.2761661581e+02   1.1736133536e+01    0.3300021    0.2083965  63.47  0.002387653    1.782    0.439
        10 -11.8414    119.9503    238.1884   1.3003263567e+02   1.5286792891e+01    0.3259225     0.183619 -85.13  0.001983815    3.130    0.680
        11 -12.2988    127.3951    244.4980   1.2942265927e+02   1.3515119828e+01    0.2825415     0.234422  40.80  0.002468096    1.227    0.185
        12 -11.9091    106.5750    247.6078   1.3288858519e+02   1.5838916088e+01    0.3416023     0.159256  57.79   0.00162768    1.983    0.496
        13 -11.6768     98.0722    249.1459   1.3429445797e+02   1.6705770661e+01    0.2950256    0.1829997  53.54  0.001526533    1.168    0.144
        14 -11.4262    101.3290    246.0819   1.3357520987e+02   1.6689301002e+01    0.2292803    0.1591087  76.77  0.001208131    1.530    0.346
        15 -11.7743     71.5432    243.6515   1.3793910552e+02   2.0567880183e+01    0.2736993    0.2222799 -11.95  0.002141576    2.753    0.637
        16 -12.1710     79.9482    247.1626   1.3689173882e+02   1.9133091243e+01    0.5228776     0.174394  55.54  0.003001338    2.598    0.615
        17 -12.0573     81.7495    242.4011   1.3631107554e+02   1.9550577278e+01    0.5039876    0.1992385  64.38  0.002765998    3.140    0.682
        18 -14.1152     32.1266    246.1616   1.4384611847e+02   2.4382654672e+01     1.622371    0.4141742  39.99  0.009705695    2.847    0.649
        19 -16.3633      9.0252    240.7116   1.4691738422e+02   2.7264689542e+01     14.25235     1.188273 -79.21   0.03406782   10.781    0.907
        20 -15.4957     58.1477    216.0843   1.3832884036e+02   2.6051349797e+01     5.915706    0.9457027  43.97   0.02264666    3.621    0.724
        21 -10.8096    192.0358    193.2312   1.1244793566e+02   1.0084544320e+01    0.4628087    0.2866741 -66.23  0.002002342    4.686    0.787
        22 -11.7578     76.9778    188.2541   1.3286047240e+02   2.8349989291e+01    0.2436087    0.2033386 -51.00 0.0007646455    1.607    0.378
        23 -11.7407     72.4635    195.2410   1.3431211873e+02   2.7728177403e+01    0.3090985    0.2379218 -54.14  0.002312283    1.714    0.416
        24 -10.1268     67.2149    196.4576   1.3535619316e+02   2.8154422439e+01    0.3204892    0.1234991  56.77  0.001642475    2.456    0.593
        25  -8.9108    113.3489    193.3200   1.2663707948e+02   2.2585284179e+01    0.1057224   0.08678921  10.95 0.0007048647    1.738    0.425
        26  -9.5364    125.6490    185.2069   1.2334275178e+02   2.2039241672e+01    0.2549141    0.1267394  26.15   0.00108043    3.490    0.713
        27  -9.6053     93.5666    178.8025   1.2872393658e+02   2.7803159606e+01    0.2948785    0.1261444  59.43  0.001343474    2.883    0.653
        28 -11.1513     85.2375    176.2390   1.3006594698e+02   2.9380155516e+01    0.2022945    0.1810532  78.30 0.0003610242    1.124    0.111
        29 -13.3557     73.0589    173.6808   1.3219207134e+02   3.1406940105e+01    0.3717879    0.2380765 -45.57  0.001532333    2.206    0.547
        30 -10.9975    124.2402    174.7626   1.2220498654e+02   2.3965575811e+01    0.2570165    0.1364798  40.21  0.001374066    1.704    0.413
        31 -13.1237     57.8540    130.6674   1.3054257185e+02   4.1674985354e+01     1.726177    0.5423327 -77.02  0.004926908    6.784    0.853
        32 -12.8191     90.8920    167.2598   1.2789737094e+02   3.0233016393e+01     1.662307     0.467305  49.79  0.006434082    3.638    0.725
        33 -10.2813    103.0077    150.8197   1.2311347138e+02   3.1545598949e+01    0.2648717    0.2461908   3.13 0.0008010646    1.368    0.269
        34  -9.7142    105.4632    147.0027   1.2198995423e+02   3.1897749237e+01    0.2641199     0.194411 -29.20  0.001333173    1.939    0.484
        35 -12.1164     91.9479    150.3102   1.2544639484e+02   3.3275248620e+01    0.2277032     0.227342  49.03 0.0005063738    1.239    0.193
        36 -12.2801     46.9310    148.7724   1.3508172598e+02   3.9180537737e+01    0.4033708    0.2232753 -77.08    0.0024408    1.632    0.387
        37  -9.6245    134.3692    148.2380   1.1594707961e+02   2.6888351046e+01     0.175284    0.1220298 -62.08 0.0007372512    1.674    0.402
        38  -8.6896    192.2478    144.3285   1.0354284317e+02   1.6649640784e+01    0.1333972   0.09666505   7.97   0.00020945    1.544    0.352
        39 -13.5820     67.7683    145.1045   1.3009471599e+02   3.7530552955e+01     1.304391    0.6403565  81.61  0.005638046    3.275    0.695
        40 -10.1634    112.7086    136.2940   1.1857548228e+02   3.2810868031e+01    0.2934311    0.2375262 -11.27  0.001054545    1.736    0.424
        41 -10.7494    100.3841    133.6010   1.2093805435e+02   3.5314535823e+01    0.2336577    0.2080913 -25.77 0.0005591706    1.394    0.283
        42 -12.0156     50.3712    130.2763   1.3227147068e+02   4.2591848286e+01    0.3079442     0.229911  76.56 0.0009129462    1.228    0.186
        43 -12.9086     41.0081    126.1950   1.3402457370e+02   4.4419275825e+01    0.4996174    0.2396059 -70.61  0.002740157    1.789    0.441
        44 -11.1210     70.7359    135.1221   1.2810471585e+02   3.9188960902e+01    0.2877728    0.1450826  52.34  0.001472989    2.018    0.505
        45 -11.1016    168.2825    113.4945   1.0137265237e+02   2.6458763699e+01    0.3742709    0.3095705 -79.58  0.001145339    1.651    0.394
        46  -9.4767    108.9632    123.5318   1.1707179749e+02   3.5963036610e+01    0.1833822    0.1711288 -73.98 0.0003549452    1.049    0.046
        47 -14.1080     11.1002    207.0541   1.4547785761e+02   3.2123635271e+01    0.9754409    0.6564031  38.25  0.005319281    1.645    0.392
        48 -10.7708     37.2668    227.0024   1.4225499285e+02   2.6603657206e+01    0.1960813    0.1203392  79.29    0.0015576    1.377    0.274
        49 -11.8073     35.2260    230.1787   1.4271397918e+02   2.6339258042e+01    0.3253861    0.1215706  60.82  0.001426734    2.127    0.530
        50 -11.3776    171.6602    221.9136   1.1991489568e+02   9.8866750206e+00    0.2326628    0.1702601 -16.70  0.001651807    1.856    0.461
