#   1 NUMBER                 Running object number                                     
#   2 MAG_AUTO               Kron-like elliptical aperture magnitude                    [mag]
#   3 X_IMAGE                Object position along x                                    [pixel]
#   4 Y_IMAGE                Object position along y                                    [pixel]
#   5 X_WORLD                Barycenter position along world x axis                     [deg]
#   6 Y_WORLD                Barycenter position along world y axis                     [deg]
#   7 A_WORLD                Profile RMS along major axis (world units)                 [deg]
#   8 B_WORLD                Profile RMS along minor axis (world units)                 [deg]
#   9 THETA_WORLD            Position angle (CCW/world-x)                               [deg]
#  10 FWHM_WORLD             FWHM assuming a gaussian core                              [deg]
#  11 ELONGATION             A_IMAGE/B_IMAGE                                           
#  12 ELLIPTICITY            1 - B_IMAGE/A_IMAGE                                       
         1 -11.1471     74.1179     31.9719   5.6351344293e+01   6.2678251817e+01     1.011561    0.7832112 -53.12  0.005104516    1.432    0.302
         2 -12.5353    163.1858     42.4399   3.7647629119e+01   3.8541079006e+01    0.7253155    0.4374078 -62.12 0.0002397917    1.975    0.494
         3 -11.1836     16.2587     29.0348   8.8873802002e+01   7.2369608645e+01    0.7157903    0.5344505 -50.03  0.004150406    1.192    0.161
         4 -12.3685     46.0506      9.1974   5.7047014584e+01   7.2312771744e+01    0.3693774    0.2899244  -9.03 0.0003644874    1.344    0.256
         5 -11.9048     23.8243     12.0230   7.4776223213e+01   7.5368561121e+01    0.3790859    0.3074546  -3.37 0.0004272462    1.230    0.187
         6 -11.6072     35.9789     18.8107   6.9612246789e+01   7.2344601871e+01     1.061588    0.5352799  21.42  0.003870336    2.690    0.628
         7 -11.1944     29.2824     24.8989   7.7538150270e+01   7.2002118753e+01    0.4939862    0.2310055 -46.01 0.0009245709    1.984    0.496
         8 -10.9661     10.0199     15.0322   8.8569910501e+01   7.6057103491e+01    0.3355374     0.287555 -15.00 0.0008054191    1.140    0.123
         9 -12.4105     15.9371     13.5437   8.2480735002e+01   7.5906074381e+01    0.2987155    0.2419553 -12.17 0.0004509331    1.209    0.173
        10 -12.0511    238.1446     19.9275   2.3716752753e+01   2.3842473277e+01     1.042005    0.3497652 -45.92  0.004687839    2.407    0.585
        11 -10.5244    105.8692      3.0291   3.2317116762e+01   5.8543502660e+01    0.6860259    0.4189548 -82.51  0.003028033    1.936    0.484
        12 -11.3055    100.0883     16.4478   4.0095837692e+01   5.8649335830e+01     0.602435    0.4308674  35.73  0.001592775    1.505    0.335
        13  -9.4609     99.0696      7.6437   3.6027679585e+01   5.9920191938e+01    0.4866307    0.2394586  79.12  0.001749279    2.408    0.585
        14  -9.0259     99.0382      4.0889   3.4249032803e+01   6.0285285437e+01    0.1966833    0.1773789  54.26 0.0003203781    1.051    0.049
        15 -11.0232     93.1639     10.4439   3.8913650079e+01   6.1173796741e+01     0.807505    0.3752065  66.89   0.00303512    2.128    0.530
        16 -11.7175     89.9823      3.2905   3.5955739762e+01   6.2764652500e+01    0.5008726    0.3787197  70.24 0.0009526602    1.269    0.212
        17 -10.5991    222.5499     19.6666   2.4680561928e+01   2.7098438649e+01    0.6981745    0.2107614 -20.51  0.002492448    3.725    0.732
        18 -11.1664     56.0275     18.4031   5.7399456274e+01   6.8847343631e+01    0.6899703    0.3379299  31.98  0.002458082    2.609    0.617
        19 -11.1902     59.0225     12.9347   5.2606263277e+01   6.9090113179e+01    0.6209529    0.3242091  50.77   0.00265928    1.864    0.463
        20 -10.1950      1.8475     21.4509   9.8084587983e+01   7.4987966193e+01    0.4144051    0.1478046 -66.93  0.001805709    2.276    0.561
        21 -12.0183    111.8065     19.0556   3.8487606615e+01   5.5218128590e+01    0.5812976     0.426124   7.84  0.002762574    1.708    0.415
        22 -10.4301    153.0034      3.2731   2.5705033396e+01   4.5663076467e+01    0.4160337    0.3174419  -1.76  0.001821836    1.563    0.360
        23  -8.9857    150.5391     12.5465   2.9296748733e+01   4.5443695308e+01    0.2891351    0.1984359 -56.31 0.0006220653    1.452    0.311
        24 -10.7917    150.7258     18.3000   3.1327783092e+01   4.4786036408e+01    0.3368769    0.3026657 -82.25 0.0007172985    1.050    0.048
        25 -10.6370    154.9495     15.6906   2.9851239048e+01   4.3938568575e+01    0.4851835    0.3175077 -12.57  0.001757829    1.780    0.438
        26 -10.1290    156.6047      9.8270   2.7612729314e+01   4.4091893593e+01    0.3186457    0.1877634 -38.29 0.0008477937    1.613    0.380
        27 -10.1031    153.2310      9.6017   2.7921063697e+01   4.5014439378e+01    0.3445135    0.2442794  73.08 0.0008414128    1.339    0.253
        28 -10.0232     75.8247     12.9420   4.5634330424e+01   6.5240408872e+01    0.4153652    0.2329057 -43.14  0.001829065    1.965    0.491
        29  -8.9327     72.2466      7.3979   4.3675851664e+01   6.6805810080e+01    0.2799143    0.1917604  80.51  0.001086261    1.840    0.457
        30 -11.2600    236.0400     29.7642   2.6202105750e+01   2.3263613726e+01    0.5286674    0.3591952 -19.19  0.002105048    1.462    0.316
        31  -9.1381     89.0031     15.7375   4.2819035078e+01   6.1606517780e+01    0.3998037    0.2223096 -17.51  0.001671399    2.153    0.536
        32  -9.4553     86.0182     14.6899   4.3183909403e+01   6.2496187962e+01    0.3524828     0.226016 -80.13  0.001462011    2.379    0.580
        33 -10.4807    195.1382      3.0631   2.2120487922e+01   3.4928045306e+01     1.597736    0.6959108  59.24  0.007134357    2.425    0.588
        34  -9.4344    176.3303     12.1240   2.6327225846e+01   3.8726896476e+01    0.2269734    0.1786988 -53.55 0.0003184228    1.167    0.143
        35 -12.5207    187.1512     13.6439   2.5802859342e+01   3.5868530893e+01    0.3336424    0.2614659 -53.41 0.0003502401    1.151    0.131
        36 -11.7416    182.5028     12.9159   2.5998502713e+01   3.7093127874e+01    0.3833977    0.3351906  34.66  0.001243111    1.355    0.262
        37  -9.6954    136.1833      1.8960   2.7106412936e+01   5.0343028443e+01    0.5639403    0.1942989  60.72  0.002082242    2.511    0.602
        38 -11.9908    128.1384      4.9947   2.9441374775e+01   5.2271743386e+01    0.5207425    0.3741665 -61.77  0.002610234    1.439    0.305
        39 -12.1073    122.3138     11.3424   3.3037531666e+01   5.3244762400e+01     0.632571    0.3652834  46.55 0.0005079341    1.783    0.439
        40  -9.3148    116.9338      8.9203   3.2952601123e+01   5.4962496313e+01    0.3062675    0.1775712 -63.70  0.001038851    2.086    0.521
        41  -9.7108    143.2781     11.1968   2.9750158510e+01   4.7540075614e+01    0.5071036    0.2707935 -54.48  0.002153138    1.997    0.499
        42 -10.9690    209.7330      8.9577   2.2774360395e+01   3.0976666586e+01    0.5689244    0.3861086  28.63  0.003051392    2.057    0.514
        43 -11.5969    216.7403      6.1625   2.1609114462e+01   2.9667699422e+01    0.4693793    0.2782071 -10.78  0.002039845    1.993    0.498
        44 -10.6135     35.4938      9.8158   6.4310527927e+01   7.4099538326e+01    0.3775876    0.3138658  39.19  0.001758543    1.265    0.209
        45 -10.9788     15.0137      2.9772   7.6979330708e+01   7.8183547953e+01    0.6120951    0.4554414  21.39  0.003710817    1.365    0.267
        46 -11.1735      3.0718      3.8678   9.0423719394e+01   7.8963633163e+01    0.4767677    0.3184709  45.83  0.002726191    1.893    0.472
        47  -9.8463      9.7480      1.5660   8.1600010473e+01   7.8978533923e+01    0.3004932    0.1794909  30.52  0.001651856    1.785    0.440
        48 -10.9633      8.1020      8.9144   8.7571378782e+01   7.7548802744e+01    0.2176002    0.1955447 -29.83 0.0003647824    1.049    0.047
        49 -10.1875      9.7330      5.6480   8.4140959459e+01   7.8131092742e+01    0.2518182    0.1699741 -46.73 0.0004720523    1.299    0.230
        50  -9.9906    238.5833      7.4187   2.0737821866e+01   2.4946857607e+01    0.3083924    0.1463178 -45.04  0.001665314    1.657    0.396
        51 -10.8313    168.2140      5.8648   2.5092390426e+01   4.1411722750e+01    0.4081933    0.3353821 -30.77  0.001386683    1.235    0.190
        52  -9.6346     77.8157      6.5960   4.1294519036e+01   6.5532279310e+01    0.3709748    0.2640963 -34.21  0.001891222    1.477    0.323
        53  -9.1588    178.9492      6.8233   2.4448396749e+01   3.8572171231e+01    0.1822754    0.1736185  86.24 0.0002620145    1.120    0.107
        54 -11.7597     28.1356     18.6271   7.5162216827e+01   7.3478080142e+01    0.6747716    0.4078238 -18.60  0.003135093    2.174    0.540
        55 -12.1211     35.2133     26.7656   7.4362413463e+01   7.0824765029e+01    0.4951354    0.3776959  17.28 0.0009458057    1.378    0.274
        56  -9.5437     40.9397      5.3703   5.7476654053e+01   7.3878299669e+01    0.2141627    0.1988796 -61.20 0.0003146324    1.340    0.254
        57  -8.9206     41.6164      1.4208   5.4066890563e+01   7.4333123398e+01    0.2407291    0.1079339  38.27 0.0007500486    2.302    0.566
        58  -9.1244     37.4453      2.5093   5.7622548735e+01   7.4960738656e+01    0.2294758    0.1769035  -4.37 0.0006657813    1.356    0.262
        59  -9.9578     34.0242      2.4536   5.9986407683e+01   7.5577916368e+01    0.4849252    0.2284368  33.36   0.00146276    2.304    0.566
        60  -8.4028    176.0000      4.4783   2.3967570183e+01   3.9535329496e+01    0.2847694   0.07511621 -21.20 0.0009212368    3.827    0.739
        61  -9.8001    245.8984      1.8579   1.9115564806e+01   2.4001630646e+01    0.2210249    0.1990803  69.23 0.0009915713    1.376    0.273
        62  -9.8256    242.1722      1.3874   1.9166745938e+01   2.4773973794e+01    0.2227409    0.1075958  81.93 0.0006471386    2.259    0.557
        63  -9.2380    230.7393      2.2413   1.9888124622e+01   2.7019233992e+01     0.254596    0.1359944 -56.37   0.00100839    1.636    0.389
        64 -10.8413    118.2783      1.6966   2.9531406599e+01   5.5273831341e+01    0.4011157    0.2216164  82.75 0.0009544091    1.835    0.455
        65  -9.0077     26.3540      1.4981   6.5263205795e+01   7.6982394139e+01    0.2671531    0.1466805  13.46   0.00105812    2.836    0.647
        66  -8.6195     76.1439      1.3423   3.8694495906e+01   6.6516420148e+01    0.1907458    0.1281059  74.19 0.0003386044    1.584    0.369
        67  -8.3844     64.3148      1.3269   4.2790021847e+01   6.9407657185e+01    0.1485348   0.09680714  28.14 0.0004620091    1.671    0.401
        68  -8.2879     38.3126    130.3057   9.7244421334e+01   4.4664465970e+01    0.1328094     0.101108 -37.02  0.000243281    1.618    0.382
        69 -11.0410     49.8083    126.2689   9.2906094859e+01   4.4387618078e+01    0.5938722    0.3222673  17.99  0.001231563    2.197    0.545
        70  -9.1366     97.6875    125.9710   7.7511066130e+01   3.7319669757e+01    0.1946333    0.1878786  85.85 0.0003650633    1.068    0.064
        71 -10.4532    230.0517    123.0951   4.8308234110e+01   1.3002568980e+01    0.5004855    0.2869607 -47.25  0.002584024    2.213    0.548
        72  -9.3172     69.5158    123.4363   8.5887671513e+01   4.2470080478e+01    0.4537181     0.237836 -78.24  0.001803181    2.451    0.592
        73  -9.3677     15.9907    121.8411   1.0404709718e+02   4.8756666496e+01    0.2371955    0.1086328  48.85 0.0008395551    1.989    0.497
        74  -9.3614     44.9893    141.5467   9.6304049071e+01   4.1195014336e+01    0.2344762    0.1760258 -55.87 0.0005152975    1.471    0.320
        75  -8.1295     78.6415    121.7158   8.2596737800e+01   4.1499504211e+01    0.1458463    0.1152695 -12.53 0.0007019585    1.674    0.403
        76  -8.7492    136.0213    120.0034   6.5663478190e+01   3.1315094950e+01    0.1787204    0.1667506 -35.16 0.0004959614    1.112    0.101
        77  -9.2470     83.1250    119.1254   8.0649145513e+01   4.1397378262e+01    0.2157895    0.2001787 -11.52  0.000382776    1.233    0.189
        78  -9.8877     67.9070    117.6747   8.5412245284e+01   4.4120945822e+01    0.4902997    0.2241484  36.77  0.001963317    2.029    0.507
        79  -9.8772     57.7154    117.9453   8.8963366743e+01   4.5474554105e+01    0.2786194    0.1919641  37.46 0.0004256208    1.386    0.278
        80  -8.3719     98.5673    117.4580   7.5462629264e+01   3.9109751998e+01    0.1486485    0.1405031  57.15 0.0001479551    1.023    0.022
        81  -8.9929     52.0000    116.9587   9.0809629166e+01   4.6456350287e+01    0.2301944   0.07861124 -67.94 0.0007220192    2.915    0.657
        82  -9.4875     45.6146    116.7286   9.3041696508e+01   4.7279144758e+01    0.2975568    0.1709395 -81.09  0.001354735    1.822    0.451
        83 -11.1300     27.7451    116.5629   9.9435446801e+01   4.9141541098e+01    0.6317779    0.2981845  43.75  0.002855728    1.959    0.489
        84  -9.7189     17.4442    107.4663   1.0235298407e+02   5.2297588846e+01    0.2253328     0.116535 -78.38 0.0006808311    1.772    0.436
        85 -11.1399     21.8333    110.1845   1.0095772908e+02   5.1268182983e+01    0.7232935     0.257223  27.53  0.002944871    2.600    0.615
        86 -10.1872     25.6100    107.0842   9.9205185731e+01   5.1755808285e+01    0.3563205    0.2142473  49.11  0.001129025    1.604    0.377
        87  -9.1312     84.2948    112.9908   7.9009178009e+01   4.2669100808e+01    0.1976569    0.1876329 -67.77 0.0002178004    1.085    0.078
        88  -8.8166     62.5017    112.0245   8.6263016617e+01   4.6304487517e+01    0.2062263     0.141013 -67.48 0.0003886883    1.472    0.320
        89 -10.4335     35.1758    109.5901   9.5886298712e+01   5.0227303610e+01    0.4479301    0.3143713  89.89  0.002336987    1.400    0.286
        90 -10.6345     44.9992    109.1598   9.2148731207e+01   4.9280842808e+01    0.4401239    0.2350943  40.89  0.001919756    1.776    0.437
        91  -8.5121     77.8646    109.2067   8.0356110671e+01   4.4655767995e+01     0.190079    0.1716118 -15.39 0.0002433804    1.288    0.224
        92 -10.6948      9.2149    108.1160   1.0550346759e+02   5.2675312082e+01    0.5113136     0.255158 -11.12  0.002217581    2.943    0.660
        93  -9.4201    120.4657    107.9786   6.6859186709e+01   3.6958127519e+01    0.2033064    0.1348094 -74.83 0.0004387902    2.347    0.574
        94  -9.1883     72.3744    107.8875   8.1976771848e+01   4.5860787498e+01    0.2611067    0.1795723  44.24 0.0006033474    1.403    0.287
        95  -8.6666    139.3495    106.8199   6.1631474448e+01   3.3238083249e+01    0.2222074     0.137765 -31.42 0.0009516084    1.831    0.454
        96 -10.0331     66.6593    105.5863   8.3535254986e+01   4.7310400358e+01    0.4539369    0.2517817 -41.50   0.00184887    2.187    0.543
        97  -9.0713     58.8700    107.1036   8.6664662035e+01   4.8049805078e+01    0.2227148    0.1838001  70.99 0.0005314473    1.226    0.184
        98  -9.8186    126.9753    105.9822   6.4588967227e+01   3.6024838589e+01    0.2226093    0.2155876  61.97  0.001219069    1.052    0.049
        99 -11.0796    108.0268    103.4067   6.9289501610e+01   4.0478452061e+01    0.4877612    0.2955723  50.79 0.0007554198    1.692    0.409
       100 -11.2895     80.8049    103.1978   7.8019215430e+01   4.5621964244e+01    0.3261327    0.3083049  31.18  0.001792615    1.095    0.087
       101  -8.8864      1.3466    105.2025   1.0827351717e+02   5.3839143157e+01    0.1831204    0.1012988  80.24 0.0004063144    1.630    0.386
       102  -9.0369     93.8814    104.0768   7.3859072381e+01   4.3069054301e+01    0.2371227    0.2042043  72.60 0.0008909956    1.244    0.196
       103 -10.3547     38.6489     98.3500   9.2906081243e+01   5.2774503298e+01     0.469728    0.3061299  20.61  0.001827034    1.677    0.404
       104 -10.5374     45.4778    101.8311   9.0783043514e+01   5.1108667549e+01    0.3916496    0.3103558  85.60 0.0009960928    1.266    0.210
       105  -8.3394     48.7031     97.6600   8.8775905371e+01   5.1792539847e+01    0.1500354    0.1371376  74.86 0.0004773152    1.052    0.049
       106 -10.5073     10.6084    102.1519   1.0453062873e+02   5.4115000688e+01    0.3636054    0.2404052 -34.89  0.001556106    1.808    0.447
       107  -9.3981     53.1064    100.5906   8.7607347399e+01   5.0479824372e+01    0.3201595     0.204185 -52.34  0.001508306    1.591    0.371
       108 -10.0205     68.2858     99.3248   8.1613445259e+01   4.8623591123e+01    0.2756843    0.2527418 -33.03 0.0005344126    1.204    0.169
       109  -9.6683     69.7058     96.3299   8.0410328924e+01   4.9143893908e+01    0.2322347    0.2237375 -77.50 0.0005321726    1.038    0.036
       110 -10.6150    102.5961     84.9960   6.5945667886e+01   4.5672494251e+01    0.6583236    0.3442592 -34.88   0.00243953    2.412    0.585
       111 -11.1829    111.4988     81.7285   6.2223456941e+01   4.4448530689e+01    0.6947114    0.4193338  60.97  0.002126483    1.998    0.499
       112 -11.8048    101.6577     97.8697   6.9815607226e+01   4.2992892189e+01    0.4824095    0.2911989  30.35 0.0002303928    1.899    0.473
       113 -10.6222     97.9838     94.4644   7.0083791296e+01   4.4496092065e+01    0.6837407      0.45035 -14.67  0.002598986    2.700    0.630
       114 -12.0067    104.3075     79.1707   6.3648509511e+01   4.6570420812e+01    0.9616016    0.8503863 -38.21  0.004948687    1.174    0.148
       115 -10.9084    102.4500     69.0606   6.0982819992e+01   4.9113567856e+01    0.5170474    0.3692031  52.45  0.002379226    1.400    0.286
       116 -12.0492    110.9961     65.8334   5.7251279269e+01   4.7802236779e+01    0.5023763    0.4000074  25.28 0.0003145799    1.462    0.316
       117 -10.8051    108.1725     62.8347   5.7058936766e+01   4.9053103226e+01    0.3893102    0.2661154 -28.13            0    1.693    0.409
       118 -10.2251    116.1178     97.6487   6.5412320758e+01   4.0066961867e+01    0.3075817    0.1788651  53.23  0.001258739    1.827    0.453
       119 -10.5378    116.9087     93.7632   6.4126479901e+01   4.0725563724e+01    0.3400632    0.3025268  68.12 0.0009495453    1.185    0.156
       120 -11.2137     61.0857     97.2161   8.3861825044e+01   5.0236400446e+01    0.2959688     0.270141  74.88 0.0003207059    1.076    0.071
       121 -10.5835     16.4513     95.5829   1.0159197820e+02   5.5434723174e+01    0.5116833    0.2467918  61.91  0.001665095    2.212    0.548
       122 -10.0176     12.5746     88.3960   1.0248490289e+02   5.7550347937e+01    0.3951867    0.2176473  39.36  0.000985257    1.802    0.445
       123 -10.0527     26.9127     96.9907   9.7465041694e+01   5.4259954983e+01    0.4831521    0.2061825  31.92 0.0004794987    2.221    0.550
       124 -10.5893     29.9805     92.9726   9.5632819282e+01   5.5033482506e+01    0.2964726    0.2302979 -39.56 0.0003130365    1.424    0.298
       125 -12.0427     34.8590     89.8523   9.3073742044e+01   5.5376422807e+01    0.3365541     0.269311  81.17 0.0002920908    1.245    0.197
       126  -9.7578     27.4637     85.4483   9.5570096108e+01   5.7221916851e+01    0.2713656     0.190052 -42.88  0.000562378    1.528    0.345
       127 -10.0231    137.3857     94.1128   5.8758473132e+01   3.6151845803e+01    0.4591745    0.1478918 -38.05  0.001402475    3.405    0.706
       128  -9.3670     80.8011     94.7022   7.5978975496e+01   4.7673340775e+01    0.3004999    0.1932351  53.11  0.001199132    1.660    0.398
       129  -9.7303     30.5426     85.5203   9.4219287746e+01   5.6924697801e+01    0.3053282    0.2588256  75.49 0.0009371763    1.161    0.138
       130 -11.0221    126.2218     91.5781   6.0933675686e+01   3.9142429070e+01    0.4456236    0.3090325  33.79  0.002008732    1.569    0.363
       131 -10.1381      3.6743     93.9756   1.0669900880e+02   5.6586882078e+01    0.3705197    0.2248284   3.93  0.001937563    1.961    0.490
       132  -7.8581      4.3151     90.7144   1.0620565000e+02   5.7394081823e+01    0.2206186     0.129227  44.51 0.0006579211    1.680    0.405
       133  -9.0122     43.8762     91.6260   8.9597688733e+01   5.3931491309e+01    0.4230787    0.1989506  71.46  0.001348993    3.918    0.745
       134  -9.1426     63.9164     89.3417   8.0978085106e+01   5.1791302842e+01    0.2429583    0.2020098 -78.52 0.0007487722    1.241    0.194
       135  -9.4051     55.8598     88.5828   8.4028653429e+01   5.3168387593e+01    0.3788261    0.2067438  47.24   0.00110274    1.912    0.477
       136  -9.5643     49.5820     88.8252   8.6666670764e+01   5.3950960309e+01    0.3455697    0.1754832  21.91  0.001399864    2.279    0.561
       137 -11.1184    121.1121     86.6137   6.0906580618e+01   4.1293497209e+01    0.6589956    0.4133511  43.68  0.001833227    1.577    0.366
       138  -9.4114    110.6995     88.1249   6.4353241196e+01   4.3264909487e+01    0.2728976    0.2065134  57.23 0.0009233655    1.377    0.274
       139  -9.5601    139.0504     86.9939   5.6349455429e+01   3.7143840750e+01    0.2268668    0.2190383 -67.81 0.0003314336    1.071    0.066
       140 -11.7931    131.2773     85.8555   5.7964560787e+01   3.9144383287e+01    0.3185739     0.270604  35.38  0.000249085    1.210    0.174
       141  -9.6556     87.4570     86.7540   7.1516002466e+01   4.8329281836e+01    0.2434608    0.2137963   4.77  0.001235451    1.329    0.247
       142  -9.0756     71.1483     82.8184   7.6468610126e+01   5.2227002606e+01    0.2936088    0.2466008 -86.82  0.000927176    1.306    0.234
       143  -8.7955     75.7901     79.9742   7.3873663061e+01   5.2098299844e+01    0.2233995    0.2024599 -22.93 0.0004757917    1.220    0.180
       144  -9.7051     75.9131     83.8158   7.4908671321e+01   5.1157921115e+01    0.3331897    0.2865332 -14.94 0.0008562703    1.378    0.274
       145 -10.3690     80.7695     80.9098   7.2263179369e+01   5.0963563725e+01    0.4608848    0.2873781  26.97 0.0007526283    1.902    0.474
       146  -9.8607    159.6026     83.2079   5.0671625502e+01   3.3081356138e+01    0.2138135    0.1410942 -23.04 0.0008253701    1.719    0.418
       147  -9.7554     92.0023     80.1319   6.8007446750e+01   4.8949925313e+01     0.312278     0.255236 -86.59 0.0005959852    1.459    0.315
       148  -9.5664     19.8298     82.7109   9.8590436779e+01   5.8548799188e+01     0.285506    0.2270801  44.67  0.001016398    1.283    0.221
       149  -9.5940      1.8825     82.9758   1.0668955088e+02   5.9491875783e+01    0.1916761    0.1636541  78.62 0.0003672834    1.071    0.066
       150 -10.5203     54.1414     81.0560   8.2972991762e+01   5.5314845213e+01    0.3858847    0.2777416 -12.30 0.0003425302    1.893    0.472
       151  -9.7353     60.7748     76.1820   7.8873060506e+01   5.5546178856e+01    0.2609997     0.225212  -8.96  0.001364653    1.350    0.259
       152  -9.2368    145.0922     81.6379   5.3370185120e+01   3.6738362410e+01    0.3072734    0.1454683  59.58  0.001107268    2.477    0.596
       153  -9.1205    141.2460    101.8056   5.9875073342e+01   3.3808034342e+01    0.1988435    0.1713526  11.02  0.000360163    1.287    0.223
       154 -10.5990    155.2772     79.1636   5.0414174660e+01   3.4784932011e+01    0.3238587    0.2465905  26.51 0.0008530329    1.542    0.351
       155  -9.5063     45.2921     79.9160   8.6562377774e+01   5.6776172264e+01    0.3312163     0.209796  30.12  0.001569184    1.620    0.383
       156 -10.9337    121.3023     77.2393   5.8025984628e+01   4.3141575926e+01    0.5392259    0.3956924 -27.48  0.001755937    1.551    0.355
       157  -9.5024     67.0154     63.0967   7.2187089596e+01   5.7639113477e+01    0.2384969    0.2099942 -51.49 0.0003827277    1.125    0.111
       158 -10.5771     76.0756     66.6867   6.9639984335e+01   5.5143966469e+01     0.512361    0.3170803 -47.54  0.002256899    1.617    0.381
       159 -10.4042     71.2523     65.1687   7.1092921353e+01   5.6394999657e+01    0.6667253    0.4467444 -51.42  0.003084966    1.486    0.327
       160 -10.5428     78.1458     74.9329   7.1469967345e+01   5.2852973863e+01    0.6418288    0.3959338  27.40  0.002697401    1.922    0.480
       161  -9.9672     48.8397     66.9238   8.1632612774e+01   5.9592696641e+01    0.3827512    0.2099937  41.72  0.001667912    1.874    0.466
       162 -11.7536     46.4734     72.9543   8.4358093117e+01   5.8398208745e+01    0.7186913    0.4299162  54.14 0.0006649555    1.944    0.486
       163 -10.2732     43.2079     62.6711   8.3162854346e+01   6.1396391064e+01    0.6168019    0.3976612 -60.72   0.00297578    1.480    0.324
       164  -9.6363     10.2569     74.7563   1.0204437733e+02   6.1226305369e+01    0.4213767    0.1849718  33.61  0.001715397    2.278    0.561
       165  -9.7617    136.2792     74.3409   5.3249821756e+01   4.0160796331e+01     0.284082    0.2314862  -4.87 0.0005665766    1.497    0.332
       166 -10.8490    140.3944     72.5083   5.1705468865e+01   3.9504371089e+01    0.4792396    0.2740199  37.71  0.001227657    2.051    0.512
       167 -11.6453    136.9778     69.5032   5.1564831945e+01   4.0870286253e+01    0.5559641    0.3447385 -40.91  0.001343147    1.612    0.380
       168 -11.0816     82.8283     63.7229   6.5998658970e+01   5.4470682645e+01    0.4341787    0.3211278 -17.37 0.0005559074    1.805    0.446
       169 -10.4035    158.0349     74.0582   4.8356116115e+01   3.4999145906e+01    0.2256048    0.2192637 -43.53 0.0004708847    1.015    0.015
       170 -10.6284    152.3601     72.4886   4.9055452419e+01   3.6622381516e+01    0.2965564    0.2589754 -57.15 0.0009280848    1.187    0.157
       171  -9.3862     89.5343     73.4940   6.6807076109e+01   5.0940565096e+01    0.3303212    0.1501413  42.56    0.0012145    2.178    0.541
       172  -9.7261     56.8123     72.4712   7.9554351487e+01   5.7069172752e+01    0.2957134    0.2145203 -43.96 0.0005528423    1.416    0.294
       173 -10.6382     17.6334     70.7675   9.7879044315e+01   6.1814228966e+01    0.3711326    0.2507678 -47.77  0.001476374    1.461    0.315
       174 -10.6440    163.9409     71.0352   4.6315721218e+01   3.4087299548e+01    0.4095532     0.286519  31.88   0.00155954    1.707    0.414
       175 -10.3639    163.1288     65.8041   4.4918780442e+01   3.5115602058e+01     0.421146    0.2568632  70.79 0.0008334918    1.945    0.486
       176 -10.8546     35.4953     67.6334   8.8311989267e+01   6.1054514839e+01    0.5398178     0.352554 -66.19  0.001935182    1.446    0.309
       177 -10.5146     34.7726     62.8555   8.7501278641e+01   6.2346242874e+01    0.4893922    0.2518789  27.02  0.002166489    2.013    0.503
       178  -9.4128    129.0853     70.9238   5.3960885944e+01   4.2519456212e+01    0.2216748    0.2192134  -9.77 0.0003293576    1.043    0.042
       179  -9.5882     96.9059     69.8519   6.3067414885e+01   5.0173015216e+01    0.3219135    0.2533832 -38.25  0.001110756    1.325    0.245
       180 -10.8533     60.4878     57.8399   7.3285995479e+01   5.9988806728e+01    0.4407125    0.3944291  17.88  0.002399895    1.181    0.153
       181  -9.7489     64.2965     70.1775   7.5627645829e+01   5.6437555833e+01    0.4284507    0.2710846  43.82   0.00097079    1.603    0.376
       182 -10.3162     59.7515     65.8382   7.6273817436e+01   5.8224552566e+01    0.6458966    0.3705359  23.59  0.002683905    2.117    0.528
       183  -9.2509     23.5351     70.4157   9.4871681513e+01   6.1465799310e+01    0.2795826     0.205669  38.13  0.001514057    1.417    0.294
       184  -8.9017    124.7749     69.8512   5.4734025205e+01   4.3755243369e+01    0.2133471    0.1818308 -77.35 0.0006147829    1.329    0.248
       185  -9.0411     26.7580     66.6965   9.2516109118e+01   6.2153692807e+01    0.3880592      0.17548 -85.51  0.001446458    2.863    0.651
       186  -9.4299      9.9619     66.6323   1.0117175683e+02   6.3346761028e+01    0.3858237    0.1952764  56.15   0.00169808    2.200    0.545
       187 -10.6201    179.7537     65.6016   4.1987187983e+01   3.1185260964e+01    0.4306522    0.3739203  68.85  0.002405059    1.217    0.178
       188 -12.0250    140.2119     37.8859   4.0100231894e+01   4.5141159068e+01    0.4146255    0.2905685  58.66 0.0002530981    1.386    0.279
       189 -11.4152    156.1034     65.5738   4.6192786605e+01   3.6862423773e+01    0.5495031    0.4448364  48.46  0.001828874    1.259    0.206
       190 -10.6319    149.5182     38.1952   3.8504381670e+01   4.2652429282e+01    0.5110471     0.404814   7.72  0.001806085    1.569    0.363
       191 -10.8567    141.2110     43.0850   4.1756197305e+01   4.4131391468e+01    0.5588005    0.4092093  59.40  0.002705158    1.335    0.251
       192 -11.4544    147.0718     61.6786   4.6808910375e+01   3.9728255871e+01    0.5378777    0.3699211  38.74    0.0004218    1.620    0.383
       193 -13.1312    150.7664     57.7395   4.4789704602e+01   3.9440554843e+01    0.4886978    0.3775402 -50.82 0.0005320925    1.318    0.241
       194  -9.4169    121.3522     66.2979   5.4476007885e+01   4.5248315714e+01    0.2997456     0.230489  16.82  0.000919164    1.684    0.406
       195  -9.6221     88.8022     61.9409   6.3156116756e+01   5.3602929806e+01    0.7658449    0.2908827 -42.14  0.002579063    2.744    0.636
       196  -8.8360     93.1951     63.1826   6.2043077455e+01   5.2389870638e+01    0.2223433    0.2086351 -44.67 0.0005502695    1.082    0.076
       197  -9.4474      1.6504     64.5236   1.0523332653e+02   6.4248435898e+01    0.2300063    0.1551503 -78.29  0.001277608    1.297    0.229
       198  -8.7109    211.9893     64.0113   3.7029791402e+01   2.4223986308e+01    0.1554317    0.1402885 -35.39 0.0003124427    1.012    0.012
       199  -9.4775    194.2799     63.6588   3.9262653120e+01   2.8128269291e+01    0.5222194    0.2853927 -64.70  0.001864532    2.819    0.645
       200  -9.7949    195.7699     60.9922   3.8333671396e+01   2.8158423953e+01    0.4473972    0.2103979 -19.93  0.001434428    2.573    0.611
       201 -10.5958    200.5886     54.5608   3.5965740466e+01   2.7929682598e+01    0.3718469    0.2993998  20.46  0.001508274    1.498    0.332
       202  -9.8476    201.2995     50.1578   3.4689906305e+01   2.8334309655e+01    0.2682656    0.2543775 -16.95  0.001668595    1.112    0.101
       203  -8.6258    126.0511     64.0571   5.2484742375e+01   4.4522775411e+01    0.1808757    0.1717643  57.37 0.0002934793    1.036    0.035
       204  -8.9390     19.3804     63.2070   9.5677493970e+01   6.3647227106e+01    0.2884642    0.1592859 -82.07  0.001331993    1.830    0.454
       205  -9.1830     22.1993     60.8656   9.3699404923e+01   6.4034429928e+01    0.2183773    0.1414178 -37.40  0.000250099    1.631    0.387
       206  -8.6306    203.8591     63.1981   3.7844937786e+01   2.6071011156e+01    0.1758173    0.1489276  -5.63 0.0004945602    1.273    0.215
       207  -9.5115    172.2006     62.9031   4.2453077077e+01   3.3374766950e+01    0.2306392    0.1898784 -58.34 0.0008417992    1.258    0.205
       208 -10.0172    131.9809     60.9273   4.9955066028e+01   4.3617467955e+01    0.3440664     0.264041  85.95 0.0009335527    1.570    0.363
       209  -9.9865    219.0218     59.2870   3.5014415674e+01   2.3358050184e+01    0.3576611    0.2003276 -24.04 0.0008284243    1.699    0.411
       210 -10.6009    222.3599     55.2334   3.3641642241e+01   2.3168987258e+01    0.2587097    0.2168219 -74.42 0.0002749803    1.313    0.238
       211  -9.2205    167.9287     61.1086   4.2651905268e+01   3.4675489882e+01    0.2378867    0.1763676  19.87  0.001126342    1.736    0.424
       212  -8.9356     11.6449     60.2160   9.9338665051e+01   6.4911303212e+01    0.3674078    0.1348972 -35.44  0.001336598    3.393    0.705
       213  -9.6686    104.0796     58.4365   5.6744291467e+01   5.0870999636e+01    0.4269491    0.2913283  -5.74  0.001229752    2.394    0.582
       214 -10.7375     96.1350     57.2724   5.8891663961e+01   5.2938897245e+01    0.6034825    0.4361209 -73.50  0.002640636    1.877    0.467
       215  -9.4555     33.4282     43.7480   8.2551245451e+01   6.7202884618e+01    0.5025174    0.2659357 -42.55  0.002245346    1.897    0.473
       216  -9.2731     28.2709     59.7515   9.0164204096e+01   6.3791390600e+01     0.250726    0.1880125 -49.12 0.0003103883    1.269    0.212
       217 -10.1127     26.8509     56.1638   9.0062031233e+01   6.4831576971e+01     0.289468    0.2174786  27.24 0.0006804399    1.408    0.290
       218 -11.1006     30.2997     53.0920   8.7307634200e+01   6.5266285729e+01    0.5261986    0.3230823 -81.10  0.001075083    1.887    0.470
       219 -10.3906     23.5942     51.5379   9.0753468745e+01   6.6284940040e+01    0.5188817    0.1907026 -53.39  0.002011736    2.329    0.571
       220  -9.6906     26.5177     47.5585   8.7928258355e+01   6.7009763740e+01    0.2524209    0.2320902  -5.24 0.0007910086    1.142    0.124
       221  -9.5390      4.6647     59.6716   1.0308688941e+02   6.5381896039e+01    0.3427441    0.1572333 -26.62  0.001491125    2.601    0.616
       222 -10.1835      8.9330     56.0503   1.0019457265e+02   6.6120680330e+01    0.4338387    0.2385591 -43.58  0.001423131    1.783    0.439
       223 -10.6066    185.0530     55.2141   3.8224918682e+01   3.1418300567e+01    0.5629641    0.2424102 -34.59  0.001234172    2.089    0.521
       224 -11.0732    161.2655     55.6256   4.2146289128e+01   3.7139904020e+01    0.5524217    0.4523719 -33.43  0.001607516    1.206    0.171
       225  -8.7454    121.5351     58.5267   5.1761368389e+01   4.6634582787e+01    0.1536697    0.1489501  85.69 4.002271e-05    1.027    0.026
       226  -8.6237     83.5718    249.5029   9.5972271695e+01   1.5676481105e+01    0.1105385   0.07891472  37.31  0.000211097    1.012    0.012
       227 -10.7059     87.5973     33.6939   5.2062044983e+01   5.9284225143e+01    0.8782974    0.4306613  63.56  0.003213675    2.556    0.609
       228 -10.6262     78.1702     55.4473   6.4798472755e+01   5.7208223348e+01    0.2973038    0.2816874  39.29 0.0002618854    1.050    0.048
       229 -10.4515     81.6942     26.6884   5.0814385420e+01   6.1831993285e+01    0.3833025    0.3518344  83.84  0.001470041    1.193    0.162
       230 -10.9123     83.1796     53.5159   6.2103752812e+01   5.6564447066e+01     1.194827    0.5144895 -57.45   0.00364909    3.734    0.732
       231 -10.4363     85.0973     49.0636   5.9616975892e+01   5.7044235182e+01    0.6590088    0.4212191 -58.06  0.001871961    1.891    0.471
       232 -11.1954     84.6434     38.6233   5.5351542057e+01   5.9118039389e+01    0.5326233    0.3490955 -43.00 0.0001179668    1.566    0.361
       233 -10.4026     82.7977     31.8218   5.2903771439e+01   6.0731779444e+01     0.475099    0.3315614  10.69  0.001086507    2.037    0.509
       234 -11.2362     90.9302     43.9036   5.5388931527e+01   5.6701555067e+01    0.3640127    0.2987147  49.40 0.0003000728    1.190    0.160
       235 -10.3440     91.1544     40.1680   5.3720816156e+01   5.7322249468e+01    0.2757713    0.2422582  68.12  0.001434824    1.187    0.157
       236 -10.7418     83.3844     74.5725   6.9380680330e+01   5.1931661828e+01    0.3235846    0.3100996  -4.18 0.0005929811    1.117    0.104
       237 -11.2337    246.0630     55.7025   3.1461927940e+01   1.8506936516e+01     0.211516    0.1718963 -35.90 0.0002428809    1.024    0.024
       238  -9.0443    239.2081     55.8969   3.2130257957e+01   1.9764405575e+01    0.1921271     0.140498 -43.95  0.000711487    1.212    0.175
       239 -11.3851    175.2468     54.4380   3.9461119740e+01   3.3872944289e+01    0.4961684    0.3698517 -62.99  0.001220692    1.458    0.314
       240 -11.4637    127.9718     52.2564   4.7916874267e+01   4.6107784082e+01    0.6041852    0.5238505  82.88  0.002220773    1.214    0.177
       241 -11.4038    117.9613     51.2793   5.0094586488e+01   4.8802960728e+01    0.3569956    0.2590092  57.44 0.0002863759    1.354    0.261
       242 -11.0335    122.0185     48.7335   4.8102254033e+01   4.8209763193e+01    0.4282368    0.2996586 -39.96   0.00105876    1.444    0.307
       243 -11.1401     17.4761     48.9282   9.3768375129e+01   6.7420073176e+01    0.5843475    0.2715545 -48.77  0.001068974    1.965    0.491
       244 -10.4448     18.0073     42.6530   9.1855467566e+01   6.8945164579e+01    0.3108102    0.2381746   1.15   0.00109468    1.427    0.299
       245 -10.8682    210.9521     49.6665   3.3452687492e+01   2.6258140470e+01    0.4512115    0.2900087  44.72 0.0004770588    1.829    0.453
       246  -9.0874     65.0000     51.9231   6.9047907501e+01   6.0530317135e+01     0.277437    0.1933072 -43.41 0.0008025402    1.435    0.303
       247  -9.4311     63.3521     48.7051   6.8540044768e+01   6.1536940655e+01    0.2828275    0.2341481  77.71  0.001065058    1.494    0.331
       248  -9.4553      4.5939     74.8460   1.0476619846e+02   6.1475832762e+01    0.3877368    0.1753852  87.85  0.001248365    2.147    0.534
       249 -10.0893     35.3140     51.4225   8.3987247715e+01   6.5131495590e+01    0.2343659    0.2198792  62.37  0.000377076    1.146    0.127
       250  -9.4500    155.0401     50.7045   4.1701934745e+01   3.9440568525e+01    0.2066679    0.1890123  67.71 0.0003701003    1.093    0.085
       251  -9.3574     98.6677     47.1697   5.4147190498e+01   5.4275139721e+01    0.7005522    0.3296063  56.67  0.002598894    2.233    0.552
       252  -9.5428     98.4047     41.7723   5.2019018670e+01   5.5299021207e+01    0.7637731    0.3955067  70.76  0.002573988    3.089    0.676
       253 -10.2262    107.0037     49.2168   5.2385132527e+01   5.1885675218e+01    0.6885783    0.4315726  44.99  0.002991535    1.603    0.376
       254  -9.1001     72.9967     50.7189   6.5083930439e+01   5.9255856967e+01    0.2089563    0.1835873  38.32 0.0004223462    1.137    0.120
       255 -10.5740      5.2908     49.8395   1.0136206033e+02   6.7864541550e+01    0.4509359    0.2979207 -33.71   0.00247449    1.556    0.357
       256  -8.6016    191.5299     50.4913   3.6001703679e+01   3.0532073203e+01    0.1372226    0.1290778 -38.93   0.00080957    1.038    0.037
       257  -8.9507     55.2221     49.7575   7.2847018798e+01   6.2720193452e+01    0.2013009    0.1658547 -15.53  0.001039503    1.377    0.274
       258 -10.2016    246.3771     47.8967   2.9650035847e+01   1.9318422743e+01    0.2593273    0.1830425 -15.66  0.001595374    1.424    0.298
       259 -10.0627    232.9398     48.1467   3.0871022138e+01   2.1869710159e+01    0.2006986    0.1655054 -39.91 0.0003368842    1.034    0.033
       260 -12.1226    108.8224     43.2636   4.9514584135e+01   5.2465495516e+01    0.3770679    0.2907298  58.05 0.0002521336    1.267    0.210
       261  -8.9504     68.1857    248.8349   9.8990897437e+01   1.7472040915e+01    0.1348184    0.1094766  22.53 0.0005176695    1.308    0.235
       262 -10.2667    152.1016     46.5804   4.0882843479e+01   4.0797944544e+01    0.2932379    0.2536246 -47.85    0.0013938    1.137    0.120
       263  -9.4382     38.2247     46.4025   8.0674346513e+01   6.5988045307e+01    0.4014795     0.195932 -43.86 0.0009109499    2.061    0.515
       264  -9.8606    209.7913     43.7190   3.2017178588e+01   2.7232321810e+01    0.3422596    0.1769615 -27.13   0.00161861    1.784    0.440
       265  -9.2636     73.2191     44.4772   6.2422565918e+01   6.0498015446e+01    0.3750554    0.2061692 -59.87  0.001419115    2.553    0.608
       266  -8.7765     67.2246     45.2059   6.5339614964e+01   6.1550452461e+01    0.1920114    0.1688919 -78.17 0.0002393179    1.317    0.240
       267 -10.4116     54.5286     36.8048   6.7783228772e+01   6.5657132890e+01    0.2668127    0.2479067  70.05 0.0003027814    1.221    0.181
       268 -11.4315     56.7418     41.7708   6.8853876460e+01   6.4220329835e+01    0.3476186    0.2766437 -20.06 0.0002240841    1.412    0.292
       269 -10.2143     60.9677     41.2235   6.6539018671e+01   6.3570571727e+01    0.2979651    0.2243211  54.70 0.0007151224    1.478    0.323
       270 -11.8218     62.8462     37.6231   6.4026856009e+01   6.3949557418e+01    0.6373981    0.3623657  45.76  0.000762369    1.782    0.439
       271  -9.6298     28.2548     41.6093   8.4991462948e+01   6.8284278855e+01    0.2757141    0.1812878 -68.19 0.0006065957    1.541    0.351
       272  -9.2032    218.1052     41.7755   3.0678204261e+01   2.5656140552e+01    0.2037143    0.1542453 -51.49 0.0005804414    1.220    0.180
       273 -10.2179    157.7926     39.1861   3.7448740830e+01   4.0364851132e+01    0.4557332    0.3361006  15.50  0.002161081    1.785    0.440
       274  -9.8337    230.7359     39.6841   2.9015699489e+01   2.3264157595e+01    0.2670128    0.1650001 -38.65 0.0008394584    1.342    0.255
       275  -9.4828    203.6616     41.5404   3.2087132078e+01   2.8863156640e+01    0.2703381    0.1327357  69.48   0.00122094    2.216    0.549
       276  -8.8992     76.3310     39.9047   5.9138530111e+01   6.0736073607e+01    0.2371844    0.1809797 -58.99  0.001146009    1.507    0.337
       277 -10.3567    127.7443     37.6962   4.2595808514e+01   4.8455699067e+01    0.4332066    0.3061995  71.80  0.001589882    1.459    0.314
       278  -9.6197    115.1643     35.0719   4.4511488319e+01   5.2142956015e+01    0.3731735    0.2033763 -27.70  0.001162075    1.992    0.498
       279 -10.6282    201.8843     37.3950   3.1147004859e+01   2.9760693244e+01    0.2478753    0.2033327 -43.62 0.0003065585    1.090    0.082
       280 -10.3528    194.6614     37.1004   3.1846581329e+01   3.1474433550e+01    0.2814806    0.2223816 -67.92 0.0005560546    1.273    0.214
       281  -9.2038     32.7564     37.4601   8.0647071409e+01   6.8759606821e+01    0.2518459    0.1752111 -56.63  0.000650155    1.369    0.270
       282  -9.7801      3.3141     37.6974   1.0057767061e+02   7.0985305946e+01     0.408832    0.1751499 -15.50  0.001517184    2.801    0.643
       283 -11.2874    246.7990     32.8564   2.6165668678e+01   2.0846359769e+01    0.4949261    0.2190679 -45.03   0.00190877    1.876    0.467
       284  -9.3846    207.4506     36.9128   3.0447324027e+01   2.8553511735e+01    0.2475293    0.1132355 -31.01  0.001112043    1.899    0.473
       285  -8.2151     50.3134     40.6493   7.1708858270e+01   6.5551847384e+01    0.1444276    0.1140124  80.89 0.0007046161    1.726    0.420
       286 -12.0200     40.1312     33.2082   7.4265717287e+01   6.8740873149e+01    0.3509758    0.2994095 -36.90 0.0002687726    1.118    0.106
       287 -10.4017     46.5012     28.4645   6.8182228533e+01   6.8745001940e+01    0.4974766    0.2601649  38.93  0.001754313    1.933    0.483
       288  -8.9061     28.2114     36.7777   8.3308567766e+01   6.9435742695e+01    0.1950517    0.1476781 -26.64   0.00105676    1.372    0.271
       289  -9.6527     12.9757     36.3694   9.3534250191e+01   7.0836948851e+01    0.2664098    0.1733348 -69.26 0.0005506114    1.422    0.297
       290 -10.8010    170.1157     32.9120   3.3595548474e+01   3.8006717699e+01    0.5828594    0.3305123  -8.74  0.001635772    2.431    0.589
       291 -12.5477    137.7244     47.2291   4.3929783559e+01   4.4412853128e+01    0.8974329    0.5266938  80.70 0.0008426497    2.297    0.565
       292  -9.7175    151.0399     31.4694   3.5919880378e+01   4.3140545486e+01    0.6057063    0.3685725  29.04  0.002510188    2.308    0.567
       293  -9.7330    154.7024     31.6898   3.5417306123e+01   4.2148235052e+01    0.2485422    0.2103262 -14.56 0.0008874772    1.305    0.234
       294  -8.9305    106.6870     34.9527   4.6689814074e+01   5.4350804064e+01    0.2034765    0.1959086  -2.89 0.0004979045    1.099    0.090
       295 -10.1577     97.1549     33.1902   4.8703928535e+01   5.7035440531e+01    0.2443909    0.2217374  63.99 0.0002406792    1.088    0.081
       296  -9.2167    181.4841    247.4948   7.7232367688e+01   4.3499102242e+00     0.108498   0.07500409  17.92 0.0001151993    1.033    0.032
       297 -10.5311     23.1714     25.5695   8.2313716629e+01   7.2545060600e+01    0.2905254    0.2281647 -37.55 0.0006178899    1.179    0.152
       298 -10.0227    106.4128    244.7048   9.1056486042e+01   1.3719305210e+01    0.2160417    0.1870523  56.54  0.001122836    1.355    0.262
       299 -10.4363    166.1557    243.5218   7.9495359605e+01   6.6161169746e+00    0.1896917    0.1419078  38.06 0.0006155674    1.441    0.306
       300 -10.4557    159.5270    242.0226   8.0538448507e+01   7.5996029648e+00    0.2279042    0.1829005  82.83   0.00155474    2.606    0.616
       301 -11.4356     30.5351     31.1906   7.9532196952e+01   7.0457918914e+01     0.272407    0.2658155  10.92 0.0003028969    1.100    0.091
       302  -8.7306     92.5289    242.9546   9.3697014853e+01   1.5612688062e+01     0.123782    0.1111746 -86.24 0.0003672078    1.474    0.322
       303  -9.9959    247.3685    240.6183   6.5772791910e+01  -2.1662250656e+00    0.2180079   0.07383674 -24.76  0.001257803    2.963    0.663
       304  -8.9308     41.5709    242.2336   1.0399787591e+02   2.1258498203e+01    0.1141171   0.09934179 -74.84 0.0004821941    1.534    0.348
       305 -10.0119    244.3548     18.8014   2.3080412402e+01   2.2729051043e+01    0.2768538    0.1978465 -55.58 0.0008645419    1.241    0.194
       306 -11.6080    132.0779     29.5291   3.8568832154e+01   4.8442913235e+01    0.3779596    0.3014895 -37.20            0    1.269    0.212
       307  -8.7371    178.4848     43.5087   3.5723005147e+01   3.4568889485e+01    0.1421821    0.1322429 -56.00 0.0008104188    1.009    0.009
       308  -8.5608    143.4700     31.4515   3.7182530386e+01   4.5149211850e+01    0.1478424    0.1404712 -86.49 0.0002039102    1.003    0.003
       309 -10.6679    124.1465     30.5928   4.0614001848e+01   5.0417870085e+01    0.3013689    0.2573317  77.26 0.0004263246    1.157    0.136
       310 -10.0658    216.0727     29.1521   2.7609142463e+01   2.7510039636e+01    0.2663725    0.2094418 -76.98 0.0006956445    1.303    0.232
       311  -9.4732    110.5961     29.6390   4.3391833209e+01   5.4132252025e+01    0.2859216    0.2319168  52.35  0.001076421    1.190    0.160
       312  -9.4759    179.7987     28.4433   3.0998121052e+01   3.6099052201e+01    0.2731787    0.2157963  70.20 0.0008005917    1.284    0.221
       313  -9.9936    183.6743     25.4941   2.9674130916e+01   3.5472507208e+01    0.2836953     0.192379 -50.72 0.0008188948    1.384    0.278
       314 -10.3500    179.5649     21.7948   2.8993222878e+01   3.6904064228e+01    0.4106015    0.2452282 -60.01  0.001942671    1.718    0.418
       315  -9.6850     14.4933    238.3114   1.0930268407e+02   2.4406367975e+01    0.1476633    0.1399556  54.84 0.0005856366    1.395    0.283
       316  -9.7217    206.8596     25.8864   2.7536214955e+01   2.9919490927e+01    0.2677684    0.1959319 -13.96  0.000763557    1.497    0.332
       317 -10.0710    119.9569     25.5612   3.9477511232e+01   5.2211057286e+01    0.4461638    0.3754177  72.03  0.001909655    1.150    0.130
       318 -10.4578     66.0168     25.2324   5.6418194674e+01   6.5612510395e+01    0.4010586    0.2823822 -47.56  0.001276063    1.538    0.350
       319  -8.4925    189.0240     25.9783   2.9254524615e+01   3.4107970680e+01    0.1635551    0.1472966 -56.23 0.0003950592    1.002    0.002
       320  -9.5328     73.2445     25.4214   5.3422321518e+01   6.3992338273e+01    0.2966982    0.2429723  52.25 0.0009167994    1.208    0.172
       321  -9.6299    144.1878     23.1364   3.4039013368e+01   4.5989525230e+01    0.6357538     0.269944 -57.32  0.002106509    3.276    0.695
       322  -9.2695    116.8676    236.8642   8.8248224459e+01   1.3566868815e+01    0.1525311    0.1068949  43.37 0.0003174886    1.286    0.222
       323  -9.9843     98.4805     23.4233   4.3842870680e+01   5.8154742557e+01    0.3509185    0.2485639 -39.15 0.0009905886    1.462    0.316
       324 -10.4076    119.3712    230.8810   8.7146354719e+01   1.4120260373e+01    0.2262393    0.1681233  43.55 0.0004384877    1.258    0.205
       325  -9.6114    140.0674    227.6318   8.2616107090e+01   1.1925300675e+01    0.2354941    0.1313358  35.60 0.0009625025    1.396    0.283
       326  -9.6644     98.0076    225.2446   9.1058577562e+01   1.7675385445e+01    0.1764089    0.1573122  43.37 0.0004565303    1.184    0.156
       327 -10.9854     77.0721    219.4671   9.5102999453e+01   2.1190727066e+01    0.6657564    0.3724949  20.60  0.003227766    1.863    0.463
       328 -11.1191     73.0318    214.2517   9.5586963156e+01   2.2580366435e+01    0.7180215    0.3734339  27.21   0.00394498    1.692    0.409
       329  -9.7830    224.8719     23.1393   2.5388479271e+01   2.6250153953e+01    0.2179114    0.1904357  37.36 0.0003629697    1.414    0.293
       330  -9.2688    108.4085    220.6029   8.8387623674e+01   1.7094300055e+01     0.258613   0.05791991  41.54 0.0009533034    3.521    0.716
       331  -9.2612    118.7682    216.9474   8.5786741956e+01   1.6312919116e+01    0.2053013    0.1660495  68.38   0.00138443    1.594    0.373
       332  -9.4666     12.0485    216.8600   1.0927739094e+02   2.8336008425e+01    0.1716852    0.1286213  65.26 0.0002800834    1.188    0.158
       333  -9.1543     91.2613    214.5896   9.1535811784e+01   2.0282092953e+01    0.2361992   0.08617101  35.65 0.0007279797    2.023    0.506
       334  -9.7130    212.0888     21.9967   2.6061913243e+01   2.9151091541e+01    0.2822998    0.1785786 -16.96 0.0009290671    1.687    0.407
       335  -9.7354    158.7839     22.7963   3.1798137727e+01   4.2143170332e+01      0.25037    0.2112971  69.82 0.0006571094    1.166    0.142
       336 -10.2597    164.3674     22.2979   3.0908885143e+01   4.0736995548e+01    0.3785901    0.2621186  46.61  0.001475926    1.594    0.373
       337 -10.7063    149.0093    210.6512   7.8711731092e+01   1.3148093657e+01    0.1836819    0.1653372  -3.28  0.000357132    1.229    0.186
       338  -9.4971    118.3679     19.2008   3.7138876487e+01   5.3435986646e+01    0.3335243    0.2269917  70.84  0.001570513    1.426    0.299
       339  -9.2373    248.6387     22.3374   2.3640568996e+01   2.1560144175e+01    0.1847031    0.1254551 -76.02 0.0005275088    1.583    0.368
       340  -8.7687    187.9373     21.9941   2.8195176057e+01   3.4809061143e+01     0.200809    0.1588323  24.60 0.0006658648    1.585    0.369
       341  -8.8969     75.1565     20.7585   5.0203477383e+01   6.4290005497e+01     0.292691    0.1900549  36.37  0.001352898    1.627    0.385
       342  -8.5812     42.2632    208.3490   1.0219844550e+02   2.7087777199e+01    0.1009264   0.08771209 -29.13 0.0002267703    1.610    0.379
       343 -10.3646     90.1883    204.8930   9.0837609721e+01   2.2114612003e+01    0.3619574    0.2391884  86.15  0.002066578    2.074    0.518
       344  -8.7929     74.2326    204.8033   9.4526258398e+01   2.4143627778e+01    0.1606929    0.1308089  17.06 0.0008631855    1.339    0.253
       345 -10.9217      4.7622    202.1985   1.1053184988e+02   3.1673075952e+01    0.2358138     0.118597  80.52   0.00141103    1.877    0.467
       346  -8.6492     41.8239    201.8461   1.0193095674e+02   2.8373644757e+01    0.1618542    0.1071963  55.78 0.0003422266    1.264    0.209
       347 -10.5482     10.6877    201.9731   1.0918063624e+02   3.1240416208e+01    0.1634526    0.1216721  59.64 0.0007590533    1.093    0.085
       348  -9.1728    131.3385     19.7689   3.4899857053e+01   4.9855533625e+01    0.3297385    0.1784185  59.47  0.001410583    1.719    0.418
       349 -10.0488    167.0730    198.2066   7.3326069952e+01   1.2396350562e+01    0.1824409      0.15991   2.92 0.0002684931    1.157    0.136
       350  -8.2609     59.2471    196.9931   9.7438547161e+01   2.7411318527e+01    0.1287923    0.1013407 -87.34 0.0002507192    1.411    0.292
       351  -9.8741     80.9831     19.8243   4.7559667268e+01   6.3042545581e+01    0.2473924    0.2036407 -38.58 0.0002768671    1.270    0.213
       352  -9.0899     80.2203     15.5993   4.5566356619e+01   6.3817306287e+01    0.2206069     0.210551 -76.08 0.0006329163    1.139    0.122
       353  -8.8590    172.5950     19.2486   2.8954427810e+01   3.8945830483e+01    0.2527029    0.1594809 -87.49 0.0006886869    1.676    0.403
       354  -8.3850    172.9799    191.9506   7.1203255977e+01   1.2434770467e+01    0.1457197    0.1171785  16.96 0.0003099683    1.003    0.003
       355  -9.2128    226.9878     17.8565   2.3926602468e+01   2.6336658955e+01     0.219604    0.1520356  11.61 0.0009976926    2.031    0.508
       356  -9.0744     62.9288    188.3404   9.5818969325e+01   2.8694538827e+01    0.1756719    0.1314973  36.70 0.0002700007    1.139    0.122
       357  -8.8495    109.1962    185.8321   8.4177486687e+01   2.2973651466e+01     0.193769    0.1510819  45.83 0.0003981816    1.177    0.150
       358 -10.5637    193.4300     16.8883   2.6201625195e+01   3.4012701680e+01     0.228235    0.1991117 -77.01 0.0003048246    1.097    0.088
       359  -9.5557      1.2986    184.5147   1.1095291159e+02   3.5453895237e+01    0.2842332   0.09237847 -86.16  0.001161302    3.012    0.668
       360  -8.1823     77.6593    185.7151   9.1881405022e+01   2.7377843542e+01    0.1216974   0.09677461  -3.70 0.0005061284    1.636    0.389
       361  -8.8107     34.5081    177.5527   1.0227757597e+02   3.4073022308e+01    0.1257882     0.101656  52.55 9.003109e-05    1.005    0.005
       362  -9.2034     25.0172    173.9870   1.0456065163e+02   3.5744298814e+01    0.1825847    0.1452155  52.41            0    1.024    0.024
       363  -9.8193    102.2166    173.0300   8.4154866361e+01   2.6466985240e+01     0.218675    0.1666536  35.13 0.0003637693    1.138    0.121
       364  -8.8833     36.5233    172.9115   1.0144168571e+02   3.4874868668e+01    0.1705045     0.116893 -80.41 0.0007213864    1.516    0.340
       365  -8.7451     87.8188    171.2046   8.7602079863e+01   2.8946447932e+01     0.172652    0.1506296  10.97  0.000520555    1.282    0.220
       366  -9.5076     68.6549    171.1705   9.2665540155e+01   3.1556933470e+01    0.2741089    0.1740501  25.18  0.001435284    1.566    0.361
       367  -8.6402    141.4804     14.4835   3.1235006700e+01   4.7688919932e+01    0.2277477    0.1357391  88.48 0.0007811605    1.806    0.446
       368  -8.3808     20.3255    170.3155   1.0561688594e+02   3.6961282163e+01    0.1135944   0.09121351 -38.04 0.0007043541    1.669    0.401
       369  -9.2775    247.1133     13.1375   2.1627673195e+01   2.2737640577e+01    0.1670591    0.1470238 -24.74 0.0005211101    1.215    0.177
       370 -10.1080    131.6207     13.0851   3.2193698699e+01   5.0520005307e+01    0.3744255    0.1916778  64.09  0.001437702    1.787    0.440
       371  -9.0156     29.5944    166.2180   1.0287827879e+02   3.7030494795e+01    0.1720059    0.1079185 -67.46 0.0009582941    1.713    0.416
       372 -10.6401     10.4888    163.0302   1.0794875655e+02   3.9375349194e+01    0.3330246      0.26778 -37.21  0.001888106    1.657    0.397
       373  -9.0652      2.3031    153.3230   1.0987916624e+02   4.2150651806e+01     0.114325   0.08699128 -49.97 0.0004362586    1.635    0.389
       374  -9.6804    125.1504    147.3953   7.4155507613e+01   2.7865236113e+01    0.2227021    0.2033307 -57.42  0.000362665    1.227    0.185
       375 -10.9872     30.9075    147.0959   1.0115019609e+02   4.1315820786e+01    0.2542587    0.1989442  51.56 0.0002790088    1.114    0.102
       376 -10.3810      6.4231    148.0627   1.0851225043e+02   4.3085424599e+01    0.3212007    0.1438645  32.94  0.001333856    1.921    0.480
       377 -10.5530     11.8920    145.7366   1.0679300342e+02   4.3240981428e+01    0.2799156    0.1843716 -78.15  0.000747434    1.479    0.324
       378 -10.0660     36.1233    142.7305   9.9181226812e+01   4.1849669840e+01    0.3300661    0.1854562 -60.46  0.001637055    1.862    0.463
       379 -11.1323      2.9814    142.4834   1.0932234955e+02   4.4618644307e+01    0.4502022    0.3286834 -87.63   0.00209208    1.277    0.217
       380 -11.4158     20.7912    141.7767   1.0386015405e+02   4.3486790184e+01    0.6703368    0.2355096  48.45  0.001130348    2.437    0.590
       381 -10.1097     12.9378    135.0041   1.0590562705e+02   4.5731994236e+01     0.240675    0.2005832  77.96 0.0004078027    1.066    0.062
       382 -10.3853     16.4211    133.2208   1.0468184678e+02   4.5907754595e+01    0.2876257    0.2131783  82.06  0.001459726    1.216    0.177
       383 -10.1989      6.7323     22.6211   9.4284035517e+01   7.4499838319e+01    0.3285788    0.2252385   9.67  0.001641594    1.567    0.362
       384 -10.3702      1.8463    111.6332   1.0841182596e+02   5.2196482701e+01    0.3417373     0.190529  83.87  0.001767505    1.601    0.376
       385 -10.3375      4.5291    131.4868   1.0841135800e+02   4.7147978341e+01    0.4766172    0.2237517  20.80  0.002342762    2.178    0.541
       386  -9.2483     11.5043    115.4536   1.0517201635e+02   5.0673003089e+01    0.2326137    0.1901564 -77.06 0.0008033441    1.175    0.149
       387 -11.2006      8.4927    118.8287   1.0644806861e+02   5.0018189993e+01    0.6320446    0.2816482  69.15  0.002835225    2.179    0.541
       388 -10.3722      2.5927    116.2587   1.0836927562e+02   5.1002052840e+01    0.3834155    0.2109337  24.41  0.001152414    1.850    0.460
       389 -10.1662     15.8497    128.8439   1.0458189896e+02   4.7025932951e+01    0.2748149    0.2238777 -74.36 0.0003402125    1.230    0.187
       390 -11.5845     11.9808    128.7613   1.0585374366e+02   4.7325012255e+01    0.5700472    0.3445458  24.13   0.00166639    1.688    0.408
       391 -11.3546     28.7196    137.7467   1.0107355840e+02   4.3769800062e+01    0.5060363    0.3341943 -82.92  0.001458269    1.458    0.314
       392 -11.1133     23.6520    124.7260   1.0164385543e+02   4.7432843869e+01    0.5394918    0.2670132 -73.98  0.002212021    1.893    0.472
       393  -9.8313     24.5248    132.5154   1.0199864384e+02   4.5424176195e+01    0.2736304    0.1312474  38.33  0.001295742    1.837    0.456
       394  -9.7808     27.3955    130.2235   1.0086131934e+02   4.5738658488e+01    0.2564845     0.198339 -89.45 0.0008402175    1.211    0.174
       395 -11.0600     29.1912    125.0889   9.9783198507e+01   4.6856609374e+01    0.3652989    0.2766933 -59.14  0.001130271    1.391    0.281
       396  -9.5848     34.0924    132.7784   9.8890781175e+01   4.4478252092e+01    0.2943512    0.1837842  11.09  0.001073216    1.955    0.488
