#   1 NUMBER                 Running object number                                     
#   2 MAG_AUTO               Kron-like elliptical aperture magnitude                    [mag]
#   3 X_IMAGE                Object position along x                                    [pixel]
#   4 Y_IMAGE                Object position along y                                    [pixel]
#   5 X_WORLD                Barycenter position along world x axis                     [deg]
#   6 Y_WORLD                Barycenter position along world y axis                     [deg]
#   7 A_WORLD                Profile RMS along major axis (world units)                 [deg]
#   8 B_WORLD                Profile RMS along minor axis (world units)                 [deg]
#   9 THETA_WORLD            Position angle (CCW/world-x)                               [deg]
#  10 FWHM_WORLD             FWHM assuming a gaussian core                              [deg]
#  11 ELONGATION             A_IMAGE/B_IMAGE                                           
#  12 ELLIPTICITY            1 - B_IMAGE/A_IMAGE                                       
         1 -15.5138      9.1436     25.5617   1.1680342635e+02   7.4104127214e+01     3.069499     1.379619 -56.11   0.01474811    2.024    0.506
         2 -13.3720     30.8207     10.3904   9.1517217018e+01   7.4209250770e+01     1.315518    0.6280013 -30.06  0.006102331    2.303    0.566
         3 -15.1914     96.5319     71.3897   8.9732753377e+01   5.0202532103e+01     2.733739      1.92906  24.77   0.01202087    1.763    0.433
         4 -15.1517     44.1419     41.7076   1.0040466293e+02   6.6557052390e+01     2.801632     1.960074 -29.18   0.00898096    1.510    0.338
         5 -15.1550     60.9608     71.1361   1.0332900260e+02   5.7432852156e+01     2.569904     1.663747  48.31   0.01047781    1.656    0.396
         6 -15.0478     70.4308     56.3168   9.3899800955e+01   5.8851087100e+01     2.387632     1.885719  77.92  0.009077298    1.702    0.413
         7 -14.4895     37.3002     85.0515   1.1808879028e+02   5.7436336205e+01     2.385842     1.363015 -51.31   0.01082942    1.660    0.398
         8 -11.6490     73.2141      1.5175   6.6493720047e+01   6.6155805351e+01    0.3133564    0.1488443  64.16 0.0005729477    1.835    0.455
         9 -13.4965    121.5407     10.7160   6.0540560542e+01   5.2860166471e+01     1.860189    0.6960809  73.29  0.007048883    2.472    0.595
        10 -14.7063     85.0101      7.5144   6.6450772024e+01   6.2687639188e+01     2.949382    0.9528355  60.82   0.01112557    2.472    0.595
        11 -12.2704     75.7315     13.4790   7.2118747254e+01   6.4388934815e+01    0.3840046    0.3331855  87.16 0.0008372884    1.290    0.225
        12 -11.3517    150.4688     20.8652   5.9965443486e+01   4.4231476257e+01    0.4821507    0.3247748  57.96  0.002494724    1.464    0.317
        13 -11.6287     64.7867     17.9794   7.8415297926e+01   6.6422441835e+01    0.4964219    0.2823175  43.40  0.001451778    1.603    0.376
        14 -11.2958    175.1779     14.1122   5.5263931636e+01   3.8702501398e+01    0.3195768    0.1870566 -11.47  0.001527008    2.365    0.577
        15 -13.1413     83.7547     22.6779   7.4155536662e+01   6.1355242175e+01    0.7252432    0.5296328  64.01 0.0007028041    1.312    0.238
        16 -12.6797    186.1695     11.7552   5.3698441530e+01   3.6294317977e+01    0.4935939    0.3141491  89.83  0.002741074    1.450    0.310
        17 -11.0062    150.1213      8.5988   5.6080910255e+01   4.5550179015e+01    0.3681303    0.2253295  76.58   0.00139197    1.451    0.311
        18 -12.2927    192.9377      6.0944   5.1740062040e+01   3.5263382499e+01    0.4825506    0.3113256 -46.52  0.002157988    1.351    0.260
        19 -12.3035    138.4062      4.5450   5.6041939119e+01   4.8959456889e+01    0.7229905    0.3450486  62.57  0.002266069    1.849    0.459
        20 -10.3687     49.0469      4.3596   7.7044156011e+01   7.1480315656e+01    0.2604827    0.1863157 -21.35  0.001479731    1.510    0.338
        21 -13.1680    202.2342    126.3858   8.0136903908e+01   1.6661957171e+01      1.29315    0.7919326  -6.00  0.005675394    2.586    0.613
        22 -11.3183     34.1493    135.8516   1.2793811291e+02   4.4453356707e+01    0.3718191    0.1961937  25.74  0.001653091    1.894    0.472
        23 -11.1469     82.1301    134.1024   1.1131673972e+02   3.8379140019e+01     0.288888    0.2221733 -69.31  0.001396383    1.393    0.282
        24 -10.9199    223.6023    133.9872   7.8364087820e+01   1.1786885475e+01    0.3490699    0.1972296  48.06  0.001858203    2.054    0.513
        25 -10.1208    138.9711    152.2939   9.8888095855e+01   2.3849481672e+01    0.2161127    0.1839747  31.38 0.0007016989    1.112    0.100
        26 -11.1829    122.3826    127.5274   9.7773661661e+01   3.2400660078e+01     0.402671    0.3490551  35.12  0.001193896    1.126    0.112
        27 -13.5515    218.0051    120.6325   7.6403185644e+01   1.4743555635e+01    0.9040954    0.5072936  53.90  0.004627785    2.134    0.531
        28  -9.8540    101.6751    114.3260   1.0063792209e+02   3.9592168182e+01    0.1624786    0.1231615  76.37 0.0007049098    1.692    0.409
        29 -10.2618    190.5242    112.4710   7.8988835046e+01   2.1198381618e+01    0.1375472    0.1275866 -23.90 4.584989e-05    1.027    0.026
        30 -10.2634    120.1535    103.8548   9.2416579279e+01   3.8063739317e+01    0.2188548    0.1914324   0.38 0.0008671001    1.334    0.250
        31 -11.3929    244.8522    249.7225   9.4916605317e+01  -5.7023257536e+00     0.282423   0.06738388  32.73  0.001334918    3.847    0.740
        32  -9.3625    178.3323    184.6850   9.6318724504e+01   1.1051963140e+01     0.119959    0.1055333  66.86 0.0007046201    1.684    0.406
        33 -10.3860     34.2434    177.3125   1.3202333724e+02   3.4020497340e+01    0.2530905    0.1708059   0.80  0.001276341    1.983    0.496
        34 -11.7901    203.2558    172.0327   8.9239003045e+01   9.2162435765e+00    0.3739433    0.2383309 -21.35  0.002067388    1.541    0.351
        35 -10.0689      2.3247    171.3062   1.4065370802e+02   3.8254153779e+01    0.1205041   0.09097897 -44.74 0.0003792893    1.646    0.392
        36 -11.0603    197.6726    168.0936   8.9507504142e+01   1.0698456043e+01    0.2178149    0.1751243  39.92  0.001323335    1.392    0.281
        37 -11.9007    141.5647     96.8795   8.4965753277e+01   3.4662781963e+01    0.6620084    0.3681762 -29.15  0.002569013    2.250    0.556
        38 -11.9152    138.1568     93.4065   8.4816586073e+01   3.6127213262e+01    0.5338406    0.3240005  56.46  0.002266857    1.711    0.416
        39 -10.9902    114.2035     97.1694   9.2260941987e+01   4.0818094818e+01    0.3485043    0.2822353 -74.74  0.001084314    1.463    0.317
        40 -10.6027    188.2347     94.2318   7.4997808568e+01   2.4695343528e+01      0.32136    0.2427028 -65.80   0.00153485    1.528    0.345
        41 -11.0837    134.6186     98.7352   8.7172576119e+01   3.5885358365e+01    0.4841264    0.3114875  32.18     0.001323    1.856    0.461
        42 -13.0905      5.8542     82.8528   1.3269217339e+02   6.0579917652e+01     1.107265    0.5088627 -54.31  0.005037193    1.908    0.476
        43 -12.3608      8.1642     65.5258   1.2876770655e+02   6.4864428117e+01    0.4846058    0.3485415 -41.43  0.001816337    1.297    0.229
        44 -10.2164    249.7556     86.7533   6.5303263841e+01   1.4109247255e+01    0.1854864    0.1707532 -63.54  0.001373816    1.210    0.173
        45 -11.1938    137.2418     84.5515   8.2493766711e+01   3.8041723124e+01    0.3073365    0.1501979  57.51  0.001050276    2.172    0.540
        46 -12.0874    128.2954     81.6013   8.3816447364e+01   4.0738517218e+01      0.41523    0.3661859 -41.47  0.002137432    1.166    0.143
        47 -13.4745    127.3344     72.4250   8.1211886974e+01   4.2689603748e+01    0.7632493    0.4882932  57.28  0.003367922    1.539    0.350
        48 -12.5129    121.3789     79.9877   8.5131460852e+01   4.2699963703e+01    0.5241301     0.393154  -2.86  0.002298167    1.926    0.481
        49 -12.9927    115.9131     78.6286   8.6209007687e+01   4.4262151207e+01    0.6704718    0.5395097  63.56  0.003260381    1.277    0.217
        50 -12.5519    119.2829     73.4137   8.3615708095e+01   4.4463943421e+01    0.5579817    0.3518634  27.70  0.001571467    2.248    0.555
        51 -12.8199    117.5796     67.6912   8.2198038796e+01   4.5941676784e+01     0.556976    0.4315758 -25.88  0.001648356    1.475    0.322
        52 -10.3490    149.0674     77.3334   7.7735426582e+01   3.6511212288e+01    0.2472057    0.2021014 -66.30 0.0007300988    1.306    0.234
        53 -12.9564      2.6908     70.4298   1.3255450296e+02   6.3895217513e+01     1.169591    0.3531105 -79.28  0.004124232    3.355    0.702
        54 -12.3608    144.0274     75.0092   7.8124242478e+01   3.8141424749e+01    0.4773175    0.3348594 -32.45   0.00108677    1.518    0.341
        55  -9.9041    182.6317     72.0091   7.0227864295e+01   2.9457032857e+01    0.1905214    0.1635512 -45.17 0.0008754513    1.095    0.087
        56 -10.0652    146.6534     66.7035   7.5070301657e+01   3.8910737356e+01    0.1520571    0.1155338  27.41 0.0003607891    1.674    0.403
        57 -10.2755    169.8204     63.1360   6.9829251644e+01   3.3807573125e+01    0.2175332     0.208669  72.40 0.0005767023    1.096    0.088
        58 -10.2910    166.1254     62.8447   7.0351077756e+01   3.4742333211e+01    0.2636783    0.2054947  77.35 0.0003148901    1.312    0.238
        59 -10.5201    214.4835     61.1596   6.3391163881e+01   2.4082926401e+01    0.2718338    0.2024189 -18.60  0.001197054    1.549    0.354
        60 -12.7176    124.0943     57.5664   7.7121158212e+01   4.6086378037e+01    0.4942098    0.3177023  50.12 0.0005613351    1.506    0.336
        61 -11.1900    174.7886     56.5439   6.7226608676e+01   3.3589345370e+01    0.2445749    0.2187907 -62.50 0.0003525928    1.035    0.033
        62 -10.8528    137.9915     55.0146   7.3172045698e+01   4.2967127431e+01    0.3325086    0.2203559  44.63  0.000934348    1.614    0.381
        63 -11.8900    133.4307     53.7395   7.3710891041e+01   4.4328781346e+01    0.3576407    0.2604164  62.14 0.0005549588    1.309    0.236
        64 -10.6555    154.0077     53.2281   6.9577942933e+01   3.9178705299e+01    0.3825513    0.2069658  47.85  0.001624927    1.997    0.499
        65 -11.5636     92.9294     52.8156   8.4164762612e+01   5.4564790934e+01     0.263763     0.244845  15.13 0.0003718283    1.145    0.127
        66 -11.2268    145.3362     50.7556   7.0365110981e+01   4.1739548675e+01     0.318479    0.2729983 -59.92 0.0007213963    1.156    0.135
        67 -10.8196    185.8289    167.1345   9.1567113686e+01   1.2764960845e+01    0.1912572    0.1863503  -3.58   0.00074019    1.239    0.193
        68 -11.4020     89.0763     48.2205   8.3629308806e+01   5.6271034643e+01    0.2834454    0.2095435  71.66 0.0008812369    1.591    0.372
        69 -10.7619    176.0676     46.0886   6.4138573340e+01   3.4730409802e+01    0.3759997    0.2435979  36.96  0.001310151    2.099    0.524
        70 -12.0994     99.2092     50.0663   8.1120784553e+01   5.3534734144e+01    0.5696737    0.2804098  39.37  0.002136874    2.331    0.571
        71 -11.0656    157.1377     43.7236   6.6165070310e+01   3.9732318956e+01    0.2866139    0.2449327  48.52 0.0006906731    1.282    0.220
        72 -10.5306    121.8817     44.1504   7.2940195970e+01   4.8749772235e+01    0.2707841    0.2359318  15.25  0.001428231    1.367    0.268
        73 -10.4864    182.0634     43.3825   6.2630568131e+01   3.3650140966e+01    0.2423785    0.1796236 -47.16 0.0003572241    1.243    0.195
        74  -9.8110    140.6781     44.2928   6.9137975746e+01   4.3865764543e+01    0.1523602    0.1067455 -72.10 0.0003238623    1.611    0.379
        75 -11.9396    216.4608     39.0996   5.8000900969e+01   2.6476246058e+01    0.4687959     0.291548  56.33  0.002020261    1.869    0.465
        76 -10.3423    197.0302     41.0293   6.0321213227e+01   3.0476330156e+01    0.2042878    0.1700018 -61.41 0.0005956428    1.049    0.047
        77 -10.6570    205.0405     37.1521   5.8559615592e+01   2.9163900586e+01     0.291088    0.1824897  78.74  0.001505717    1.635    0.388
        78 -10.4293    159.9937     36.3217   6.3493196856e+01   3.9977726841e+01    0.1920331    0.1604844  79.58 0.0002131415    1.121    0.108
        79 -12.2062     82.6534     33.6586   7.9596198778e+01   6.0120010500e+01    0.6181956    0.3259083  35.89  0.001806878    2.214    0.548
        80 -12.6160     79.5269     30.4534   7.9203403639e+01   6.1327669195e+01    0.5384701     0.498007  54.03  0.001621599    1.055    0.052
        81  -9.5021    240.5090     34.4833   5.5119643634e+01   2.2223243576e+01    0.1183333   0.09349316 -52.23 0.0001466143    1.012    0.012
        82 -11.0052    176.7327     33.4783   6.0532242550e+01   3.6172841471e+01     0.261109    0.2270904  87.11 0.0005944824    1.093    0.085
        83  -9.9825     97.4628     33.9989   7.5158165061e+01   5.6448463815e+01    0.2113713    0.1476544 -29.95 0.0008616078    1.568    0.362
        84 -11.9293     25.2586     32.0915   1.0765970239e+02   7.1155327787e+01    0.5052733    0.3068234 -20.79  0.001993827    1.920    0.479
        85  -9.9921    152.4861     32.4726   6.3377415061e+01   4.2371747020e+01    0.1414912    0.1286901  88.73 0.0008096804    1.032    0.031
        86  -9.3808    106.6602     29.7102   7.0989272646e+01   5.4679230243e+01    0.1523992     0.103394  36.63 0.0002690129    1.644    0.392
        87 -12.0006    216.4363    160.8147   8.4832054859e+01   8.9081510828e+00    0.6000289    0.2933184 -15.45  0.002402687    3.350    0.701
        88 -10.5451    240.1927    158.1834   8.0651401751e+01   5.8359498938e+00    0.1559314     0.127736 -36.54 0.0007930842    1.337    0.252
        89 -12.5369    199.4771    154.4643   8.6509463133e+01   1.2587646960e+01    0.4381195    0.3923096 -26.28  0.002794655    1.141    0.123
        90 -11.4025    190.7622    153.8889   8.7997413311e+01   1.4151380737e+01    0.4472627    0.3193441 -69.14  0.002145202    2.513    0.602
        91 -11.3462    241.7936     22.9972   5.2610321784e+01   2.3245656506e+01    0.3437642    0.2010356 -59.59   0.00139852    1.444    0.308
        92 -11.9503    233.6126    153.6606   8.0762318313e+01   7.3939567358e+00    0.3333308    0.1995919  32.82  0.001941685    1.823    0.451
        93 -10.0356    235.4518     21.5049   5.2666017246e+01   2.4622514288e+01     0.220244    0.1073421  78.08   0.00121137    2.167    0.539
        94 -10.1173    139.3871     21.0991   6.1567012040e+01   4.7095896042e+01    0.2543149    0.1701859  63.88  0.001107802    1.369    0.270
        95 -10.5873    208.7366     18.8509   5.3803159478e+01   3.0425376169e+01    0.2796751    0.1743723 -49.56   0.00114125    1.340    0.254
        96  -9.9093    187.2156     18.6576   5.5440565607e+01   3.5337750840e+01    0.1864188    0.1451193 -56.98 0.0009379259    1.124    0.110
        97 -11.6371     18.8401    153.6304   1.3474244788e+02   4.1303703581e+01    0.3487091    0.2097987  38.07  0.001792353    1.524    0.344
        98 -10.3308     29.6214    153.2247   1.3130542809e+02   4.0425535690e+01    0.1994973    0.1161275 -64.30   0.00095642    1.704    0.413
        99 -12.4403    248.0289    144.3508   7.6952473480e+01   6.6198303138e+00    0.9717994    0.3657149 -36.56  0.004742273    2.193    0.544
       100 -11.3703     58.7701    144.6983   1.2080697471e+02   3.9227450067e+01     0.526962    0.3678169  69.75  0.002516967    1.580    0.367
       101 -12.7442     49.6850    141.8315   1.2340557473e+02   4.1138312512e+01    0.9735114    0.6116436  27.86  0.004222398    1.580    0.367
       102 -12.0455    213.6872    142.3002   8.1611878545e+01   1.2153364143e+01     0.748675    0.3508142  48.53  0.003503368    2.499    0.600
       103 -12.1369     76.2271    139.4541   1.1423992754e+02   3.8001069659e+01     0.724228    0.2896676 -63.46  0.002538121    2.745    0.636
