#   1 NUMBER                 Running object number                                     
#   2 MAG_AUTO               Kron-like elliptical aperture magnitude                    [mag]
#   3 X_IMAGE                Object position along x                                    [pixel]
#   4 Y_IMAGE                Object position along y                                    [pixel]
#   5 X_WORLD                Barycenter position along world x axis                     [deg]
#   6 Y_WORLD                Barycenter position along world y axis                     [deg]
#   7 A_WORLD                Profile RMS along major axis (world units)                 [deg]
#   8 B_WORLD                Profile RMS along minor axis (world units)                 [deg]
#   9 THETA_WORLD            Position angle (CCW/world-x)                               [deg]
#  10 FWHM_WORLD             FWHM assuming a gaussian core                              [deg]
#  11 ELONGATION             A_IMAGE/B_IMAGE                                           
#  12 ELLIPTICITY            1 - B_IMAGE/A_IMAGE                                       
         1 -11.2779     53.7997      9.5799   5.7647057230e+01   6.6511825785e+01    0.1610096    0.1052847  53.02 0.0005958194    1.631    0.387
         2 -11.3816    210.5741      7.7599   2.9181637400e+01   3.2283740223e+01    0.1641134   0.08764271 -49.89 0.0009549179    1.647    0.393
         3 -13.4750     17.7795      4.8382   7.1910692680e+01   7.2488693342e+01    0.5492858    0.1355812  34.54  0.002278534    3.688    0.729
         4 -10.9739    144.8249      4.1141   3.4908035788e+01   4.7343703494e+01    0.1668772    0.1283566  51.04 0.0005048705    1.330    0.248
         5 -10.2705    113.5110      1.4862   3.8830159890e+01   5.4772855767e+01    0.1241221    0.1023645  63.35 -3.375652e-05    1.006    0.006
         6 -11.2630    180.0166    244.2222   8.3874179622e+01  -2.7026097726e+00    0.2036047     0.172264 -24.37 0.0006350231    1.222    0.182
         7 -10.1440     88.7209    250.7909   1.0429892604e+02   9.3103466241e+00    0.1112812   0.09139422  15.13            0    1.414    0.293
         8  99.0000     10.7686    225.2552   1.1884190667e+02   2.4153850091e+01     1.302803    0.6400238 -82.33  0.006989967    1.838    0.456
         9 -17.3469     56.4731    225.3676   1.0885949965e+02   1.9002225401e+01     3.622035     2.043203  47.24    0.0186865    1.570    0.363
        10 -18.0945     68.7330    195.0229   1.0245486077e+02   2.4518035384e+01     4.262385     3.327959  71.31   0.02294618    1.287    0.223
        11 -12.3714    157.2845    213.0597   8.3662588275e+01   6.4071081264e+00    0.3590777     0.206805  30.41  0.001194502    1.678    0.404
        12 -13.7289    153.7376    210.2877   8.3986788934e+01   7.5444471222e+00    0.8907572    0.5354355 -11.27  0.003537402    2.816    0.645
        13 -10.7733    107.3052    214.6408   9.5583831127e+01   1.4146848211e+01    0.2642902    0.1911283  69.92 0.0008051862    1.668    0.400
        14 -11.3227    103.7085    213.6229   9.6302745103e+01   1.4935048627e+01    0.3029393    0.1787368  31.58  0.001405975    1.648    0.393
        15 -13.4687    183.2522    213.1784   7.8050511066e+01   2.2548039594e+00    0.5475906    0.2264381  31.06  0.002224542    2.475    0.596
        16 -11.3007    124.4891    214.4902   9.1465598178e+01   1.1445180814e+01     0.238922     0.141351 -55.06 0.0009147131    1.821    0.451
        17 -11.2248    124.3265    211.3271   9.1009567775e+01   1.2155636689e+01     0.462796    0.2612943   6.71  0.001592329    3.659    0.727
        18 -11.1949     14.4122    211.8029   1.1719415986e+02   2.6835198871e+01     0.206495    0.1412074  49.58  0.001229975    1.332    0.249
        19 -11.4025     32.6552    249.5168   1.1590584625e+02   1.6689341780e+01    0.1798632    0.1496303  88.41  0.001253004    1.199    0.166
        20 -11.4996     78.0723    244.2594   1.0593018328e+02   1.2085598805e+01    0.2551502    0.2360997 -11.39  0.001391748    1.371    0.271
        21 -13.3128    168.5500    205.4675   7.9829548024e+01   6.0789659342e+00    0.3981982     0.324614  45.21  0.001735423    1.349    0.259
        22 -11.1185    109.6467    208.5408   9.4116324046e+01   1.5142751011e+01    0.3874443    0.2448712 -86.93  0.001164374    2.416    0.586
        23 -11.5340    229.4935    206.8949   6.7922215791e+01  -3.3827276288e+00    0.1939752    0.1086726 -37.12  0.001029505    1.580    0.367
        24 -11.1901    220.5889    206.7342   6.9512605868e+01  -2.1328848932e+00    0.1729836    0.1132881 -44.53 0.0009452234    1.595    0.373
        25 -16.2305     93.4803    191.0897   9.5494720309e+01   2.1812742177e+01     2.240883       1.3659  89.82  0.009055525    2.440    0.590
        26 -11.2435     18.0186    205.2540   1.1590904518e+02   2.8011553935e+01    0.3284985    0.1571272  47.32  0.001643803    1.892    0.471
        27 -10.3681     14.6476    202.2784   1.1645969413e+02   2.9037678922e+01    0.1740215     0.144737  53.69 0.0006578388    1.186    0.157
        28  -8.1983     10.5865    206.4521   1.1767808508e+02   2.8436161940e+01    0.1229789    0.1024659  86.79 0.0002164588    1.076    0.071
        29 -13.4581    146.8635    202.9372   8.4289246599e+01   1.0216614615e+01    0.4969966    0.3778906  45.05  0.001181998    1.348    0.258
        30 -11.2197     88.6499    241.8154   1.0334754400e+02   1.1116596051e+01    0.2689474    0.1663822  29.80  0.001288225    1.567    0.362
        31 -10.6440    116.6447    239.9517   9.6894164571e+01   7.4120440308e+00    0.1730305    0.1621787  57.69 0.0007438374    1.118    0.106
        32 -12.0791     26.3221    200.7773   1.1361043960e+02   2.8241891657e+01    0.3850651    0.2243138  78.73  0.001421936    1.696    0.410
        33 -11.5315    212.4776    200.2262   6.9837851656e+01   1.5743168639e-01    0.2290623    0.1900551 -59.38  0.001149673    1.640    0.390
        34 -10.9594    121.3180    200.6258   9.0007093118e+01   1.5028302498e+01    0.2290247     0.203003 -43.56 0.0006820094    1.181    0.153
        35 -12.0621    137.8656    199.0870   8.5735884195e+01   1.2575277049e+01    0.2759481    0.2165502 -41.07 0.0004855363    1.317    0.241
        36 -11.5426    224.5666    197.2651   6.7043462901e+01  -1.0856203940e+00    0.2533776    0.1134856 -43.87  0.001149494    2.122    0.529
        37 -14.2365    191.6215    194.0690   7.2801205805e+01   4.5278762394e+00    0.5374802    0.4418314  -9.55  0.003058215    1.174    0.148
        38 -12.5616    124.6712    195.4559   8.8308646692e+01   1.5639274295e+01    0.4214024    0.3632601  33.75  0.001575099    1.120    0.107
        39 -11.8688    167.9720    196.4831   7.8311818831e+01   7.9827451265e+00    0.2186801    0.1366407  34.16 0.0005069363    1.576    0.366
        40 -11.2575    212.8531    194.3757   6.8670664997e+01   1.1403643843e+00    0.2312203    0.1697238 -45.52 0.0006976214    1.425    0.298
        41  -9.9136    113.2885    194.2804   9.0946931617e+01   1.7830654293e+01    0.1425286    0.1148606 -13.83 0.0002496053    1.523    0.343
        42 -11.9625      6.2253    193.8796   1.1780079915e+02   3.1792484405e+01    0.1985929    0.1834092  76.01  0.000609516    1.182    0.154
        43 -13.3312    161.5786    192.3280   7.8967342136e+01   9.9384644553e+00    0.5749029    0.1801843  40.74  0.001903422    3.165    0.684
        44 -10.9153     20.7356    189.9948   1.1402277011e+02   3.1417454842e+01     0.204667    0.1460723  73.23 0.0008653551    1.277    0.217
        45 -10.6285      1.2981    190.2122   1.1869600053e+02   3.3076909552e+01    0.1584246   0.09418186 -88.20  0.000213254    1.425    0.298
        46 -12.7142    173.9120    188.9455   7.5571822503e+01   8.5069680884e+00    0.2844436    0.2062343  53.95  0.001393491    1.707    0.414
        47 -11.9806    145.0005    189.1932   8.2238996614e+01   1.3517893596e+01    0.2512067    0.1689415  61.28  0.001089873    2.020    0.505
        48 -10.7371      7.9962    188.4854   1.1698875922e+02   3.2940295988e+01    0.3643301    0.1220061  48.41  0.001422511    2.824    0.646
        49 -13.5536    135.2339    185.0714   8.3835411441e+01   1.6175632925e+01    0.5196079    0.3446799 -69.92  0.002254237    1.986    0.496
        50 -13.4473    127.3309    185.1640   8.5815755336e+01   1.7552247744e+01    0.6277452    0.4007069  13.06  0.002054021    2.202    0.546
        51 -10.8160    108.1064    238.0005   9.8553898270e+01   9.0717416330e+00    0.1986935    0.1558906  -6.40  0.001099055    1.646    0.392
        52 -10.8470     15.5156    198.3093   1.1595800649e+02   2.9900318564e+01    0.2317992    0.1167763  51.53  0.001161065    1.849    0.459
        53 -12.4276    176.0297    183.3251   7.4013030235e+01   9.2910160031e+00    0.2073651    0.1822687  23.02 0.0005535304    1.135    0.119
        54 -11.3443     17.5681    183.1627   1.1420593517e+02   3.3399181535e+01    0.2227395    0.1892685  12.23 0.0009722283    1.491    0.329
        55 -12.8954    144.7189    181.2953   8.0802864619e+01   1.5330697126e+01    0.3867838    0.2281525  29.37  0.001088835    1.820    0.450
        56 -10.4245      9.4304    182.4961   1.1617348173e+02   3.4280206974e+01    0.1299683    0.1060354  86.84 0.0001930485    1.016    0.016
        57 -13.9285    174.9702    174.0752   7.2388088409e+01   1.1399052337e+01    0.4984888    0.3892645  86.03  0.002369316    1.965    0.491
        58 -12.8746    191.6586    178.4884   6.9752056696e+01   7.5550703664e+00    0.3149945    0.2698573 -53.88  0.001191019    1.303    0.233
        59 -12.8171    132.5472    176.9598   8.2957793699e+01   1.8532513228e+01    0.3896563    0.2505703 -56.88  0.001720692    1.644    0.392
        60 -12.8175    127.0131    176.9064   8.4346584743e+01   1.9545481375e+01    0.4776438    0.2405849 -47.59  0.000892683    1.993    0.498
        61 -12.4596    118.3374    177.3193   8.6654977093e+01   2.0994080780e+01    0.3210308    0.2611969 -29.63  0.001587332    1.367    0.268
        62 -13.2412    120.5340    174.4958   8.5550873289e+01   2.1282497333e+01    0.5000948    0.2536495 -62.82   0.00185345    2.397    0.583
        63 -11.6805    113.0843    176.3936   8.7854108661e+01   2.2139516551e+01    0.2453295    0.2013406 -45.89  0.000175904    1.242    0.195
        64 -13.7383    144.0573    173.8587   7.9496229704e+01   1.7136791373e+01    0.6297085     0.255822  46.59  0.002163633    2.729    0.634
        65 -10.9937     17.4078    174.9921   1.1349796905e+02   3.5451266202e+01     0.176906    0.1606924  77.36 0.0001854511    1.103    0.094
        66 -14.0529    106.7151    169.9452   8.8345793902e+01   2.4830134849e+01    0.6554512    0.5667735 -37.10   0.00336533    1.221    0.181
        67 -12.8763    103.8761    164.6974   8.8119366315e+01   2.6628601390e+01     0.588874    0.3136392 -41.46  0.001768157    2.111    0.526
        68 -11.6461     99.7886    172.4162   9.0676810765e+01   2.5397074966e+01    0.4674847    0.1863088  32.53  0.001614639    2.639    0.621
        69 -13.0432    152.9000    168.4881   7.6270396409e+01   1.6699520233e+01    0.5449564    0.1569536 -48.88  0.001623407    3.459    0.711
        70 -11.4398    197.4787    170.4941   6.6963349698e+01   8.1270872569e+00    0.1434644     0.127823 -21.61  0.000135821    1.027    0.026
        71 -12.4867    160.5202    169.5164   7.4697502696e+01   1.5039756639e+01    0.2620871    0.2513782 -20.50 0.0005814717    1.010    0.010
        72 -10.8619     96.3902    237.7554   1.0115604823e+02   1.0841213394e+01    0.2216849    0.1745249 -18.57 0.0007138225    1.709    0.415
        73 -12.7762    140.9639    161.9584   7.7808290210e+01   2.0460655804e+01    0.2880742    0.2270483  39.97  0.001102422    1.282    0.220
        74 -13.4403    138.9256    165.8352   7.9127675155e+01   1.9946603104e+01     0.442113    0.3251003  -5.65  0.001054359    1.850    0.459
        75 -13.6527    131.5717    168.1986   8.1468306912e+01   2.0770681398e+01    0.5549296    0.3084384  47.26  0.001261089    1.909    0.476
        76 -14.3462    127.1361    165.8342   8.2128640447e+01   2.2157282359e+01    0.9221956    0.2975005  40.49  0.002895347    3.043    0.671
        77 -11.2724     32.7956    167.7026   1.0859577260e+02   3.5824301891e+01    0.2637378    0.1705662 -71.70 0.0006318858    1.380    0.275
        78 -11.7616     94.7133    232.6429   1.0092190873e+02   1.2150121007e+01    0.3816712    0.2318114  58.90  0.000977806    1.812    0.448
        79 -10.6237     18.5214    166.9100   1.1240791788e+02   3.7393177598e+01    0.1923734    0.1156393 -75.74 0.0007387492    1.444    0.307
        80 -12.8969    156.0557    164.9177   7.4777910516e+01   1.6900321415e+01    0.4250349    0.2076778 -59.73  0.001469736    2.837    0.647
        81 -12.5615    115.4294    165.1944   8.5083322735e+01   2.4458297853e+01    0.3654094    0.1925846 -51.69  0.001133169    1.872    0.466
        82 -11.1674    205.4838    164.5227   6.4186031407e+01   7.9043685029e+00    0.1415287    0.1256176 -26.62 1.159693e-05    1.009    0.009
        83 -10.5890    103.4345    233.4633   9.9036093932e+01   1.0693555916e+01    0.2587028    0.1822147 -19.26  0.001288733    2.090    0.521
        84 -14.0059    171.0657    159.7788   7.0255179209e+01   1.5159145385e+01    0.5196815    0.3753976 -65.12  0.002400675    1.728    0.421
        85 -13.0061    123.6782    160.4490   8.1926019222e+01   2.4096851354e+01    0.3946954     0.299063  78.19  0.001083318    1.752    0.429
        86 -12.4981    118.2802    159.6191   8.3190161655e+01   2.5302070855e+01    0.3025213    0.2235079 -32.64 0.0006126909    1.520    0.342
        87 -13.2035     98.1662    152.2054   8.7244096857e+01   3.0763412024e+01    0.4196666    0.2889702  34.49  0.001252786    1.493    0.330
        88 -13.5618    102.7217    157.6993   8.7065294659e+01   2.8583892352e+01    0.7032644    0.4282852  -7.91  0.002290592    3.611    0.723
        89 -13.4348     99.9848    155.7603   8.7446374863e+01   2.9549776620e+01      1.00537    0.4869554 -30.11  0.002840029    4.417    0.774
        90 -14.5143     24.2178    153.1083   1.0926335735e+02   4.0419092633e+01     1.059753    0.7896571   3.06  0.005030689    1.713    0.416
        91 -11.4467     28.3887    160.1544   1.0892373274e+02   3.8209260711e+01    0.2354288    0.1887715  12.89 0.0003460712    1.514    0.339
        92 -10.5187    118.5378    232.4479   9.5465802948e+01   8.6251878768e+00    0.1349034     0.121364  22.70 0.0008055611    1.090    0.082
        93 -11.1713    154.9622    230.4902   8.7029401616e+01   3.3984407600e+00    0.2124248    0.1214134  31.89  0.001032774    1.593    0.372
        94 -11.8148    113.1564    228.5555   9.6163500096e+01   1.0247019971e+01    0.3680962    0.2380098  40.73  0.001892502    1.391    0.281
        95 -13.5994    112.0798    156.1287   8.4150274225e+01   2.7299704226e+01     0.434641     0.417334  75.31  0.001658385    1.067    0.063
        96 -13.1492    186.7865    225.4382   7.9438399644e+01  -4.8477275852e-01    0.3775064    0.2129095 -36.37  0.001905614    1.769    0.435
        97 -13.4789     71.8156    153.7741   9.5248932783e+01   3.4592017626e+01    0.5141854    0.3547876  27.38  0.002418394    1.576    0.365
        98 -12.1473    212.2978    154.1031   6.0769051337e+01   8.7189206209e+00    0.2450272    0.2119691  53.32 0.0007530917    1.368    0.269
        99 -13.7402    144.4331    149.9561   7.4338132772e+01   2.2562459210e+01     0.550925    0.2858425  36.56  0.002128473    2.049    0.512
       100 -12.3532     91.1029    150.0728   8.8853653128e+01   3.2510939229e+01    0.2807877    0.2251404 -40.63 0.0004676529    1.291    0.225
       101 -12.7480     59.5680    151.0515   9.8435494323e+01   3.7012098728e+01    0.4380577    0.2509645 -58.29  0.001590819    1.602    0.376
       102 -14.4475    164.1457    149.1610   6.9482470316e+01   1.8810774900e+01     1.085255    0.2851285  47.90  0.002901755    4.612    0.783
       103 -14.2283    112.1310    141.3333   8.0934374634e+01   3.0938926174e+01    0.7759776    0.4948764  55.90   0.00142118    1.863    0.463
       104 -13.5103    109.1319    147.6367   8.3170098934e+01   2.9944526773e+01    0.4653224    0.4158497 -26.05  0.001680559    1.196    0.164
       105 -15.0651    104.5306    142.2999   8.3311885353e+01   3.2114898635e+01     1.309536    0.6701866  57.11  0.004441766    2.891    0.654
       106 -14.1783    129.1824    148.2539   7.7849479749e+01   2.5974493994e+01    0.5605118    0.4667228 -78.19  0.001453046    1.393    0.282
       107 -10.7436     93.9156    227.4382   1.0046533221e+02   1.3376902580e+01    0.2612451    0.1153343  37.89   0.00112059    1.985    0.496
       108 -11.1909     12.4999    150.0201   1.1229805368e+02   4.2195771909e+01    0.2345004    0.1636472  49.50 0.0006144159    1.527    0.345
       109 -12.9208    140.8100    144.9486   7.4112712264e+01   2.4443665294e+01    0.3325626    0.2297858  22.08    0.0009761    1.803    0.445
       110 -12.2217     93.4433    143.5701   8.6819949685e+01   3.3765801154e+01    0.2636263    0.2523896 -61.64 0.0001764175    1.017    0.017
       111 -12.2871    125.1212    220.9881   9.2308260211e+01   9.9645567292e+00    0.3972174    0.2830141 -56.93  0.002081484    1.547    0.353
       112 -13.6340    149.4708    152.3746   7.3642264540e+01   2.1009058366e+01    0.4404324    0.3247489  -2.41  0.001552069    1.876    0.467
       113 -11.6644    178.9068    143.0034   6.4875306796e+01   1.7191728275e+01    0.3310682     0.161987  61.09  0.001067149    3.681    0.728
       114 -12.9467    180.4977    150.7562   6.6259769474e+01   1.5257763737e+01    0.3493059    0.2626001  78.23  0.001383651    1.951    0.487
       115 -10.8148    121.0720    217.6998   9.2761868986e+01   1.1304119787e+01    0.3895163     0.173304  55.13 0.0009115726    3.604    0.723
       116 -11.7386     29.7176    152.2795   1.0754913997e+02   4.0116616570e+01    0.1364907   0.09660634  69.12            0    1.511    0.338
       117 -11.2015    117.8193    213.7696   9.2938798734e+01   1.2673397754e+01    0.3064487    0.2024615  66.51  0.001394322    2.042    0.510
       118 -13.3432     32.2204    138.5373   1.0485375863e+02   4.3436906484e+01      0.44055    0.2010821 -66.04  0.001875681    1.910    0.476
       119 -10.3527     51.3081    138.6302   9.8831779569e+01   4.1306800219e+01    0.1540164    0.1073795  72.94 0.0007034856    1.762    0.432
       120 -11.7243     38.7583    138.3321   1.0275878808e+02   4.2822300544e+01    0.2900562      0.18297  11.06  0.001279596    1.997    0.499
       121 -10.5635      3.3688    136.2635   1.1347958109e+02   4.6327263872e+01    0.1794358    0.1067692 -83.20  0.000448327    1.515    0.340
       122 -12.7059    140.8082    134.6200   7.1708699170e+01   2.6821687444e+01    0.3658359    0.2628506  45.84  0.001530654    1.428    0.300
       123 -13.1256    144.1079    132.0294   7.0266598623e+01   2.6724652531e+01    0.4435527    0.3153436  11.22   0.00184714    2.051    0.512
       124 -13.1236    102.4369    134.0270   8.2053365811e+01   3.4548957512e+01      0.45681    0.3116072  50.01  0.002013285    1.580    0.367
       125 -11.2000    106.2306    220.2883   9.6639348082e+01   1.3071880573e+01    0.3223283    0.1655893 -43.20    0.0013796    2.350    0.574
       126  99.0000     23.6795    233.3696   1.1666706107e+02   2.1069086703e+01     1.151482    0.9907055  49.17   0.00801326    1.216    0.177
       127 -12.9494    117.0014    131.6305   7.7314188818e+01   3.2348857617e+01    0.5265551    0.3226842  74.88  0.001734084    3.331    0.700
       128 -11.6725     75.6584    133.0881   9.0018358313e+01   3.9351060308e+01    0.2467813    0.2071351  47.74 0.0005320255    1.259    0.206
       129 -11.3265    134.0244    127.5213   7.1727983435e+01   2.9852480470e+01    0.2614678    0.2096019 -57.63 0.0004570311    1.284    0.221
       130 -12.4072    132.1154    131.9271   7.3295465751e+01   2.9232729974e+01    0.3230217    0.2619248   7.59  0.001032831    1.520    0.342
       131 -11.6837    138.0271    130.9683   7.1537710672e+01   2.8232143539e+01    0.3698373      0.22392  42.41 0.0006583257    1.688    0.408
       132 -13.1135    158.8974    157.3342   7.2490214787e+01   1.8041602383e+01    0.5197077    0.1654131  48.04  0.001517664    3.805    0.737
       133 -14.9810    154.7745    127.5653   6.6625063018e+01   2.5469315975e+01    0.9719416    0.7707748  53.69  0.003810393    1.330    0.248
       134 -10.4269    223.6322    220.3010   7.1369285059e+01  -4.7724302742e+00     0.108712    0.1021869  69.64 0.0007033194    1.738    0.425
       135 -13.1028    101.1981    126.6168   8.0675201926e+01   3.6593836976e+01     0.423062    0.3032061  66.23  0.001833745    1.812    0.448
       136 -12.6568     56.5055    127.8988   9.5126715402e+01   4.3420298424e+01    0.4164894    0.2444676   4.16  0.001035492    2.594    0.614
       137 -11.7422     20.5880    133.8668   1.0784774328e+02   4.5690412427e+01     0.229242    0.2172723 -47.67  0.000209157    1.136    0.120
       138 -10.9529     23.8783    124.8708   1.0544577635e+02   4.7714727281e+01    0.1791007    0.1511318  77.71            0    1.276    0.217
       139 -11.9179    119.5137    123.5265   7.4635802010e+01   3.3761386770e+01    0.2493148    0.1461152 -38.81 0.0007384572    1.816    0.449
       140 -11.4618     93.5912    122.7553   8.2050268181e+01   3.8926548006e+01    0.2196398    0.1481734 -63.85  0.000945007    1.644    0.392
       141 -10.8894    189.7801    121.8402   5.7873724916e+01   1.9300653190e+01    0.2014563     0.170469 -80.39  0.001053055    1.338    0.252
       142 -12.4988    108.2674    121.8640   7.7423945444e+01   3.6389027278e+01    0.2818226    0.2412685  13.43  0.001383584    1.307    0.235
       143 -12.7984    100.8835    120.4449   7.9259925911e+01   3.8141953263e+01    0.3859222    0.3039652  84.35  0.001771707    1.659    0.397
       144 -11.9084     72.0450    121.7537   8.8685147406e+01   4.2771259327e+01    0.2799509    0.2063804 -47.90 0.0003343966    1.286    0.222
       145 -12.5910     60.1615    121.0735   9.2487579540e+01   4.4666410409e+01    0.2562217    0.2308904  59.83 0.0004511769    1.224    0.183
       146 -11.0736     48.7579    122.3682   9.6611130184e+01   4.5803799564e+01    0.2120238    0.1920539  88.77 0.0006753969    1.181    0.153
       147 -12.7471     46.6589    117.5882   9.6364515432e+01   4.7262925010e+01    0.5436031    0.3354807 -14.05  0.002354606    2.279    0.561
       148 -11.5508    195.5020    122.0224   5.6849326167e+01   1.8098865821e+01     0.212031    0.1931231  54.39 0.0003457495    1.195    0.163
       149 -10.3647     36.3098    120.3308   1.0046634853e+02   4.7706053094e+01     0.150375   0.09453946 -36.89 0.0004806388    1.668    0.401
       150 -13.1059    155.4164    117.5866   6.4029119367e+01   2.7476592456e+01    0.3454738    0.3186217 -82.26 0.0008119459    1.139    0.122
       151 -12.2020     31.2365    118.3294   1.0184853733e+02   4.8713041933e+01    0.2947896    0.2559305 -19.68 0.0008039936    1.241    0.194
       152 -11.5437     70.2318    117.0570   8.8201796267e+01   4.4215452428e+01     0.209654    0.1846366 -57.54 0.0003331508    1.105    0.095
       153 -11.8503     23.1088    115.7254   1.0421212097e+02   5.0092673392e+01    0.2350978    0.1904616 -57.89 0.0004251467    1.063    0.059
       154 -10.8600     82.4816    113.4903   8.3289612886e+01   4.3114948569e+01    0.2612676    0.1484714 -63.90 0.0008200331    2.106    0.525
       155 -12.2196     88.5896    110.7659   8.0623543447e+01   4.2701545820e+01    0.4015808    0.2649491 -12.14  0.001591967    2.351    0.575
       156 -11.4830     92.0001    107.7655   7.8752149342e+01   4.2786619352e+01    0.2092513    0.1998083  30.83  0.001121844    1.068    0.064
       157 -12.1538     54.1264    110.1522   9.2140759227e+01   4.8191197590e+01    0.4895293     0.250178 -33.62  0.001671047    2.424    0.587
       158 -11.5565     74.9099    110.9375   8.5156086477e+01   4.4979523120e+01    0.2648922    0.2200822  30.38  0.001079068    1.250    0.200
       159 -11.4906    109.9982    109.7853   7.3808943981e+01   3.8849368552e+01    0.2603362    0.1796635  69.01  0.001071334    2.044    0.511
       160 -11.1596     60.1641    108.5918   8.9649342011e+01   4.7759793042e+01    0.2709853    0.1380527  33.91  0.001132432    2.042    0.510
       161 -11.1863     51.1994    106.8060   9.2414322479e+01   4.9384636833e+01    0.2005665    0.1544383 -30.91 0.0003498603    1.312    0.238
       162 -10.2537      1.6323    105.1751   1.1010850677e+02   5.4155495098e+01    0.1760788   0.09339031 -59.21 0.0002198685    1.483    0.325
       163 -13.4791    142.4840    107.7091   6.4566329380e+01   3.2395426370e+01    0.4657779    0.3935755  10.16  0.002293092    1.440    0.305
       164 -11.8053     59.3533     91.9821   8.5708090184e+01   5.1787232634e+01    0.2911753    0.2430889  89.73  0.001238548    1.580    0.367
       165 -12.7031     58.0775    100.0646   8.8296368780e+01   5.0093721952e+01    0.3619903    0.3236928 -82.63   0.00120295    1.300    0.231
       166 -11.7011     60.0364     96.0455   8.6544646397e+01   5.0757839884e+01    0.2936925    0.2241155 -27.50 0.0003563499    1.338    0.253
       167 -11.7970     59.7710    134.4534   9.5356676539e+01   4.1301688717e+01    0.2751575    0.1944938 -59.39 0.0005277034    1.312    0.238
       168 -11.8862     75.5914     97.7824   8.1489996089e+01   4.7956308367e+01    0.3198191     0.193901  27.11  0.001392361    1.801    0.445
       169 -12.4838    173.4118    219.2523   8.1190190004e+01   2.6518418812e+00    0.2452007    0.2361733  -0.81  0.001506993    1.170    0.146
       170 -10.4906    214.3262     92.3121   4.7065545234e+01   1.9711464085e+01    0.1274141    0.1083255   3.72 0.0006550775    1.663    0.399
       171 -10.3944      2.4033     91.2526   1.0761768663e+02   5.7449512855e+01    0.1350804   0.07499646 -35.57 0.0006948613    1.708    0.415
       172 -14.1855     51.3723     82.8899   8.6216078045e+01   5.4919824251e+01     1.019262    0.6177161  62.69  0.004017164    3.283    0.695
       173 -11.8542    193.8081    219.3866   7.6967667328e+01  -4.5757647869e-01     0.191451    0.1139716  20.68  0.000951296    1.735    0.423
       174 -10.8109    206.4640     81.5284   4.5787153603e+01   2.3156539408e+01    0.1358228    0.1209608 -62.82 2.355604e-05    1.033    0.032
       175 -10.5418    139.0133    217.9792   8.8627784013e+01   8.3681255348e+00    0.1617981    0.1544013   8.99 0.0003735551    1.049    0.047
       176 -10.7927    153.0221     80.2809   5.4821248583e+01   3.5352243132e+01    0.2068159    0.1861648  64.21 0.0004175931    1.089    0.082
       177 -10.8925    214.3737     78.7588   4.4064408231e+01   2.1960726335e+01    0.1748657    0.1186843 -35.53 0.0003422304    1.517    0.341
       178 -10.8222     87.3153     79.6626   7.2218017925e+01   4.9761956755e+01     0.144483    0.1188583  87.55 0.0004440168    1.697    0.411
       179 -10.9436    189.4131     77.0070   4.7311028455e+01   2.7604521326e+01    0.2608666    0.1882175 -89.85  0.001334782    1.551    0.355
       180 -11.3375     75.4473     75.8094   7.5074442271e+01   5.2693366988e+01    0.2485211    0.1961688  32.12 0.0005232288    1.252    0.201
       181 -11.1319    115.9945     74.2490   6.1925305350e+01   4.4882193601e+01    0.2690161     0.190273 -22.44  0.001256045    1.700    0.412
       182 -13.0474     32.1197     74.6801   9.1740730414e+01   5.8978740538e+01    0.3447466    0.2230383  -1.06   0.00179047    1.737    0.424
       183 -10.8517    125.1462     73.2341   5.9230131489e+01   4.3020002653e+01    0.2205715    0.1964079  27.73 0.0006968493    1.188    0.158
       184 -13.4862     28.7337     64.0901   9.0163185050e+01   6.1554451600e+01     1.148692    0.4395289  20.54  0.004773944    2.907    0.656
       185 -10.2511    196.7184     70.6676   4.4691707715e+01   2.7023976400e+01    0.1253896    0.1094569  10.29 0.0002947287    1.611    0.379
       186 -10.7832    113.9719     63.6459   5.9178993945e+01   4.7177777569e+01       0.2475    0.1492702 -69.10 0.0009110972    3.174    0.685
       187 -11.1398    109.6813     59.9888   5.9165673227e+01   4.8728436317e+01    0.1959343    0.1877976 -28.37 0.0006101847    1.101    0.092
       188 -11.4489    100.0000     68.0030   6.4520539306e+01   4.9440136800e+01    0.2338261   0.08226418 -40.22 0.0008028697    2.945    0.660
       189 -10.9723      2.1391     59.7885   1.0122425121e+02   6.4492143283e+01    0.2248098    0.1327612 -24.37   0.00079206    1.582    0.368
       190 -10.7633    153.3293     57.8840   4.8602568682e+01   3.8981735946e+01    0.1882267    0.1781783 -58.06 0.0004543999    1.103    0.093
       191 -10.6724    139.2930     56.6527   5.1040170346e+01   4.2474740639e+01    0.1455008    0.1061885 -73.18 0.0004144875    1.668    0.401
       192 -11.4805    127.4205     56.2084   5.3520996007e+01   4.5312110373e+01    0.1969916    0.1302299 -48.73  0.000834292    1.658    0.397
       193 -10.8811    111.8666     53.6704   5.6536296605e+01   4.9239426609e+01    0.2960102    0.1104396  46.62  0.001095554    2.506    0.601
       194 -10.0194     65.6904     52.2888   7.0680029424e+01   5.8712592795e+01    0.1222521    0.1093515  75.74 0.0003610446    1.578    0.366
       195 -11.1852     95.0371     50.2346   6.0064131282e+01   5.3411030847e+01    0.2853437    0.1760508  -2.95  0.001191462    2.663    0.624
       196 -10.4093     17.4375     51.4576   9.1513575073e+01   6.5120921267e+01    0.1262114    0.1001139 -25.46 0.0001639849    1.027    0.026
       197 -10.4953     37.4509     50.4568   8.1749087436e+01   6.3217747091e+01    0.1302251    0.1083274 -11.82 0.0004591778    1.020    0.020
       198 -10.8825    195.6466     44.3009   3.8669632169e+01   3.1151384833e+01    0.1396499    0.0861351 -71.89  0.000703805    1.701    0.412
       199 -11.2674     51.5082     43.0055   7.2829190733e+01   6.2540122570e+01    0.1872933    0.1198735 -34.27 0.0004594838    1.543    0.352
       200 -11.5287     60.1385     38.1023   6.7423410717e+01   6.1893964413e+01    0.2117267    0.1882768 -32.61 0.0006413995    1.302    0.232
       201 -11.7358     11.9781     36.6971   8.9263365438e+01   6.8317859991e+01    0.2300016     0.194257  -3.06 0.0008849575    1.174    0.148
       202 -11.5099     43.9693     34.0142   7.2477478621e+01   6.5065313641e+01     0.170703    0.1558731  55.92 0.0005034127    1.604    0.377
       203 -11.0461    106.5757     32.2823   5.0712742935e+01   5.3340464994e+01    0.2257815    0.1265911 -35.12 0.0007951298    1.962    0.490
       204 -11.1818    218.7816     32.3907   3.3575065813e+01   2.7727130135e+01    0.1536897    0.1022732  66.92 0.0002710785    1.533    0.348
       205 -11.6905     31.9757     32.0120   7.7205999608e+01   6.7005130433e+01     0.204653    0.1283568  -7.93  0.001137197    1.679    0.404
       206 -10.5507    155.7634     29.9850   4.0492933084e+01   4.2157020685e+01    0.1551908    0.1102654 -34.66 0.0003564181    1.557    0.358
       207 -11.3361     39.1289     29.0903   7.2592068776e+01   6.6486834853e+01    0.1981688    0.1438743   2.31 0.0007019899    1.262    0.208
       208 -11.3124    101.8409     25.7970   4.9611483368e+01   5.5144088036e+01    0.1779284    0.1511011  85.44 0.0008792136    1.366    0.268
       209 -11.8012     84.1638     24.0492   5.3694616532e+01   5.9131904053e+01    0.2317736     0.188058  62.30  0.001255969    1.327    0.246
       210 -10.6168     20.6015     23.1533   7.9192794247e+01   6.9699162879e+01    0.1660931   0.09125584 -28.22 0.0009400399    1.677    0.404
       211 -10.7919     30.3204     16.6691   7.1214066013e+01   6.9406084164e+01   0.09994023   0.09608893  49.71  0.000704877    1.693    0.409
       212 -10.4844    116.5704     15.5307   4.2882336891e+01   5.2870450387e+01    0.1277193    0.1095608  59.07  6.61671e-05    1.012    0.012
       213 -11.1388     10.5109     15.5419   8.1372988612e+01   7.1868321388e+01    0.1151921   0.08749748  -7.62 7.564016e-05    1.014    0.014
       214 -10.6713    238.3517    248.7741   7.3496147670e+01  -1.0762472668e+01    0.1582167   0.08650415 -26.36 0.0006098805    1.604    0.377
       215 -10.5366    177.8356    249.1530   8.5074986015e+01  -3.2029077514e+00    0.1710096    0.1277185   2.62 0.0002917315    1.268    0.212
       216 -10.8559     92.5624    247.9951   1.0316888737e+02   9.3232482916e+00    0.1710632    0.1265057 -72.13  0.001001543    1.539    0.350
       217 -10.9476     73.0662    246.1857   1.0720643960e+02   1.2369066487e+01    0.1637795    0.1616526  11.30 0.0004496214    1.253    0.202
