#   1 NUMBER                 Running object number                                     
#   2 MAG_AUTO               Kron-like elliptical aperture magnitude                    [mag]
#   3 X_IMAGE                Object position along x                                    [pixel]
#   4 Y_IMAGE                Object position along y                                    [pixel]
#   5 X_WORLD                Barycenter position along world x axis                     [deg]
#   6 Y_WORLD                Barycenter position along world y axis                     [deg]
#   7 A_WORLD                Profile RMS along major axis (world units)                 [deg]
#   8 B_WORLD                Profile RMS along minor axis (world units)                 [deg]
#   9 THETA_WORLD            Position angle (CCW/world-x)                               [deg]
#  10 FWHM_WORLD             FWHM assuming a gaussian core                              [deg]
#  11 ELONGATION             A_IMAGE/B_IMAGE                                           
#  12 ELLIPTICITY            1 - B_IMAGE/A_IMAGE                                       
         1 -13.2017     11.5601     23.9829   9.3194139974e+01   6.9751266983e+01    0.7146316    0.2950041 -26.83  0.003421447    2.481    0.597
         2 -12.0740    247.3910      7.8024   3.2945067866e+01   2.4144078672e+01    0.3226992    0.1589813 -47.70  0.001272591    1.681    0.405
         3 -11.9257     13.0535     12.8080   8.7341909041e+01   7.1433242618e+01    0.3415587    0.2124209 -11.67  0.001757735    1.396    0.283
         4 -12.1498     15.4277      7.0326   8.3126317937e+01   7.2045209488e+01    0.4679673    0.2524525  -8.04  0.002418164    1.915    0.478
         5 -12.8926     24.5108      4.3029   7.6903496717e+01   7.1394675110e+01    0.5505111    0.3043494  19.34  0.003288471    1.726    0.421
         6 -12.2878     19.1744     14.3947   8.4885378779e+01   7.0605194942e+01    0.4000861    0.2039077 -15.37  0.002115374    2.097    0.523
         7 -13.4770    249.1770      3.6730   3.1975216724e+01   2.4211153296e+01     0.988023    0.6019727 -40.85  0.006211109    1.438    0.305
         8 -12.8652      5.8379     11.3871   9.0626480315e+01   7.2265575607e+01    0.7815759    0.3721593 -26.74  0.004473797    1.774    0.436
         9 -11.3587     41.0166      2.6445   6.8301219660e+01   6.9342251638e+01    0.3186476    0.1535009  21.80  0.001604501    2.221    0.550
        10 -10.9339    170.0045      2.0000   3.8296608494e+01   4.1990290874e+01     0.214803   0.06560739  70.78 0.0006099516    2.954    0.662
        11 -12.1665      8.1697      1.9043   8.4415181781e+01   7.3456997819e+01    0.8108275     0.177518  29.49  0.003302329    4.699    0.787
        12 -11.6306     85.1998    244.1118   1.1339458312e+02   1.3140965540e+01    0.2910057    0.1147408  46.17  0.001435605    2.125    0.529
        13 -11.7232    250.0852    232.7707   8.0638098922e+01  -8.9230832677e+00    0.3327903    0.1754015 -21.94  0.001763279    1.739    0.425
        14 -12.7326    243.0269    245.4909   8.3990995588e+01  -9.5621397112e+00    0.6312947    0.3005916 -13.08  0.003172136    2.570    0.611
        15 -12.1450    247.6089    239.1535   8.2151090764e+01  -9.3859359641e+00    0.4309301    0.2196459  -6.69  0.001998483    2.324    0.570
        16 -11.0036    249.6944    249.7653   8.3559212581e+01  -1.0888920753e+01    0.3482135    0.1931061  22.36  0.002191146    1.508    0.337
        17 -11.0438    248.8869    244.9093   8.2897492800e+01  -1.0229883180e+01    0.2883493    0.1861236  -0.92  0.001908993    1.296    0.228
        18  -9.9569    184.3311    250.3172   9.5298467367e+01  -2.1425503855e+00    0.1232619   0.08100981   7.15 0.0007047137    1.686    0.407
        19 -10.9861    168.7292    250.4139   9.8237105051e+01   1.1656059685e-01    0.2418296   0.09618168  39.97  0.001146171    2.142    0.533
        20 -10.7831     74.2819    250.5699   1.1599208529e+02   1.3409884238e+01    0.2260469   0.08469415  41.96  0.001142506    2.146    0.534
        21 -11.4147     64.9215    249.2580   1.1757253970e+02   1.4811334866e+01    0.3343026    0.1491414  46.67  0.001872495    1.815    0.449
        22 -10.8038     50.3903    250.1271   1.2021104622e+02   1.6389314143e+01    0.3442235    0.1304436  38.07  0.001824332    2.302    0.566
        23 -11.2937     36.5132    248.7517   1.2251731737e+02   1.8194388765e+01    0.3722462    0.1719613  55.80  0.002237012    1.773    0.436
        24 -11.2140     20.0563    248.9941   1.2529195928e+02   1.9871736907e+01    0.3352563    0.1486537  52.91  0.002011103    1.751    0.429
        25 -10.9694     12.1606    248.9995   1.2658035572e+02   2.0647542692e+01    0.3157889    0.1405491  53.05  0.001719874    1.722    0.419
        26 -10.4107      3.1067    250.5236   1.2809179162e+02   2.1229112113e+01    0.2309615   0.08446053  35.29  0.001339865    2.643    0.622
        27 -10.7474    178.4956    243.4907   9.5393842841e+01  -3.1027593589e-01    0.1233549    0.1008982  19.66 6.218241e-05    1.024    0.023
        28 -11.5161     56.6998    241.8354   1.1847297088e+02   1.7157071233e+01    0.3885625    0.1562698  55.59  0.001956883    2.332    0.571
        29 -11.8602    226.1975    240.8833   8.6171252838e+01  -6.7831741582e+00    0.2828493    0.1529935  -3.06  0.001432161    2.340    0.573
        30 -11.1179     29.1518    240.3051   1.2326545612e+02   2.0529986348e+01    0.3389994    0.1530078  63.39  0.001935326    1.994    0.499
        31 -11.5511     15.7228    240.1959   1.2555385369e+02   2.1906938619e+01    0.4535924    0.1896916  52.05  0.002726463    1.888    0.470
        32 -10.2764     38.1275    240.2805   1.2169234178e+02   1.9573278229e+01      0.22138    0.1069612  71.11  0.001235037    2.066    0.516
        33 -11.0025     44.7293    245.1556   1.2085820023e+02   1.7936642637e+01    0.2507358    0.1477606  63.33  0.001629733    1.438    0.304
        34 -11.5721    107.0999    240.2009   1.0880075430e+02   1.0824849038e+01    0.2973389    0.1342897  43.82  0.001494861    1.884    0.469
        35 -10.5924    127.9814    240.0000   1.0470175732e+02   7.8210045840e+00    0.2100711   0.06080684  37.54 0.0008076957    2.979    0.664
        36 -11.0093      6.2531    236.1595   1.2693832961e+02   2.3555840973e+01    0.2982791     0.159627  73.57  0.001879538    1.504    0.335
        37 -10.2869     81.6674    236.3242   1.1331202858e+02   1.5036486471e+01     0.126946   0.07624334  64.46 0.0005703779    1.707    0.414
        38 -11.3109    231.8774    234.2584   8.4053589948e+01  -6.7017245028e+00    0.2387552    0.1313332  -7.88  0.001245822    2.099    0.524
        39 -11.0638     72.8831    240.1234   1.1533792631e+02   1.5473731272e+01    0.1910475    0.1333401  63.70  0.001243419    1.273    0.215
        40 -10.7307     14.1317    232.0972   1.2539322032e+02   2.3586566016e+01    0.2951787    0.1529279  64.95   0.00187672    1.595    0.373
        41 -10.5303     39.7546    230.8327   1.2074450922e+02   2.1194883746e+01    0.2347308    0.1025005  57.16  0.001247771    2.076    0.518
        42 -11.5353     25.8162    228.7965   1.2313991874e+02   2.3070194041e+01    0.3701818    0.1595241  79.88  0.001886245    2.500    0.600
        43 -11.2854      4.5103    228.1505   1.2684310443e+02   2.5235320160e+01    0.3592573    0.1650286  66.55  0.002171278    1.831    0.454
        44  -9.6102     32.3192    229.6336   1.2201937129e+02   2.2231452748e+01    0.1241613   0.06369038  66.69 0.0007038593    1.783    0.439
        45 -11.1853    237.0957    227.7787   8.2014577798e+01  -6.5660165564e+00    0.2468442    0.1329467  -8.71  0.001252306    2.165    0.538
        46 -10.4822     11.0459    225.7513   1.2558521587e+02   2.5104098768e+01    0.2744081    0.1291585  67.55  0.001618823    1.850    0.459
        47 -11.8174    249.0736    224.7327   7.9400517392e+01  -7.7784103202e+00    0.3202719    0.1494347 -23.45  0.001651986    2.067    0.516
        48 -11.0349     18.6698    221.6571   1.2398562591e+02   2.5188545897e+01    0.2416576    0.1094011  65.39   0.00133184    2.034    0.508
        49 -10.9032      2.1840    220.9713   1.2688732651e+02   2.6839263197e+01    0.2622091    0.1399574  79.88  0.001581315    1.524    0.344
        50 -11.3038     11.8919    216.6354   1.2491738404e+02   2.6835676955e+01    0.3654498    0.1554094  56.48  0.002046887    2.035    0.509
        51 -10.3032     34.5000    216.9996   1.2071117454e+02   2.4523017169e+01    0.1710774   0.07729195  77.92 0.0008104675    2.542    0.607
        52 -11.5435    248.8045    214.4050   7.7579037549e+01  -6.3829811978e+00    0.3703342    0.1450314 -27.54   0.00168969    2.486    0.598
        53  -9.9035    232.2257    211.2687   7.9907608441e+01  -3.6031606718e+00    0.1524748    0.1381844   8.89 0.0003336945    1.316    0.240
        54 -11.8772     12.5826    205.1615   1.2408235111e+02   2.9133021717e+01     0.340774    0.1795061  63.38  0.002034638    1.682    0.405
        55 -10.9392      2.4418    212.4813   1.2640014150e+02   2.8513577087e+01    0.2448944    0.1437551  70.14   0.00163038    1.377    0.274
        56 -11.6436      3.3993    196.8089   1.2532451079e+02   3.1689023973e+01    0.3178447    0.1571893  71.59  0.001820713    1.821    0.451
        57 -11.3593      4.2014    188.9250   1.2466850166e+02   3.3319951224e+01    0.3366337    0.1419895  63.11   0.00172124    2.330    0.571
        58 -10.7827      1.9765    178.2104   1.2440261701e+02   3.5852930366e+01    0.2289359    0.1169471  86.54  0.001283716    1.684    0.406
        59 -10.6447      6.3902    171.1647   1.2294373561e+02   3.7101585896e+01     0.180204   0.08944768 -89.40 0.0009559596    1.759    0.431
        60 -10.5252      4.4793    153.5046   1.2191649751e+02   4.1318986345e+01    0.1223034   0.09419725 -82.14 0.0008102968    1.009    0.009
        61 -10.7752    248.5861    129.7815   6.0174027075e+01   6.6244475805e+00    0.2022612    0.1094022 -42.31 0.0009508851    1.678    0.404
        62 -11.6794    248.9105    118.6206   5.7610201278e+01   8.3908347850e+00     0.286836    0.1738525 -40.18  0.001371147    1.421    0.296
        63 -12.0664    248.1286    105.4793   5.4727136350e+01   1.0665239992e+01    0.5523386    0.1058493 -41.89  0.001578049    4.467    0.776
        64 -11.6432    249.5489     87.2782   5.0363142804e+01   1.3265088116e+01    0.3449464    0.1186238 -32.98  0.001306894    2.616    0.618
        65 -11.5672    250.0000     57.5151   4.3539580482e+01   1.7546740749e+01    0.4391091   0.06410757 -33.05  0.001158045    5.952    0.832
        66 -11.3568      2.7039     50.9343   1.0657248574e+02   6.5157851658e+01    0.4214348    0.1077522 -52.99  0.001851857    2.405    0.584
        67 -11.3939     18.1952     31.3145   9.2868105010e+01   6.7925263353e+01    0.3120654    0.1081408 -37.37  0.001412002    2.377    0.579
        68 -11.7804    225.9594    248.2880   8.7414379924e+01  -7.6817572150e+00    0.2830487    0.1706228  15.86  0.001730902    1.462    0.316
        69 -11.7754      1.6398     25.0667   9.8792296373e+01   7.0251673873e+01    0.4048181    0.1095786 -52.38  0.001782119    2.839    0.648
        70 -10.8929     21.3056     23.2110   8.7922421236e+01   6.9019374334e+01    0.2749573    0.1415502   5.29  0.001412595    2.351    0.575
        71 -10.6284    202.9981    249.5039   9.1731639772e+01  -4.6942358554e+00    0.1844695   0.09749849  32.34   0.00103264    1.591    0.372
        72 -11.6757     25.7196     16.7384   8.2719807197e+01   6.9562361830e+01    0.2869148    0.1578906 -10.59  0.001550159    1.937    0.484
        73 -12.3292    212.8753    247.7255   8.9662058252e+01  -5.8373654177e+00    0.4265411    0.2369251  11.36  0.002294532    2.012    0.503
        74 -12.2906    142.6392    248.0209   1.0287875705e+02   4.3284423554e+00    0.3849623    0.1629695  35.78  0.001862016    2.035    0.509
        75 -12.5279    234.3107    244.4992   8.5335088403e+01  -8.3186542454e+00    0.4110149    0.2266547   5.62  0.002267268    1.977    0.494
        76 -10.4298     34.1692     16.6027   7.8602016289e+01   6.8577339357e+01    0.1709905   0.09748298  17.87  0.000700287    1.766    0.434
        77 -10.0530     27.1245    248.6985   1.2410220615e+02   1.9202701817e+01    0.1806352   0.09591374  56.82  0.001185518    1.486    0.327
        78 -11.9796    126.9895    248.1400   1.0588729884e+02   6.6014302097e+00    0.2985185    0.1524795  37.98  0.001416048    1.654    0.395
        79 -10.1144     40.4974     11.4840   7.3169381912e+01   6.8403446278e+01    0.1244871   0.09394246  -0.32 0.0008102086    1.036    0.035
        80 -11.6938     97.1717    244.4961   1.1117043234e+02   1.1453515827e+01    0.3275341    0.1393359  42.67  0.001656505    1.951    0.487
        81 -11.6725      3.2243    243.0948   1.2775405546e+02   2.2552047020e+01    0.3612137    0.1792665  68.18   0.00238609    1.592    0.372
        82 -11.6171    115.7223    244.1529   1.0758251311e+02   8.9006196836e+00    0.2273305    0.1406503  47.01  0.001333367    1.405    0.289
