#   1 NUMBER                 Running object number                                     
#   2 MAG_AUTO               Kron-like elliptical aperture magnitude                    [mag]
#   3 X_IMAGE                Object position along x                                    [pixel]
#   4 Y_IMAGE                Object position along y                                    [pixel]
#   5 X_WORLD                Barycenter position along world x axis                     [deg]
#   6 Y_WORLD                Barycenter position along world y axis                     [deg]
#   7 A_WORLD                Profile RMS along major axis (world units)                 [deg]
#   8 B_WORLD                Profile RMS along minor axis (world units)                 [deg]
#   9 THETA_WORLD            Position angle (CCW/world-x)                               [deg]
#  10 FWHM_WORLD             FWHM assuming a gaussian core                              [deg]
#  11 ELONGATION             A_IMAGE/B_IMAGE                                           
#  12 ELLIPTICITY            1 - B_IMAGE/A_IMAGE                                       
         1 -13.5403     65.0754     52.9918   7.0186402440e+01   5.8924749154e+01     1.307052    0.7073457 -24.95  0.005834096    2.164    0.538
         2 -15.0117      6.3074     68.8699   1.0157560621e+02   6.2310241462e+01     1.328031    0.7480488 -60.92  0.005417874    1.583    0.368
         3 -14.3291    212.4526     41.2991   3.4289908892e+01   2.8123636013e+01     2.126089     1.036812  87.07  0.009848082    2.517    0.603
         4 -14.2850    166.6441     29.2677   3.6989061733e+01   3.9810308077e+01     1.073204    0.7640435  76.54  0.004974462    1.258    0.205
         5 -13.0093    132.1789     32.9457   4.3706935138e+01   4.7501689024e+01    0.5446113    0.4908611  11.28  0.001772716    1.290    0.225
         6 -14.3473    147.6537     29.3433   3.9870205901e+01   4.4260614864e+01     1.350842    0.8078257  57.26  0.007073253    1.481    0.325
         7 -13.5547      3.0047     10.1904   8.3522758223e+01   7.3490456821e+01     0.807385    0.5175899 -36.52  0.005450628    1.479    0.324
         8 -12.9454      8.0453      2.7117   7.6415673072e+01   7.4052351117e+01    0.5460298    0.3547915  35.47  0.002494109    2.006    0.501
         9 -15.8814     12.7352     21.4196   8.2660096555e+01   7.0947688671e+01     1.910003     1.006435 -22.36   0.00871568    1.748    0.428
        10 -14.5691    217.2665     13.0763   2.8009029927e+01   3.0482201998e+01     1.078947    0.9943486 -53.86  0.006971958    1.357    0.263
        11 -13.3040     55.3981     27.3178   6.3868314577e+01   6.4418010664e+01    0.7041773     0.371739  38.70  0.003636857    1.675    0.403
        12 -11.9600     63.5825     25.2678   5.9754388946e+01   6.3226949349e+01    0.4968795    0.3121479   6.40  0.002378373    1.861    0.463
        13 -12.6563    120.7101     26.1745   4.3889635773e+01   5.0950144399e+01    0.5870288    0.3444849  52.48   0.00273358    1.460    0.315
        14 -11.9148     46.8873     20.6094   6.4536583130e+01   6.6677223912e+01    0.3704871     0.255133  14.12   0.00222548    1.297    0.229
        15 -15.0661     99.0682     11.7605   4.3704908095e+01   5.7293356086e+01     1.408103    0.7047026  60.08  0.006539533    1.693    0.409
        16 -12.4499     85.4777     13.8357   4.7927154196e+01   6.0070948937e+01    0.4052658    0.3157908  16.05  0.001825611    1.324    0.244
        17 -11.8215     83.8761      9.1422   4.6516481270e+01   6.0829371655e+01    0.2954314    0.2309751  65.92   0.00151268    1.347    0.257
        18 -12.4212     70.0497     16.1253   5.3563364685e+01   6.3013483684e+01    0.3702011    0.3115232  66.15  0.002189324    1.508    0.337
        19 -13.6116    187.6192     11.3247   3.0205893388e+01   3.6977321864e+01    0.9981338    0.4974019 -45.73  0.005457834    1.923    0.480
        20 -11.5665     46.8399     13.2485   6.1135698272e+01   6.7544395893e+01    0.2756096    0.2149662  34.29  0.001467697    1.231    0.188
        21 -13.8451    122.0210     36.6645   4.6990654537e+01   4.9434855886e+01    0.9423476    0.5263204  39.25  0.004404582    1.902    0.474
        22 -13.8299     41.6850      4.4484   5.9098269247e+01   6.9308056469e+01    0.6995233     0.477287  22.14  0.004173854    1.180    0.153
        23 -11.5872    152.8630      9.1203   3.3536933104e+01   4.5095233186e+01     0.271365    0.1657564  60.52  0.001317422    1.422    0.297
        24 -11.7024     59.2265     16.1355   5.7436473397e+01   6.5067247048e+01    0.4089966    0.2743345  38.50  0.002452505    1.249    0.199
        25 -11.0330    133.3965      8.7787   3.6191131481e+01   4.9665363727e+01    0.2205166    0.1450515  68.08 0.0002907207    1.265    0.209
        26 -10.8777    145.0644      8.2066   3.4323626151e+01   4.6991902087e+01    0.1811294    0.1408085  61.99 0.0003186373    1.147    0.128
        27 -10.7120     59.2077      7.9761   5.3762912779e+01   6.5883777883e+01    0.2338172    0.1214928  36.56  0.001256242    1.601    0.375
        28 -11.8683    120.4476      3.6839   3.6721801385e+01   5.3089448436e+01    0.3591042    0.1828988  77.00  0.001765088    1.968    0.492
        29 -11.1197    117.0549      1.5040   3.6600276719e+01   5.4036140279e+01    0.2708881    0.1409014  60.69 0.0009956256    1.509    0.338
        30 -11.4292    232.8194      1.9046   2.4804612412e+01   2.8569703590e+01    0.2496345    0.1361776  78.13  0.001249068    1.637    0.389
        31 -11.1079    170.1048      1.7043   2.9687402680e+01   4.1801112005e+01    0.3429405   0.09690992  65.16  0.001460328    2.704    0.630
        32 -11.4663     81.1713      1.5986   4.4222356274e+01   6.2004403987e+01    0.4794191   0.09256502  55.63  0.001750645    3.337    0.700
        33 -11.5409     61.2689      1.6495   5.0154176895e+01   6.6036731632e+01    0.3857316    0.1341493  55.98    0.0015862    2.685    0.628
        34 -13.5573    189.0886     26.1185   3.3439719539e+01   3.5054627880e+01     1.215524    0.5242507 -59.24  0.005353216    2.677    0.626
        35 -14.0528     25.1724     13.9181   7.2043387762e+01   7.0654636822e+01    0.7329804    0.3182545  30.13  0.003673209    2.047    0.512
        36 -11.8674     12.7350    149.6073   1.1205899248e+02   4.2015696494e+01    0.4793771    0.1650947 -81.96    0.0016697    3.248    0.692
        37 -13.8011     92.5122    230.5348   1.0047918069e+02   1.2743723290e+01    0.6730433    0.6035263 -32.45  0.004074664    1.283    0.220
        38 -13.0208    107.7169    247.6301   9.9048510716e+01   7.0538637697e+00    0.7873196    0.4903432  69.97  0.003741655    2.420    0.587
        39 -13.2500     98.7751    238.7953   1.0002110909e+02   1.0104251070e+01     1.021024    0.4459407  35.28   0.00449121    1.963    0.491
        40 -11.9801     51.5251    248.5732   1.1157117080e+02   1.4296160622e+01    0.4063951    0.3096233 -66.05  0.002582942    1.457    0.313
        41 -11.7552     60.6755    246.0242   1.0938146971e+02   1.3705918624e+01    0.3908103    0.2505293 -10.11  0.001808033    3.056    0.673
        42 -12.5817      2.8401    248.8841   1.2144280122e+02   1.9398255604e+01    0.4771879    0.3029157  78.15  0.002773923    1.319    0.242
        43 -13.4284      9.4407    245.8885   1.2002645806e+02   1.9389654830e+01    0.7531639    0.3685929  62.11  0.003501231    1.751    0.429
        44 -11.3528    103.3582    150.1156   8.4330763521e+01   3.0500729937e+01    0.4033982    0.2537767 -29.25  0.001596086    2.006    0.502
        45 -11.7863      8.0281    144.6289   1.1292135618e+02   4.3621197613e+01    0.4713426    0.2807723 -32.38  0.002379009    1.966    0.491
        46 -12.3282     60.2315    147.3526   9.7050867204e+01   3.7877390023e+01    0.5039893    0.3869662  13.23  0.002504276    1.475    0.322
        47 -11.3751     74.0918    145.1988   9.2266440025e+01   3.6529719567e+01    0.2851411      0.23688 -79.16 0.0009170053    1.298    0.230
        48 -11.3378     38.1363    145.8886   1.0379916798e+02   4.0810306874e+01    0.2184516    0.1884134  80.46 0.0005696726    1.205    0.170
        49 -12.4484     44.9815    135.3737   9.9879635091e+01   4.2865705172e+01    0.5583541    0.2994132 -55.21  0.002234732    1.642    0.391
        50 -12.7188    246.5430    135.0514   4.9462760791e+01   6.8519746370e+00    0.3705809    0.2643012  86.24  0.001964731    2.380    0.580
        51 -10.5894     10.9112    133.7621   1.1078466494e+02   4.6236210266e+01     0.176128    0.1670988 -57.10 0.0006396631    1.127    0.112
        52 -11.9592    135.9205    132.6383   7.1089747758e+01   2.8511341933e+01    0.5093025    0.2223463  39.99  0.001778302    2.342    0.573
        53 -12.1417    222.6991    128.1283   5.1685508764e+01   1.2095918517e+01    0.2265731     0.197629  75.71  0.001347602    1.391    0.281
        54 -14.6169    106.2029    105.6518   7.2593703732e+01   4.0767022733e+01     2.470571      1.19196 -35.03  0.008747542    2.473    0.596
        55 -13.5645     85.0339    114.4793   8.1773613827e+01   4.2617813963e+01     1.335758     0.974765  28.24  0.005316618    1.413    0.292
        56 -13.6488    108.5536    124.3948   7.6804783891e+01   3.5932240724e+01    0.9420896    0.6629683  21.69  0.004099778    1.625    0.385
        57 -12.7166     28.5040    122.0740   1.0320228634e+02   4.7944402288e+01    0.4145649    0.3624235 -65.16  0.002428546    1.067    0.063
        58 -13.2476     95.4137    110.4264   7.7298880790e+01   4.1740906903e+01    0.9866689     0.648254 -53.58  0.003617577    1.577    0.366
        59 -13.4803    111.3193    117.2179   7.4139124146e+01   3.7095173463e+01    0.8637248    0.4395351  27.09    0.0030084    2.567    0.610
        60 -11.9142    181.4892    120.9997   5.7561102450e+01   2.1480870036e+01    0.2857452    0.2147283  67.94  0.001010825    1.625    0.384
        61 -11.9779      4.1467    119.8011   1.1125065560e+02   5.0200412971e+01    0.5183202    0.2072986  17.21  0.002034916    2.867    0.651
        62 -11.8007     42.5228     90.9097   9.1369609859e+01   5.4317238791e+01    0.3252655    0.2425127 -52.77 0.0006342007    1.267    0.211
        63 -11.5484     34.4300     86.8245   9.3640690290e+01   5.6118101369e+01    0.3945668    0.2508037 -12.84  0.001516585    1.745    0.427
        64 -13.4178      2.3032     97.1772   1.0869408801e+02   5.5909717513e+01    0.8439025    0.4109627 -76.07  0.003150912    2.010    0.502
        65 -12.4778     36.6706     93.1152   9.4268820906e+01   5.4416402760e+01    0.4870192    0.3137592   5.17  0.001519887    1.730    0.422
        66 -14.2875     18.0761    110.9177   1.0504364495e+02   5.1600506633e+01     1.065436    0.6818457 -56.36  0.003908147    1.298    0.230
        67 -13.8187     11.6663    103.9698   1.0625126772e+02   5.3751167483e+01     0.644387    0.5963371 -42.85  0.003719594    1.114    0.103
        68 -14.5954     22.9109     95.0175   1.0021558138e+02   5.5179916662e+01     1.430178     1.002121  11.32  0.007113273    1.558    0.358
        69 -13.0373     29.5562     89.3856   9.6274017870e+01   5.5974695939e+01    0.9260187      0.51283  60.72  0.003539701    3.668    0.727
        70 -12.2656    121.4532    112.3688   6.9898854689e+01   3.6146360585e+01    0.3862556       0.3151  76.00  0.001133709    1.559    0.359
        71 -11.6404     41.8560    107.2364   9.5486177697e+01   5.0438674753e+01    0.2980134    0.1610152  27.28  0.001133015    1.963    0.490
        72 -11.9888     62.5281    109.9852   8.8491628676e+01   4.7213286267e+01    0.6454126    0.4789975  74.66  0.002967208    1.957    0.489
        73 -12.4549    136.0379    103.1342   6.3440449759e+01   3.5019525538e+01    0.6594989    0.3506416  48.63  0.001400562    1.910    0.476
        74 -13.1951    123.4102    102.0355   6.6534124277e+01   3.7996512239e+01     1.308374    0.3725228  43.09  0.003784794    3.520    0.716
        75 -12.1158     51.1119     98.8758   9.0006271148e+01   5.1419069586e+01    0.7054843    0.3524994 -16.56   0.00232193    3.744    0.733
        76 -11.7418     45.8437     98.8441   9.2031069253e+01   5.2055446015e+01    0.3595166    0.3200742  75.92   0.00164882    1.409    0.290
        77 -12.3170     49.5157     93.7823   8.9329084861e+01   5.2825109123e+01    0.4096537    0.3746591 -80.33  0.001498845    1.323    0.244
        78 -12.2191    163.4923     98.3126   5.5690025917e+01   2.9857979145e+01    0.3479005    0.3022616 -79.06 0.0006452434    1.254    0.202
        79 -12.0110     60.7323     97.8578   8.6083250755e+01   5.0391182363e+01    0.4168913    0.3261906  57.01  0.002085923    1.649    0.393
        80 -13.1403    136.3218     95.2957   6.1213944495e+01   3.6559349219e+01    0.5289914    0.4085866  50.34  0.002153484    1.295    0.228
        81 -13.1528    188.1263     84.4837   4.7522967484e+01   2.6887433682e+01    0.6872643      0.32689  44.07  0.002398856    2.553    0.608
        82 -12.5266    237.4110     80.3838   3.9654957051e+01   1.7515676853e+01    0.3388969    0.2405821 -87.12  0.002006544    1.578    0.366
        83 -12.4718    159.7023     68.0127   4.8436509800e+01   3.6099575271e+01    0.8442813    0.2789198 -47.63  0.002772288    3.483    0.713
        84 -13.8773    164.5017     71.8271   4.8541296334e+01   3.4363037380e+01     1.366957    0.5272042  48.72  0.005072596    2.649    0.623
        85 -13.7011    160.8257     81.1050   5.1729116313e+01   3.3634859659e+01     0.895522    0.5520572  26.36   0.00356501    2.650    0.623
        86 -14.3427    169.5206     77.0052   4.8955069979e+01   3.2342927945e+01     1.509008    0.4523126  55.05  0.005002491    3.267    0.694
        87 -10.5070     98.3458     84.2959   6.8861571427e+01   4.6910472739e+01    0.1567793    0.1159999   4.40 0.0003842911    1.671    0.402
        88 -12.0527     47.5956     82.0886   8.6925932015e+01   5.5737609246e+01    0.4291216    0.3623795  27.53  0.001940391    1.280    0.219
        89 -12.4334     28.3730    245.9113   1.1622955458e+02   1.7470728104e+01    0.4581421    0.3142631  59.57  0.002915832    1.211    0.174
        90 -13.5148     53.7324     68.6302   8.0269944000e+01   5.7782106219e+01     1.701113    0.6840712  32.29  0.006858593    2.461    0.594
        91 -13.4222     87.2095     65.3295   6.6437851429e+01   5.2730064011e+01     0.996296    0.5964655  13.05  0.003979639    2.565    0.610
        92 -13.0522     54.4230     82.0935   8.4150253712e+01   5.4852053794e+01    0.5758165    0.4569387 -51.18   0.00246701    1.305    0.234
        93 -14.0604     61.2815     75.7036   7.9464018657e+01   5.5235901020e+01    0.7445732    0.4893834 -28.52  0.001390487    1.542    0.351
        94 -13.0387     71.1361     75.3192   7.5524368743e+01   5.3748310931e+01    0.6561785    0.4334944   3.76  0.002183629    1.910    0.476
        95 -12.4021     77.1706     73.3198   7.2636819451e+01   5.3106412861e+01     0.564679    0.3451681 -22.10  0.001593562    2.005    0.501
        96 -13.2804    214.0808     78.9533   4.2298892712e+01   2.2295512449e+01    0.9190109    0.5165433  81.28  0.004156067    2.484    0.597
        97 -12.4726    218.2480     74.3813   4.0748230553e+01   2.2172569762e+01    0.3001521    0.2198144 -81.41  0.001390196    1.436    0.304
        98 -12.1300    214.9498     71.7040   4.0591064076e+01   2.3260614461e+01    0.2815926    0.2196026 -87.75   0.00120626    1.293    0.226
        99 -12.7318    135.7258     79.8655   5.6988156639e+01   3.9642301009e+01    0.6868717    0.3544061  51.35  0.002237707    1.889    0.471
       100 -11.9449    114.1822     80.2013   6.2798872514e+01   4.4401441720e+01    0.3686095    0.3482024 -47.91  0.001133189    1.130    0.115
       101 -11.7260     42.0667     77.3234   8.7871401423e+01   5.7448860334e+01     0.511777    0.2236582 -57.05  0.002082546    2.411    0.585
       102 -13.6981    171.5772    242.8460   8.4137455108e+01  -1.2638273828e+00    0.8074234    0.5301529  12.75  0.004389317    1.460    0.315
       103 -13.7081    199.1583     70.0474   4.2372276515e+01   2.6847273649e+01    0.7514777     0.497308  48.55  0.002802998    1.731    0.422
       104 -12.2514    200.1210     61.8950   4.0352474758e+01   2.7883544052e+01    0.3701275    0.2961092 -30.35  0.001470677    1.440    0.306
       105 -12.7673    134.5265     65.8896   5.3177771292e+01   4.2329754084e+01    0.6291296    0.5043781  49.69  0.002255209    1.183    0.155
       106 -11.2672    100.0006     65.6931   6.2419076143e+01   5.0070945321e+01    0.2148376    0.1784377  38.69 0.0006258813    1.131    0.116
       107 -12.1461     31.6649     63.1183   8.8219285601e+01   6.1590612750e+01    0.5559118    0.3226468 -59.85  0.002723741    2.028    0.507
       108 -12.0771     24.8036     59.2757   9.0249752642e+01   6.3037576084e+01    0.4368706    0.2888699 -42.46  0.001773258    1.312    0.238
       109 -13.5017    177.8864     57.6594   4.2568800568e+01   3.3476828661e+01    0.7973216    0.5434241 -52.47  0.002846964    1.449    0.310
       110 -12.6002     78.8709     60.6130   6.7727260382e+01   5.5155381358e+01    0.5012298    0.4333392  39.25  0.002497708    1.200    0.167
       111 -13.1332     81.8875     54.6763   6.4562829242e+01   5.5586968364e+01    0.7316121     0.486769  28.33  0.003006994    1.478    0.323
       112 -11.1989     38.8674     60.3159   8.4010166637e+01   6.1362189333e+01    0.2711021    0.2085974  49.32  0.001498485    1.838    0.456
       113 -14.5896    120.2398     54.7176   5.3195652086e+01   4.7381895088e+01      1.10859     0.570678  45.16  0.002625817    1.832    0.454
       114 -11.8334    136.2947     49.7519   4.7961405408e+01   4.4365389957e+01    0.3785963    0.2906697  40.22  0.001180352    1.339    0.253
       115 -11.7614    247.8689     54.4518   3.3470375109e+01   1.9391079562e+01    0.4223208    0.1779695 -56.02  0.002087801    2.186    0.543
       116 -11.7787    249.1399     49.0773   3.2343161879e+01   1.9890897413e+01    0.2481646    0.2131906  54.95  0.001486252    1.598    0.374
       117 -10.4042     46.9803     56.4783   7.9046592568e+01   6.1071018958e+01    0.1787256    0.1093462  49.90 0.0008097708    2.505    0.601
       118 -11.3276     17.7443     55.3455   9.2471618079e+01   6.4432651092e+01    0.3153947    0.1778913 -51.27  0.001691532    1.605    0.377
       119 -13.6479    102.9105     50.3880   5.6405093178e+01   5.1909078505e+01    0.8724122    0.5965061 -59.92  0.003146901    2.106    0.525
       120 -13.0557     97.8148     50.5914   5.7967579526e+01   5.2978460630e+01     0.395885    0.3799793  39.61  0.001474295    1.118    0.105
       121 -11.7995     36.3028     53.4077   8.2837479010e+01   6.2994801155e+01    0.5068524    0.2569732  -5.34  0.002021603    3.061    0.673
       122 -11.3709     26.8532     75.3238   9.3913803489e+01   5.9436769811e+01    0.4804821     0.293932 -81.84  0.002110037    2.830    0.647
       123 -10.7799     22.7526     50.4458   8.8400865533e+01   6.4972424822e+01    0.3010305    0.1434856   7.76   0.00138498    2.383    0.580
       124 -13.0789    157.6426     44.1991   4.2332753435e+01   4.0075441315e+01    0.8484978    0.4532853  45.09  0.003871597    2.075    0.518
       125 -12.1112    147.3207    239.0396   8.8900187057e+01   2.9289804787e+00    0.1863671    0.1722364  -2.76 0.0009098083    1.116    0.104
       126 -12.6758     24.4758    217.2919   1.1509808706e+02   2.4160846301e+01    0.6756545    0.3054601  50.33  0.003263673    2.004    0.501
       127 -12.2687    109.5926     42.0984   5.1763081937e+01   5.1590109505e+01    0.5019286    0.2122488  51.91  0.001347082    2.072    0.517
       128 -12.2653     14.0248    222.0498   1.1773855090e+02   2.4092147029e+01    0.4071857    0.2898291 -84.87  0.001759619    1.264    0.209
       129 -13.6425     25.9998    226.8183   1.1544843718e+02   2.1841705843e+01    0.8689222    0.3760476 -54.72  0.004030139    2.661    0.624
       130 -12.7465    113.6364     38.0658   4.9394982040e+01   5.1194400729e+01    0.4346861    0.2933613  63.54  0.002110845    1.465    0.317
       131 -13.1291    138.8970     21.7390   3.9129679598e+01   4.7150204554e+01    0.8479209     0.273527  63.69  0.001883735    2.605    0.616
       132 -12.4450     75.5651     37.2610   6.0268499177e+01   5.9422872051e+01    0.3881677    0.2299122  43.65  0.001053938    1.520    0.342
       133 -11.8287     70.4818     36.4909   6.1788031108e+01   6.0495934373e+01    0.3024111    0.2525211  40.31  0.001495874    1.216    0.178
       134 -13.2280     91.7051     58.0691   6.2465362526e+01   5.3078179994e+01    0.5113115    0.4824825 -11.88  0.001814279    1.115    0.103
       135 -12.8872    242.5634     35.6138   3.0364469034e+01   2.2862325672e+01    0.5241853    0.3729219  69.62  0.002579481    1.520    0.342
       136 -10.6040    104.3789     37.1267   5.1418840376e+01   5.3402707899e+01     0.185761     0.123015 -43.21  0.000948856    1.768    0.434
       137 -11.1365     35.2336     35.0219   7.6338149825e+01   6.6325108033e+01    0.2964705    0.1915906 -16.81  0.001167606    1.470    0.320
       138 -12.8230     45.0628     33.5997   7.1063386979e+01   6.5187464058e+01    0.7154769      0.49736  34.96  0.003933851    1.442    0.306
       139 -13.3754     20.1141    224.3707   1.1656629974e+02   2.2983845913e+01    0.6060263    0.4771262 -67.97  0.002710563    1.346    0.257
       140 -13.4866     64.9577    223.6740   1.0624370715e+02   1.8025856261e+01     1.052123      0.69391  45.44  0.005638958    1.368    0.269
       141 -12.7690     59.4800    212.9954   1.0642187080e+02   2.1203199585e+01    0.3624694    0.2238722 -55.55 0.0009932795    1.702    0.412
       142 -13.4966    216.9370     28.6990   3.1202715195e+01   2.8769144521e+01    0.5798976    0.2723599 -60.15  0.002955129    2.072    0.517
       143 -13.8155     64.0763    214.5011   1.0545957382e+02   2.0260990224e+01    0.7434562    0.4630271  45.99  0.003770219    1.487    0.328
       144 -12.1641     94.5056    218.4458   9.8445775745e+01   1.5130141554e+01    0.2624432    0.2361096  42.92  0.001309511    1.026    0.025
       145 -12.1176      4.0762    212.1155   1.1930001901e+02   2.7239636026e+01    0.4741098     0.196791 -86.58  0.002232677    2.235    0.553
       146 -10.3860    136.5167    211.4624   8.7058802547e+01   1.0147535118e+01    0.1451499    0.1331511  16.33 0.0003235724    1.006    0.006
       147 -10.4001     98.8221     27.3831   4.9427332148e+01   5.5794004111e+01    0.1980923    0.1020784  46.52  0.000942283    1.658    0.397
       148 -11.0457     30.7917     25.6408   7.4552592071e+01   6.8323541459e+01    0.3042951    0.1448378  20.96  0.001498737    2.101    0.524
       149 -11.1347     36.2102     23.6153   7.0906891107e+01   6.7889651878e+01    0.2824935    0.2131636 -16.62  0.001828612    1.224    0.183
       150 -11.6192     72.6074    207.4404   1.0249502123e+02   2.0806667869e+01    0.3740219    0.2518777 -71.72  0.001879527    1.542    0.352
       151 -11.3419     51.5096     20.5562   6.2514586289e+01   6.5922200070e+01    0.2750084    0.1500915  37.09 0.0009563066    1.573    0.364
       152 -12.8646    223.8974     20.7440   2.9004744479e+01   2.8286520446e+01     0.330681     0.263658  83.57  0.001575065    1.214    0.177
       153 -10.3138    149.6557    207.3184   8.3190731872e+01   8.8916291987e+00    0.1444924    0.1143403  64.51 0.0007049151    1.722    0.419
       154 -11.9478     41.1421    206.8504   1.1028800612e+02   2.4856790454e+01    0.2209052    0.1632371  66.86  0.001240825    1.277    0.217
       155 -11.9764     57.5509    203.4667   1.0584156419e+02   2.3735198901e+01    0.5685909    0.2765904  87.29  0.002112952    3.103    0.678
       156 -13.4974     15.2148    197.4366   1.1576151244e+02   2.9739423276e+01    0.8367794    0.4442291 -68.20  0.004315523    1.694    0.410
       157 -13.3662     40.1919    195.3476   1.0938067943e+02   2.7776970926e+01    0.6887068    0.3145718  50.82  0.002954562    2.237    0.553
       158 -12.7283     22.5166    166.8596   1.1110923740e+02   3.6773465033e+01    0.3927513    0.2949399  12.44 0.0003414888    1.607    0.378
       159 -13.5133     29.8949    169.2671   1.0931159162e+02   3.5477698730e+01     1.014644    0.6560884 -35.76  0.003802567    1.868    0.465
       160 -13.5437     22.2676    181.2173   1.1261589691e+02   3.3123863994e+01     1.027893    0.3845437 -61.07  0.004308192    2.314    0.568
       161 -12.8168      3.7698     43.2993   9.5973295922e+01   6.7765340897e+01    0.5107573    0.3216581 -13.22  0.003117657    1.420    0.296
       162 -10.3358    123.4783     11.4887   3.8663995395e+01   5.1741301148e+01    0.1286597    0.1067074  61.27 0.0003664893    1.020    0.020
       163 -15.3030      8.1968    183.4610   1.1640498731e+02   3.3750212052e+01     1.633896     1.082006 -79.18   0.00933929    1.294    0.227
       164 -15.1485     15.8277    175.4916   1.1377590626e+02   3.5131536099e+01     2.579827     1.195828  70.97    0.0107333    2.613    0.617
       165 -11.7131    200.7927    191.8264   6.8895771949e+01   3.7131670875e+00    0.2956059    0.2353341 -24.38  0.001076749    1.115    0.103
       166 -10.9399     79.8130    192.8921   9.8656372058e+01   2.3357465941e+01    0.4076252    0.1235661  39.79  0.001347577    3.007    0.667
       167 -11.4030     97.9712    188.0000   9.3011025118e+01   2.1830422528e+01    0.2522448    0.0838083  32.38 0.0008035945    2.950    0.661
       168 -11.6321     48.9592    182.2916   1.0558474726e+02   3.0085538356e+01    0.3786145    0.2151042 -58.31  0.001760176    1.667    0.400
       169 -11.9121    198.4480    181.6681   6.7368770505e+01   6.0414484441e+00    0.2875753    0.2696807 -13.16  0.001713536    1.131    0.116
       170 -12.2754    123.9470    167.0575   8.2065767649e+01   2.2577708105e+01    0.5955925    0.3807247  89.96  0.002040796    3.212    0.689
       171 -12.1929     11.7356     43.6873   9.1822029049e+01   6.7171990292e+01    0.4448491    0.2388621 -11.42  0.001817055    1.879    0.468
       172 -12.1035     25.1243    159.0921   1.0949997220e+02   3.8562620665e+01    0.3941469     0.280155 -14.96  0.002052766    1.814    0.449
       173 -12.1805     76.8987    156.7774   9.3595695935e+01   3.3076385583e+01    0.5559872    0.3344066  26.62  0.001735355    1.780    0.438
       174 -13.2896     73.2927    153.7994   9.4148086466e+01   3.4385765719e+01    0.8237134    0.5887129  17.16  0.003158926    1.590    0.371
       175 -12.3481    208.9445    155.4074   5.9885630666e+01   9.3834838879e+00    0.5474274    0.2451589  34.67  0.002179834    2.723    0.633
