#   1 NUMBER                 Running object number                                     
#   2 MAG_AUTO               Kron-like elliptical aperture magnitude                    [mag]
#   3 X_IMAGE                Object position along x                                    [pixel]
#   4 Y_IMAGE                Object position along y                                    [pixel]
#   5 X_WORLD                Barycenter position along world x axis                     [deg]
#   6 Y_WORLD                Barycenter position along world y axis                     [deg]
#   7 A_WORLD                Profile RMS along major axis (world units)                 [deg]
#   8 B_WORLD                Profile RMS along minor axis (world units)                 [deg]
#   9 THETA_WORLD            Position angle (CCW/world-x)                               [deg]
#  10 FWHM_WORLD             FWHM assuming a gaussian core                              [deg]
#  11 ELONGATION             A_IMAGE/B_IMAGE                                           
#  12 ELLIPTICITY            1 - B_IMAGE/A_IMAGE                                       
         1 -13.8877    203.5300     52.1647   5.5306730027e+00   2.7107869718e+01     1.253279      1.00842  29.74  0.004610896    1.636    0.389
         2 -13.2751    234.6207     26.1350   3.5662580060e+02   2.3768433339e+01    0.8364055     0.690636 -46.33  0.004008762    1.097    0.089
         3 -10.0209    227.3306      9.5480   3.5332472429e+02   2.6983084559e+01    0.2216856    0.1766353 -54.93 0.0006973788    1.034    0.033
         4  -9.7937     21.0000      3.9953   3.7636745470e+01   7.6817399645e+01    0.2030183   0.06823412 -40.88 0.0008109895    3.002    0.667
         5  -9.4272     41.5178      1.5020   2.1856779453e+01   7.3477823632e+01    0.1320842    0.1140323  26.48 -4.178219e-05    1.002    0.002
         6  -9.6585    125.3766    237.3922   5.8559063582e+01   9.7676814348e+00     0.189572    0.1125085 -44.93 0.0007431014    2.079    0.519
         7  -9.8892    101.4016    250.2849   6.4940951245e+01   1.0813163709e+01    0.1998237    0.1704304  43.33  0.000958857    1.197    0.165
         8 -10.3337    101.2296    246.4049   6.4619018673e+01   1.1447661178e+01    0.3925087    0.2491378  69.38  0.002256298    2.319    0.569
         9  -8.7539     75.0000    250.0609   7.0491551242e+01   1.4045473459e+01    0.1656891    0.1109923 -72.14 0.0007394603    1.932    0.483
        10 -11.5514     76.1523    244.7451   6.9844893423e+01   1.4799384787e+01    0.2182719    0.1939775  37.70 0.0004209793    1.175    0.149
        11 -14.7085     70.1917    148.4121   6.0810856966e+01   3.6020008586e+01     3.227776     2.021188  83.78    0.0125305    2.082    0.520
        12  -8.8308    165.0240    210.9267   4.6725248773e+01   8.4484643751e+00    0.1468991    0.1254612  -7.38 0.0009115188    1.161    0.139
        13 -10.6208    117.0496    200.6855   5.5816856354e+01   1.7284955666e+01    0.3712271    0.1588442  48.75  0.001470796    2.728    0.633
        14 -10.1428    192.4828    193.9704   3.8586297964e+01   7.0875241899e+00    0.3902373    0.2344106 -61.11  0.001574906    4.611    0.783
        15  -9.7175    211.0233    198.7575   3.6047050826e+01   3.8639092096e+00    0.1890534    0.1439328 -12.08 0.0004519326    1.128    0.113
        16 -11.5450     68.9059    193.7183   6.6978096420e+01   2.5569565346e+01    0.3865332    0.2397761  69.57  0.001003803    1.863    0.463
        17  -9.0035     74.4955    193.8644   6.5545748841e+01   2.4794473304e+01    0.2322587    0.1266328 -59.31  0.001123089    2.048    0.512
        18 -12.1910     71.7351    185.3942   6.5319261423e+01   2.7024591103e+01    0.3474889    0.2564867  56.27 0.0005201407    1.285    0.222
        19 -18.6505     12.5273    221.0996   8.2581779411e+01   2.6026954213e+01     7.057446     3.744638 -83.78   0.03543745    1.976    0.494
        20  -9.2266     78.2396    184.1087   6.3427044789e+01   2.6411619041e+01    0.1890479    0.1759824  22.72 0.0004866015    1.148    0.129
        21 -14.5276     55.3370    220.9852   7.2728521611e+01   2.1611781678e+01     1.368784    0.8033623 -58.84  0.004180315    2.066    0.516
        22  -9.9657    174.8674    179.8073   3.9541922385e+01   1.1962365821e+01    0.2518974     0.216348 -46.78 0.0009249485    1.433    0.302
        23 -11.2960    180.4996    167.9792   3.6206691401e+01   1.3022587643e+01    0.6412339    0.5388902 -52.65  0.003802693    1.514    0.339
        24 -10.9263    171.9378    175.4423   3.9346078721e+01   1.3166310510e+01    0.3350187    0.3031629  24.77 0.0009749315    1.160    0.138
        25 -11.2856    173.7560    171.7462   3.8284317689e+01   1.3497760784e+01    0.4471964    0.3542033  48.70  0.001642172    1.501    0.334
        26  -8.8364     74.3810    180.1239   6.3978773567e+01   2.7846224650e+01    0.1848809    0.1281184  88.85 0.0007447178    1.701    0.412
        27 -12.7427    126.3400    229.7250   5.7457104878e+01   1.0859087574e+01      1.06024    0.3958702  28.37  0.004641582    2.351    0.575
        28  -8.9788     71.2823    232.5514   6.9958409449e+01   1.7527682536e+01    0.1592923    0.1016378  23.62 0.0009205976    1.478    0.323
        29 -11.0525    111.1904    167.9108   5.2259718621e+01   2.4889797107e+01    0.5079869     0.297445 -76.66  0.002004843    2.871    0.652
        30  -9.6823    229.3361    165.6611   2.7127673812e+01   5.8855164476e+00    0.1084994   0.09366509 -54.74 0.0007051301    1.754    0.430
        31  -9.3480    117.3944    158.9305   4.9035022337e+01   2.5775848900e+01    0.2328644    0.1912951  50.44 0.0006447771    1.225    0.184
        32  -9.0811    127.5607    157.8028   4.6192480738e+01   2.4207942761e+01    0.1955934    0.1446446 -65.82 0.0009438245    1.678    0.404
        33  -9.0871     51.5043    156.4600   6.7708264162e+01   3.6540965600e+01    0.1451856     0.125812  59.29 2.099986e-05    1.048    0.046
        34  -9.9924     91.0409    154.0180   5.5457914591e+01   3.1399997991e+01    0.2200188     0.198948  53.58  0.001198968    1.057    0.054
        35 -11.7390    132.9900    144.6194   4.2162453882e+01   2.5989725438e+01     1.106462    0.3755137 -53.74  0.003263143    3.787    0.736
        36 -11.0762    108.9506    145.3388   4.8726878097e+01   3.0326854790e+01    0.3185716    0.3115421 -63.88 0.0006621522    1.082    0.076
        37 -11.8416     88.9005    144.3898   5.4385288317e+01   3.4062802302e+01    0.6751254    0.4770525 -23.91  0.003012801    1.945    0.486
        38  -9.8144     71.7079    226.6836   6.9381097372e+01   1.8556437345e+01     0.211926     0.172424 -83.97  0.000502258    1.457    0.314
        39 -10.0321    147.0004    143.2781   3.8449445079e+01   2.3578620400e+01    0.2130131    0.1883513  28.63 0.0008048813    1.087    0.080
        40 -10.1464     99.0866    139.9635   5.0495610210e+01   3.3361217601e+01    0.2378023    0.2206331  50.67  0.000528925    1.036    0.035
        41  -9.5813    108.1995    137.6077   4.7362327575e+01   3.2248811717e+01     0.268252    0.2153037 -52.80   0.00063518    1.304    0.233
        42  -9.5169    127.0911    137.0541   4.2055569708e+01   2.8753670844e+01    0.2206824    0.2157303  58.48 0.0004074543    1.065    0.061
        43  -9.5956     24.7477    137.0133   7.4197593707e+01   4.4428035593e+01    0.3443621     0.152261  36.77  0.001194459    2.049    0.512
        44 -10.3534     94.9110    135.3717   5.0820945159e+01   3.5206924160e+01    0.2678619    0.2185838 -77.21  0.001012475    1.366    0.268
        45 -11.6787    104.5983    131.4875   4.7101608157e+01   3.4355573959e+01    0.6433665    0.4736177  -6.64   0.00157942    1.940    0.485
        46 -11.3900     90.3924    131.5036   5.1421097170e+01   3.6949855442e+01    0.3729595    0.2773316 -48.65 0.0002243517    1.410    0.291
        47 -10.7592     43.7106    130.4131   6.6864197582e+01   4.4186937932e+01    0.4631433    0.3024492 -60.71  0.001449334    1.507    0.337
        48 -10.4058     44.8884    124.1327   6.5515554727e+01   4.5705151574e+01    0.3476459    0.2519979 -48.10  0.001085074    1.470    0.320
        49  -9.2309    235.6650    131.6947   1.9564545068e+01   9.6896539142e+00    0.1240266   0.08535217  -0.32 0.0007039477    1.667    0.400
        50 -10.4305    136.2843    129.6504   3.8017678853e+01   2.8508795139e+01    0.4253146    0.1358585 -47.50  0.001328136    3.267    0.694
        51  -9.2535     38.8224    127.9149   6.8243553832e+01   4.5404497830e+01    0.2723194    0.1443758  50.31 0.0007098684    1.909    0.476
        52  -9.3253     71.5854    223.5025   6.9139858941e+01   1.9170207224e+01    0.2013691    0.1744086 -31.64 0.0007904147    1.504    0.335
        53 -10.9143    112.0402    125.7253   4.3639288416e+01   3.4260104287e+01    0.5129131    0.3295543  23.10  0.002035764    1.939    0.484
        54 -11.1080    115.7999    121.2795   4.1516192082e+01   3.4522971067e+01      0.42633    0.3078542  59.29  0.000831236    1.557    0.358
        55  -9.8061     79.3468    126.0999   5.3865404729e+01   4.0197552812e+01    0.4363609    0.2590059  65.91  0.001666677    2.371    0.578
        56 -10.3810     98.9622    121.0806   4.6467091556e+01   3.7902014823e+01    0.3210853    0.2611312  10.42 0.0009331824    1.472    0.321
        57  -9.7381     76.2984    120.9031   5.3811754411e+01   4.2022534703e+01    0.2188063    0.1994772 -65.60 0.0008781017    1.110    0.099
        58 -11.3370     52.3664    118.7943   6.1900093617e+01   4.6170184395e+01    0.5432565    0.5056027  -0.86  0.001467482    1.201    0.168
        59  -9.7477    107.9013    116.1170   4.2558719417e+01   3.7312765662e+01    0.2592237    0.2215721 -51.94  0.000327138    1.201    0.167
        60  -9.5621     34.5575    115.7794   6.8096345575e+01   4.9091158893e+01    0.4052199    0.1638647  47.36  0.001502648    2.605    0.616
        61 -10.3122     40.7554    113.3590   6.5338444778e+01   4.9055533292e+01    0.4360611    0.2143078  34.45  0.001051572    1.958    0.489
        62 -10.6099    135.0000    111.4910   3.3899576648e+01   3.2607886377e+01    0.6064236   0.08792464 -44.08  0.001255667    6.969    0.857
        63 -11.2694     52.7847    110.9836   6.0289024576e+01   4.8174596761e+01    0.4252743    0.3493564  49.13  0.002198685    1.211    0.174
        64  -9.6643     94.4601    110.0677   4.5237787078e+01   4.1420220404e+01    0.3379646    0.2311668  66.20  0.001104807    1.867    0.464
        65 -11.1458    116.1797    108.3483   3.8155751567e+01   3.7361536974e+01    0.5602452    0.2756931  34.52  0.002004841    2.347    0.574
        66 -11.1302    112.5570    103.4312   3.7893062147e+01   3.9240298745e+01    0.4020197    0.3077546  37.23  0.001490141    1.323    0.244
        67 -10.8014     38.7867    103.7732   6.4461917532e+01   5.1835647437e+01    0.5814057      0.18963  26.88  0.001994154    3.017    0.669
        68 -11.3384     33.5326    100.6945   6.6086493702e+01   5.3227997781e+01    0.4897338    0.3740342  53.40  0.001304887    1.353    0.261
        69 -10.4313     62.3287     97.6592   5.3658069577e+01   5.0244011864e+01    0.4475612    0.1741995  49.35  0.001401738    3.282    0.695
        70 -11.1954    154.7199    227.5823   5.1220105376e+01   7.3488424601e+00    0.3749448   0.08975701  34.84  0.001405196    3.311    0.698
        71  -8.4437     88.2477     96.3368   4.3696837619e+01   4.5936960465e+01    0.1547454    0.1224219 -20.97 0.0002483183    1.559    0.359
        72 -11.2588    160.0856    223.8560   4.9616393082e+01   7.1774072734e+00    0.3657678     0.258509 -34.44  0.002321179    1.591    0.371
        73  -9.6060    102.8670     91.8915   3.7585625300e+01   4.3929515116e+01    0.4525552    0.2899554  85.33  0.001547321    3.072    0.674
        74 -10.9387     57.4530     92.8989   5.4443508508e+01   5.2217762591e+01    0.5127534    0.1903862  44.01  0.001713185    2.868    0.651
        75 -10.5932     15.2539     89.4672   7.2261352455e+01   5.7811776252e+01    0.3235198    0.1251155  22.13   0.00128906    2.633    0.620
        76  -8.3845    159.6904     87.3304   2.1746495066e+01   3.1714309657e+01    0.1550921    0.1148942 -71.30 0.0003046383    1.667    0.400
        77 -10.0152     97.6564     84.4423   3.7015951683e+01   4.6725949059e+01     0.327435    0.2581586  87.00  0.001158779    1.613    0.380
        78 -11.3024     51.5800     82.0910   5.4139024179e+01   5.5840991671e+01    0.8347439    0.3055674  48.63  0.002532765    3.798    0.737
        79  -9.0997     77.5457     83.6815   4.3902526178e+01   5.1036172379e+01    0.2502524      0.17893  59.71 0.0004378853    1.615    0.381
        80 -10.7651     55.3136     75.9824   5.0737565211e+01   5.6793714363e+01    0.5995703    0.2683998  49.62   0.00209787    2.837    0.647
        81  -9.9086    184.3179     77.1099   1.4581384731e+01   2.7772651877e+01    0.2266615    0.1786727 -12.26  0.001180022    1.499    0.333
        82 -10.1231    194.5799    224.0146   4.2992595209e+01   2.6322391213e+00    0.2505046    0.1260594 -36.08  0.001286762    2.108    0.526
        83 -10.9696    174.7803    222.7670   4.6541946721e+01   5.3617705897e+00    0.2776362    0.1890534  13.91  0.001452744    1.256    0.204
        84 -11.3731     31.7765     72.6973   6.1033418228e+01   6.0745439414e+01    0.3449009    0.3217859  58.40  0.001396604    1.147    0.128
        85  -8.7916    133.5517     69.5316   2.2136619122e+01   4.1241140215e+01    0.1548209    0.1462512 -83.22 7.224178e-05    1.049    0.047
        86 -12.4943    186.7681     64.1186   1.0762501202e+01   2.9200837664e+01    0.5078152    0.4976735   3.55 0.0007760946    1.161    0.139
        87  -9.0266     76.7644     67.7258   3.8979547796e+01   5.4835023487e+01    0.3140246    0.1772472  60.77 0.0009839869    2.537    0.606
        88 -11.1167    106.0490    213.6011   6.0071713790e+01   1.6458736207e+01    0.4610648    0.3004959 -69.01  0.001926881    2.032    0.508
        89  -8.4660     65.2894    249.2815   7.2493902397e+01   1.5304363973e+01    0.1027663   0.08254485   6.74 0.0002244205    1.527    0.345
        90 -12.6918    209.4808     47.6698   3.7692090168e+00   2.6399730341e+01    0.5166977    0.4832362  69.60  0.001274932    1.228    0.186
        91  -8.5003    144.0331     61.0394   1.7131308479e+01   4.0072271434e+01    0.1779055    0.1697254 -87.91 0.0003328631    1.006    0.006
        92 -10.2857     37.9958     54.0576   5.2152547272e+01   6.4556413509e+01    0.3097254    0.1953199 -50.03 0.0009033569    1.506    0.336
        93 -10.5172     33.2193     48.4680   5.2830023265e+01   6.6463177420e+01    0.3612998    0.2303859  39.24   0.00144057    1.673    0.402
        94 -11.6707     20.2961     44.8970   5.9505311689e+01   6.8707550391e+01    0.4260001    0.2232007 -55.31 0.0008683171    1.713    0.416
        95  -9.3262     81.0608    214.7610   6.6101462820e+01   1.9640650387e+01    0.1973719    0.1403878  48.53 0.0004935813    1.241    0.194
        96  -9.9193    188.4928    213.0314   4.2447157247e+01   4.9018300945e+00    0.1711493    0.1098216 -32.08  0.001039643    1.610    0.379
        97 -10.5325     22.4011     34.2323   5.4056327184e+01   7.0907830523e+01    0.1823056    0.1272877 -66.89  0.000950531    1.662    0.398
        98 -10.6390     69.1524    243.5950   7.1269991527e+01   1.5826246456e+01    0.2663472    0.1873377  16.02  0.001066222    1.544    0.352
        99  -9.7189     45.8040     18.6216   3.0918903296e+01   7.0310231444e+01    0.1910457    0.1242224  52.49  0.000891619    1.685    0.406
       100 -11.6783     35.6817     15.2812   3.4858801728e+01   7.2679259492e+01    0.5345165    0.2265708  40.84  0.002298204    2.262    0.558
       101  -8.8615    189.4067     15.1946   3.5720350160e+02   3.4786113660e+01    0.1861153    0.1017931 -42.29 0.0005671484    1.590    0.371
       102 -10.0939     60.7752     21.2761   2.5096528328e+01   6.6840717098e+01    0.2888454     0.217453  40.19 0.0006783901    1.231    0.188
       103  -8.8003    198.3451    240.7119   4.4716879632e+01   9.4329603958e-02   0.09914149   0.07801678  35.33 0.0005625502    1.652    0.395
       104  -9.0381     70.4204    238.9254   7.0646887068e+01   1.6490660318e+01    0.1416655    0.1168202 -71.39 0.0004508565    1.517    0.341
