#   1 NUMBER                 Running object number                                     
#   2 MAG_AUTO               Kron-like elliptical aperture magnitude                    [mag]
#   3 X_IMAGE                Object position along x                                    [pixel]
#   4 Y_IMAGE                Object position along y                                    [pixel]
#   5 X_WORLD                Barycenter position along world x axis                     [deg]
#   6 Y_WORLD                Barycenter position along world y axis                     [deg]
#   7 A_WORLD                Profile RMS along major axis (world units)                 [deg]
#   8 B_WORLD                Profile RMS along minor axis (world units)                 [deg]
#   9 THETA_WORLD            Position angle (CCW/world-x)                               [deg]
#  10 FWHM_WORLD             FWHM assuming a gaussian core                              [deg]
#  11 ELONGATION             A_IMAGE/B_IMAGE                                           
#  12 ELLIPTICITY            1 - B_IMAGE/A_IMAGE                                       
         1  -9.1373    229.4814      8.9560   5.8597432518e+01   2.6017373309e+01    0.1756992    0.1205664 -34.85 0.0004044682    1.499    0.333
         2  -8.8323    211.4609      8.5280   6.0072333049e+01   3.0400700957e+01    0.1335813    0.1132182 -81.76 0.0007424621    1.009    0.009
         3  -8.6753    139.5064      5.5292   6.8170753763e+01   4.9052278358e+01    0.1394302    0.1178476  54.81 0.0001880302    1.057    0.054
         4  -9.8666    146.5247    242.8052   1.2428949174e+02   5.7574196398e+00    0.2424011    0.1253399 -54.85  0.001287501    2.539    0.606
         5 -11.2651    233.7924    247.1956   1.0907965497e+02  -8.5985434940e+00    0.5041274    0.3413287  47.15  0.003245583    1.839    0.456
         6 -12.4818    249.0406    242.8862   1.0584791947e+02  -1.0287285477e+01     1.192635    0.3698445 -35.21  0.005610322    3.633    0.725
         7 -11.9624    242.8332    246.4004   1.0743258353e+02  -9.7951111467e+00    0.4779899    0.3265268 -19.28  0.002175719    1.520    0.342
         8 -12.3515    241.2210    239.8730   1.0667562514e+02  -8.8638149071e+00    0.7456467    0.4255334 -42.18  0.004356486    2.540    0.606
         9  -8.3213    201.3091    241.3214   1.1389296622e+02  -2.9810570569e+00    0.1224223   0.07953518  14.53 0.0003591177    1.645    0.392
        10  -9.7098    159.8694    239.6108   1.2134746962e+02   4.0323128851e+00    0.3260908    0.1755877 -70.80  0.001268276    5.075    0.803
        11 -10.5105    232.4464    238.2148   1.0790739101e+02  -7.3998437273e+00    0.3319924    0.2516524  56.68  0.002090996    2.131    0.531
        12  -9.2100    195.4043    239.2680   1.1466232122e+02  -1.7705154127e+00    0.1404469    0.1185281 -47.16 0.0009199521    1.616    0.381
        13 -10.1181    204.2611    235.4112   1.1246129532e+02  -2.6971708517e+00     0.298948    0.2410002 -54.14  0.001949132    1.859    0.462
        14  -9.5588     49.3327    235.9819   1.4183860227e+02   2.1343688707e+01    0.1557221    0.1176027  74.93 0.0005794757    1.107    0.097
        15 -10.6937    216.1719    233.5966   1.1002922129e+02  -4.3622319774e+00    0.3404158    0.2978314  82.00  0.002239719    2.008    0.502
        16  -9.8452    194.8175    232.4353   1.1373909730e+02  -7.6454095749e-01    0.2603313    0.1739111 -43.01  0.001557381    1.885    0.470
        17  -8.7823    226.4618    231.4792   1.0786676203e+02  -5.7035788822e+00     0.119338   0.09555268  21.58 0.0001211926    1.072    0.067
        18  -9.8224    186.3163    230.5330   1.1503876027e+02   9.1467634996e-01    0.2592236    0.1848927  64.07  0.001211608    2.022    0.505
        19  -9.4911    157.6381    230.9729   1.2059527587e+02   5.7146359165e+00    0.1695839    0.1545571  42.37 0.0008358954    1.133    0.117
        20  -9.6850    223.1241    227.3519   1.0778254877e+02  -4.6767456493e+00    0.2049275    0.1739953  51.89 0.0009278878    1.602    0.376
        21  -9.8486    149.7494    226.2152   1.2147676846e+02   7.8181649792e+00    0.2727576    0.1996284  88.62  0.001525093    2.007    0.502
        22  -8.9339     76.7041    235.3587   1.3675036460e+02   1.7827633325e+01    0.1258569    0.0705007  66.62 0.0007032934    1.702    0.412
        23  -9.5490    161.7118    225.9939   1.1909325048e+02   5.7924753944e+00    0.1712329    0.1579849  39.32  0.001149957    1.133    0.118
        24 -10.5694    239.7179    221.6901   1.0393494829e+02  -6.5469369219e+00    0.3595709    0.3008804  41.97  0.002098416    1.506    0.336
        25  -9.8879    216.8306    223.9006   1.0834085231e+02  -3.2329074620e+00    0.2834931    0.1744131 -46.04  0.001573267    2.240    0.554
        26  -8.7724    212.6944    225.3504   1.0932883434e+02  -2.7516383250e+00    0.1108535   0.09670809  65.41 0.0007041964    1.705    0.414
        27  -9.4308    199.7822    224.4102   1.1155495855e+02  -4.9125088043e-01    0.1845427    0.1450063 -19.10 0.0008189518    1.411    0.291
        28  -9.7143    181.2655    225.0353   1.1515816152e+02   2.5658720366e+00    0.2391257    0.1434045  49.54  0.001161122    1.637    0.389
        29 -11.6442    226.4738    219.8299   1.0593090090e+02  -4.2558233837e+00    0.4266665    0.3625005  72.92  0.002670219    2.058    0.514
        30  -9.9079    192.0309    220.4412   1.1237583339e+02   1.3871945319e+00    0.2144882    0.1975008 -38.36  0.001440406    1.355    0.262
        31 -10.5402    210.9106    219.2821   1.0865139441e+02  -1.6476262528e+00    0.2819438    0.1619412 -17.02  0.001424575    2.273    0.560
        32 -11.0469    248.6309    216.0425   1.0144613541e+02  -7.2094251416e+00    0.4245523    0.3367217 -47.25  0.002750701    1.965    0.491
        33  -9.9930    232.9769    214.3383   1.0383744891e+02  -4.5873810661e+00    0.2967364    0.1777391 -36.59  0.001690834    1.885    0.469
        34  -9.2811    168.5219    216.0945   1.1625865063e+02   6.1691111254e+00    0.1729362    0.1326821 -45.38  0.001020125    1.560    0.359
        35  -9.9239    240.9440    214.2855   1.0244516530e+02  -5.8279045846e+00    0.2401837    0.1775234   3.59  0.001514047    1.203    0.168
        36 -10.2579    185.6032    213.1324   1.1242005852e+02   3.5990233819e+00    0.2999672    0.2440436 -37.18  0.001162808    1.433    0.302
        37 -10.5776    131.9003    213.1238   1.2325470584e+02   1.3147158286e+01    0.4152372    0.1952782 -57.69  0.001901497    2.599    0.615
        38 -11.3910    215.1437    209.7197   1.0623471789e+02  -1.0413996256e+00    0.4388289    0.3572323 -16.23  0.002600761    1.267    0.211
        39  -9.7090    175.7689    210.8931   1.1398708122e+02   5.7067111988e+00    0.3593825    0.1936095  62.52  0.001380871    3.499    0.714
        40  -9.7083    191.8517    208.6162   1.1044737405e+02   3.1792269851e+00    0.2718185    0.1843971 -31.64  0.001508126    1.672    0.402
        41  -9.1238    147.6653    210.3197   1.1959196327e+02   1.0864611509e+01     0.136258   0.09601772  66.81 0.0007049334    1.701    0.412
        42 -10.2089    236.4926    207.8997   1.0208515851e+02  -4.3173432145e+00    0.3231117    0.2020183 -39.64  0.001837835    1.898    0.473
        43 -10.5870    227.0118    205.4668   1.0332412531e+02  -2.4485862730e+00    0.2854939    0.1704545 -40.11  0.001546888    1.947    0.486
        44 -12.0515    246.7004    203.9200   9.9612927828e+01  -5.4177312923e+00       1.0852    0.5618196  52.75  0.005040516    3.024    0.669
        45 -11.9873    247.3664    192.7529   9.7434053393e+01  -4.0723473880e+00    0.5349336    0.4610381 -25.64  0.002843841    1.311    0.237
        46 -11.1097    238.2341    189.3294   9.8349101805e+01  -2.1062235193e+00    0.5938409    0.2816421 -27.98  0.002814749    2.191    0.544
        47 -10.6584    245.2672    183.3734   9.5996361254e+01  -2.4585478386e+00    0.5336716    0.2952936 -50.86  0.002405841    3.015    0.668
        48 -10.2232    241.3463    181.0397   9.6209955074e+01  -1.4715899208e+00    0.4081576    0.1706418 -29.29  0.001776939    2.480    0.597
        49 -10.7745    236.6449    196.9067   1.0005324398e+02  -2.8819416895e+00    0.3696545    0.2194715  26.54   0.00199342    1.607    0.378
        50 -10.1121    231.8082    195.0444   1.0055717586e+02  -1.8179841371e+00    0.2754343    0.2500224 -25.70  0.001596301    1.306    0.235
        51 -10.6644    204.8571    206.7249   1.0762870305e+02   1.1617505902e+00     0.223245    0.1699324 -11.70 0.0009981984    1.414    0.293
        52  -9.8405    125.0584    206.4448   1.2374438692e+02   1.5563935393e+01    0.3551914     0.162763  51.51  0.001554026    2.076    0.518
        53 -10.5936    196.8729    204.8659   1.0882789909e+02   2.8545305214e+00    0.2949589    0.2351794  59.60  0.001021277    1.572    0.364
        54  -9.6500    211.0298    201.5078   1.0553829774e+02   8.4398707989e-01    0.1962965    0.1680522  -4.84  0.001231464    1.152    0.132
        55 -10.0800    229.0601    200.5081   1.0205783973e+02  -2.1120309940e+00    0.3024007     0.184097 -24.54  0.001648492    1.706    0.414
        56 -10.7418    225.3450    195.0157   1.0170902411e+02  -7.1080156836e-01     0.345106    0.3000023  64.51  0.001484816    1.649    0.393
        57 -11.0517    223.9722    191.2770   1.0125483918e+02   6.6097980642e-02    0.4110045    0.2788995  46.52  0.002268309    1.562    0.360
        58  -8.9527    184.4755    201.4995   1.1066845511e+02   5.6335034277e+00    0.1361984    0.1167305  29.05 1.460735e-05    1.018    0.018
        59  -9.8462    203.2697    198.4772   1.0645919938e+02   2.6797689947e+00     0.206649    0.1687155 -64.96  0.001038632    1.817    0.450
        60  -9.2776    140.7110    198.3312   1.1919760565e+02   1.4293334371e+01    0.1366536    0.1007706  72.08 0.0005050214    1.624    0.384
        61 -10.7685    216.6542    195.0336   1.0330333577e+02   8.0430609370e-01    0.3136801    0.2740566   6.82  0.001741136    1.060    0.056
        62  -9.8694    209.8497    195.4271   1.0464919162e+02   1.9581693151e+00    0.3022091    0.2391475  77.36  0.001617528    2.123    0.529
        63  -8.8436     60.5047    194.5021   1.3611740591e+02   2.8012150623e+01    0.1264195      0.10208  71.81 1.489681e-05    1.011    0.011
        64  -9.4792    210.2867    189.8517   1.0352354899e+02   2.7281950320e+00    0.1967376     0.173267 -56.90  0.001075904    1.510    0.338
        65 -11.0041    231.6591    186.9474   9.9047466371e+01  -6.4785545219e-01    0.3895351    0.3227861 -23.79  0.002431575    1.230    0.187
        66 -10.3929    249.8241    178.5487   9.4290876661e+01  -2.5501775097e+00    0.3569018     0.192184 -23.71  0.001234599    1.864    0.463
        67  -9.8526    250.4813    183.4899   9.5144018342e+01  -3.3346069949e+00    0.2258906    0.1704095 -22.34 0.0009980617    1.241    0.194
        68 -10.0105    235.9547    181.8257   9.7297228506e+01  -6.5676916910e-01    0.2507399    0.2087135 -51.32   0.00150354    1.626    0.385
        69  -9.3758    147.5979    179.7981   1.1456258997e+02   1.6540909874e+01    0.1915964    0.1383106 -63.72 0.0007963896    1.660    0.398
        70  -8.7244     25.6665    178.6405   1.4215795744e+02   3.5474984347e+01    0.1135502   0.08206542 -49.30 0.0007040419    1.805    0.446
        71  -8.4936      9.5212    166.5039   1.4472563741e+02   3.9589693950e+01    0.1146551   0.09031941  89.86 4.334789e-05    1.064    0.060
        72  -8.6688    243.3312    155.7264   9.0741387977e+01   1.8770568176e+00    0.1203837    0.1069547 -75.24  0.000435006    1.593    0.372
        73  -9.0004    229.4552    153.4831   9.2637446373e+01   4.8288445593e+00    0.1372495    0.1244914  -1.39 9.199354e-05    1.004    0.004
        74 -10.0696    240.9661    149.3239   8.9780799259e+01   3.2870638950e+00    0.2358004     0.222155 -56.15 0.0007208033    1.300    0.231
        75  -9.0703    248.4759    143.4645   8.7306736567e+01   2.7805646794e+00    0.1334755    0.1181493 -10.14 0.0001868665    1.012    0.012
        76  -9.2451    236.0292    130.0940   8.6388476411e+01   7.2631691496e+00    0.2018659    0.1665101 -72.07 0.0005365486    1.594    0.373
        77  -9.0884    231.1519    129.8362   8.7138643690e+01   8.2953058225e+00    0.1957636    0.1579647   3.17 0.0004361576    1.360    0.265
        78  -9.0657    186.6109    128.2345   9.5063047908e+01   1.8287044015e+01    0.2122285    0.1447152 -27.11 0.0006276569    1.637    0.389
        79  -9.8548    201.0109    125.4610   9.1534027330e+01   1.5537714517e+01    0.3321945    0.2043097 -36.76  0.001480519    1.623    0.384
        80  -9.2037    213.1737    123.2210   8.8736657151e+01   1.3225442335e+01    0.2501468    0.1557299  11.45  0.000946476    2.812    0.644
        81  -9.2189    232.0432    121.2371   8.5031252006e+01   9.5063844348e+00    0.1873376    0.1815234 -11.32 0.0004418761    1.045    0.043
        82  -8.8377    166.0000    119.0628   9.7240063217e+01   2.4811047382e+01    0.2428343   0.08917498 -41.04 0.0004855377    2.790    0.642
        83  -9.3494    192.2982    118.1072   9.1450189514e+01   1.8859291643e+01    0.2100691    0.1946568 -44.49 0.0005567964    1.095    0.087
        84  -8.5977    226.6851    117.2628   8.4993778865e+01   1.1290520889e+01    0.1362055    0.1109672 -74.18 0.0002330804    1.542    0.351
        85  -9.6896    109.3354    115.6619   1.1064337991e+02   3.7910941114e+01    0.1575013    0.1180535  83.33  0.000705162    1.750    0.429
        86  -9.2587    209.4893    114.0632   8.7208235607e+01   1.5631615229e+01    0.2200854     0.141899 -37.47 0.0004746131    1.515    0.340
        87  -9.2071    153.3816    114.1809   9.8906020697e+01   2.8722564830e+01    0.2239525    0.1445977 -54.11 0.0005784861    1.726    0.421
        88  -9.1847    241.5290    112.4450   8.1522543236e+01   8.9428485942e+00    0.1369818    0.1262543 -37.22 0.0002087038    1.046    0.044
        89  -9.8631     26.0423    111.2076   1.3449263133e+02   5.0674173522e+01    0.1908973    0.1500405 -45.13  0.001214365    1.319    0.242
        90  -9.5611    236.9730    107.4954   8.1075954023e+01   1.0676190411e+01    0.2060058    0.1374656  51.52  0.001029312    1.593    0.372
        91  -9.0560    197.4622    106.9712   8.7672218084e+01   1.9662350176e+01    0.2251308    0.1477953 -34.85 0.0006350997    1.532    0.347
        92  -9.2168    214.1791    104.7718   8.4114988501e+01   1.6152759944e+01    0.1972215    0.1689887  14.58  0.000532051    1.325    0.245
        93 -10.2246    246.7765    102.8242   7.8555979212e+01   9.3586630819e+00    0.3256457    0.2211702 -23.20  0.001048557    1.524    0.344
        94  -9.9905    228.5768    104.2486   8.1617598345e+01   1.3008216312e+01    0.2500947    0.1940694  59.28 0.0005808695    1.383    0.277
        95 -10.2340    206.1056     98.3364   8.3915426194e+01   1.9124496196e+01     0.358769    0.2732906  45.54  0.001623411    1.353    0.261
        96 -10.0179    234.1612     94.8290   7.8526034189e+01   1.3286932337e+01    0.1915178    0.1666164   3.84 0.0006864132    1.317    0.241
        97  -9.6794    150.6230     92.2131   9.3629635020e+01   3.3733550527e+01    0.2166461    0.1506794 -28.95 0.0005495924    1.607    0.378
        98  -9.3353    227.5047     88.4957   7.7996588694e+01   1.5772019089e+01    0.1412945    0.1337426 -47.46 0.0008106498    1.008    0.008
        99  -9.9630    218.5904     86.1788   7.8789187625e+01   1.8196510133e+01    0.2085791    0.1386203 -21.95  0.000954278    1.727    0.421
       100  -9.6175    171.8513     83.9500   8.6600501553e+01   3.0027692776e+01    0.3096586    0.2092045  89.99  0.001243131    2.177    0.541
       101  -9.2398    244.5977     80.7602   7.3771588277e+01   1.3168830927e+01     0.194483    0.1132126 -44.10 0.0004213158    1.572    0.364
       102  -9.2677    240.2426     76.6515   7.3378841026e+01   1.4732847365e+01    0.2436597    0.1717759 -10.27  0.001199028    1.872    0.466
       103  -9.0027    196.3321     82.6706   8.1581422388e+01   2.4136756596e+01    0.1595249    0.1145795 -71.28 0.0007051858    1.719    0.418
       104  -9.5059    157.8935     76.1512   8.7323073170e+01   3.4901752051e+01    0.2490236    0.2152267 -79.95  0.001242897    1.290    0.225
       105  -9.1062    208.4818     73.5416   7.7160033159e+01   2.2623936378e+01    0.1427368    0.1413321  54.71 9.680977e-05    1.084    0.078
       106 -11.1092    230.4558     71.6073   7.3473023776e+01   1.7694596583e+01    0.2502792    0.2258392 -51.35 0.0005917133    1.033    0.032
       107  -9.1015    107.3565     71.7172   9.8870597174e+01   4.7528332013e+01    0.1467188    0.1187244  86.40 0.0007017677    1.667    0.400
       108 -10.1073    215.3049     68.5112   7.4832618883e+01   2.1740098839e+01    0.3986719   0.09848507 -38.47  0.001233752    3.496    0.714
       109  -8.9366    188.2830     69.6310   7.9467411396e+01   2.8284413568e+01    0.1598186    0.1112973 -65.34 0.0007016307    1.696    0.410
       110  -9.7834    239.4759     68.0038   7.1438084045e+01   1.6175353800e+01    0.1956611    0.1784933 -61.31 0.0005326187    1.017    0.017
       111  -9.9061    245.1882     65.8171   7.0230109649e+01   1.5222214533e+01    0.2781976    0.1798347 -38.63  0.000623119    1.404    0.288
       112  -9.6412    234.7046     66.3962   7.1658154059e+01   1.7488442368e+01    0.2259068    0.1697642  -9.10 0.0006765113    1.723    0.420
       113  -8.8378    176.5556     67.5246   8.1007566307e+01   3.1613431932e+01     0.150975    0.1448785  47.78 0.0002328668    1.071    0.067
       114  -9.5915     43.9888     67.4916   1.1916469639e+02   5.8675521913e+01     0.175142     0.100872  53.03 0.0008106199    2.636    0.621
       115  -9.9345    214.4930     61.9799   7.3281830993e+01   2.2913933669e+01    0.2119193    0.1372525 -35.25 0.0004835183    1.520    0.342
       116 -10.2224    202.1960     61.7986   7.5049896774e+01   2.5982916651e+01    0.2292295    0.1915025 -70.45 0.0006164482    1.215    0.177
       117  -9.9827    224.3556     58.8509   7.1153810899e+01   2.0992452101e+01    0.3523242     0.196272  18.48  0.001035825    5.642    0.823
       118  -9.1888    174.1792     59.2433   7.9053577308e+01   3.3526757234e+01    0.2094077    0.1716712 -79.31 0.0007752013    1.333    0.250
       119  -9.6508    231.6617     58.6846   7.0184937461e+01   1.9298042828e+01    0.1364753    0.1067227  27.13 0.0004301115    1.700    0.412
       120  -9.1135    147.4676     57.4671   8.3904206100e+01   4.0642483124e+01    0.1508476    0.1435644  54.02 0.0002145367    1.003    0.003
       121  -9.3269    140.3372     54.3193   8.4497587204e+01   4.2918680044e+01    0.1586148    0.1127169  25.06 0.0007049525    1.706    0.414
       122  -9.0611    149.5100     52.5166   8.1886957500e+01   4.0890144331e+01    0.1507547    0.1415801  50.24 8.928103e-05    1.026    0.025
       123  -9.4215    194.8146     49.6592   7.2891626340e+01   2.9616988514e+01     0.264838    0.1159889 -28.19 0.0009427587    2.534    0.605
       124  -9.2048     25.6664     47.2993   1.2061997192e+02   6.4568649383e+01    0.1075954   0.09341723  75.79  0.000323044    1.651    0.394
       125  -9.0478    233.0000     45.9697   6.6969436407e+01   2.0737434703e+01    0.2182888   0.07314397 -31.76 0.0007961917    2.899    0.655
       126  -9.6344    220.6656     44.6649   6.8089481003e+01   2.3846210533e+01     0.207655    0.1585118  33.71 0.0006704735    1.692    0.409
       127  -9.3088    189.5160     44.4856   7.2257913457e+01   3.1693161239e+01    0.1448894    0.1356589  68.39 3.690253e-05    1.071    0.066
       128  -9.2119    132.3018     43.6596   8.2796299175e+01   4.6494551961e+01    0.1483584    0.1136572 -70.22 0.0003714797    1.672    0.402
       129  -9.6616      5.1138     41.4878   1.2805854499e+02   6.7169548301e+01    0.1773943     0.147472 -69.78  0.001293435    1.354    0.262
       130 -10.2089    105.4126     40.6456   8.8650442341e+01   5.3202617389e+01    0.2700711    0.1306369 -37.13  0.001138854    2.138    0.532
       131  -9.6314    173.8472     40.1811   7.3492388055e+01   3.6339931804e+01    0.2258617    0.1963692 -82.48  0.001222452    1.156    0.135
       132  -9.5425     93.5042     40.5127   9.2144890114e+01   5.5743713791e+01    0.1388101    0.1268141  13.97  8.18394e-05    1.005    0.005
       133  -9.0123    165.3315     39.3135   7.4679633431e+01   3.8674962796e+01    0.1536894    0.1069207  33.96 0.0004704212    1.678    0.404
       134 -10.3652    248.5163     37.8876   6.3490544616e+01   1.8261230848e+01    0.2311628    0.2033211  87.97 0.0005538603    1.142    0.125
       135  -9.0064    242.5416     37.5380   6.3989818847e+01   1.9643106429e+01    0.1320329     0.114003 -66.13 4.505778e-05    1.001    0.001
       136  -9.7820    229.5383     37.0055   6.5202195533e+01   2.2721264123e+01    0.2434506    0.1742515  57.02 0.0006230814    1.489    0.328
       137  -9.7578    218.3939     34.2817   6.5764075338e+01   2.5746399317e+01    0.2227747    0.2016073 -72.66 0.0005368665    1.035    0.034
       138  -9.1325    111.3262     34.9967   8.4914282811e+01   5.2674950284e+01    0.2297304    0.0917462 -49.20 0.0007050695    4.320    0.769
       139  -9.0294    104.3123     34.3240   8.6574053290e+01   5.4339563417e+01    0.1469869    0.1007954  20.39 0.0003420027    1.658    0.397
       140 -10.1199    163.9316     31.6563   7.2564465370e+01   4.0014287181e+01    0.4304639    0.1970502 -41.18  0.001561618    2.283    0.562
       141  -8.8575    194.3000     29.6907   6.7493139125e+01   3.2361304284e+01    0.1472937   0.09844625 -66.89 0.0006247684    1.600    0.375
       142  -8.6093    141.9950     30.0000   7.6045307848e+01   4.5874815773e+01    0.2395607   0.07640906  61.35 0.0005141932    2.870    0.652
       143  -9.0376    220.6303     23.7330   6.2917682067e+01   2.6482225377e+01    0.1329296    0.0956012  46.05 0.0006991297    1.662    0.398
       144  -9.6566     91.1809     23.4014   8.6040904083e+01   5.8573232459e+01    0.1892552    0.1255697  60.83 0.0009589572    1.732    0.423
       145  -9.5250    206.2359     20.4383   6.3609731429e+01   3.0413196060e+01    0.2236799    0.1872782 -38.92   0.00055853    1.264    0.209
       146  -9.9368    141.7802     20.1349   7.2746284572e+01   4.7058063271e+01    0.4164835    0.2039826  27.27   0.00150706    3.269    0.694
       147  -9.9768    240.8188     18.4529   5.9815551095e+01   2.2343054698e+01    0.2170846    0.1638718 -45.26  0.000510947    1.241    0.194
       148  -8.7277    226.9923     17.9517   6.0913090656e+01   2.5619238696e+01    0.1573176    0.1340851 -76.17 0.0005261528    1.002    0.002
       149  -9.2047    131.6403     13.6902   7.2425883268e+01   5.0273531572e+01    0.1519802   0.09041853  37.32 0.0007041607    1.739    0.425
       150  -9.5066    201.9823     11.5360   6.1764911711e+01   3.2447615224e+01    0.2101273    0.1183914  71.43  0.001025177    1.587    0.370
       151  -8.6438    160.4980     10.5386   6.6554721594e+01   4.3213649666e+01    0.1398409    0.1223528  69.95 8.104872e-05    1.011    0.011
       152 -10.6832    224.7271    245.5542   1.1038388783e+02  -7.0919157474e+00    0.3291443    0.2297523 -55.28  0.001936117    2.830    0.647
       153  -9.4322    119.6924    245.3328   1.2964674493e+02   9.6814003194e+00    0.1238379   0.07723351  63.77  0.000704071    1.668    0.400
