#   1 NUMBER                 Running object number                                     
#   2 MAG_AUTO               Kron-like elliptical aperture magnitude                    [mag]
#   3 X_IMAGE                Object position along x                                    [pixel]
#   4 Y_IMAGE                Object position along y                                    [pixel]
#   5 X_WORLD                Barycenter position along world x axis                     [deg]
#   6 Y_WORLD                Barycenter position along world y axis                     [deg]
#   7 A_WORLD                Profile RMS along major axis (world units)                 [deg]
#   8 B_WORLD                Profile RMS along minor axis (world units)                 [deg]
#   9 THETA_WORLD            Position angle (CCW/world-x)                               [deg]
#  10 FWHM_WORLD             FWHM assuming a gaussian core                              [deg]
#  11 ELONGATION             A_IMAGE/B_IMAGE                                           
#  12 ELLIPTICITY            1 - B_IMAGE/A_IMAGE                                       
         1 -13.0838     10.0782     49.7055   1.1309434191e+02   6.3209570152e+01     1.032509    0.3968278 -56.67  0.005158697    1.781    0.438
         2 -11.4156     18.2467     25.6626   1.0331993082e+02   6.7324629108e+01    0.4194626    0.2684636 -19.46 0.0006007034    1.644    0.392
         3  -9.7710    222.3921     21.8384   4.9091173164e+01   2.6657234520e+01    0.1920604    0.1375652  -7.09 0.0003576079    1.681    0.405
         4 -10.1156     11.0192      5.9064   9.9111108244e+01   7.1256891448e+01    0.3377937    0.1356535 -34.45 0.0003616516    2.069    0.517
         5 -10.7215     10.9182     10.2505   1.0092496767e+02   7.0543422514e+01    0.2938345    0.1781534 -27.08 0.0003885211    1.426    0.299
         6 -11.6695     11.8789     18.4662   1.0355314332e+02   6.9058115259e+01    0.5190158    0.2470077  23.59  0.003163051    2.582    0.613
         7 -10.9512      5.4150     16.2695   1.0564043132e+02   6.9846788994e+01    0.3968416     0.212265  -2.27  0.001417684    2.391    0.582
         8 -11.5786     16.6147      5.9832   9.6507429362e+01   7.0824199414e+01    0.4759407    0.3671862 -37.10  0.003636088    1.183    0.155
         9 -10.9644     15.6472     14.1901   1.0031234643e+02   6.9540192982e+01    0.2285398     0.164236 -38.69 0.0002867399    1.044    0.042
        10 -10.1450     16.5040     10.0443   9.8275511534e+01   7.0172637945e+01    0.2212958    0.1471722 -34.67 0.0007141146    1.103    0.094
        11  -9.4960     23.9181     11.4928   9.5539401435e+01   6.9325637373e+01    0.1978755    0.1227827 -39.04  0.000397924    1.232    0.189
        12 -10.4848     31.3722      5.5054   8.9575329539e+01   6.9550874349e+01    0.2104225    0.1566836 -24.03  0.001502439    1.020    0.020
        13  -9.7091     43.9403      4.7893   8.3870504496e+01   6.8227602377e+01    0.3651661    0.1607037  33.41  0.001297774    2.499    0.600
        14 -10.1709     38.0020     10.9944   8.9231673414e+01   6.8013729674e+01    0.2460455    0.1476638 -33.84 0.0007938085    1.326    0.246
        15 -10.3018     32.8493     14.1775   9.2796519840e+01   6.8053493070e+01     0.254472    0.1497125 -33.22 0.0008931472    1.341    0.254
        16  -9.9208     33.5129     10.5103   9.0922217904e+01   6.8567243450e+01    0.2267968    0.1553264 -16.73 0.0008861165    1.300    0.231
        17 -11.1743     36.8384      6.1442   8.7499517734e+01   6.8869663812e+01    0.3528877    0.2739324  16.99   0.00170542    1.384    0.277
        18 -10.5880     35.5553      2.0341   8.6078882440e+01   6.9602737741e+01    0.2406228    0.1960654  12.70 0.0003677453    1.319    0.242
        19  -9.7665     28.8205     13.6047   9.4280553350e+01   6.8536831115e+01    0.1940188     0.119093 -33.59  0.000583064    1.259    0.206
        20 -11.7251      2.9974      7.3121   1.0349844715e+02   7.1539026732e+01    0.3961786    0.1640813 -39.37  0.001247287    1.763    0.433
        21 -10.2612     53.5748      5.0744   8.0164161133e+01   6.6924337612e+01    0.3051654    0.1896452  -4.19  0.001516865    1.687    0.407
        22  -8.3507     59.4747      3.4547   7.7147338034e+01   6.6284995635e+01    0.1233702    0.0966868  -5.02 0.0001649808    1.035    0.033
        23 -10.5764    224.3793      3.0887   4.3745973635e+01   2.8199577501e+01    0.4205549    0.1954192  38.01  0.001592285    3.130    0.681
        24  -9.6807     26.7485      2.1489   9.0061848329e+01   7.0513837959e+01    0.2097204    0.1370612   5.97 0.0009090313    1.605    0.377
        25  -8.3890     62.7112      1.2657   7.4894513305e+01   6.6060726222e+01    0.1032903   0.09188776 -37.15 0.0001652771    1.499    0.333
        26 -10.3740    148.6836    238.2719   1.1019089672e+02   7.9173398142e+00    0.1979948    0.1599374  40.76 0.0003353643    1.245    0.197
        27 -12.5382    199.7326    197.4464   9.5633346312e+01   4.7483323876e+00     2.462093    0.7785511 -31.00  0.007752899    6.019    0.834
        28 -11.8244    233.5296    245.2812   9.7416505584e+01  -6.5951476784e+00    0.4776324    0.3334934 -14.24  0.002835687    1.678    0.404
        29 -12.2379    225.2077    243.5914   9.8483170030e+01  -5.1325725508e+00    0.8826483    0.2455445 -31.17  0.003772126    5.066    0.803
        30 -11.8854    210.6726    213.9274   9.6423845995e+01   6.0002170378e-01     1.278003     0.338021 -40.41  0.004955688    4.603    0.783
        31 -12.4512    203.6389    211.1575   9.7189190654e+01   2.1894021006e+00     1.053294    0.5518429 -21.94   0.00305247    2.997    0.666
        32 -13.3303    209.9253    194.9743   9.3402696003e+01   3.2058989956e+00     4.324424    0.7487394 -36.01   0.01180454    7.675    0.870
        33 -12.0837    216.3292    230.7354   9.8052101486e+01  -2.3416385109e+00    0.3550293    0.3112424   8.59 0.0007880189    1.234    0.189
        34 -12.0777    235.9846    227.1118   9.4311705379e+01  -5.1670679972e+00    0.3701851    0.3274789  -9.37  0.001027574    1.342    0.255
        35 -12.0895    238.4019    217.9406   9.2454414330e+01  -4.5863476337e+00    0.4678212    0.3189987 -25.85   0.00122778    1.666    0.400
        36 -13.7509    234.9773    145.9256   7.9250459821e+01   5.3343843004e+00     2.767097     1.116836 -24.24  0.009935813    3.200    0.688
        37 -12.0179    230.2560    234.0744   9.6295896102e+01  -4.9674311094e+00    0.4618242       0.2794 -39.26  0.002927198    2.210    0.547
        38 -11.6590    233.5047    210.9251   9.2097187196e+01  -2.9837897906e+00    0.5199835    0.2841655 -19.68  0.000944298    2.239    0.553
        39 -15.4059    248.1390     75.4385   6.0080146230e+01   1.3051184422e+01     9.667759     3.013364 -28.57   0.03145969    3.188    0.686
        40 -12.6622    248.7487    202.4525   8.8128212914e+01  -4.6027723314e+00    0.8556927    0.4067151  -9.68   0.00365587    3.492    0.714
        41 -10.1841    201.8097    249.9643   1.0304435511e+02  -2.0865153206e+00     0.288463    0.1818686  15.84  0.001516236    2.086    0.521
        42 -10.5324    214.5642    239.6393   9.9620716615e+01  -3.0259133176e+00    0.2267755    0.1871209   3.60 0.0006989451    1.341    0.254
        43 -12.5786    210.1544    246.0288   1.0120401404e+02  -2.9970317264e+00    0.3096047    0.2480145 -15.41 0.0005133179    1.546    0.353
        44 -11.3085    202.6147    241.0621   1.0174073850e+02  -1.2433050100e+00    0.3621944    0.2886872 -74.28  0.001981303    2.090    0.522
        45  -9.0423    184.0127    249.9681   1.0586482737e+02   7.5221064196e-01    0.1564575    0.1142333  62.94  0.000532246    1.538    0.350
        46 -11.4978    166.7028    250.4415   1.0866867418e+02   3.4579239040e+00     0.279163    0.1103764  45.31   0.00033288    1.872    0.466
        47 -10.7067    163.5476    244.9252   1.0853914842e+02   4.6473423891e+00    0.2206362    0.1978697 -53.34 0.0004560045    1.479    0.324
        48 -10.5492    152.1312    250.1902   1.1094943764e+02   5.7915202422e+00    0.3805759    0.1326663  52.78 0.0008368359    2.537    0.606
        49 -10.7018    156.9075    245.9906   1.0972794319e+02   5.5746078901e+00    0.2082889    0.2016738  17.49 0.0004496647    1.380    0.275
        50 -11.4767    159.2457    235.6040   1.0814066268e+02   6.5636908594e+00    0.2845172    0.2122937  33.40  0.001955516    1.395    0.283
        51  -9.9582    158.3638    229.3633   1.0752507669e+02   7.5641959132e+00    0.2101782    0.2036584 -59.03 0.0007825717    1.327    0.247
        52 -10.1394    151.8093    244.5470   1.1038596673e+02   6.5742767969e+00    0.2310207    0.2014593  18.12  0.001216764    1.538    0.350
        53  -9.5979    155.0535    241.1211   1.0947563919e+02   6.5077973267e+00    0.1689034    0.1587286 -71.81 0.0004029446    1.368    0.269
        54 -11.9280    140.3579    246.5873   1.1243719446e+02   8.1048820907e+00    0.2828893     0.238233  21.10 0.0005003874    1.673    0.402
        55  -8.9405    101.2920    250.6926   1.1891086696e+02   1.3345007437e+01    0.1382149   0.07498261  45.39 0.0006550025    1.549    0.355
        56  -9.5383     87.4909    249.9268   1.2093762010e+02   1.5363849845e+01    0.1678238    0.1197458  45.99  0.000611064    1.460    0.315
        57  -9.1675     72.6282    250.6101   1.2319346106e+02   1.7222484114e+01    0.1665621    0.0779353  44.13 0.0006784589    1.887    0.470
        58 -10.1905     46.7692    250.3900   1.2690226363e+02   2.0414206557e+01    0.1748101   0.09980024  48.48 0.0008169882    1.536    0.349
        59  -9.8450     16.2457    249.2180   1.3103769499e+02   2.3900789880e+01    0.1548605    0.1370967  69.48 0.0009177575    1.732    0.423
        60  -8.5330      1.4980    250.4890   1.3302036828e+02   2.5147377907e+01   0.09113884    0.0559761  71.44  0.000810554    1.013    0.013
        61  -9.7355    117.8678    238.7100   1.1524573044e+02   1.2669430786e+01    0.1543491    0.1413039  80.08 0.0005881364    1.325    0.245
        62  -8.8672     62.0090    239.0113   1.2399358099e+02   2.0340614187e+01    0.1258525    0.1166926  76.22 0.0004507481    1.619    0.382
        63  -9.0101    112.1849    237.7735   1.1606969332e+02   1.3660074710e+01    0.1358528    0.1151952  49.44 0.0005814259    1.334    0.250
        64 -10.1455     91.0260    235.7764   1.1926738138e+02   1.7019212535e+01     0.177667    0.1660496  88.52 0.0005077154    1.499    0.333
        65  -9.2291     41.4289    236.7260   1.2690810030e+02   2.3149919914e+01     0.119602   0.07754763 -75.23 0.0009389693    1.619    0.383
        66 -11.9596    204.7049    231.9760   1.0013850725e+02  -5.5230000724e-01    0.2837707    0.2658812  -3.50 0.0006299379    1.301    0.232
        67 -10.3402    190.2692    231.9940   1.0252734599e+02   1.8628234061e+00     0.406699    0.2120378 -36.56  0.001960437    2.518    0.603
        68 -10.8538    190.9593    223.5999   1.0123533291e+02   2.7995134500e+00    0.2280325    0.1905873  -7.76 0.0005183658    1.473    0.321
        69 -11.4375    177.4915    232.4445   1.0471300654e+02   3.9510332370e+00    0.2541608    0.2192859   0.99 0.0005309623    1.479    0.324
        70 -10.2044    139.4254    234.8429   1.1132880329e+02   9.8815947901e+00    0.1941768    0.1787008  64.50 0.0005186222    1.241    0.194
        71  -9.5278    129.5025    235.2627   1.1300670065e+02   1.1388658157e+01    0.1591799    0.1539468  41.20 0.0007009457    1.424    0.298
        72  -9.9109     77.8263    235.5738   1.2132463392e+02   1.8849540261e+01    0.1679893    0.1397687  81.04 0.0005269042    1.277    0.217
        73  -9.4277      3.0632    235.9821   1.3229301581e+02   2.7234209676e+01    0.1220049   0.09668621 -75.42  0.001129862    1.766    0.434
        74 -10.4193    170.9501    232.9283   1.0586544086e+02   4.9821845792e+00    0.1875376    0.1722871 -35.60 0.0004205127    1.417    0.294
        75  -9.7569    152.9152    233.1097   1.0889305448e+02   7.9430638055e+00    0.1781573    0.1661004 -54.89 0.0004069011    1.396    0.284
        76  -9.2179    108.1711    233.2905   1.1629354103e+02   1.4936560242e+01    0.1582714    0.1389827 -84.91 0.0005022576    1.346    0.257
        77  -9.7048    165.9051    232.3773   1.0663706721e+02   5.8962648004e+00    0.1695336    0.1629454  31.05 0.0002989651    1.272    0.214
        78 -10.1826    145.3251    231.0268   1.0991485081e+02   9.4770667964e+00    0.2102329    0.1785897  45.26 0.0004947939    1.198    0.165
        79  -9.3746    143.7225    226.1028   1.0960499087e+02   1.0455495811e+01    0.1799808    0.1685651 -74.65 0.0003787294    1.319    0.242
        80  -9.9270    123.1826    231.1392   1.1361536872e+02   1.2986219899e+01    0.2012509    0.1690151  40.47 0.0005950614    1.394    0.283
        81  -9.9386    100.1442    230.6403   1.1735133412e+02   1.6526768930e+01    0.1822995    0.1677724 -70.75 0.0007798983    1.513    0.339
        82  -9.4225     84.9692    231.5532   1.1987722463e+02   1.8524152601e+01     0.164108    0.1381389 -70.55 0.0006728721    1.538    0.350
        83 -10.6482     54.6930    230.9418   1.2456682347e+02   2.2530882915e+01    0.2182344    0.1616867  45.28 0.0006734617    1.594    0.373
        84  -9.8959     35.5451    230.7575   1.2743808522e+02   2.4771862462e+01    0.2065378    0.1622936 -50.06  0.001549188    2.403    0.584
        85  -9.8664    133.8193    230.4103   1.1176802115e+02   1.1421395097e+01     0.180549     0.161341 -58.93 0.0006604568    1.456    0.313
        86  -8.7567      9.5213    231.4559   1.3122114421e+02   2.7343398823e+01   0.09390435    0.0629157  74.77 0.0001254155    1.071    0.066
        87  -8.8745     44.6780    229.6039   1.2600459999e+02   2.3931651515e+01    0.1225296    0.1108716 -83.53 0.0005902243    1.651    0.394
        88 -10.2604    113.2081    228.0797   1.1495534504e+02   1.4988721993e+01    0.1961629    0.1760864  87.57 0.0004178511    1.293    0.226
        89  -9.3613     78.9667    228.3885   1.2057674906e+02   1.9850166937e+01    0.1613882    0.1355245 -73.93 0.0003888561    1.497    0.332
        90 -10.3564    174.4078    227.4038   1.0456421525e+02   5.1318670660e+00    0.2130882    0.1703991  37.06 0.0004609833    1.152    0.132
        91  -9.0113    169.5034    228.1404   1.0549002733e+02   5.8631681407e+00    0.1379735    0.1189871 -43.46 0.0004497583    1.485    0.327
        92  -9.3704    152.4981    227.8466   1.0832818003e+02   8.7533214394e+00    0.1726056    0.1588846  16.98 0.0006997263    1.403    0.287
        93  -9.5200    155.1716    223.5748   1.0734046903e+02   8.9205602407e+00    0.1780146    0.1710144 -39.51 0.0006712216    1.354    0.261
        94  -8.5732    106.7095    228.2939   1.1605295870e+02   1.5932144591e+01    0.1132264   0.06813385  68.52 0.0001901365    1.551    0.355
        95  -9.4447     92.7905    227.8775   1.1829879914e+02   1.8022491417e+01     0.150236    0.1283793  67.01 0.0005632667    1.245    0.197
        96  -8.6835     29.6738    228.6850   1.2819210611e+02   2.5748552479e+01   0.08107466   0.07060293 -79.68  0.000449899    1.669    0.401
        97 -10.8927    199.0967    224.8997   1.0005083714e+02   1.2413337707e+00    0.3033696    0.2269428  43.50 0.0007560548    1.098    0.089
        98 -10.4532    184.4503    226.2736   1.0271353386e+02   3.5705236343e+00    0.3491091    0.2043855  32.85 0.0004282449    1.672    0.402
        99 -10.7380    186.1418    219.3228   1.0144037820e+02   4.1920311715e+00    0.2311904    0.2051607 -19.08 0.0003970428    1.382    0.276
       100  -9.8127    185.9560    214.0329   1.0069541168e+02   4.9389986327e+00    0.2048481    0.1732227 -26.33 0.0003638527    1.450    0.310
       101 -11.5947    193.4060    215.7753   9.9666699822e+01   3.3915876511e+00    0.2674561    0.2388543   0.56 0.0006114868    1.283    0.220
       102  -9.0634    189.6038    212.7429   9.9866745396e+01   4.4689650723e+00    0.2013271    0.1845036  54.53 0.0007064898    1.189    0.159
       103 -10.1050    186.9044    209.4045   9.9830062335e+01   5.4096429291e+00    0.2238581    0.2118778 -40.18 0.0003369624    1.288    0.224
       104 -10.8270    163.3225    225.1962   1.0615552834e+02   7.3134949023e+00    0.3030634    0.2249541  67.71 0.0005971253    1.447    0.309
       105  -9.5803    165.7713    220.4391   1.0510654039e+02   7.5670771383e+00    0.1867878    0.1702626  37.88 0.0002874927    1.184    0.156
       106  -9.0946    138.7551    227.2032   1.1057569552e+02   1.1103454468e+01    0.1419108    0.1241443  36.95 0.0004107659    1.342    0.255
       107  -9.6217     67.8998    226.9442   1.2222657694e+02   2.1541751505e+01    0.1570967    0.1180167  69.18 0.0004537946    1.080    0.074
       108  -9.3292     20.0631    227.1348   1.2952020605e+02   2.7004775691e+01    0.1343094    0.1057868  83.23 0.0007169365    1.339    0.253
       109  -9.2239      1.4242    227.0971   1.3217613903e+02   2.8810228218e+01     0.127716   0.06577214 -88.07 0.0004135418    1.494    0.330
       110 -10.9297    206.4787    223.3819   9.8588608768e+01   1.6604429373e-01    0.2703782    0.2072561 -15.70 0.0006650755    1.581    0.367
       111  -9.1805    120.4748    224.9142   1.1340890164e+02   1.4364989613e+01    0.1459468    0.1093872 -66.36 0.0008905765    1.549    0.354
       112  -9.5166      7.7076    224.9851   1.3120190375e+02   2.8570393207e+01    0.1355532   0.08792945  77.29 0.0006050303    1.045    0.043
       113  -9.5360    170.6481    223.7542   1.0471464024e+02   6.2671656755e+00    0.1854276    0.1543511  31.29 0.0005745227    1.242    0.195
       114  -9.5732    129.3158    223.9305   1.1180231582e+02   1.3120705055e+01    0.2102121    0.1421681  45.53 0.0005374932    1.291    0.225
       115  -9.5053    109.7865    223.9577   1.1510920368e+02   1.6159574006e+01    0.1593743    0.1373265  56.56 0.0006257248    1.248    0.199
       116  -9.1916    104.1927    224.0232   1.1605346189e+02   1.6987989696e+01    0.1529846    0.1383196  68.45 0.0006810215    1.301    0.231
       117 -10.3601    180.7752    221.1850   1.0262721561e+02   4.8742605179e+00    0.2085028    0.1857605  -5.47 0.0004285461    1.381    0.276
       118  -9.1321    135.5180    222.9966   1.1063677896e+02   1.2263471081e+01    0.1475559    0.1144899 -61.88 0.0006121504    1.543    0.352
       119  -9.6016     97.7804    222.0103   1.1693067310e+02   1.8259425478e+01    0.1639973    0.1449707 -69.30 0.0005209074    1.472    0.321
       120  -8.8517     82.4393    222.7635   1.1954281231e+02   2.0304590235e+01    0.1283759   0.09541059 -67.11 0.0005733482    1.579    0.367
       121 -10.1512     49.6795    222.2979   1.2476621537e+02   2.4564753187e+01    0.1749658    0.1358249  77.14 0.0003914385    1.173    0.148
       122 -10.0970    174.9239    221.1976   1.0363322712e+02   5.8841169152e+00    0.1803772    0.1699692   8.42 0.0003735913    1.275    0.216
       123 -10.2123    148.4519    220.6518   1.0812764847e+02   1.0480125989e+01    0.2178298    0.1993189   9.08  0.000917343    1.468    0.319
       124  -9.2381    114.5589    221.9090   1.1409034321e+02   1.5758709225e+01    0.1486696    0.1076671 -67.68 0.0009364788    1.561    0.360
       125  -9.0803     74.1079    222.1845   1.2085560948e+02   2.1524099344e+01    0.1481917    0.1223374  68.82 0.0004331045    1.222    0.182
       126  -9.0887     28.4508    221.8058   1.2800063348e+02   2.7023042010e+01    0.1217248    0.0755503 -74.26 0.0006242694    1.617    0.382
       127  -9.2198     15.6630    221.4051   1.2988539023e+02   2.8396377987e+01    0.1724015     0.111823 -57.49 0.0008915483    2.402    0.584
       128  -9.4608    140.4825    220.1976   1.0944897793e+02   1.1877014672e+01    0.1679329    0.1589004  69.61 0.0005558464    1.235    0.190
       129  -8.4900     92.4574    221.5000   1.1777186788e+02   1.9111704971e+01    0.1117757    0.0861358  66.56 0.0002906827    1.039    0.038
       130  -8.6085     68.3072    221.2932   1.2172555245e+02   2.2432551570e+01   0.08672817   0.08246186  76.38 0.0002832438    1.582    0.368
       131  -9.5539     58.5031    220.4873   1.2324233216e+02   2.3806508487e+01    0.3108328    0.1248643  47.71  0.001826877    2.011    0.503
       132 -10.2085     56.0157    216.6048   1.2335713725e+02   2.4776217457e+01    0.1996171    0.1209902 -81.88 0.0006108134    1.492    0.330
       133  -9.4575     39.7421    221.1238   1.2623648862e+02   2.5907755797e+01    0.1428715    0.1346625  15.18 0.0008768018    2.049    0.512
       134  -9.4951    109.1073    219.2685   1.1474095147e+02   1.7021798150e+01    0.1651623    0.1478381 -80.89 0.0004036564    1.331    0.249
       135  -8.9342    128.6174    219.1984   1.1138095924e+02   1.3971828725e+01    0.1345948    0.1101441 -51.24 0.0004962998    1.587    0.370
       136  -9.7568    159.0061    217.6847   1.0591107900e+02   9.1280174711e+00    0.1812539    0.1730025  13.95 0.0004945449    1.302    0.232
       137  -8.5497    154.4442    218.5183   1.0681541138e+02   9.7850486958e+00    0.1203722    0.0974542  50.69 0.0001669514    1.028    0.027
       138  -8.8107    135.8282    218.1920   1.1001253152e+02   1.2955058352e+01    0.1497212     0.126191  40.13 0.0003655678    1.300    0.230
       139 -10.5649    171.0301    213.9934   1.0329851856e+02   7.5764961599e+00    0.2911366    0.2113559 -41.44 0.0006116937    1.711    0.416
       140  -9.3204    119.7795    216.8629   1.1264385848e+02   1.5757989476e+01     0.158978    0.1430363  63.12 0.0005050105    1.216    0.178
       141  -9.8875      7.9986    216.3107   1.3077466998e+02   2.9991339845e+01    0.1738836    0.1598849 -33.92  0.001462361    2.259    0.557
       142 -10.0374    179.7922    215.4334   1.0197408379e+02   5.8324915993e+00     0.198517    0.1733827  21.32 0.0002777985    1.248    0.199
       143  -8.9249    150.6504    215.7408   1.0711554415e+02   1.0849047759e+01    0.1450238    0.1107883 -71.36  0.000878452    1.588    0.370
       144  -9.5063     82.9896    215.4809   1.1880588448e+02   2.1458373439e+01    0.1759816    0.1432199 -65.83 0.0006480234    1.535    0.348
       145  -9.6481     30.9816    214.5294   1.2719519245e+02   2.7996212460e+01    0.1992938    0.1123122 -66.18 0.0009479665    1.945    0.486
       146  -9.6206    165.5653    214.0883   1.0427180543e+02   8.5200532657e+00    0.2091218    0.1687276  24.47 0.0007288656    1.425    0.298
       147  -9.7110    143.1986    214.5125   1.0826657413e+02   1.2301872647e+01    0.1965376    0.1807588  36.89 0.0005687214    1.286    0.222
       148  -8.7343    124.2464    215.6390   1.1172724609e+02   1.5244801499e+01    0.1163804   0.07782439  76.54 0.0004305974    1.605    0.377
       149  -9.2974    101.7765    214.6642   1.1552087533e+02   1.8892905624e+01    0.1831826    0.1528296 -37.98 0.0008597162    1.946    0.486
       150  -8.3968     90.6822    215.6616   1.1752005310e+02   2.0345526076e+01   0.09400144   0.09100145   2.03 0.0007048996    1.706    0.414
       151  -9.7960    131.9172    213.6938   1.1015119530e+02   1.4311696665e+01    0.1695218     0.163114 -83.72  0.000507681    1.300    0.231
       152  -9.5584    154.4461    212.4148   1.0600414574e+02   1.0704555409e+01    0.1864298    0.1826284  68.23 0.0005939592    1.228    0.186
       153  -9.0060    117.4017    212.7131   1.1258878595e+02   1.6816002612e+01    0.1376846    0.1095707 -56.89 0.0006762157    1.551    0.355
       154  -9.4757    110.8503    213.3934   1.1381159496e+02   1.7727133685e+01    0.1538837   0.09733164  40.95 0.0004749062    1.597    0.374
       155  -9.8690     96.7749    212.4660   1.1615999257e+02   2.0007925640e+01    0.1857707    0.1440418 -80.17 0.0005908264    1.312    0.238
       156  -9.2062     51.2109    212.9538   1.2386932733e+02   2.5989221190e+01    0.1475109    0.1063499 -57.59 0.0006863429    1.951    0.487
       157  -8.7065     74.4331    212.4957   1.1998306448e+02   2.3137944296e+01    0.1108786   0.08437954  72.18 0.0001840785    1.029    0.028
       158  -8.7252     41.1746    212.5954   1.2546368551e+02   2.7214562882e+01    0.1225907   0.09083905  42.61 0.0005635745    1.671    0.402
       159 -10.2533    176.8949    208.6268   1.0148040661e+02   7.3127894411e+00    0.2453423    0.1938481 -37.26 0.0004399664    1.550    0.355
       160  -9.3801    124.9861    211.0122   1.1105164413e+02   1.5882080276e+01    0.1624616    0.1428651  20.58 0.0004033828    1.606    0.378
       161  -9.5982    106.6794    210.3987   1.1421444196e+02   1.8875242291e+01    0.1610131    0.1371712 -49.01 0.0005802497    1.644    0.392
       162  -9.2326     25.2238    210.6627   1.2786710280e+02   2.9271913075e+01    0.1598066    0.1044526 -61.84   0.00087097    1.984    0.496
       163  -9.3321     17.7616    211.0806   1.2904675796e+02   2.9950463722e+01    0.1406538    0.1302101 -36.65  0.001081613    2.124    0.529
       164 -10.6423    192.9366    207.9354   9.8542570767e+01   4.5304365947e+00    0.2404131    0.2022673 -37.10 0.0005865071    1.431    0.301
       165 -10.1857    161.2559    208.6933   1.0427636751e+02   1.0083437988e+01    0.2060474    0.1963279  24.40  0.000467637    1.237    0.191
       166  -9.4535     63.0135    213.0136   1.2193604728e+02   2.4531172924e+01    0.1387776    0.1308955 -64.54 0.0006134076    1.682    0.405
       167  -8.9556     78.2360    208.7921   1.1900302332e+02   2.3274934224e+01    0.1356789    0.1220234 -88.43  0.000639216    1.366    0.268
       168  -8.9908    167.6219    208.1802   1.0306521307e+02   9.0334570573e+00    0.1472918    0.1189203 -30.37  0.000606431    1.593    0.372
       169  -9.4262    145.9374    207.7037   1.0688677893e+02   1.2910466753e+01    0.1795848    0.1671546 -44.95 0.0005642275    1.361    0.265
       170  -8.8223    134.7707    208.0050   1.0893308076e+02   1.4761317275e+01    0.1382007   0.09990951 -61.14 0.0003710396    1.590    0.371
       171  -8.8070    131.2926    208.3526   1.0960101540e+02   1.5284970789e+01    0.1085833   0.09473543  11.55 0.0003146322    1.680    0.405
       172  -8.9314     72.5419    207.9123   1.1990036555e+02   2.4196354193e+01    0.1504668   0.09566321 -75.43 0.0005806682    1.516    0.340
       173 -10.0529    120.1112    206.1965   1.1134260426e+02   1.7478820564e+01    0.1980586    0.1659826  63.14 0.0005299407    1.062    0.058
       174 -10.6809    124.6291    205.9205   1.1049541347e+02   1.6790732794e+01    0.2906276    0.1719216  47.60  0.000533493    1.436    0.304
       175  -9.6309    114.2230    207.0074   1.1249449821e+02   1.8281301356e+01    0.1635284     0.153137  60.86   0.00092943    1.296    0.229
       176  -9.8913     46.5802    206.4045   1.2415258916e+02   2.7691984941e+01    0.1805993    0.1532403  82.18 0.0004127886    1.313    0.239
       177  -9.5584    183.2896    205.8492   9.9921722990e+01   6.5633652686e+00    0.1936326    0.1610658  -1.46 0.0007270837    1.484    0.326
       178  -9.0891    171.4926    206.0786   1.0206311774e+02   8.6562485030e+00    0.1586275    0.1260663 -43.95 0.0004439498    1.519    0.342
       179  -9.0668    173.0414    202.4712   1.0123918042e+02   8.9187271486e+00    0.1697974    0.1681259  36.77 0.0005013337    1.185    0.156
       180  -9.4740    156.4806    205.2899   1.0465104708e+02   1.1452955974e+01    0.1918463     0.173262 -61.11  0.000531078    1.306    0.235
       181 -10.1147    149.5635    204.9261   1.0585215032e+02   1.2726032370e+01    0.2718355    0.1724803 -47.21   0.00156569    1.908    0.476
       182  -9.9684    103.9692    205.4785   1.1415274668e+02   2.0139590516e+01    0.1895436    0.1580512 -55.49 0.0006179647    1.553    0.356
       183  -8.7128     32.1575    206.5952   1.2652045076e+02   2.9262593675e+01    0.1192956   0.09159864  42.78 0.0006709863    1.671    0.402
       184  -9.7411    140.5125    195.5251   1.0619669158e+02   1.5865819525e+01    0.1874273    0.1244455 -55.07 0.0007171501    1.714    0.417
       185 -10.4818    139.8701    203.2521   1.0738543567e+02   1.4678406208e+01    0.3021806    0.2329227 -79.19 0.0005720718    1.476    0.323
       186  -9.6816    139.1107    198.9583   1.0693842205e+02   1.5526961929e+01    0.2279655    0.1474565  62.08 0.0004747564    1.498    0.332
       187  -9.7805     86.3749    204.8168   1.1720460254e+02   2.2848932305e+01     0.190537    0.1651246  60.14 0.0005703499    1.278    0.217
       188  -9.7347      6.4074    203.9998   1.3043225562e+02   3.2263489068e+01    0.1438052    0.1274198  62.63 0.0006460228    1.584    0.369
       189 -10.0115    186.8006    201.3268   9.8582779039e+01   6.5766090747e+00    0.2202087     0.195049 -30.36   0.00040568    1.333    0.250
       190  -9.5965    179.0295    202.3097   1.0013407728e+02   7.8533913874e+00    0.1846071    0.1811796  -8.90 0.0003574579    1.203    0.169
       191  -9.9805    109.9061    202.8384   1.1278453362e+02   1.9683411505e+01    0.1682316    0.1545659  59.24  0.000750798    1.275    0.216
       192  -8.5231     92.3765    203.2880   1.1598427697e+02   2.2258158978e+01    0.1010139   0.09252983  17.45 0.0007018395    1.727    0.421
       193  -9.6371     55.8965    202.1062   1.2225402257e+02   2.7360769556e+01    0.1734485     0.136188 -79.20 0.0004832777    1.328    0.247
       194  -9.8266    193.2203    186.7679   9.4971713332e+01   7.5278121146e+00    0.2542379    0.2055928 -26.85 0.0008875117    1.416    0.294
       195  -9.4188    190.0158    190.9555   9.6284665877e+01   7.5070370449e+00     0.384781    0.1846029 -43.73  0.001534256    2.435    0.589
       196  -9.8889    193.0297    201.0212   9.7420254614e+01   5.4782718035e+00    0.2318131    0.1858867 -49.71 0.0005756541    1.543    0.352
       197  -9.6872    191.3754    196.7429   9.7012834096e+01   6.3978729623e+00    0.2450125    0.1970002 -22.70 0.0007725845    1.475    0.322
       198 -10.0640    193.9846    192.9555   9.5904111561e+01   6.4634519461e+00      0.28106    0.2349986 -28.18 0.0009298178    1.376    0.273
       199  -9.0878     21.0687    202.1874   1.2803192846e+02   3.1192040596e+01    0.1400497    0.1116113  88.61 0.0005192629    1.297    0.229
       200 -10.8135    164.6358    199.8645   1.0237091206e+02   1.0845501471e+01    0.3020114     0.246295  71.32  0.001376114    1.316    0.240
       201 -10.4580    132.0664    199.7008   1.0833987256e+02   1.6607900995e+01    0.2829222    0.2234739  25.35  0.001736979    1.688    0.407
       202 -10.2614     98.1712    200.3304   1.1462322738e+02   2.1930199016e+01    0.2266294    0.1736985  85.11 0.0009539854    1.185    0.156
       203 -10.0496     69.3154    200.3027   1.1977280984e+02   2.5993966405e+01    0.1801853    0.1663354 -70.20 0.0005654103    1.523    0.343
       204  -9.0406     80.6344    199.0943   1.1765056534e+02   2.4688805364e+01    0.1541727    0.1233054  89.46  0.000498662    1.150    0.130
       205  -8.8682     74.9666    198.9660   1.1864873334e+02   2.5487780809e+01    0.1383222    0.1067585  77.78 0.0004088293    1.036    0.035
       206  -9.2690     49.2149    198.6988   1.2312451305e+02   2.8783215483e+01    0.1688073    0.1210783 -56.89 0.0008264245    1.879    0.468
       207  -9.3290    103.9519    198.3157   1.1334063064e+02   2.1412890692e+01    0.1664079    0.1298281  59.62 0.0003961002    1.095    0.087
       208  -9.6250    176.1465    195.7552   9.9620759761e+01   9.3741558368e+00    0.2319499    0.1782061 -38.06 0.0008305606    1.546    0.353
       209  -9.4294    148.9678    196.7796   1.0480176865e+02   1.4161567700e+01    0.1853228    0.1589779  37.58 0.0005700038    1.230    0.187
       210  -9.1202    170.1139    196.0746   1.0078023120e+02   1.0439419267e+01    0.1891836    0.1592913  27.70  0.000553105    1.263    0.208
       211  -9.3271    144.4792    200.9023   1.0621933913e+02   1.4268992072e+01    0.1861014    0.1478896  52.89 0.0007051355    1.059    0.056
       212  -8.9977     60.8095    196.1395   1.2089468305e+02   2.7851531573e+01    0.1377045    0.1178722 -83.52 0.0004691953    1.322    0.243
       213  -9.9746    184.2355    194.5023   9.7936468970e+01   8.0596491297e+00    0.2183612    0.1920298   6.17 0.0004586444    1.288    0.223
       214  -8.7570     16.7988    195.1882   1.2831155545e+02   3.2873730136e+01    0.1260256   0.09768303 -84.60 0.0003806631    1.318    0.241
       215 -10.0646    132.8844    193.3684   1.0732364148e+02   1.7563712867e+01    0.2097792    0.1801598 -61.37 0.0005144751    1.323    0.244
       216 -10.5622    112.6340    193.5119   1.1114819935e+02   2.0913589934e+01    0.2422415    0.1803366 -73.40  0.001190382    1.388    0.279
       217  -8.7382     74.3303    194.2972   1.1830630628e+02   2.6438020538e+01   0.09609204   0.09189335 -43.80 0.0003403713    1.639    0.390
       218  -8.9323     41.4922    199.4959   1.2449753905e+02   2.9522552310e+01    0.1059203   0.08024618  79.98 0.0002361852    1.087    0.080
       219  -9.0599     36.0044    193.0691   1.2496046271e+02   3.1313112011e+01    0.1415106    0.1158129 -64.94 0.0005388965    1.611    0.379
       220  -9.7499    161.9289    190.4174   1.0140900224e+02   1.2861721147e+01    0.2384585     0.184436 -43.20 0.0004615164    1.519    0.342
       221  -8.4215    157.3032    192.6806   1.0263134826e+02   1.3338556536e+01     0.128188   0.09336367  74.90 0.0006349263    1.628    0.386
       222 -10.3048    124.8201    196.6404   1.0927649888e+02   1.8357559771e+01    0.1831634    0.1669138 -64.63 0.0005660918    1.306    0.234
       223  -9.8318    146.1953    191.4066   1.0452873800e+02   1.5563658587e+01    0.1878237    0.1496572 -65.82 0.0005504914    1.408    0.290
       224  -9.5106     88.8227    196.0867   1.1585772486e+02   2.4080819895e+01    0.1918114    0.1527018 -56.27 0.0007658738    1.593    0.372
       225  -8.6080     26.3734    192.3109   1.2654350693e+02   3.2460965922e+01   0.09133748    0.0746461 -58.40 0.0007032314    1.779    0.438
       226  -9.6612    185.6204    189.0401   9.6764434247e+01   8.6298000189e+00    0.2238303    0.1899693  41.64 0.0003782228    1.017    0.017
       227  -9.6584    172.5173    189.3194   9.9245577560e+01   1.1063498828e+01    0.2137201    0.1812527 -44.68 0.0006097368    1.364    0.267
       228 -10.0644    139.8799    189.8643   1.0549776790e+02   1.6955489191e+01     0.182753    0.1669919  33.90 0.0005246344    1.273    0.215
       229  -8.6553     96.6666    190.6777   1.1379565725e+02   2.3925036129e+01    0.1053045   0.09786266 -11.51 0.0007050178    1.704    0.413
       230  -9.3548     63.9885    190.0408   1.1976768353e+02   2.8595718875e+01    0.1689477    0.1370138  81.23 0.0004559391    1.103    0.094
       231  -9.6750    178.9534    188.2056   9.7858563617e+01   1.0024698695e+01    0.2226735    0.1899561 -25.29 0.0005995805    1.385    0.278
       232 -10.1174    134.3160    187.4585   1.0620835085e+02   1.8360682453e+01     0.279329    0.1823487 -73.50  0.001506794    1.858    0.462
       233  -9.4400    134.4568    183.4525   1.0558878720e+02   1.9057278105e+01    0.2115312    0.1581454 -45.57 0.0006754959    1.606    0.377
       234  -8.7757     89.7775    188.4203   1.1482693802e+02   2.5373246212e+01    0.1456334      0.10762  40.77 0.0002818857    1.525    0.344
       235  -9.3664    156.9950    186.6497   1.0174316050e+02   1.4406018183e+01    0.2078671    0.1795174   8.60 0.0006452775    1.486    0.327
       236  -9.8430    150.8348    185.7080   1.0277185404e+02   1.5703890611e+01    0.1972878    0.1744498 -42.33 0.0005560308    1.346    0.257
       237  -9.9060    128.7313    185.8427   1.0704882301e+02   1.9623306980e+01    0.1766121     0.167216  55.93 0.0006043757    1.204    0.170
       238  -8.8164    120.6585    186.3001   1.0866979629e+02   2.0913706647e+01    0.1326024   0.08604267  71.92 0.0004438142    1.671    0.401
       239  -8.8384     20.5228    186.4646   1.2714966727e+02   3.4131014272e+01    0.1034661    0.0764235  85.13 6.579483e-05    1.097    0.088
       240  -9.4452    166.7222    184.0940   9.9471339985e+01   1.3012107161e+01    0.2144656     0.175821 -19.03 0.0007123264    1.573    0.364
       241  -8.9437    189.6725    184.1223   9.5159181153e+01   8.6122629769e+00    0.1714402    0.1214447 -25.73 0.0008160544    1.716    0.417
       242  -9.6582    173.3483    183.9852   9.8194825391e+01   1.1769089763e+01    0.1716436    0.1646844 -43.58 0.0005392861    1.191    0.161
       243  -9.8969    140.1169    183.5544   1.0450516791e+02   1.8030421834e+01    0.2335672     0.171197 -32.26 0.0008445231    1.922    0.480
       244  -8.5755    103.9744    183.9807   1.1157892804e+02   2.4060623857e+01    0.1487089    0.1227599  69.90  0.000321287    1.018    0.018
       245  -8.5264     26.6642    184.6795   1.2597051946e+02   3.3863952239e+01   0.09427348   0.07390575 -59.99 0.0007049863    1.706    0.414
       246  -9.7776    183.7359    181.2937   9.5766103621e+01   1.0203564723e+01    0.2665227     0.177603 -37.05 0.0006835938    1.724    0.420
       247  -8.9773     95.4736    182.5273   1.1303751307e+02   2.5650119061e+01     0.200777    0.1030433 -51.80  0.001020112    2.289    0.563
       248  -9.3898    197.4644    181.1527   9.3184067280e+01   7.5601555502e+00    0.2121206    0.1320282 -32.65 0.0007036343    1.846    0.458
       249  -8.9563    154.5755    181.9573   1.0145024240e+02   1.5662533027e+01    0.1795005    0.1300625 -48.94 0.0004780091    1.558    0.358
       250  -8.9412     54.9843    180.7019   1.2053878224e+02   3.1511369558e+01    0.2127902    0.1150281 -49.80  0.001152906    2.678    0.627
       251  -8.5735     46.6980    181.6301   1.2215268233e+02   3.2302828317e+01    0.1021888   0.07868879 -55.02 0.0007032484    1.746    0.427
       252  -9.5871    176.6475    179.4518   9.6781919691e+01   1.1877037227e+01    0.2279317     0.162831 -37.60 0.0006411816    1.611    0.379
       253  -9.0878    160.1535    179.8418   1.0001981588e+02   1.4979476889e+01    0.1698495    0.1535143  15.51 0.0004710572    1.296    0.229
       254 -10.0509    190.6319    177.3009   9.3748332172e+01   9.4914834310e+00    0.2586879    0.2359422 -32.00 0.0008994385    1.224    0.183
       255  -8.6639    165.4310    179.4303   9.8929543446e+01   1.4044029130e+01    0.1326868    0.1174603  48.74 8.106951e-05    1.018    0.018
       256  -9.8166    145.6525    178.9755   1.0270524570e+02   1.7845647983e+01    0.1758568    0.1636611 -78.90 0.0006152003    1.150    0.131
       257  -8.3877     34.7086    179.6307   1.2416553512e+02   3.4006213664e+01    0.1004593   0.07373556 -58.60 0.0007025297    1.717    0.418
       258 -10.4925    134.4014    177.2453   1.0465017492e+02   2.0206088800e+01    0.2539948    0.2114684  80.48 0.0006894381    1.187    0.158
       259  -9.7229    197.7212    175.4863   9.2085734626e+01   8.3796332575e+00    0.2672242    0.2273253 -30.96  0.001360168    1.298    0.229
       260  -9.0821    169.4250    176.7176   9.7686767310e+01   1.3735830092e+01    0.1707606     0.130531 -29.56 0.0009395808    1.598    0.374
       261  -9.5614    101.1877    176.2109   1.1110321423e+02   2.5995367788e+01    0.2419011    0.1631639  81.64  0.001371749    1.550    0.355
       262  -9.7814    150.0868    175.6736   1.0129016630e+02   1.7615512435e+01    0.1886599    0.1614321  49.86 0.0005920327    1.075    0.069
       263  -9.7382    182.3620    174.4197   9.4784480921e+01   1.1585794994e+01    0.2616311     0.216072   4.02 0.0007308192    1.452    0.311
       264 -10.0634    161.3822    173.9091   9.8762005759e+01   1.5778413570e+01    0.2398523    0.2137774  23.30 0.0004955095    1.255    0.203
       265  -8.8128    112.3549    175.3071   1.0875244759e+02   2.4373897247e+01    0.1173363    0.1036239   1.16 0.0007042053    1.720    0.419
       266 -11.1017    175.5577    172.1941   9.5685826299e+01   1.3302587830e+01    0.4857831       0.4175  28.31  0.002875917    1.195    0.163
       267  -9.8691    178.5638    167.3620   9.4199689271e+01   1.3525296373e+01    0.3502977    0.2639791 -33.93  0.001306502    1.501    0.334
       268  -9.9061    192.9161    171.6947   9.2268592588e+01   9.9309007428e+00    0.2910925    0.1989071 -33.33 0.0005736679    1.641    0.391
       269 -10.1288    129.0388    172.7487   1.0501709715e+02   2.2006860379e+01    0.2064961     0.181749 -73.59 0.0004469795    1.173    0.148
       270  -9.4408    187.6181    171.3437   9.3207422176e+01   1.1045712918e+01    0.2370633    0.1645887 -36.61 0.0007072199    1.606    0.377
       271  -9.0890     89.8738    171.7999   1.1277993009e+02   2.8594537994e+01    0.1726792    0.1603971 -83.92 0.0006154089    1.249    0.199
       272  -9.0875    200.9357    170.5305   9.0540112925e+01   8.5122307085e+00    0.2018366    0.1731067 -26.87 0.0005937902    1.265    0.209
       273  -8.7784    107.5088    171.4808   1.0917887767e+02   2.5915704922e+01    0.1266354    0.1120709  75.18  9.28037e-05    1.064    0.060
       274  -8.8574    102.6489    171.6549   1.1018678464e+02   2.6661593101e+01    0.1180722    0.1025034 -16.72 0.0007040573    1.814    0.449
       275  -9.3264    183.8526    169.8649   9.3649190874e+01   1.2042500052e+01    0.2023845    0.1773438  10.78 0.0008315349    1.251    0.201
       276  -9.8182    143.1915    169.8214   1.0168240252e+02   1.9980769229e+01    0.1733859    0.1607912  13.08  0.000721952    1.325    0.245
       277  -9.1537    119.4755    170.0272   1.0653129916e+02   2.4201039318e+01    0.1854619    0.1246627 -58.77 0.0005923806    1.545    0.353
       278  -9.0384    197.2367    168.9315   9.0922259734e+01   9.5059807186e+00    0.2252309    0.1925737 -25.77 0.0007856838    1.271    0.214
       279 -10.0519    199.4942    163.2363   8.9371177197e+01   9.9594967391e+00    0.3560644    0.2356593 -36.15  0.001060761    1.635    0.388
       280  -9.5481    139.8873    174.9455   1.0319409332e+02   1.9639373769e+01    0.1884473    0.1774538  24.64 0.0004775343    1.272    0.214
       281  -8.7474     24.0351    172.4676   1.2554693147e+02   3.6477604315e+01    0.1146901     0.093138 -25.07 0.0008068422    2.359    0.576
       282  -9.3038    134.7112    167.9823   1.0309537248e+02   2.1895455613e+01    0.1818336    0.1656232 -73.53 0.0005177344    1.144    0.126
       283  -9.6190    169.8404    166.6637   9.5782248589e+01   1.5393029998e+01     0.211776    0.1854382 -28.31 0.0004947799    1.305    0.234
       284  -9.1539    150.4653    166.9855   9.9720944856e+01   1.9131071314e+01    0.1912304    0.1347771 -49.65 0.0004653422    1.542    0.352
       285  -8.7962     85.0360    167.4963   1.1319871145e+02   3.0170905539e+01    0.1697672    0.1141421  45.61 0.0004323701    1.496    0.332
       286  -9.6067    184.7780    164.0471   9.2351523721e+01   1.2830958905e+01    0.2756125    0.1869016 -30.88 0.0009355159    1.704    0.413
       287  -9.9516    120.2871    163.2864   1.0530070973e+02   2.5388283966e+01    0.2030528    0.2002973  83.07 0.0005479287    1.220    0.180
       288  -9.0196    159.4893    163.4894   9.7261967863e+01   1.8017822795e+01    0.1378703    0.1265889  50.55 8.802075e-05    1.034    0.033
       289  -8.9060    111.2861    163.3287   1.0718512598e+02   2.6917151539e+01    0.1188277    0.1050566 -22.23 0.0002434167    1.612    0.380
       290 -10.2330    191.8748    163.6955   9.0912815627e+01   1.1441788101e+01    0.3879463    0.2009128 -34.84  0.001147774    2.191    0.543
       291 -10.5890    205.3443    159.8733   8.7588100203e+01   9.2979906769e+00    0.3439283    0.2780044 -25.20  0.001161901    1.316    0.240
       292  -8.7830    172.4991    162.4883   9.4462783632e+01   1.5594972365e+01    0.1394311    0.1276077  42.19 -7.656719e-05    1.036    0.035
       293  -9.3227    182.9874    159.8279   9.1868102645e+01   1.3917487007e+01    0.3967805    0.2438464 -10.68  0.001553371    3.129    0.680
       294  -9.3339    163.5672    160.2156   9.5820077234e+01   1.7804244693e+01    0.2198026    0.1714202 -36.82 0.0005643431    1.447    0.309
       295  -8.6551    146.5559    161.4848   9.9536047275e+01   2.0914387182e+01    0.1352754    0.1265291  53.67  6.72797e-05    1.075    0.070
       296  -9.1114    152.8637    160.2117   9.8004010352e+01   1.9930003469e+01    0.1820297    0.1630665  11.99 0.0004011162    1.346    0.257
       297  -9.8951    176.7125    157.3045   9.2606113096e+01   1.5651295895e+01    0.2810789    0.2189908 -30.84 0.0006853327    1.447    0.309
       298 -10.3208    197.0514    155.4311   8.8240977866e+01   1.1740844311e+01    0.3990618    0.2069186 -32.43 0.0008817128    2.190    0.543
       299  -9.1611    127.7979    166.1670   1.0421332315e+02   2.3495291459e+01      0.16518    0.1593493  -1.40 0.0004146002    1.321    0.243
       300  -9.2175    168.2348    157.9520   9.4437269850e+01   1.7272683708e+01    0.1883732     0.181793 -49.59 0.0009245825    1.119    0.106
       301  -9.1269    158.7994    158.2367   9.6413473990e+01   1.9124122475e+01    0.1833197    0.1628728  12.73 0.0004100928    1.330    0.248
       302 -10.2060    216.0697    154.8683   8.4557680958e+01   7.8728378704e+00    0.3186235    0.2031325 -32.41 0.0008396084    1.641    0.390
       303  -9.8587    187.5820    154.1266   8.9807613287e+01   1.3945253922e+01    0.3870211    0.1679962 -36.28  0.001431957    2.602    0.616
       304  -9.0483    128.1901    155.8591   1.0238077790e+02   2.5461235178e+01    0.1719766     0.163197 -17.96 0.0004033741    1.321    0.243
       305  -8.7665     99.3710    156.1958   1.0860134929e+02   3.0317971557e+01    0.1706961    0.1137266 -73.28  0.000331982    1.495    0.331
       306  -8.6559     61.2901    156.3117   1.1669017662e+02   3.5677165113e+01    0.1094021   0.08756228 -50.04 0.0002312606    1.585    0.369
       307  -9.4362    113.5484    155.2235   1.0540391266e+02   2.8180626147e+01    0.1756898    0.1223883 -47.45 0.0005528647    1.610    0.379
       308  -9.7819     24.9983    155.7426   1.2400573481e+02   3.9729815057e+01    0.1251808   0.08812172  46.87 0.0008873623    1.553    0.356
       309  -9.6116    205.9865    152.9523   8.6022163407e+01   1.0275676918e+01    0.2978366    0.2014572 -22.91  0.000836158    1.677    0.404
       310  -8.5696    167.0000    153.9109   9.3888758915e+01   1.8263356251e+01    0.2172713   0.08153727 -44.28 0.0007319735    2.853    0.649
       311  -8.7892    192.5216    153.0281   8.8613998283e+01   1.3095269673e+01    0.2036507    0.1411854 -38.04 0.0006456627    1.538    0.350
       312  -8.2682    184.2873    153.3350   9.0293089744e+01   1.4773605682e+01     0.142199    0.1098305   9.15 0.0003809926    1.628    0.386
       313  -9.5263    157.4043    151.2582   9.5341997650e+01   2.0717981664e+01    0.2521616    0.1372335 -41.34 0.0007524142    2.027    0.507
       314  -9.9641    145.0077    151.2657   9.7954734611e+01   2.3188191449e+01    0.2474239    0.2258187 -56.80 0.0003270779    1.152    0.132
       315  -9.5512    143.3312    147.2376   9.7530645874e+01   2.4311416306e+01    0.2595395    0.1935876 -47.93 0.0007295905    1.408    0.290
       316  -9.3097    202.4869    150.4015   8.6140227125e+01   1.1430318811e+01    0.2724657    0.1412251 -35.23  0.000992076    2.056    0.514
       317  -8.7601    151.8400    151.3766   9.6531702181e+01   2.1814996788e+01    0.1940677    0.1267262  37.96 0.0004181961    1.600    0.375
       318 -11.7035    133.1252    146.9450   9.9684221837e+01   2.6340219561e+01    0.6419008    0.3730262 -64.21  0.002354466    2.022    0.505
       319 -10.9135    131.8444    139.9832   9.8611106345e+01   2.8005672732e+01    0.4176213    0.2809141 -66.63   0.00150608    1.660    0.398
       320  -9.6179    196.9494    148.5524   8.6805240795e+01   1.2916161529e+01    0.2890786    0.1980604 -18.28 0.0005616402    1.800    0.445
       321  -8.5696    176.4476    150.4708   9.1267281414e+01   1.6927977780e+01     0.142337    0.1331569  36.60 0.0001610769    1.040    0.039
       322  -8.7975     59.6957    150.3145   1.1629145524e+02   3.7135136340e+01    0.1258184   0.07829685  76.56  0.000270698    1.620    0.383
       323  -9.4848    181.9633    148.2902   8.9700057716e+01   1.6154154001e+01    0.2481845    0.2038937 -25.87 0.0002052897    1.344    0.256
       324  -9.3509    121.8868    148.7410   1.0247191584e+02   2.8049049090e+01    0.1937989     0.188427  13.97 0.0006483385    1.259    0.205
       325  -8.9222     54.3215    149.3261   1.1731745218e+02   3.7987688234e+01    0.1125737    0.0858589 -47.26 0.0007047584    1.685    0.406
       326 -10.2649    208.0824    143.8225   8.3647224114e+01   1.1320966069e+01    0.4281223    0.2673586 -17.49  0.001899568    2.039    0.510
       327  -9.6698    191.0689    146.6539   8.7542403186e+01   1.4498720994e+01    0.2891014     0.206717 -38.32 0.0007808781    1.475    0.322
       328  -8.5441    172.4650    148.4939   9.1665570780e+01   1.8123994528e+01    0.1427491    0.1346094  43.61 0.0008095358    1.020    0.019
       329  -9.2863    161.9445    147.6514   9.3665357792e+01   2.0473607840e+01    0.2291778    0.1966421 -30.67 0.0005330606    1.307    0.235
       330  -8.9413    149.8772    147.1408   9.6109239812e+01   2.3030490028e+01     0.186289    0.1681115  16.71 0.0003901246    1.298    0.230
       331  -9.4797     50.5385    147.4667   1.1790281179e+02   3.8817893372e+01    0.1195064   0.09537783 -87.19 8.137558e-05    1.020    0.019
       332  -9.3107    176.3081    144.8661   9.0114651877e+01   1.7975351702e+01    0.2018162    0.1796431 -29.36 0.0008676788    1.205    0.170
       333  -9.3952    218.7105    143.3011   8.1561719374e+01   9.1323550690e+00    0.2632655     0.180395 -19.77 0.0006725487    1.596    0.374
       334  -9.6027    200.2681    143.4583   8.5054205139e+01   1.3066020568e+01    0.2516199    0.1926287 -34.58 0.0005415081    1.361    0.265
       335  -9.1554    194.4329    142.3097   8.5932878061e+01   1.4526360618e+01    0.2525189    0.1429579 -32.52 0.0007238086    1.935    0.483
       336  -9.0376    171.7452    143.2025   9.0695023588e+01   1.9253539957e+01    0.1926163    0.1676579   6.54 0.0004869051    1.332    0.250
       337  -8.4840    120.2817    143.3145   1.0183067782e+02   2.9461506426e+01    0.1280542    0.1106874 -17.09 0.0002693688    1.575    0.365
       338  -9.5121    155.4920    141.1689   9.3683291651e+01   2.3053994080e+01    0.2569886    0.2216585   1.90 0.0007610728    1.446    0.309
       339  -9.2503    147.6667    141.6106   9.5462117488e+01   2.4565509739e+01     0.209621    0.1733127   6.01 0.0007417664    1.622    0.384
       340 -10.2997    139.1288    141.2261   9.7248270332e+01   2.6341822582e+01    0.2697309    0.2462441  -1.74 0.0006373982    1.353    0.261
       341  -9.1035    181.6266    140.4734   8.8078569761e+01   1.7631787441e+01     0.251321    0.1403858 -40.46   0.00108721    1.875    0.467
       342  -9.1100    203.5366    140.0306   8.3663278117e+01   1.2935660932e+01    0.2068108    0.1426232 -32.82 0.0004908467    1.507    0.336
       343 -10.1642    198.7053    135.4376   8.3552105945e+01   1.4779564879e+01    0.5726367    0.1955927 -33.92  0.001865356    3.345    0.701
       344  -8.9625    186.9579    139.0137   8.6680197468e+01   1.6734165536e+01    0.2173097     0.173342   4.83 0.0004357063    1.521    0.343
       345  -9.2901    166.4521    138.7774   9.0842478474e+01   2.1213288351e+01    0.2180268    0.1938753  18.36 0.0006174178    1.248    0.198
       346 -10.2532    208.0943    136.2267   8.1934576144e+01   1.2577032128e+01    0.3490648    0.2816391  40.18 0.0009553129    1.188    0.158
       347  -8.5805    152.0215    137.6860   9.3694117693e+01   2.4455224232e+01    0.1968853    0.1834098  54.54 0.0004821813    1.042    0.040
       348  -8.4942    109.4928    138.5136   1.0337265796e+02   3.2370556239e+01     0.134261    0.1259037 -83.27 0.0008092637    1.079    0.073
       349  -9.8274    146.8945    136.8217   9.4630175897e+01   2.5678030141e+01    0.2056374    0.1953976  -2.09 0.0004872702    1.206    0.171
       350  -9.8109    192.9009    135.0513   8.4601329465e+01   1.6130695968e+01    0.2868436    0.2042459 -31.52 0.0005821451    1.483    0.326
       351  -9.0508    172.3277    135.5472   8.8897016940e+01   2.0560258323e+01    0.2470314    0.1373905 -40.62  0.001007005    1.880    0.468
       352 -11.2025     68.9750    136.0808   1.1227850063e+02   3.9021360801e+01     0.390299    0.2169035  72.96  0.001864338    2.327    0.570
       353  -9.7616    137.8536    135.8698   9.6433048268e+01   2.7683260616e+01      0.21567    0.1986683 -12.33 0.0008758417    1.305    0.234
       354  -9.4330    187.8750    133.9420   8.5348521764e+01   1.7441017624e+01    0.2884384    0.1949436 -31.35 0.0007032681    1.595    0.373
       355  -9.0518    155.8797    134.4052   9.2146641255e+01   2.4299554436e+01    0.2301853    0.1752983 -38.72  0.000484666    1.402    0.287
       356  -9.1208    107.9684    151.4546   1.0598376969e+02   2.9902899910e+01    0.1918297     0.124881  45.64 0.0004238761    1.524    0.344
       357  -9.3578    163.6607    133.5966   9.0291530070e+01   2.2804025998e+01    0.2491144    0.1766855 -30.72 0.0006003758    1.623    0.384
       358  -8.5872    150.2610    133.3583   9.3145311316e+01   2.5680269823e+01    0.1420474    0.1160475  -8.43 0.0002889122    1.626    0.385
       359  -8.4216    120.2842    133.3260   9.9899045857e+01   3.1559245322e+01    0.1332775    0.1121549 -18.08 0.0003659382    1.603    0.376
       360 -10.1175    179.5039    130.0489   8.6153533456e+01   2.0009985140e+01     0.278031     0.257599 -12.41 0.0005529133    1.141    0.123
       361  -9.5498    136.7289    130.0649   9.5455918996e+01   2.9099699678e+01    0.2780768    0.1944264 -41.04 0.0008189699    1.534    0.348
       362 -10.8436    134.7954    124.8564   9.4758215112e+01   3.0564332114e+01    0.4477647    0.1919797 -45.30  0.001716129    2.365    0.577
       363 -11.2705    134.1657    113.4937   9.2284690148e+01   3.3060562389e+01     0.546172    0.2256664 -39.75  0.001537517    2.721    0.632
       364 -10.1659    133.8759    107.6713   9.0934313812e+01   3.4332842392e+01     0.457161    0.2204736 -44.13  0.001253941    2.046    0.511
       365  -9.0646    114.4988    130.9839   1.0077127759e+02   3.3102409779e+01    0.2059721    0.1313961 -53.35 0.0005025257    1.525    0.344
       366  -9.1887    205.5332    129.9465   8.0963983876e+01   1.4202767608e+01    0.2226551    0.1443811 -34.31  0.001024468    1.572    0.364
       367  -8.8046    160.8097    130.1633   9.0131678864e+01   2.4083810903e+01    0.1982828    0.1758689   2.13 0.0004509202    1.320    0.243
       368  -8.7910    126.0230    130.0228   9.7899449488e+01   3.1187378530e+01    0.1736716    0.1562487 -66.01 0.0004109725    1.082    0.076
       369  -9.3111    212.0384    128.0154   7.9283173416e+01   1.3073287727e+01    0.2653561    0.1982738 -40.73  0.001104706    1.388    0.280
       370  -8.4585    131.2814    129.3635   9.6549391093e+01   3.0316278180e+01     0.140998    0.1147466 -14.53 0.0003860736    1.680    0.405
       371  -9.4819    192.6933    127.3969   8.2860039668e+01   1.7534391899e+01    0.2806405     0.196121 -24.55  0.000703313    1.603    0.376
       372  -9.1206    186.4822    127.5423   8.4140129030e+01   1.8908690829e+01    0.2369742    0.1456045 -25.88 0.0008629863    1.953    0.488
       373  -8.7354    171.7858    127.3744   8.7141508004e+01   2.2225036636e+01    0.2130608     0.134258  38.90 0.0003913972    1.653    0.395
       374  -8.8383    121.5015    126.9820   9.8312978016e+01   3.2679758791e+01    0.1892196    0.1210515 -29.14 0.0006438792    2.331    0.571
       375  -8.4187    165.6707    126.7145   8.8290519450e+01   2.3699134880e+01    0.1488695    0.1174618  13.86 0.0004164997    1.612    0.380
       376  -9.1824    199.9827    125.0552   8.0870312533e+01   1.6296103563e+01    0.2255687    0.2106886   5.40 0.0003983435    1.067    0.063
       377  -9.5297    152.1269    124.3685   9.0711345353e+01   2.7089837759e+01    0.2462588    0.1989253 -35.95 0.0006477283    1.320    0.242
       378  -9.6360    179.7620    122.3793   8.4284594207e+01   2.1377754632e+01    0.3436691     0.211185 -27.24  0.001311704    1.933    0.483
       379  -9.4011    124.4813    124.4819   9.7079708050e+01   3.2650014097e+01    0.1422193    0.1342086 -84.52 1.924078e-05    1.004    0.004
       380  -8.8463    108.0167    123.9669   1.0088689239e+02   3.5751669059e+01    0.2012053    0.1687179 -19.78 0.0004364873    1.594    0.373
       381  -8.1939    208.2952    123.3195   7.8862781932e+01   1.4706320861e+01    0.1520428    0.1135666  12.03 0.0003805038    1.611    0.379
       382  -8.5544    146.5243    123.5234   9.1774737738e+01   2.8442594329e+01     0.144196    0.1429214  47.42 0.0008089656    1.061    0.058
       383  -9.9629    212.5611    120.7473   7.7442400340e+01   1.4170023808e+01    0.3122388    0.2464186 -15.95 0.0007627409    1.339    0.253
       384  -9.5860    188.0775    121.2782   8.2315322480e+01   1.9685246974e+01    0.2468157    0.2041329 -20.20  0.000347415    1.302    0.232
       385  -9.3386    117.0115    121.0184   9.8104324087e+01   3.4783162546e+01    0.2183921    0.1765829 -16.29   0.00103407    1.704    0.413
       386  -9.4278    202.9739    119.6778   7.8989522056e+01   1.6546947121e+01    0.2460505    0.2024288 -17.87 0.0005774942    1.276    0.217
       387  -9.1855    194.1316    119.2433   8.0606572949e+01   1.8660401312e+01    0.2483703    0.1978904 -20.80 0.0003594114    1.349    0.259
       388  -8.6862    152.3160    120.3091   8.9718242837e+01   2.7864359848e+01    0.1481249    0.1196643   5.72 0.0002958889    1.633    0.388
       389  -8.9254    173.9874    117.7116   8.4357293901e+01   2.3567476973e+01    0.2124815    0.1960206  41.07 0.0005790251    1.072    0.067
       390  -9.5037    157.2370    118.0934   8.8088014254e+01   2.7239270510e+01    0.2206957    0.2034526  -8.73 0.0004477341    1.203    0.169
       391  -8.5634    209.4157    117.4772   7.7227686861e+01   1.5441533726e+01     0.149378    0.1402346   5.39 0.0007037901    1.040    0.038
       392  -9.1875    147.5999    116.2337   8.9812229738e+01   2.9697127004e+01    0.2039715    0.1415199 -34.88 0.0006221042    1.573    0.364
       393  -8.9584     66.3159    116.7073   1.0977131548e+02   4.3623115842e+01    0.1285601   0.08965888  80.04 0.0003526381    1.599    0.374
       394  -9.7361    219.0732    113.9017   7.4572063748e+01   1.3817085607e+01    0.4140392    0.2881458  32.54  0.001449071    1.541    0.351
       395  -8.1709    199.6796    115.6771   7.8636589305e+01   1.8006189770e+01    0.1573443    0.1167422  13.96 0.0007045376    1.674    0.403
       396  -8.6322    163.3494    114.7934   8.5929381677e+01   2.6534228114e+01    0.2087713    0.1411712 -30.72 0.0004340967    1.651    0.394
       397  -9.3149    129.4896    114.4814   9.3633416612e+01   3.3791723509e+01    0.2506868    0.1349386 -37.87 0.0007240608    2.121    0.529
       398  -9.0084    203.4504    114.0088   7.7493969996e+01   1.7418788145e+01    0.2248708    0.1476859 -31.42 0.0004828454    1.548    0.354
       399  -9.5780    185.8784    113.2969   8.0784227463e+01   2.1650067868e+01    0.2804241    0.2185384 -26.28 0.0005441143    1.359    0.264
       400  -8.6343    181.4423    114.4622   8.1988507599e+01   2.2465941506e+01    0.1521389    0.1447672  14.78 0.0004120688    1.069    0.065
       401  -8.6075    153.3197    114.3035   8.8041682351e+01   2.8851940357e+01    0.1499895    0.1204257   7.37  0.000501901    1.629    0.386
       402  -8.8562    114.3773    112.7837   9.6915313845e+01   3.7036053216e+01    0.2014288    0.1267194 -42.08 0.0004977662    1.657    0.396
       403  -9.3521      6.6012    112.8534   1.2385931384e+02   5.0163611054e+01    0.1625393   0.08021411 -84.91 0.0009453539    1.699    0.411
       404  -8.7797    208.3782    111.8281   7.6014707505e+01   1.6643101691e+01    0.2123373    0.1418849 -21.00 0.0008710501    1.670    0.401
       405  -9.4952    194.7272    111.5173   7.8559252531e+01   1.9899463548e+01    0.2761421    0.2016091 -33.16 0.0006210786    1.384    0.278
       406  -8.6330    168.2421    110.0274   8.3663286656e+01   2.6349171054e+01    0.1986548    0.1288643 -39.40  0.000505086    1.556    0.357
       407  -8.4849    212.2501    114.3839   7.5934598426e+01   1.5309933993e+01    0.1537012    0.1137931   3.38 0.0006953282    1.660    0.397
       408  -9.0113    118.3089    109.3056   9.5134017570e+01   3.7052309691e+01     0.140022    0.1151788 -11.19 0.0004284224    1.611    0.379
       409  -9.3145    218.7232    108.0741   7.3176304688e+01   1.4857115506e+01    0.2173611    0.1812616 -24.09 0.0004802604    1.181    0.153
       410  -8.9211    201.3752    107.7863   7.6313853658e+01   1.8987851779e+01    0.2150755     0.143993 -22.31 0.0008634478    1.666    0.400
       411  -8.8409    176.5451    108.5182   8.1500910288e+01   2.4715126744e+01    0.1511537    0.1488651  15.09 0.0001005282    1.013    0.013
       412 -10.1575    123.4929    107.8569   9.3506477919e+01   3.6368506253e+01    0.3003023    0.2108591  47.65  0.001471652    1.470    0.320
       413  -9.0308    190.1450    107.1763   7.8358025087e+01   2.1759478102e+01    0.2285161     0.203668   7.78 0.0004852455    1.201    0.167
       414  -8.7246    182.7718    107.0378   7.9820400619e+01   2.3529226289e+01    0.2010433    0.1264302 -38.34 0.0004015928    1.594    0.373
       415  -9.2126    160.8758    105.9706   8.4238589017e+01   2.8818361274e+01    0.2272995    0.2025907  -2.54  0.000428174    1.264    0.209
       416  -9.4215    129.1297    106.5170   9.1796877065e+01   3.5536988946e+01    0.2161056    0.1445247  49.87  0.001008943    1.542    0.351
       417  -9.0701    112.9799    105.7267   9.5615552500e+01   3.8809838843e+01    0.1953483    0.1878401  83.89 0.0004563942    1.059    0.056
       418  -9.8466    222.1906    103.2469   7.1338625755e+01   1.4836975412e+01    0.3778797    0.1684477 -45.73  0.001367723    2.530    0.605
       419 -10.1329    218.4974    103.0801   7.1945408421e+01   1.5732119315e+01    0.2839859    0.1884126 -16.13 0.0007576193    1.740    0.425
       420  -9.0245    205.5379    103.8413   7.4506284304e+01   1.8680138495e+01    0.2304657    0.1490838 -30.48  0.001013117    1.563    0.360
       421  -8.7213    165.4972    104.5139   8.2837040388e+01   2.8043062172e+01    0.1508486      0.15003  19.45 0.0001074476    1.009    0.009
       422  -8.8575    190.1334    102.8167   7.7222800618e+01   2.2547089009e+01     0.212382     0.179249  -0.55 0.0004983532    1.333    0.250
       423  -8.9385     65.9452    103.5337   1.0742060040e+02   4.6589217181e+01     0.164736    0.1140174  -7.23  0.000809268    2.573    0.611
       424 -10.0631    119.8503    101.7225   9.2899969029e+01   3.8372598940e+01    0.2569114    0.1938041 -36.43 0.0009355501    1.396    0.284
       425  -8.3286    195.4075    101.5250   7.5840381817e+01   2.1511287233e+01    0.1534246    0.1453383   3.19 0.0001502076    1.064    0.060
       426  -8.3567    185.2862    101.3202   7.7805016463e+01   2.3978747572e+01    0.1556367    0.1209502  10.48  0.000318106    1.595    0.373
       427  -9.0616    141.3021    100.3456   8.7280493543e+01   3.4279657630e+01    0.1524698    0.1206132  -2.15  0.000327428    1.685    0.407
       428 -13.4013    245.5489    240.1216   9.4787448418e+01  -7.9537285222e+00     1.016438     0.728507 -15.55  0.007470557    1.566    0.362
       429  -8.9750     89.9649     97.9522   9.9771611020e+01   4.4419055035e+01    0.2137209    0.1603643  87.85 0.0006524809    1.651    0.394
       430 -13.4302    245.7788    162.8168   8.1013640978e+01   8.2060318980e-01     1.843379    0.7581572 -20.83  0.006907674    3.360    0.702
       431  -9.0535    203.2429     96.3554   7.2969173326e+01   2.0516533530e+01    0.2717895    0.1807033 -21.58 0.0005925239    1.671    0.401
       432  -9.7404      7.4151     96.7767   1.2182028070e+02   5.3521011501e+01    0.1637019   0.07292611 -63.08 0.0008331524    1.642    0.391
       433  -8.8523    195.3853     95.6966   7.4291949568e+01   2.2542155578e+01    0.2152767    0.1476423 -23.28 0.0009188511    1.592    0.372
       434  -8.4538    183.5247     94.5016   7.6328477422e+01   2.5640840370e+01    0.1552622    0.1492998  10.46 0.0001168227    1.051    0.048
       435 -12.3532    249.9697    152.3066   7.8099185172e+01   1.4439709994e+00     1.206249    0.1985177 -34.31  0.003371555    5.516    0.819
       436  -8.4087    207.2660     93.3821   7.1429464143e+01   2.0043086993e+01    0.1587133    0.1180705   7.43 0.0006881946    1.688    0.408
       437  -8.6163    164.5511     92.4911   7.9801870045e+01   3.0565069460e+01    0.1542151    0.1487543   2.90 0.0001356818    1.062    0.059
       438  -8.2997    188.3578     91.2946   7.4474989158e+01   2.5036002860e+01    0.1629279    0.1194548  20.52 0.0004700026    1.697    0.411
       439  -8.9397    127.9869     91.3208   8.8120510721e+01   3.8922876492e+01    0.1963755    0.1827452  43.74   0.00019004    1.120    0.107
       440  -8.9269    210.0122     89.7573   6.9958614148e+01   1.9978752793e+01    0.2099981    0.2045022  -4.37 0.0007029893    1.006    0.006
       441  -8.8040    196.6818     90.1986   7.2549432402e+01   2.3181372071e+01    0.2154332    0.1420876 -23.58 0.0004081264    1.657    0.397
       442 -12.6182    230.1324    196.0740   9.0094268321e+01  -6.1644394050e-01     1.795933    0.7234827 -22.25  0.006921149    3.959    0.747
       443  -8.7960    203.4975     89.0850   7.0963382789e+01   2.1692164874e+01    0.2303976    0.1507929 -31.16 0.0005430604    1.523    0.344
       444  -9.0802    158.2507     88.7346   8.0156159201e+01   3.2759449364e+01    0.2090732    0.1786028  -2.61 0.0005167642    1.342    0.255
       445  -8.3370    183.4594     88.4953   7.4682972511e+01   2.6736340398e+01    0.1545688    0.1506662   4.08 0.0001356838    1.026    0.025
       446  -8.6842    151.2768     86.3485   8.1076297705e+01   3.4833184789e+01    0.1550574    0.1214314   1.15 0.0002876683    1.636    0.389
       447 -10.5504      9.6413     85.6461   1.1972863633e+02   5.5749605392e+01    0.2515857    0.1351614  71.60  0.001077882    2.446    0.591
       448  -8.6218    121.2916     90.2851   8.9540653002e+01   4.0486202089e+01    0.1413621    0.1157332  -5.67 0.0001942633    1.537    0.349
       449 -10.3622    217.8348     83.3512   6.6864672715e+01   1.9105444814e+01    0.4915535    0.2536279  35.06  0.001801759    2.554    0.609
       450  -8.9157    206.0066     83.0400   6.8848862812e+01   2.2082244249e+01    0.2364907    0.1822805   9.85  0.000435727    1.574    0.365
       451 -10.5356      2.4975     82.5776   1.2127734043e+02   5.6816143711e+01    0.2374773    0.1333543  88.50  0.001454417    1.802    0.445
       452  -8.7860    185.4586     81.7499   7.2376783707e+01   2.7431329608e+01    0.2149349    0.1520733 -19.28 0.0009399783    1.597    0.374
       453  -8.6774    159.0222     80.0139   7.7464549932e+01   3.4215257927e+01    0.1899224    0.1754639 -34.19 0.0004472286    1.070    0.065
       454  -9.2677    215.1112     78.8899   6.6114922828e+01   2.0492468459e+01    0.2416834    0.1806034  14.93 0.0009689186    1.650    0.394
       455 -14.5399    224.2273    182.1198   8.8551112263e+01   2.2890457192e+00      5.56318     1.186653 -36.16   0.01776612    5.058    0.802
       456  -8.2473    206.4707     77.4612   6.7218006581e+01   2.2881954909e+01    0.1523446    0.1486239  -1.76 8.335499e-05    1.021    0.021
       457  -8.7756    183.5951     76.7497   7.1307038600e+01   2.8762971811e+01    0.2293891    0.1404161 -44.16 0.0009520206    1.669    0.401
       458  -8.7967    150.8291     77.1893   7.8497886530e+01   3.6672231525e+01    0.2097118    0.1800708   6.77 0.0003687959    1.316    0.240
       459  -8.5817    174.5246     76.4231   7.3054144664e+01   3.1085338212e+01    0.1531066    0.1511464  21.44 0.0001178687    1.011    0.011
       460  -8.1441    167.0000     75.9477   7.4505003391e+01   3.3025791657e+01    0.2538263   0.08782282 -35.60 0.0007915936    2.868    0.651
       461 -12.7594    219.7361    222.0950   9.6183730482e+01  -1.9327596977e+00     1.046733    0.7280663  62.29  0.006256389    2.007    0.502
       462  -8.8502    211.4715     74.9850   6.5658200374e+01   2.2024795601e+01    0.2347405    0.1491865 -29.43 0.0009594992    1.563    0.360
       463  -8.7743    157.4004     73.8410   7.5985628720e+01   3.5732277676e+01    0.2191873     0.147518 -22.70 0.0007191386    1.681    0.405
       464  -8.8676    206.3889     72.8010   6.5924471885e+01   2.3655129471e+01      0.21295    0.1469934 -17.40 0.0007953211    1.625    0.385
       465 -11.1035      1.7829     68.3376   1.1936774326e+02   5.9834328383e+01    0.4361008     0.106015 -66.09   0.00129983    2.685    0.628
       466 -12.3496    227.7376    218.3550   9.4269998737e+01  -2.8545940465e+00    0.5539806    0.3857206 -38.92  0.003032106    1.839    0.456
       467  -8.5208    203.5136     70.4333   6.5756436184e+01   2.4763787209e+01    0.1515162    0.1492284   9.63 0.0001030214    1.020    0.019
       468  -8.8057    176.0000     69.9909   7.0836997384e+01   3.1829162812e+01    0.2551402   0.08806761 -33.72 0.0007067884    2.882    0.653
       469  -9.8098     92.4913     69.5029   9.1501991759e+01   5.0021643877e+01    0.2556758    0.2225451 -42.86 0.0008821655    1.040    0.039
       470  -8.5733    214.1603     68.8561   6.3498346806e+01   2.2311499032e+01    0.2061888    0.1772329   9.21 0.0005728897    1.288    0.224
       471  -9.4584    170.7452     68.5081   7.1471188231e+01   3.3399748141e+01     0.283573    0.2084658 -30.45  0.000637688    1.368    0.269
       472  -8.5373    163.2961     69.3484   7.3312980601e+01   3.5100254622e+01    0.1606679    0.1209781  11.99 0.0003485199    1.678    0.404
       473 -12.7150    248.7555    179.2148   8.3808342027e+01  -1.8531698434e+00     1.115983     0.339669 -33.86  0.004402042    3.374    0.704
       474  -9.8316    223.4561     65.5678   6.1103924628e+01   2.0475740787e+01    0.2577189    0.1473045 -16.19 0.0006396016    2.155    0.536
       475 -13.2876    245.1898    190.2351   8.6496867850e+01  -2.5705679108e+00     1.383981     1.034388 -68.16  0.007272922    2.835    0.647
       476  -8.9796    138.9816     65.0235   7.7557512507e+01   4.1637104524e+01    0.1838121    0.1733447 -26.11 0.0004058788    1.029    0.028
       477 -13.8157    244.8691    144.2290   7.7190213636e+01   3.5770471615e+00     3.405257     1.368567 -17.13  0.009729702    5.365    0.814
       478  -8.4669    152.6605     64.6972   7.4229465340e+01   3.8495941541e+01    0.1597393    0.1183955  17.80 0.0007038615    1.672    0.402
       479  -9.2764    146.3841     63.8302   7.5404780246e+01   4.0138287652e+01     0.220974     0.143491 -22.11 0.0009423346    1.746    0.427
       480  -9.5197     68.6768     63.8912   9.7087669402e+01   5.4752771573e+01    0.2112648    0.1813357   3.58  0.000994609    1.339    0.253
       481  -8.9240    208.4499     62.9441   6.2773027451e+01   2.4676241346e+01    0.2304701     0.147703 -30.83 0.0006096081    1.536    0.349
       482  -8.5864    197.3111     63.2963   6.4788126431e+01   2.7484183184e+01    0.1576667    0.1178941  23.52 0.0002965957    1.596    0.373
       483 -13.3329    248.1958    124.7587   7.2214136312e+01   5.7205781475e+00     2.442097    0.4598876 -32.86  0.006717205    4.868    0.795
       484  -8.7776    171.2884     62.3395   6.9464301261e+01   3.4301150347e+01     0.159674    0.1199599  15.31 0.0003186776    1.640    0.390
       485  -9.1222    157.8175     59.4273   7.1400608062e+01   3.8144490509e+01    0.2480662    0.1837894 -24.84 0.0004900302    1.393    0.282
       486  -8.5959    122.7901     60.0068   8.0030641866e+01   4.6099013237e+01    0.1954741    0.1135498 -37.62 0.0003796052    1.646    0.392
       487  -8.9820    164.9920     57.9669   6.9396861222e+01   3.6604294971e+01    0.2472138    0.1845584  14.12 0.0007018835    1.652    0.395
       488  -9.9366     61.4711    248.5927   1.2469227732e+02   1.8928653212e+01    0.1710639     0.141049  66.99 0.0007744474    1.367    0.268
       489 -11.1492      2.3877     53.7303   1.1658402392e+02   6.2807428511e+01    0.4078251    0.2020913 -69.52  0.002009148    1.608    0.378
       490 -10.3819     16.4190     39.9821   1.0837614970e+02   6.4746160599e+01    0.3098498    0.1733745  41.88  0.001863245    2.540    0.606
       491 -10.2476      9.9602     40.0431   1.1082166290e+02   6.5136679810e+01     0.214651     0.147057 -35.62 0.0003724528    1.348    0.258
       492 -10.1866      2.0305     45.8880   1.1509872241e+02   6.4403577419e+01    0.2457664    0.1312726 -55.32 0.0004347531    1.313    0.239
       493 -10.5039      4.8330     41.4831   1.1308581106e+02   6.5136100119e+01     0.229958    0.1489929 -53.85  0.000325468    1.105    0.095
       494 -12.7185    247.5311    224.5920   9.2064923379e+01  -6.7574601932e+00    0.6284416    0.3925644 -28.21  0.004081313    1.847    0.459
       495  -9.3960    146.9088     56.8068   7.3007416622e+01   4.1224448183e+01    0.2323679    0.2010612  11.25 0.0005240249    1.235    0.190
       496 -10.2368     78.6829     53.0041   9.0522467192e+01   5.5465075058e+01    0.2265442    0.1993171  23.61   0.00124455    1.251    0.201
       497 -10.8738     11.5850     35.2977   1.0893874484e+02   6.5960750513e+01      0.40538     0.166358 -66.76  0.001980095    2.627    0.619
       498  -8.3993    201.2887     51.6924   6.0687850243e+01   2.8216731247e+01    0.1557589    0.1143288 -62.90 0.0002364651    1.574    0.365
       499  -9.3086    163.0609     51.2905   6.7654014467e+01   3.8157588115e+01    0.2132465    0.2044894  44.17 0.0005573774    1.038    0.037
       500  -9.4705    172.1126     49.9837   6.5407284154e+01   3.6056569750e+01    0.2201793    0.2145055  19.10  0.001189109    1.018    0.017
       501 -11.0394    221.5405     48.3467   5.6611341571e+01   2.3458774317e+01    0.3377137    0.2005906 -21.31  0.001065089    1.826    0.452
       502  -8.8470     23.8366     38.3685   1.0510807814e+02   6.4528363202e+01     0.135599   0.09890169 -11.51 0.0002276573    1.562    0.360
       503 -10.4909    228.9226     35.7541   5.2129512046e+01   2.3268283702e+01    0.4179067    0.2392009  18.63  0.001548434    3.093    0.677
       504 -10.3158      5.8028     33.3996   1.1067938961e+02   6.6656817337e+01    0.2613214    0.1380207 -27.13  0.001197408    2.059    0.514
       505  -8.4794    173.6974     33.7251   5.9844698937e+01   3.7969705362e+01    0.1528328    0.1101244  30.64 0.0001754498    1.539    0.350
       506  -9.1768     25.8252     34.1667   1.0305299050e+02   6.5171309898e+01    0.1573409    0.1056377 -33.29 0.0002980857    1.300    0.231
       507  -9.1216     30.5047     31.4746   1.0033720690e+02   6.5277616361e+01    0.1186704   0.08995707 -38.12 0.0002473424    1.018    0.017
       508 -12.7704    248.0288    214.7899   9.0373740549e+01  -5.8267292639e+00    0.5743396     0.334551 -18.46  0.001924694    1.902    0.474
       509  -9.7344     23.4905     27.5612   1.0181116371e+02   6.6580926318e+01    0.2086149    0.1588867 -36.21 0.0006320411    1.051    0.048
       510  -9.8380      8.5006    248.3373   1.3203081035e+02   2.4801989541e+01    0.1524406    0.1226123  77.32 0.0005443819    1.479    0.324
       511  -9.6388     12.8238     27.5441   1.0616333888e+02   6.7348927313e+01    0.1955035    0.1195794 -50.59   0.00036673    1.212    0.175
       512 -10.8741      4.2729     27.6097   1.0968814886e+02   6.7836915956e+01    0.2956482    0.2057648  11.21  0.001503057    1.818    0.450
       513  -9.9340      4.0985     23.4848   1.0854322075e+02   6.8613698198e+01    0.2097894    0.1204385 -29.21  0.000890848    1.660    0.398
       514 -12.1569    191.5300    244.6110   1.0399391957e+02   1.5604007729e-01    0.2825585    0.2263163  25.30 0.0005793123    1.267    0.211
       515  -9.3441    186.5397    245.4890   1.0490720782e+02   8.6294112138e-01    0.1557901    0.1136153 -40.35 0.0004996147    1.826    0.452
       516 -10.6405    124.1713    246.7602   1.1501752507e+02   1.0562279300e+01    0.1854074    0.1638464  71.29 0.0004541388    1.259    0.206
       517  -9.9225     31.5896    247.2909   1.2886431336e+02   2.2588462422e+01    0.1583444    0.1357398  72.80 0.0005126207    1.558    0.358
       518 -11.7773    176.7948    243.8567   1.0627419202e+02   2.6377126140e+00    0.2529872    0.2136811  21.98 0.0004989657    1.353    0.261
       519  -9.1299    170.8092    246.0576   1.0750390272e+02   3.3370549333e+00    0.1828891    0.1445256  79.45 0.0007335132    1.602    0.376
       520 -10.9639    169.8707    240.6531   1.0700655474e+02   4.1636343413e+00    0.2309881    0.1821623  33.96 0.0004656591    1.258    0.205
       521 -10.1799    132.9889    245.3902   1.1348725189e+02   9.4090281590e+00      0.16952    0.1521589  78.88  0.000343738    1.280    0.219
       522  -8.9521     47.3628     18.3929   8.8648429016e+01   6.5781063767e+01    0.1833804    0.1172284 -13.68 0.0006950503    1.629    0.386
       523  -9.7284     22.8532     15.6605   9.7709015031e+01   6.8725023295e+01    0.1902285    0.1349567 -39.85 0.0003934243    1.114    0.103
       524  -9.9162    113.4025    244.3000   1.1648273358e+02   1.2519026755e+01    0.1776884    0.1643185  46.60 0.0007066418    1.479    0.324
       525  -9.1534     37.9210     15.5161   9.1238516854e+01   6.7313342889e+01     0.146827    0.1087405  17.20 0.0003290605    1.479    0.324
       526 -10.1918     92.9868    244.5106   1.1968023590e+02   1.5413054225e+01       0.1857    0.1431699  60.00 0.0005348643    1.160    0.138
       527 -10.0843     80.2236    244.2146   1.2160810297e+02   1.7191790318e+01    0.1745635    0.1434308  58.77 0.0004661607    1.339    0.253
       528  -9.2917     41.0493    244.9158   1.2741526340e+02   2.1906030356e+01    0.1220986    0.1102668  89.12   0.00101742    1.698    0.411
       529 -10.2898    104.4710    241.6193   1.1764786140e+02   1.4217346330e+01    0.1893095     0.181879  65.09 0.0006162346    1.520    0.342
       530 -10.0998    125.2290    239.9897   1.1418679231e+02   1.1363459264e+01    0.1860719    0.1735533  60.32 0.0004084971    1.346    0.257
       531 -10.3635     68.4224    240.2298   1.2310933701e+02   1.9342290309e+01    0.1807479    0.1413954  65.27 0.0004506432    1.216    0.177
       532  -9.6394     51.2880    240.4052   1.2567699948e+02   2.1423015902e+01    0.1542659    0.1309606  81.49 0.0007302914    1.435    0.303
       533 -10.0906     29.4240     20.2634   9.6709349565e+01   6.7367534898e+01    0.2691527    0.2485378 -59.69  0.002049433    1.481    0.325
       534 -10.2218     25.0947    239.7740   1.2940996188e+02   2.4449396381e+01    0.2008942    0.1486364 -65.21  0.001137814    1.985    0.496
       535  -8.8688     50.5068     13.4852   8.5274995014e+01   6.6147031482e+01    0.1221081   0.09600402 -17.86 0.0002030201    1.007    0.007
       536 -10.6346    219.8303    238.5446   9.8620545011e+01  -3.7586722377e+00    0.2190525    0.1748865 -14.90 0.0005697487    1.487    0.327
       537 -13.6149    241.2668    203.2138   8.9490263784e+01  -3.4208872750e+00    0.9377362    0.6523359 -26.28  0.005184632    1.577    0.366
       538 -11.3561    183.8257    237.0824   1.0427143338e+02   2.3122296099e+00    0.2411739    0.2082817 -11.00 0.0004788415    1.490    0.329
       539  -9.1160    186.0504    231.6403   1.0318046533e+02   2.6158221523e+00    0.1596173    0.1421956  37.05 0.0004641641    1.153    0.133
       540  -9.9934    134.9156    239.0031   1.1251777759e+02   1.0002826850e+01    0.1758081    0.1559254 -73.52 0.0005445764    1.398    0.285
       541  -9.0757     35.3054    240.3317   1.2799089338e+02   2.3262998014e+01    0.1160181    0.1050943 -87.32 0.0006307801    1.728    0.421
