#   1 NUMBER                 Running object number                                     
#   2 MAG_AUTO               Kron-like elliptical aperture magnitude                    [mag]
#   3 X_IMAGE                Object position along x                                    [pixel]
#   4 Y_IMAGE                Object position along y                                    [pixel]
#   5 X_WORLD                Barycenter position along world x axis                     [deg]
#   6 Y_WORLD                Barycenter position along world y axis                     [deg]
#   7 A_WORLD                Profile RMS along major axis (world units)                 [deg]
#   8 B_WORLD                Profile RMS along minor axis (world units)                 [deg]
#   9 THETA_WORLD            Position angle (CCW/world-x)                               [deg]
#  10 FWHM_WORLD             FWHM assuming a gaussian core                              [deg]
#  11 ELONGATION             A_IMAGE/B_IMAGE                                           
#  12 ELLIPTICITY            1 - B_IMAGE/A_IMAGE                                       
         1 -12.3320     72.5422    134.5037   1.2671033755e+02   3.8742771877e+01     1.332651    0.3832035 -65.20  0.004931855    3.677    0.728
         2 -12.4609     58.7220    132.4249   1.2980382640e+02   4.0817552602e+01      1.07281    0.3399025 -71.96  0.004065545    3.688    0.729
         3 -11.5182    202.3926      4.6100   6.0320632301e+01   3.2995382139e+01    0.7938239    0.6314703  72.32  0.003077129    1.266    0.210
         4 -10.7540    196.7563     12.7809   6.3592395580e+01   3.3745164276e+01    0.6465675    0.3562686  21.85  0.001082068    2.264    0.558
         5 -12.3857    189.9681     22.0086   6.7538191866e+01   3.4620773564e+01     1.103263     0.889187  -6.72  0.005614196    1.244    0.196
         6 -10.3431     40.7207     18.8648   1.0916477898e+02   6.7343702314e+01    0.3956517   0.09889448 -50.59  0.001338168    3.843    0.740
         7 -10.7890     40.3887      4.5986   1.0247554921e+02   6.9933745014e+01    0.4407191    0.1458812 -38.50   0.00185083    2.505    0.601
         8  -9.7367     58.8533      9.3013   9.6268608708e+01   6.6619384273e+01    0.2366566    0.1629865 -36.66  0.001326497    1.390    0.281
         9 -10.5644     77.2238    190.1708   1.3203767956e+02   2.7518356933e+01    0.3435017      0.25457 -37.08   0.00173907    2.084    0.520
        10 -10.3813    162.6183    248.7451   1.2285806969e+02   7.6941433519e+00    0.2457957    0.1847451  76.57  0.001824712    2.139    0.532
        11 -10.5383    142.3159    249.6068   1.2620568891e+02   1.0379920179e+01    0.3734451    0.1355572  41.94  0.002146405    1.933    0.483
        12 -19.0090      5.7051    128.8321   1.4205989954e+02   4.6188576724e+01     15.32669     1.838743 -78.75   0.04432318    7.595    0.868
        13 -10.2400     81.1894    183.6701   1.3064354121e+02   2.8154757502e+01    0.2670181    0.2219348 -54.03 0.0008081981    1.482    0.325
        14 -11.7481     76.8346    169.3158   1.3003772729e+02   3.1303858232e+01    0.4134483    0.2752233 -43.47  0.001468205    2.033    0.508
        15  -9.1453    114.8684    174.1043   1.2269670485e+02   2.5170934727e+01    0.2095488    0.1447393 -69.20  0.001251647    1.706    0.414
        16  -9.9627     49.4711    173.6625   1.3603713909e+02   3.3633357127e+01    0.1978514    0.1273643  36.10  0.001335194    1.594    0.372
        17  -9.4601     88.5677    172.6307   1.2796518007e+02   2.9175604662e+01    0.2052374    0.1782685  58.72 0.0005528512    1.041    0.039
        18 -10.8602     94.0589    164.7905   1.2585585524e+02   2.9875151534e+01     0.487131    0.3964378 -25.36  0.002043348    1.728    0.421
        19 -10.2244     83.3993    163.5920   1.2799675289e+02   3.1540063234e+01    0.4345753    0.1760941 -65.60  0.002064973    2.650    0.623
        20 -10.3648     78.1964    159.2333   1.2860508160e+02   3.3047037520e+01    0.3289176    0.2244733  81.03  0.002002468    1.563    0.360
        21  -9.3149    194.7601    249.7577   1.1783793198e+02   3.0994426654e+00    0.1722581   0.06309426  46.40 0.0008970831    2.460    0.593
        22 -12.6775     46.9583    145.0887   1.3400820698e+02   3.9444914559e+01    0.7188996    0.4413133  80.30  0.004378699    1.615    0.381
        23 -12.2633     40.8562    126.7001   1.3350829589e+02   4.3871470078e+01      1.10155    0.1852212 -70.99  0.003273139    6.103    0.836
        24  -8.9633    114.3951    134.4394   1.1654283169e+02   3.2662960601e+01    0.3011679    0.1944737 -38.70  0.001526567    1.792    0.442
        25  -9.2157    101.8473    131.7106   1.1908872596e+02   3.5219471072e+01    0.2420453    0.2072308 -25.36 0.0007091251    1.401    0.286
        26 -12.2205     70.4036    145.1922   1.2864196558e+02   3.6804849559e+01     1.249048    0.4727753 -75.99  0.004764481    3.910    0.744
        27 -12.4707     48.2007    133.4469   1.3247751022e+02   4.1725158948e+01     0.685265    0.2650317 -56.10  0.003306759    2.483    0.597
        28  -8.3809    109.9597    122.2767   1.1530476649e+02   3.5851161719e+01     0.181108    0.1712863  39.23 0.0003473746    1.063    0.059
        29 -11.5614     66.7580    142.8658   1.2919879051e+02   3.7719102577e+01    0.4889909    0.3473345  86.55  0.002677766    1.410    0.291
        30  -8.5613    168.0434    113.0129   9.9324816528e+01   2.6453840819e+01    0.2265693    0.1876737 -78.18 0.0007548508    1.742    0.426
        31  -9.5092    115.0000    109.8664   1.1138180353e+02   3.7540988259e+01    0.5394352    0.0784016 -49.11  0.001246196    6.866    0.854
        32 -10.9407     95.4978    249.8682   1.3366287354e+02   1.6361272802e+01    0.4071176    0.1929814  35.81  0.001561849    1.876    0.467
        33 -10.4267     94.4028    147.5860   1.2342044235e+02   3.3134558251e+01    0.2337289    0.2228478   8.14 0.0008678267    1.247    0.198
        34 -11.7341    102.1196    243.5659   1.3215083795e+02   1.6361623077e+01    0.3533764    0.2744378  43.69  0.002569435    1.174    0.148
        35 -10.0880    177.8673    248.5710   1.2039173293e+02   5.5837931521e+00    0.1947454    0.1293943  43.65  0.001462721    1.246    0.198
        36  -9.6203    120.3640    248.9791   1.2966342771e+02   1.3359002955e+01    0.1757217   0.09674669 -60.05  0.001250744    2.494    0.599
        37 -11.2864    109.2629    246.8098   1.3125919993e+02   1.5048651554e+01    0.3153554    0.2612186  54.68  0.002797848    1.171    0.146
        38  -9.8485    148.9357    248.6405   1.2504905166e+02   9.5907402525e+00    0.1755569    0.1246313  61.50  0.001098934    1.624    0.384
        39 -10.3947    163.9872    242.5296   1.2197235660e+02   8.1798309400e+00    0.2885839     0.140285 -44.41  0.001835233    2.861    0.650
        40 -11.8137    182.8101     28.2776   7.0743699914e+01   3.5828813441e+01    0.6541164    0.5050811  21.98  0.002573801    1.325    0.245
        41 -10.9300    140.5373    242.8410   1.2584540848e+02   1.1411727168e+01     0.270128    0.2055982  10.52  0.002057345    1.772    0.436
        42  -9.9531    119.4367    237.3914   1.2881233889e+02   1.4936006993e+01    0.1595874     0.128215  64.90  0.001314106    1.272    0.214
        43  -9.9690    164.0000    222.5356   1.1965413201e+02   1.0501227522e+01    0.2527522    0.1044864 -44.51  0.001362104    3.193    0.687
        44  -9.3454    119.9826    225.9730   1.2765880739e+02   1.6381176904e+01    0.1339866    0.1018963  47.14   0.00102122    1.006    0.006
