#   1 NUMBER                 Running object number                                     
#   2 MAG_AUTO               Kron-like elliptical aperture magnitude                    [mag]
#   3 X_IMAGE                Object position along x                                    [pixel]
#   4 Y_IMAGE                Object position along y                                    [pixel]
#   5 X_WORLD                Barycenter position along world x axis                     [deg]
#   6 Y_WORLD                Barycenter position along world y axis                     [deg]
#   7 A_WORLD                Profile RMS along major axis (world units)                 [deg]
#   8 B_WORLD                Profile RMS along minor axis (world units)                 [deg]
#   9 THETA_WORLD            Position angle (CCW/world-x)                               [deg]
#  10 FWHM_WORLD             FWHM assuming a gaussian core                              [deg]
#  11 ELONGATION             A_IMAGE/B_IMAGE                                           
#  12 ELLIPTICITY            1 - B_IMAGE/A_IMAGE                                       
         1 -11.2379     74.3165     20.5977   5.6593203495e+01   6.1579830547e+01    0.4197401    0.2916411 -20.43  0.002464493    1.532    0.347
         2 -11.5337     13.6002     15.3370   8.1027094960e+01   7.1489774068e+01    0.3251257    0.2479071 -35.36  0.001158262    1.449    0.310
         3 -11.5776     83.8280     14.7382   5.1333607977e+01   6.0264654384e+01    0.4854129    0.2670295  16.02 0.0008497931    2.455    0.593
         4 -10.2913     89.5981     13.6834   4.9355487980e+01   5.9151680244e+01      0.25575    0.1726821 -45.20 0.0006827506    1.900    0.474
         5 -11.8107    234.9930     15.0846   2.9475323129e+01   2.6572334196e+01    0.2732005    0.1720531 -67.56 0.0003700234    1.316    0.240
         6 -11.3103    192.8896     11.2480   3.2130950231e+01   3.5803549688e+01    0.2632881    0.1772804 -23.27  0.001542774    1.893    0.472
         7 -11.9722     35.2081     12.5677   6.8341863853e+01   6.9205274298e+01      0.27061    0.2295418  19.84 0.0006768454    1.264    0.209
         8 -11.7095     30.0202      7.4504   6.8294007411e+01   7.0542613115e+01     0.389183    0.2449709  17.34  0.002449039    1.372    0.271
         9 -10.5741    172.2333     11.9995   3.4447521323e+01   4.0384863862e+01    0.1889379    0.1424882 -73.96  0.000342549    1.248    0.198
        10 -10.1254     69.9312     11.0381   5.3958810216e+01   6.3417627499e+01    0.3024243    0.1528634  21.91  0.001403075    2.485    0.598
        11 -10.5487    129.6020     10.6528   3.9920877523e+01   5.0430203138e+01    0.2555342    0.1724028  28.17  0.001042801    1.791    0.442
        12 -11.8972    117.3952      8.7050   4.1430615129e+01   5.3417786749e+01    0.3858986    0.2858491 -77.05  0.000856914    1.626    0.385
        13 -10.6428      3.0404      7.5070   8.3564720200e+01   7.3594276607e+01    0.3037953    0.2135014 -36.48  0.002151771    1.465    0.317
        14 -10.3739     15.1899      8.5908   7.6806568493e+01   7.2257313320e+01    0.3180378    0.1529413  12.56  0.001452008    2.295    0.564
        15 -10.9921     45.2938      9.8693   6.2506060516e+01   6.7960966169e+01    0.2065394    0.1593597  17.71 0.0002527516    1.027    0.026
        16  -9.7073     40.7574      7.6239   6.3360344383e+01   6.8926970797e+01    0.1612799     0.119549  29.20  0.000198231    1.174    0.148
        17 -10.2200     37.3798      5.7502   6.3929911837e+01   6.9650329919e+01    0.2234632    0.1996257 -50.25  0.001103353    1.882    0.469
        18 -10.0585     98.0915      7.0602   4.4780614806e+01   5.7894657843e+01    0.1868154    0.1528274  47.75 0.0003608197    1.022    0.022
        19 -11.1733    150.9222      5.8648   3.5394418169e+01   4.5883640653e+01    0.2604327    0.1699753 -88.37 0.0007494832    1.523    0.343
        20  -9.3977     93.0046      6.7458   4.5833920747e+01   5.9030266482e+01     0.152336   0.09211293  57.32 0.0002974538    1.405    0.288
        21  -9.5357     70.4491      5.7640   5.1510964363e+01   6.3793361900e+01    0.1581232    0.1076319   4.48 0.0004926767    1.569    0.363
        22  -9.6889     54.6348      5.5804   5.6753766974e+01   6.6790435754e+01    0.2273301    0.1216282  23.78  0.001201046    1.909    0.476
        23 -10.6800    104.4763      4.0692   4.2331566591e+01   5.6718914680e+01    0.2125445    0.2052528 -57.03 0.0008123807    1.234    0.189
        24 -11.2953    216.9936      9.6136   2.9720707314e+01   3.0805591784e+01    0.1930294    0.1378877  -6.43   0.00114569    2.416    0.586
        25 -10.4460     22.5467      9.2884   7.3087559054e+01   7.1306863738e+01    0.2702852    0.1515343  12.08 0.0009287187    1.749    0.428
        26 -10.7071    199.9370      2.9331   2.9656338503e+01   3.5091536571e+01    0.1764465    0.1427704 -80.68 0.0003573954    1.021    0.021
        27  -9.5269     75.2080      3.5957   4.9178256636e+01   6.3021684003e+01    0.1723697   0.09002578  45.67 0.0003816566    1.538    0.350
        28 -10.1550     59.3064      3.1896   5.3967553960e+01   6.6151397909e+01    0.2047545    0.1582085  80.52  0.001227813    2.121    0.529
        29 -11.6433     20.5691      2.0777   7.0368781543e+01   7.2417682512e+01    0.2173318    0.1428243  15.35 0.0003988125    1.235    0.190
        30 -10.7162     80.0567      1.6822   4.7054498143e+01   6.2177333142e+01    0.2546755    0.1338492  53.83  0.001073704    1.552    0.356
        31 -10.3241    204.6771      1.4099   2.8953875859e+01   3.4223286373e+01    0.2165005   0.09651721  82.63 0.0006782254    2.051    0.512
        32 -10.0226    112.5267      1.2746   3.9821840765e+01   5.5119542770e+01    0.2190807    0.0926543  65.00 0.0006199853    1.972    0.493
        33 -10.1535    238.0062      2.2211   2.6836501029e+01   2.7370117796e+01    0.1376878    0.0760055  82.09 0.0003767008    1.625    0.385
        34  -9.7439      5.8951    191.8140   1.1892588525e+02   3.2135824327e+01    0.1771624    0.1205252  70.15 0.0006940121    1.303    0.232
        35 -10.7250     27.5479    250.4857   1.1821383219e+02   1.7176652316e+01    0.2287987   0.09855731  34.06  0.001198419    2.124    0.529
        36 -11.8403     18.1406    248.9726   1.1992428192e+02   1.8463224855e+01    0.2864003    0.2275524 -56.10   0.00202061    1.648    0.393
        37 -13.0424      4.2073    232.8625   1.2173923643e+02   2.3108727258e+01    0.5945978    0.3733147  69.81  0.003851807    1.293    0.226
        38 -12.6455      5.4413    249.9263   1.2233846350e+02   1.9527064781e+01    0.6516001    0.4184597  19.80  0.004138281    2.145    0.534
        39 -12.5848      6.5352    240.9615   1.2170241259e+02   2.1219152916e+01    0.4175427    0.3140492  89.46  0.002991481    1.198    0.165
        40  -9.6036      1.2613    191.2249   1.1994193624e+02   3.2646121591e+01    0.1754013    0.0882462 -88.44 0.0005292312    1.733    0.423
        41  -9.1796     14.7093    188.6687   1.1663199256e+02   3.2136082826e+01    0.1251088   0.08623251 -50.83 0.0004003312    1.627    0.385
        42  -9.4762      7.2513    188.2124   1.1835395345e+02   3.2880283548e+01    0.1642749     0.117838  70.09 0.0003571497    1.242    0.195
        43  -9.2515     22.3369    180.2705   1.1403545119e+02   3.3494357680e+01     0.125273   0.09308472 -42.32 0.0005158181    1.599    0.375
        44  -9.3435    226.3729    163.8344   6.1701107487e+01   4.7816510239e+00    0.1986822    0.1101834 -31.19 0.0009354916    1.689    0.408
        45  -9.2371     29.0211    163.2644   1.1049407142e+02   3.7137851915e+01    0.1520915    0.1194771  27.85 0.0004070705    1.445    0.308
        46 -10.4755      4.1035    153.7672   1.1629768751e+02   4.1564792086e+01    0.3528607    0.1074629  35.56  0.001453156    3.205    0.688
        47  -9.2824     27.2572    147.0268   1.0898529805e+02   4.1463097040e+01    0.1779642    0.1038388 -68.92 0.0004763264    1.478    0.324
        48  -9.8286    236.1039    138.6849   5.4913603058e+01   7.6764904448e+00    0.1796604    0.1641216 -22.49 0.0008441241    1.114    0.102
        49 -10.1127    212.5325    133.9427   5.7806366112e+01   1.2716467259e+01    0.2362521    0.2000934  78.38 0.0006255256    1.501    0.334
        50  -9.9773     96.0413    133.7451   8.5531978319e+01   3.5794659918e+01     0.214573    0.2070829  -9.14 0.0005856149    1.059    0.056
        51  -9.2548     61.5053    130.5178   9.5608293834e+01   4.1943227603e+01    0.1477363    0.1373028 -59.47 0.0001902932    1.023    0.022
        52 -10.4829     12.3326    129.7949   1.1126087578e+02   4.7051367692e+01    0.2122087    0.1492953 -87.57  0.001175401    1.378    0.275
        53 -10.9210     28.4836    128.0812   1.0587723044e+02   4.6220850467e+01    0.2194732    0.2037351  10.76 0.0003212359    1.238    0.192
        54  -9.7129     47.2875    127.0373   9.9556208011e+01   4.4589405205e+01    0.1953165    0.1717504 -61.18 0.0003548935    1.038    0.036
        55 -10.2901     37.8760    127.1191   1.0265919025e+02   4.5578276349e+01    0.1908997    0.1493614 -39.68 0.0002903604    1.268    0.211
        56 -10.9520     24.1448    122.0193   1.0633580843e+02   4.8134138883e+01    0.2070602    0.1979337  41.80            0    1.204    0.170
        57 -11.7026     10.5285    120.8695   1.1064364987e+02   4.9420095836e+01    0.3700834    0.2320018 -36.26  0.001980902    1.666    0.400
        58  -9.2771     75.9517    121.0158   8.8867927501e+01   4.2273166511e+01    0.1789459    0.1635951 -47.11            0    1.030    0.029
        59 -10.5389     69.0763    117.0114   9.0200968189e+01   4.4299476144e+01    0.2263901     0.205443 -38.09  0.001229286    1.040    0.039
        60 -10.6966      1.9762    114.0580   1.1253562045e+02   5.1614905235e+01    0.1930072    0.1549829 -64.87            0    1.009    0.009
        61 -10.7104     45.4014    110.7548   9.6935947035e+01   4.8915220770e+01    0.2435292    0.2107511 -40.01 0.0002612863    1.069    0.064
        62  -9.7288     22.4670    109.5913   1.0482004481e+02   5.1388634886e+01    0.1339726    0.1162442 -56.21   8.2796e-05    1.024    0.023
        63 -10.9133     13.0181    109.0202   1.0804160852e+02   5.2210131053e+01    0.2080684    0.1715746 -57.23  0.000649881    1.012    0.012
        64 -11.5364      4.7394    108.6349   1.1085368598e+02   5.2802030194e+01    0.3760206    0.2239029 -11.75  0.001983469    2.066    0.516
        65 -11.2146     17.7486    104.2451   1.0555564287e+02   5.3061903447e+01    0.3361784    0.1571668 -10.90  0.001215319    3.240    0.691
        66  -9.7570     94.4718    102.4584   7.8153162403e+01   4.3562088414e+01    0.1520236    0.1455635 -20.42 -1.734335e-05    1.007    0.007
        67  -9.9929    246.5489    101.5344   4.5753034811e+01   1.2220510082e+01    0.1289837    0.1065113 -45.64 0.0002558394    1.036    0.034
        68  -9.8621    159.7222    101.0037   6.0254668650e+01   3.0112514115e+01     0.207799    0.1852308 -46.25 0.0002196975    1.091    0.083
        69  -8.9930     91.7521     99.7495   7.8270372546e+01   4.4672724844e+01    0.1422351     0.113523 -12.37            0    1.412    0.292
        70 -10.0329     62.6045     98.2254   8.7807030954e+01   4.9767529573e+01    0.2103009      0.12275 -43.16 0.0004060989    1.598    0.374
        71  -9.0624    129.3637     97.2867   6.6551540633e+01   3.7598830654e+01    0.1585376     0.121403   9.37 0.0007022234    1.692    0.409
        72  -9.6759    136.0032     95.2570   6.4274480766e+01   3.6553673087e+01    0.1942101     0.131686  47.39 0.0002438184    1.483    0.326
        73  -9.8298     67.1225     94.9083   8.5300972047e+01   4.9878382262e+01    0.2001126    0.1942137 -65.37 0.0002717939    1.163    0.140
        74 -12.2654     20.3993     93.0578   1.0243017859e+02   5.5573161189e+01    0.4211199    0.2515317 -35.05 0.0006399877    1.601    0.375
        75 -11.2953      7.8930     91.4638   1.0692405073e+02   5.6777311225e+01     0.381629    0.2185634  37.62 0.0005385479    2.144    0.534
        76 -11.3260     57.8537     91.6188   8.7781601854e+01   5.1958025171e+01    0.3366188    0.2172196 -18.10 0.0008047713    1.900    0.474
        77  -9.6731     29.0031     91.9826   9.8876482853e+01   5.5121554858e+01    0.2259396    0.1642729  15.20 0.0008563206    1.519    0.341
        78 -10.8790     65.1719     89.4531   8.4488224552e+01   5.1405770089e+01    0.3755355    0.2354387 -63.01  0.001676763    1.944    0.486
        79 -11.8915    125.2589     93.3107   6.6515777626e+01   3.9304376162e+01    0.2652869    0.2612693 -53.91 0.0002007656    1.045    0.043
        80 -10.8627     11.0910     85.3354   1.0450241481e+02   5.8028861011e+01    0.4638009    0.1997528 -76.91  0.001839413    3.063    0.674
        81 -10.7998      6.9172     85.0490   1.0610633176e+02   5.8339083337e+01    0.2845319    0.1755994 -55.17 0.0009834472    1.284    0.221
        82 -10.0828     69.5972     83.2319   8.1062588449e+01   5.2090951353e+01      0.24357    0.1871838  28.20 9.081389e-05    1.325    0.245
        83  -9.4591     15.9557     83.0247   1.0206117418e+02   5.8246577684e+01    0.1552668    0.1304673 -40.76 0.0004133809    1.035    0.034
        84  -9.7481     89.8111     80.8777   7.3336153806e+01   4.9072803029e+01    0.2345205     0.185236  64.68  0.000611001    1.656    0.396
        85  -9.9888     86.0220     78.9290   7.3985795810e+01   5.0171053258e+01    0.2423703    0.1983936  32.96   0.00040494    1.215    0.177
        86  -9.3215    250.3321     80.7206   4.1085747270e+01   1.4844366945e+01    0.1263292   0.08125333 -65.99 0.0004046674    1.606    0.377
        87  -9.2401    124.3936     79.2175   6.2613247680e+01   4.2241298451e+01    0.1899175    0.1403853 -50.33 0.0002814837    1.446    0.308
        88  -9.5236     80.4476     79.5093   7.6068569267e+01   5.1056858294e+01    0.1451812    0.1355097 -10.88 0.0001744038    1.023    0.022
        89 -11.1942     48.9025     78.6983   8.7591510729e+01   5.6017238166e+01    0.4460383    0.2340857  12.80   0.00102282    2.482    0.597
        90 -11.7419     55.1124     74.9977   8.4032447185e+01   5.5987831902e+01    0.3033577    0.2633793 -17.80 -0.0009232552    1.034    0.033
        91  -9.3740     31.3982     79.1427   9.4805151869e+01   5.7859760604e+01    0.1650118    0.1206414 -63.58 0.0004364641    1.448    0.309
        92 -10.1323    176.8515     76.8270   5.0522225471e+01   3.0648278487e+01    0.2125818    0.2012801  22.93 0.0009555002    1.220    0.180
        93  -9.7201     22.2443     76.2545   9.7877060291e+01   5.9313539609e+01    0.1986628    0.1062646 -72.23 0.0008810661    2.416    0.586
        94 -10.6470     14.9474     75.7000   1.0082109721e+02   5.9982940335e+01    0.1787653    0.1551777 -27.55  0.000704703    1.105    0.095
        95 -11.3161      4.9286     75.2037   1.0493791300e+02   6.0701685878e+01    0.3555216    0.2276796  40.94  0.002000135    2.041    0.510
        96  -9.7949     69.3063     74.3900   7.8433445510e+01   5.3982290126e+01    0.2301077    0.1795653 -67.25 0.0007125595    1.734    0.423
        97 -10.2438     36.8289     74.0157   9.1154915542e+01   5.8439459315e+01    0.3062975    0.1766442 -60.01  0.001476828    1.854    0.461
        98  -9.6559     41.8388     74.1624   8.9122389465e+01   5.7850676811e+01    0.1980924    0.1409583 -22.45  0.001061846    1.373    0.272
        99  -9.5619     32.9256     73.4742   9.2637496422e+01   5.8960841064e+01    0.1795182    0.1272953  15.54   0.00051345    1.484    0.326
       100  -9.6910    159.5489     77.4108   5.3962528441e+01   3.4529210641e+01    0.1423762    0.1390945  71.95 2.030845e-05    1.041    0.039
       101 -12.3185    105.8767     71.1441   6.5246863522e+01   4.7734833358e+01    0.3319214    0.2825888  71.09 0.0005171636    1.416    0.294
       102  -9.3584    129.4251     70.5086   5.8703957822e+01   4.2673719213e+01    0.1459633    0.1386383  21.59 0.0001212717    1.072    0.067
       103 -10.2845     80.9356     67.9124   7.2150469926e+01   5.3244857185e+01    0.3583041    0.1716985 -42.60  0.001464632    2.094    0.522
       104 -10.0429     45.2989     69.5704   8.6310503081e+01   5.8405781611e+01    0.2351652    0.1883021  10.57 0.0007315281    1.243    0.195
       105  -9.8327      9.8379     68.6540   1.0134863800e+02   6.1876954613e+01    0.3094397   0.07410954 -49.90  0.001210573    2.741    0.635
       106 -11.1175      4.8413     68.2305   1.0344604763e+02   6.2256883376e+01    0.2505196    0.1759638  82.49  0.001400601    2.092    0.522
       107 -10.1576     51.2729     66.4688   8.2870704491e+01   5.8263021755e+01    0.2861405    0.1736103 -23.35 0.0008757836    1.815    0.449
       108  -9.5852     16.3122     67.6679   9.8245207203e+01   6.1656499335e+01    0.1168002   0.09864978  71.27 0.0007044155    1.677    0.404
       109 -11.4743     97.1066     63.7972   6.5478519039e+01   5.0858484913e+01    0.3836355    0.2285809  31.45 0.0003703505    1.823    0.451
       110  -9.1452     65.9443     63.7771   7.6187869811e+01   5.6602384644e+01    0.2383824    0.1493743  35.15 0.0003097984    1.592    0.372
       111 -10.1755     62.6270     62.7871   7.7120704289e+01   5.7317437603e+01    0.2712429    0.1808829 -38.40  0.001152524    1.440    0.306
       112 -10.3947     16.4126     50.0704   9.3113761002e+01   6.5278357165e+01    0.2144853    0.1906179   4.25 0.0005757107    1.259    0.206
       113 -10.4372     14.9039     63.0495   9.7649182588e+01   6.2746402063e+01    0.3001074    0.2065481   4.16  0.001154254    1.516    0.340
       114 -13.1473     20.7576     58.1155   9.3550014926e+01   6.3315140537e+01    0.4175026    0.2667341 -40.21 0.0006481837    1.294    0.227
       115 -10.8207     11.8064     59.5849   9.8126788364e+01   6.3690764815e+01    0.3319585    0.1633827  14.42  0.001103068    2.192    0.544
       116 -10.4202      7.7430     63.6550   1.0105681769e+02   6.3086157860e+01     0.244379    0.1085002 -49.32  0.001184675    1.713    0.416
       117  -9.5567    138.7879     63.1498   5.4294711727e+01   4.1743309844e+01    0.1898704    0.1653293  18.90 0.0002716655    1.297    0.229
       118  -8.9729     72.7046     63.7237   7.3655052589e+01   5.5483471238e+01    0.1398842    0.1024699  -1.08 0.0003140162    1.529    0.346
       119  -9.5453     38.5427     61.5604   8.6634448699e+01   6.0843259327e+01    0.1347066    0.1112057 -20.06 0.0001716067    1.036    0.034
       120  -9.6841     48.5247     58.9393   8.1487471541e+01   6.0105517630e+01    0.2057015    0.1233525 -45.02 0.0006695967    1.613    0.380
       121 -10.1938     71.7884     56.7449   7.1547076866e+01   5.6895889208e+01    0.2146537    0.1654351 -26.22 0.0004602357    1.264    0.209
       122 -11.0452     32.8547     55.8825   8.7290601669e+01   6.2598032932e+01    0.2547562    0.1678163 -30.34 0.0004266931    1.345    0.256
       123 -10.1900      5.9641     56.7739   1.0010306139e+02   6.4643278757e+01    0.3018949    0.1391019 -23.88  0.001089647    2.251    0.556
       124 -12.1600     86.4796     54.1724   6.5533921907e+01   5.4605121229e+01    0.4633949     0.293238  37.42 0.0004717893    1.505    0.335
       125 -12.7005    114.5814     53.2179   5.6990278911e+01   4.8830483803e+01    0.2927798    0.2615464  38.84 0.0003786925    1.050    0.048
       126 -10.0710     96.4967     55.4689   6.2831574008e+01   5.2378026148e+01    0.1415803    0.1294616  21.02 6.560676e-05    1.008    0.008
       127 -11.9540     66.7661     52.7681   7.1976861589e+01   5.8443191078e+01    0.4041334    0.2086189  33.98  0.001857298    1.899    0.473
       128 -10.2724    148.9115     52.2045   4.8968840736e+01   4.1033771158e+01    0.2115802    0.1822215 -88.35 0.0004764931    1.201    0.167
       129 -12.0308    106.0306     50.5161   5.8369199874e+01   5.1122462671e+01    0.2671951    0.2338725  -4.08  0.000335707    1.196    0.164
       130 -11.5220    119.4062     47.8042   5.4001753106e+01   4.8537085790e+01    0.4415451    0.3095112 -52.11  0.001750511    1.683    0.406
       131  -9.5347     76.2453     49.4392   6.7289069139e+01   5.7315809414e+01    0.1788329    0.1267194  50.78 0.0009257908    1.589    0.371
       132 -10.0074     38.2740     48.9546   8.2417876230e+01   6.3278330327e+01    0.2384105     0.158006  14.94  0.001283672    1.487    0.328
       133  -8.9577    147.2670     48.6091   4.8238662724e+01   4.1932408913e+01    0.1444041     0.100905 -65.84 0.0006983108    1.711    0.416
       134 -10.9724    137.7748     46.8754   4.9604908536e+01   4.4410029847e+01      0.33099    0.2383089  49.54  0.001204625    1.317    0.241
       135  -9.9272     52.8911     48.2048   7.5786434692e+01   6.1427842468e+01    0.2667492    0.1568404  26.96  0.001355994    1.670    0.401
       136 -10.5868      9.5503     47.9286   9.5817754179e+01   6.6206515193e+01    0.3570588     0.181439  12.58  0.001812315    2.065    0.516
       137  -9.2355    154.5767     47.4880   4.6563184412e+01   4.0360702468e+01    0.1362671    0.1265227  85.09 0.0001616323    1.021    0.020
       138 -10.6537     68.8930     46.8034   6.8956435621e+01   5.9059660547e+01    0.2300597    0.1762211  27.67 0.0002963411    1.208    0.172
       139 -10.2140     79.1234     45.8047   6.4941378555e+01   5.7343066148e+01     0.187906    0.1781202  31.73 0.0003144303    1.180    0.152
       140 -11.1389     24.0941     42.6424   8.6801448454e+01   6.5990676681e+01    0.7027879    0.2847804  42.36  0.002739476    4.280    0.766
       141 -10.0627     22.1542     38.1530   8.6094276617e+01   6.6981816373e+01    0.2018737    0.1532809  -0.45  0.001192681    1.172    0.147
       142 -10.1994     19.1951     44.8739   9.0016185235e+01   6.6039119047e+01    0.3112176    0.1675743  13.85  0.001051847    1.911    0.477
       143 -10.9276     15.4765     42.4845   9.1050938665e+01   6.6802324589e+01    0.2376236    0.1678275 -31.59 0.0007717108    1.143    0.125
       144 -10.3210      3.2696     42.6878   9.7380409155e+01   6.7625551941e+01    0.3181366    0.1313525 -32.45  0.001569145    2.128    0.530
       145 -10.3385    184.3352     41.6138   4.0377736374e+01   3.4201663443e+01    0.2556368    0.1898424 -78.35 0.0009246559    1.335    0.251
       146  -9.6575     69.4091     42.2310   6.7014323744e+01   5.9676988969e+01    0.2043384    0.1620756  60.34 0.0008247861    1.716    0.417
       147 -10.5315     36.4321     41.4643   8.0446333968e+01   6.4822630667e+01    0.2183988    0.1772945 -16.41 0.0005403063    1.053    0.051
       148 -10.1674    170.9813     40.3853   4.1945957078e+01   3.7448969867e+01    0.2023641    0.1689538 -73.80   0.00048738    1.156    0.135
       149  -9.5843     90.1890     40.7751   5.9499733170e+01   5.5881635598e+01    0.1973968    0.1437599  24.49  0.001057086    1.389    0.280
       150 -10.1682     58.7178     41.5457   7.0837726357e+01   6.1608245399e+01    0.3098981    0.1200775  41.68  0.001286673    2.562    0.610
       151  -9.6254    204.9496     39.7102   3.7388477034e+01   2.9842927631e+01    0.1733965    0.1441471 -85.60 0.0002779351    1.075    0.070
       152 -10.0424    137.5346     39.7721   4.7488670227e+01   4.5412915162e+01    0.3528807    0.1874193  72.69  0.001509742    2.222    0.550
       153  -9.6286    133.6856     39.7289   4.8245309663e+01   4.6322692178e+01    0.1839904    0.1791924  84.20 0.0002166065    1.073    0.068
       154  -9.6884     44.0157     40.5224   7.6629902554e+01   6.3986951042e+01    0.1907648    0.1155412  27.40  0.001025999    1.580    0.367
       155 -10.7274     94.1372     43.4960   5.9306181459e+01   5.4681846474e+01    0.3331634    0.1993025  30.79  0.001144572    1.797    0.443
       156 -10.4064    128.1125     38.6219   4.9056085962e+01   4.7766539649e+01    0.1996427    0.1814441 -55.86 0.0007355698    1.201    0.168
       157 -11.8013    121.1192     37.1265   5.0099247014e+01   4.9574728182e+01    0.3756124    0.3490523 -67.64  0.001338314    1.197    0.164
       158  -9.4981    212.5369     37.5728   3.6086305646e+01   2.8484115038e+01    0.1254303     0.104156 -73.64 6.259277e-05    1.012    0.012
       159  -9.4744    184.0424     36.4556   3.9134521914e+01   3.4930601574e+01    0.1856167    0.1178842  71.19  0.000462529    1.475    0.322
       160 -10.2091     38.7532     35.4149   7.6953404256e+01   6.5522282356e+01    0.3285281     0.174227  19.96 0.0009807268    1.968    0.492
       161 -11.2013     39.6230     31.9861   7.5122825906e+01   6.5938634280e+01    0.3108766    0.2274775  16.99 0.0007445264    1.222    0.182
       162 -11.4819     27.2796     34.7432   8.2190149126e+01   6.7027858823e+01    0.2744185    0.1684478 -14.76 0.0003419252    1.602    0.376
       163  -9.9846    133.1599     34.9656   4.6869790274e+01   4.7042075807e+01    0.2022443    0.1438308  31.33 0.0004404932    1.624    0.384
       164 -10.8110     90.2867     32.2088   5.6273038452e+01   5.6988545713e+01    0.4900062     0.320678 -47.93  0.002041806    1.973    0.493
       165 -10.7709      3.0241     35.1974   9.5067104199e+01   6.9052343702e+01    0.2334909    0.2173675 -61.83  0.001186305    1.500    0.333
       166  -9.9172      6.9161     34.1522   9.2589742812e+01   6.8983144853e+01     0.243082    0.1901007 -12.29  0.001158906    1.114    0.102
       167  -9.2414     55.4371     33.5250   6.8912371362e+01   6.3343500825e+01    0.1327504    0.1054599   6.13 0.0001628148    1.105    0.095
       168 -10.4191     47.8240     33.3643   7.2038912485e+01   6.4556735922e+01    0.4497057      0.14617  41.35  0.001779345    3.170    0.685
       169 -10.9590    144.0943     31.2877   4.3722953880e+01   4.4905218251e+01    0.2665943    0.1972349 -53.88 0.0006818507    1.469    0.319
       170 -10.6675    135.6901     29.3381   4.4643888218e+01   4.7111428646e+01    0.2296337    0.1971734  46.94 0.0004526804    1.143    0.125
       171  -9.9154    140.5024     27.3786   4.3184177291e+01   4.6199648702e+01    0.3310088    0.2028446 -84.78  0.001552889    2.176    0.540
       172 -10.1941     72.8913     31.8795   6.1680966289e+01   6.0494870280e+01    0.2630406    0.2030799  54.84 0.0007033481    1.499    0.333
       173 -11.0432     68.8566     26.4120   6.0852078267e+01   6.1945667746e+01    0.3153007    0.2431673 -39.98   0.00106682    1.583    0.368
       174 -10.1497     18.7029     31.9162   8.5438055532e+01   6.8389013517e+01    0.3087267    0.1398401   4.97  0.001345471    3.061    0.673
       175 -11.9308     10.3434     29.9443   8.9144247102e+01   6.9463518534e+01    0.3237393    0.2224602  32.82  0.001003225    1.845    0.458
       176 -10.3150    127.4555     30.8954   4.6726977174e+01   4.8860293274e+01    0.3014393    0.2048916  80.11   0.00141648    1.682    0.405
       177  -9.0595     32.9493     31.5006   7.8070400282e+01   6.6883988121e+01    0.1814423     0.093202   7.39 0.0002188928    2.638    0.621
       178 -10.2534     94.0686     27.0411   5.3259176519e+01   5.6807034655e+01    0.2216475    0.1664621 -25.66  0.001282401    1.455    0.313
       179 -10.3805      3.0503     26.6657   9.1956179894e+01   7.0570494995e+01     0.217034    0.1272812 -34.63 0.0005996285    1.336    0.252
       180 -11.7345      2.1274     20.6873   9.0109458348e+01   7.1641021607e+01    0.2736278    0.1945404 -37.58 0.0008800278    1.269    0.212
       181 -10.0528      6.5065     20.5552   8.7479517670e+01   7.1331041697e+01    0.2895198    0.1329781 -29.62  0.001568736    1.912    0.477
       182 -10.9469     45.7034     21.5143   6.7792125527e+01   6.6523453478e+01    0.2782872    0.2190686 -37.66 0.0009956389    1.585    0.369
       183  -9.3965    103.2974     25.3702   5.0248579113e+01   5.4986902504e+01    0.1395482   0.09045187  26.40 0.0007029613    1.734    0.423
       184  -9.8385     59.3163     25.1953   6.3848225133e+01   6.3815620372e+01    0.2147871    0.1718696  71.60  0.001053486    2.100    0.524
       185 -10.3207     77.6843     22.7044   5.6381690041e+01   6.0681078889e+01    0.1884752    0.1614352 -75.91 0.0005614588    1.731    0.422
       186  -9.5798    229.8326    247.8061   7.6502614640e+01  -9.3101796070e+00    0.1438752    0.1245565   1.00 0.0004698861    1.323    0.244
       187 -10.6712    228.7165     21.6784   3.1251510117e+01   2.7068747194e+01    0.3258879    0.2017446  79.38  0.001641867    1.514    0.339
       188  -9.3200     97.3561     21.8422   5.0450098922e+01   5.6669961031e+01    0.2034544    0.1519374  51.71  0.001188016    1.181    0.153
       189  -9.4773    100.9646     20.7981   4.9164734696e+01   5.5989058920e+01    0.2701045    0.1636762  14.72  0.001310924    2.215    0.549
       190  -9.4840     35.5616     22.1629   7.2713271998e+01   6.7917632116e+01    0.1617223    0.1286737  14.15 0.0006303877    1.123    0.109
       191 -10.9472     14.2369     21.1302   8.3316142657e+01   7.0558787897e+01    0.3229513    0.2163744  33.52   0.00163517    1.842    0.457
       192 -10.1291    225.0920    247.3450   7.7293348419e+01  -8.6818828118e+00    0.2113411    0.1342674 -20.67  0.001308346    1.396    0.283
       193  -9.6701    132.0846     20.6741   4.2618390663e+01   4.8894141110e+01     0.186104    0.1476433  60.34 0.0004849097    1.102    0.093
       194 -10.1176     84.4214     20.7798   5.3568361462e+01   5.9526674621e+01    0.2115329    0.1217487  -7.89 0.0006913435    2.217    0.549
       195  -9.6956    170.9691    246.9901   8.7839519484e+01  -1.4842789011e+00    0.2047739    0.1378337  -1.82  0.001055024    1.658    0.397
       196 -12.6464     11.0185    242.7348   1.2094175292e+02   2.0428485152e+01     0.484543     0.261126  69.21  0.002900255    1.594    0.373
       197  -9.9274     30.6490     21.0086   7.4577383380e+01   6.8729757371e+01    0.2140832    0.1293921  14.09  0.001234732    1.574    0.365
       198 -10.2399     39.8242     19.9429   6.9698187852e+01   6.7612013620e+01    0.2124518    0.1652194  57.92  0.001257813    2.204    0.546
       199  -9.6762     20.0191     17.7545   7.8590079820e+01   7.0463995788e+01    0.2508351    0.1287074 -28.98  0.001408044    1.772    0.436
       200 -10.1050     61.0010     18.4636   6.0280029023e+01   6.4322317818e+01     0.291051    0.1029288  44.68  0.001015161    2.445    0.591
       201  -9.4370    116.1718    246.5852   9.9438602200e+01   6.5374186120e+00    0.1721803    0.1124492  24.70 0.0009215213    1.508    0.337
       202  -9.4919    144.6660     16.3464   3.9244739735e+01   4.6375937410e+01    0.1353942   0.08904969 -70.25 0.0007049148    1.769    0.435
       203 -10.5055     29.6586    241.1793   1.1720780458e+02   1.8833545786e+01    0.2247552   0.07329354  34.05  0.001011508    2.671    0.626
       204  -9.6955    154.9775     15.4945   3.7517725575e+01   4.4042400706e+01    0.1865938   0.09732755 -83.77 0.0008101885    2.543    0.607
       205  -9.5742     98.9989     15.2962   4.7619609904e+01   5.6965965928e+01    0.1798573    0.1240778  20.17 0.0005782165    1.619    0.382
       206  -9.9064     39.7885     15.3661   6.7565814908e+01   6.8193752213e+01    0.1682688   0.09425624  28.63 0.0005977812    1.584    0.369
       207 -10.0770    118.0486    239.8182   9.8170434381e+01   7.5533251039e+00    0.2062799    0.1603256  47.43 0.0008824365    1.222    0.182
       208 -11.0539     24.9129    236.1444   1.1783114040e+02   2.0386947549e+01    0.1929445    0.1267621  61.77 0.0003938216    1.273    0.215
       209  -9.7560      7.5408     14.0258   8.3948249389e+01   7.2253935523e+01    0.1570235   0.07038222 -24.20 0.0003565176    2.226    0.551
       210 -11.0912    208.0215     13.0146   3.1163475345e+01   3.2331935183e+01    0.1809505    0.1464046 -77.83 0.0003583275    1.009    0.009
       211  -9.4758     49.5289    235.5408   1.1268515088e+02   1.7750837944e+01    0.1244412    0.1045292  63.84 0.0002276937    1.009    0.009
       212  -9.6382    249.3045    233.5912   7.0703679151e+01  -9.5896283535e+00    0.1471087   0.09344288  11.44 0.0009227457    1.445    0.308
       213 -12.1048      3.4116    225.8610   1.2153127145e+02   2.4663434739e+01    0.6596208    0.1260865  48.97  0.002564864    3.776    0.735
       214 -11.0512     10.1664    231.4149   1.2049397086e+02   2.2857702256e+01    0.2063731    0.1105247  52.96 0.0006713702    1.559    0.358
       215 -11.6033      9.8013    227.3936   1.2033936544e+02   2.3748643195e+01     0.234102    0.2086217  32.23  0.001707202    1.403    0.287
       216 -11.3801    202.7438     16.3980   3.2370360611e+01   3.3102368428e+01    0.2605027    0.1681822 -80.15 0.0008817004    1.423    0.297
       217  -9.8554     56.8819    229.5902   1.1057142882e+02   1.8127246945e+01    0.1965924    0.1400006 -87.29 0.0003429714    1.404    0.288
       218  -9.4145     47.8101    229.8390   1.1256971808e+02   1.9175634173e+01    0.1728594    0.1199204  62.64            0    1.293    0.227
       219  -9.1001    243.3127    230.2908   7.1176003700e+01  -8.4318834033e+00    0.1226354     0.074387  -6.51 0.0003154785    1.588    0.370
       220  -9.7922    209.5070    229.5139   7.7263405054e+01  -4.0258335766e+00    0.1280484    0.1045531  -1.92 -1.49239e-05    1.017    0.017
       221  -8.9846    205.3019    229.6860   7.8111385741e+01  -3.4792452182e+00    0.1092592    0.1036608  57.31 0.0002179755    1.614    0.380
       222  -9.7347    168.9208     14.7471   3.5533117800e+01   4.0873479085e+01    0.1730241     0.139083  85.44 0.0001862979    1.076    0.070
       223 -10.8743    140.1353    228.0386   9.1600758634e+01   6.4982075826e+00    0.3127205    0.2055698 -66.46  0.001544707    2.080    0.519
       224  -9.9805    223.1906    226.8327   7.4204292334e+01  -5.4244883816e+00    0.1749643    0.1210221  -7.25 0.0003781201    1.306    0.234
       225  -9.2875    167.4576    221.5237   8.4532734131e+01   3.4932699905e+00    0.1362892    0.1202646   8.33 0.0008086672    1.005    0.005
       226  -9.1142    114.4515    221.5233   9.6498236662e+01   1.1790162865e+01    0.1360714     0.126107  30.91 0.0002210594    1.035    0.033
       227  -9.7099    233.1791    218.8386   7.0974584950e+01  -5.4828057125e+00    0.1748278    0.1203848  -8.31 0.0004425633    1.306    0.234
       228 -10.9775      8.3248    218.0996   1.2009727153e+02   2.5907655951e+01    0.2111752    0.1909937  86.42  0.001536063    1.213    0.175
       229  -8.8774     85.5413    215.4427   1.0246929267e+02   1.7423109558e+01    0.1342093    0.1251629  54.07 3.802968e-05    1.036    0.035
       230  -9.7236     15.9250    213.2806   1.1818259217e+02   2.6276037107e+01     0.169881    0.1400394  62.93  0.001018528    1.104    0.095
       231  -9.6433    205.4875    212.4975   7.5055118815e+01  -6.4907066601e-01    0.1337639    0.1121866  -6.13 0.0004670794    1.001    0.001
       232  -9.5018     20.4988    209.9691   1.1694990577e+02   2.6587388510e+01    0.1761844   0.08270197  73.26 0.0005371111    2.277    0.561
       233  -9.9678    193.6968    202.5723   7.5602867823e+01   2.8997251620e+00    0.1760846    0.1265193  40.20 0.0008803795    1.526    0.345
       234 -10.1680    125.0664     17.0978   4.2760123056e+01   5.0885786278e+01    0.1901554    0.1663146  62.24  0.000356414    1.013    0.013
       235 -10.8781      3.8642    201.6499   1.2003545962e+02   3.0008677039e+01    0.2110985    0.1415701 -72.27  0.001000902    1.361    0.265
       236  -9.2688     24.5843    195.7997   1.1488737120e+02   2.9503843616e+01    0.1830737    0.1063089  88.14 0.0008342116    1.644    0.392
       237  -9.4852     13.9240    192.6415   1.1713081499e+02   3.1254029024e+01    0.1706356   0.09655367  45.40  0.000917147    1.691    0.409
