#   1 NUMBER                 Running object number                                     
#   2 MAG_AUTO               Kron-like elliptical aperture magnitude                    [mag]
#   3 X_IMAGE                Object position along x                                    [pixel]
#   4 Y_IMAGE                Object position along y                                    [pixel]
#   5 X_WORLD                Barycenter position along world x axis                     [deg]
#   6 Y_WORLD                Barycenter position along world y axis                     [deg]
#   7 A_WORLD                Profile RMS along major axis (world units)                 [deg]
#   8 B_WORLD                Profile RMS along minor axis (world units)                 [deg]
#   9 THETA_WORLD            Position angle (CCW/world-x)                               [deg]
#  10 FWHM_WORLD             FWHM assuming a gaussian core                              [deg]
#  11 ELONGATION             A_IMAGE/B_IMAGE                                           
#  12 ELLIPTICITY            1 - B_IMAGE/A_IMAGE                                       
         1 -13.0194    207.9224      2.0689   2.8941195186e+02   6.5080622902e+00   0.07053962   0.03860125  26.50  0.002296636    1.796    0.443
         2 -14.2223    185.3630     24.8266   2.8980534822e+02   6.3747112800e+00   0.09680036   0.05376991 -48.63  0.005480028    1.751    0.429
         3 -14.0294    192.8571     17.9339   2.8967857395e+02   6.4115542610e+00   0.08646663    0.0542648 -67.24  0.006690776    1.693    0.409
         4 -11.9388     32.8427      7.0478   2.9146349767e+02   7.3972792880e+00   0.04278687   0.00791673 -61.86   0.00249697    5.048    0.802
         5 -12.8432    198.8924     10.5324   2.8956564147e+02   6.4619816675e+00   0.03484769   0.02658848 -38.17  0.001346446    1.321    0.243
         6 -16.0449      1.6521     72.9069   2.9220782207e+02   6.8236455562e+00    0.7389942   0.04531053 -62.59   0.02628793   13.705    0.927
         7 -11.2713    247.4343    249.8281   2.9040360062e+02   3.5082310770e+00   0.02901737   0.01195749  19.10  0.002326729    2.751    0.637
         8 -11.1349    200.1870    249.6149   2.9094566610e+02   3.7655972911e+00    0.0136048  0.008341661  20.75  0.001380713    1.661    0.398
         9 -10.2100    164.7648    250.5862   2.9135890062e+02   3.9456222785e+00     0.010168  0.007550946  63.11 0.0006562923    1.635    0.388
        10 -11.8928    139.2806    248.4265   2.9163971857e+02   4.1072043846e+00   0.02365744   0.01467444 -67.67  0.002411263    1.719    0.418
        11 -10.8689    110.1406    248.1117   2.9197343557e+02   4.2675620199e+00   0.01341791   0.01082297 -23.20  0.000844024    1.297    0.229
        12 -12.0453    105.5001    245.5522   2.9201203962e+02   4.3213496226e+00   0.02610514   0.01885631 -62.76  0.001472051    1.402    0.287
        13 -12.7398    100.6708    245.2059   2.9206565320e+02   4.3512198482e+00   0.03929892   0.02735994 -34.83  0.002962299    1.510    0.338
        14 -12.6944     79.9489    246.5569   2.9231216839e+02   4.4473695451e+00   0.03616324   0.02619939  13.52  0.003855338    1.434    0.303
        15 -12.1060     81.4678    241.3208   2.9226433569e+02   4.4981993671e+00   0.04652987   0.02536927  75.56   0.00350754    3.736    0.732
        16 -14.5325     33.8976    246.6805   2.9284341429e+02   4.6931220396e+00    0.1653398   0.05798272  23.00   0.01266042    2.977    0.664
        17 -13.7861     53.1176    228.3149   2.9251565931e+02   4.7969738974e+00   0.06753178   0.02982768 -68.49  0.003492555    2.606    0.616
        18 -15.6699     60.9409    213.0460   2.9233702554e+02   4.9270241576e+00    0.4087545    0.0612006  34.83   0.02425302    4.863    0.794
        19 -16.1579     10.0571    237.5427   2.9306529103e+02   4.9238325055e+00    0.5968392   0.08379955 -59.65   0.03410215    5.216    0.808
        20  -9.9461    229.0442    206.0667   2.9036029522e+02   4.0999244565e+00   0.01227007   0.00946624  86.02 0.0006397518    1.586    0.370
        21 -10.7871    192.7944    194.2496   2.9070865344e+02   4.4286966975e+00   0.03918624   0.01949456  86.72  0.002389171    5.684    0.824
        22  -9.5091     75.4843    198.9410   2.9208757064e+02   5.0078235471e+00  0.009747909  0.008485462  20.28 0.0005111935    1.141    0.124
        23 -13.9018     10.7263    206.6717   2.9287904174e+02   5.2681526884e+00   0.07176084   0.03226682  14.22   0.00481602    2.777    0.640
        24 -11.9612     74.7978    192.7540   2.9205958433e+02   5.0812186543e+00   0.02329051   0.01199705 -41.45  0.001574375    2.057    0.514
        25 -11.9312     79.1452    186.0344   2.9197045214e+02   5.1335564612e+00   0.01633731   0.01135172 -41.65 0.0007419884    1.445    0.308
        26  -9.5049    186.1193    238.1989   2.9104116678e+02   3.9699698059e+00  0.008864806  0.007514648  58.53 0.0003772777    1.316    0.240
        27  -8.8864    181.5348    192.4232   2.9082766582e+02   4.5100325566e+00  0.006458228  0.006124958 -15.90 6.312835e-05    1.026    0.025
        28  -8.4996     96.3511    180.6543   2.9174081193e+02   5.1016327992e+00  0.007009152   0.00480448  60.10 0.0007040123    1.816    0.449
        29  -9.5757    221.6581    177.6714   2.9027982832e+02   4.4593615352e+00  0.007095397  0.004679097 -26.79 3.592378e-05    1.742    0.426
        30 -12.8391     57.9199    130.3925   2.9189208079e+02   5.8744295806e+00    0.1167771   0.04278216 -76.32  0.006087116    7.162    0.860
        31 -13.2732     67.6113    144.0800   2.9185978942e+02   5.6681777298e+00   0.05034506   0.03193543  76.18  0.003767104    2.365    0.577
        32 -11.4091     86.9830    174.3774   2.9181237051e+02   5.2227339171e+00   0.01242951   0.01107477 -24.97 0.0003560149    1.118    0.105
        33 -13.3702     74.9918    171.5957   2.9193451036e+02   5.3185456844e+00   0.02519295   0.01284433 -39.70  0.001511076    2.148    0.535
        34 -10.5936     37.3273    160.9558   2.9230726824e+02   5.6406971089e+00   0.01946746   0.01344936 -78.49   0.00205538    1.702    0.413
        35  -9.5668     49.2989    151.3119   2.9211313345e+02   5.6850896902e+00  0.006820875  0.004702086 -28.42 0.0002076295    1.603    0.376
        36 -10.4477    104.0327    149.3000   2.9146993903e+02   5.4134479149e+00   0.01724921   0.01305666 -26.62 0.0008961583    1.409    0.290
        37  -9.7729    106.6334    145.0616   2.9141528074e+02   5.4471752076e+00   0.01504382  0.008290276 -42.07  0.001144236    1.880    0.468
        38 -12.2692     93.1569    148.8717   2.9159290396e+02   5.4768143347e+00   0.01349989   0.01171828 -22.09 0.0004589181    1.166    0.142
        39  -8.9881     22.5724    150.4776   2.9241675196e+02   5.8378898388e+00  0.006426066  0.006164621 -25.77 7.557456e-05    1.011    0.011
        40 -10.2154    133.9061    144.9781   2.9110026179e+02   5.3011549182e+00   0.03411773   0.01022499 -70.75  0.001814306    6.491    0.846
        41 -11.5239     55.8725    144.8120   2.9199951402e+02   5.7230093589e+00   0.01905109   0.01595569   4.51  0.002203273    1.223    0.182
        42 -10.2083     40.1039    143.6144   2.9217455527e+02   5.8211668707e+00   0.01052067  0.007641203  41.86  0.001159129    1.433    0.302
        43  -9.0084     25.8125    139.2050   2.9231392667e+02   5.9475132300e+00  0.008790066  0.007233177 -21.33 0.0003803979    1.264    0.209
        44 -10.0098    113.4659    135.3643   2.9128002370e+02   5.5195729695e+00   0.01571939  0.009577983 -35.40 0.0009800741    1.798    0.444
        45 -11.2485     70.2535    134.9941   2.9177647576e+02   5.7563133179e+00   0.02321335   0.01111134  35.60  0.002126075    2.041    0.510
        46 -11.7257     44.7795    129.7993   2.9204032752e+02   5.9516889197e+00   0.01820108    0.0120853 -51.10   0.00161777    1.459    0.315
        47  -9.4269    160.6610    127.1835   2.9068810088e+02   5.3571206724e+00   0.01305564  0.006381017 -72.89  0.001095398    2.587    0.613
        48  -9.5423    118.5531    128.2121   2.9117969185e+02   5.5726917815e+00  0.009498764  0.005574492 -48.02 0.0009404848    1.663    0.399
        49 -10.9016    101.2446    132.3932   2.9140372012e+02   5.6188561444e+00   0.01485193  0.009668889 -35.66 0.0008146165    1.639    0.390
        50  -9.7954    109.4531    122.9247   2.9125388422e+02   5.6812596770e+00  0.009050822  0.008431219   7.45  0.000306282    1.060    0.056
        51 -10.4418     86.7551    240.9350   2.9220119140e+02   4.4741347613e+00   0.01194701  0.009019404  86.38  0.001071606    1.640    0.390
        52 -10.9486    168.2318    113.0419   2.9051834358e+02   5.4753839611e+00   0.01676247   0.01197408  56.27 0.0009874362    1.649    0.394
        53 -13.1505     91.0563    165.5840   2.9171429773e+02   5.2998781032e+00    0.2000326   0.01887037  35.32  0.005333805    5.999    0.833
        54  -9.5776    205.0482    110.6322   2.9007998561e+02   5.3034541294e+00   0.01699197   0.01004623   3.04   0.00158936    2.140    0.533
        55 -10.6589     22.5722     93.2592   2.9208440236e+02   6.4823736045e+00   0.02876009   0.00717862  33.12  0.002015424    3.448    0.710
        56  -8.8208    184.5398     77.4787   2.9012270111e+02   5.7872999542e+00  0.006590112  0.006051148 -24.50   4.5365e-05    1.071    0.067
        57  -9.4970    154.1870     75.8380   2.9046317148e+02   5.9698442655e+00  0.009138533  0.007292704 -29.31 0.0004100684    1.293    0.226
        58 -10.4625     70.0714    235.3799   2.9236121638e+02   4.6263501118e+00   0.01136736  0.008552718 -44.26 0.0008540277    1.310    0.236
        59 -11.1760     90.4778    245.2397   2.9218325483e+02   4.4056332583e+00   0.01624823   0.01088038  12.95  0.001117279    1.592    0.372
        60 -12.1394    173.8298    220.7088   2.9108093951e+02   4.2331496762e+00   0.02653413   0.01630689  -2.62  0.002538317    2.086    0.521
        61 -11.9243     20.6298     35.7902   2.9177234585e+02   7.1396008817e+00   0.01963638   0.01346365 -77.39  0.002069344    1.705    0.413
        62  -9.8607    225.3187    245.3347   2.9063171899e+02   3.6781702202e+00  0.007030169  0.004671691 -28.33 0.0007048897    1.699    0.411
