#   1 NUMBER                 Running object number                                     
#   2 MAG_AUTO               Kron-like elliptical aperture magnitude                    [mag]
#   3 X_IMAGE                Object position along x                                    [pixel]
#   4 Y_IMAGE                Object position along y                                    [pixel]
#   5 X_WORLD                Barycenter position along world x axis                     [deg]
#   6 Y_WORLD                Barycenter position along world y axis                     [deg]
#   7 A_WORLD                Profile RMS along major axis (world units)                 [deg]
#   8 B_WORLD                Profile RMS along minor axis (world units)                 [deg]
#   9 THETA_WORLD            Position angle (CCW/world-x)                               [deg]
#  10 FWHM_WORLD             FWHM assuming a gaussian core                              [deg]
#  11 ELONGATION             A_IMAGE/B_IMAGE                                           
#  12 ELLIPTICITY            1 - B_IMAGE/A_IMAGE                                       
         1 -13.7003    196.1808     48.7946   3.1976284843e+01   3.1285775767e+01     1.054312    0.8531207  39.09  0.003959928    1.599    0.375
         2 -11.2034     29.3211     42.3050   6.7326967824e+01   6.2340139351e+01    0.2775144    0.1637248  36.44   0.00161202    1.999    0.500
         3 -13.7377    224.3832     20.4483   2.2985953092e+01   2.9109490207e+01    0.7952706    0.6660327 -71.49  0.003943037    1.101    0.092
         4 -11.2957     60.4043      2.6760   4.3347254896e+01   6.2335303087e+01    0.2696644    0.1094626  39.87  0.001530285    2.055    0.513
         5 -10.1688     94.0490    246.5115   9.4128409056e+01   9.4388140712e+00     0.334949    0.2048866 -60.16   0.00181743    1.589    0.371
         6  -9.1610    166.9812    250.7513   8.0825147350e+01  -2.8048403004e+00    0.1671535    0.1134432  27.96 0.0002397187    1.561    0.359
         7  -9.0497    164.6986    248.3233   8.0871568371e+01  -2.0024498579e+00    0.2434704    0.1657243 -67.73  0.001270401    1.936    0.483
         8 -19.5101     14.5948    148.0939   9.7341270291e+01   4.2535442669e+01     19.15557     5.121769 -67.83   0.06706073    3.363    0.703
         9 -10.1971    191.7770    192.6758   6.5394840273e+01   4.5364682357e+00    0.4618256    0.2199025 -64.53  0.001253616    5.484    0.818
        10  -9.7598     56.4984    192.6440   9.4400784639e+01   2.7126501900e+01    0.1682209    0.1142164 -77.33  0.000884011    1.311    0.237
        11  -8.7242     89.3226    192.6362   8.7202336196e+01   2.2445822264e+01    0.1533111    0.1042448  84.47 0.0007040298    1.786    0.440
        12  99.0000     59.6829    229.9806   9.8625034813e+01   1.7923599172e+01    0.6044525    0.4561507 -37.77  0.002579618    1.934    0.483
        13  -9.8105     42.3398    232.6319   1.0215982919e+02   1.9565353537e+01    0.2758787    0.1017328 -72.05  0.001183396    2.504    0.601
        14 -10.8598     73.2230    232.3170   9.6312919102e+01   1.5535426796e+01    0.1993049    0.1487682 -74.79 0.0003705553    1.183    0.155
        15  -9.0302     78.9545    189.9930   8.9062629338e+01   2.4658232676e+01    0.1732016    0.1417531 -69.20 0.0003464712    1.046    0.044
        16 -11.6662     52.4241    185.5920   9.4256938653e+01   2.9374003856e+01    0.4123732    0.2532069 -45.13  0.001124365    1.808    0.447
        17  -9.6684     76.0000    244.9069   9.7309603011e+01   1.2407522205e+01    0.1801725   0.06540515 -63.12 0.0004539058    2.588    0.614
        18 -10.0179     38.3191    181.3029   9.6744481570e+01   3.2117409714e+01    0.2204606     0.178058 -82.79 0.0002874673    1.090    0.083
        19 -11.8884     48.3204    178.4806   9.4104771869e+01   3.1631123960e+01    0.5827137    0.3183962  70.89  0.001705513    2.672    0.626
        20  -9.2221     90.3592    227.0138   9.2251573553e+01   1.4210632496e+01    0.1844198    0.1508829 -76.71 0.0003729913    1.098    0.089
        21  -9.9654     72.8839    226.9289   9.5698480362e+01   1.6790666308e+01    0.1795766    0.1518948 -69.53  0.000326878    1.158    0.137
        22  -9.1638     71.5767    186.5428   9.0145672224e+01   2.6572991113e+01    0.1431004    0.1196112 -62.73 0.0008022911    1.096    0.087
        23 -12.1075     74.7819    179.8651   8.8308601886e+01   2.7763385530e+01     0.658336    0.3810539 -69.99   0.00140906    1.671    0.402
        24 -11.2925     79.1917    173.0534   8.6088125237e+01   2.8806923856e+01     0.465525    0.2794776  40.13  0.001277063    1.898    0.473
        25 -11.5607    126.5272    178.8237   7.6301111730e+01   1.9573296999e+01    0.3558348    0.2415827 -64.36  0.001637537    1.485    0.326
        26 -10.1043    154.4091    179.2199   7.0262757860e+01   1.4360783923e+01    0.2198877    0.1359496 -58.59 0.0005551529    1.644    0.392
        27 -11.1051    181.0693    175.7729   6.3993376692e+01   1.0132151429e+01    0.4044647    0.2863511  30.98  0.001927454    1.696    0.410
        28 -11.2428    121.4801    174.9220   7.6652429735e+01   2.1413161955e+01    0.2457535     0.216504 -22.36  0.001289659    1.335    0.251
        29 -12.1979    111.8632    170.2090   7.7903053546e+01   2.4245444776e+01    0.8910578    0.4795989 -67.75  0.003424933    2.269    0.559
        30  -9.3070    199.5392    173.5030   5.9896054832e+01   7.1923674298e+00    0.2734761    0.1263027 -53.75 0.0009746167    2.308    0.567
        31 -11.7640    247.4899    164.7099   4.9701516818e+01   6.1692850782e-01    0.5719833     0.209801 -45.16  0.001722164    2.229    0.551
        32 -10.9665    245.6086    158.9048   4.8807144403e+01   2.0440315855e+00     0.351868     0.210336 -51.98 0.0009094145    1.530    0.347
        33 -11.3257    230.0781    166.9135   5.3005603341e+01   3.1020566060e+00     0.374723    0.1727069 -50.87  0.001539708    2.077    0.518
        34 -10.8068    154.8454    244.8866   8.2214300585e+01   2.1176277736e-01     0.192432    0.1731414 -11.29 0.0003349592    1.224    0.183
        35 -11.2091    120.9444    181.6080   7.8107611029e+01   1.9892889808e+01    0.3125864     0.211126 -62.33  0.001454985    1.424    0.298
        36  -9.6212    100.9998    162.4212   7.8862848922e+01   2.8000434003e+01    0.2786335    0.1906974 -68.56 0.0003593676    1.497    0.332
        37 -11.3685    133.8976    146.1966   6.7535078517e+01   2.5989319224e+01     1.372236     0.295121 -53.31  0.002855618    6.713    0.851
        38  -9.1879     98.6766    150.3139   7.6858392428e+01   3.1344213530e+01     0.151307      0.11422 -89.63  0.000364503    1.660    0.398
        39  -9.7249    111.2650    140.2717   7.1509464044e+01   3.1575496385e+01     0.203031    0.1699564 -82.67 0.0007668246    1.354    0.261
        40 -11.8363    105.9041    132.8346   7.1068358922e+01   3.4261589672e+01    0.6936708    0.3704513 -49.89  0.002234938    1.661    0.398
        41 -11.7077     93.4546    133.2477   7.4300122077e+01   3.6279393205e+01    0.2857217    0.2483785 -41.32 0.0003585256    1.090    0.083
        42  -9.8424    114.6650    131.9557   6.8700215686e+01   3.2896702172e+01    0.2231887    0.1753315 -52.04 0.0005370632    1.149    0.130
        43 -11.9980    133.2979    128.1105   6.3331708208e+01   3.0240395955e+01    0.7160115    0.5124542  80.85  0.002534055    2.042    0.510
        44 -11.0031    127.2296    126.5807   6.4366735793e+01   3.1757339334e+01    0.2795681    0.2677725  13.62  0.001150284    1.169    0.145
        45 -10.6296    113.5727    126.6722   6.7671549721e+01   3.4298342787e+01     0.305402    0.2379595 -24.79 0.0006198179    1.452    0.311
        46  -9.8987     94.8455    124.2447   7.1779216649e+01   3.8122631178e+01    0.2536282    0.1844856 -58.60 0.0004813899    1.340    0.254
        47 -10.4802    100.9565    122.0064   6.9660205407e+01   3.7589626293e+01    0.2882027    0.2355028   1.39 0.0008354188    1.523    0.343
        48  -9.7639    162.8732    120.8403   5.5072551608e+01   2.5831864310e+01    0.2724612    0.1741585 -61.16 0.0008048867    1.748    0.428
        49 -10.7417     76.7019    118.9087   7.5244734168e+01   4.2190138128e+01     0.240641     0.154153 -38.22 0.0008442149    1.481    0.325
        50  -9.4833    109.0458    116.6740   6.6268425765e+01   3.7336149229e+01    0.1910094    0.1880225  -6.00 0.0003863961    1.110    0.099
        51  -9.0838    183.5139    116.5288   4.9993501796e+01   2.2421676965e+01    0.1494578    0.1346116 -48.62 0.0008092675    1.052    0.050
        52 -12.1028     68.4381    115.4586   7.6644858446e+01   4.4152833724e+01    0.3708787    0.2941326  29.63  0.001985972    1.469    0.319
        53 -10.8784    135.0000    109.1644   5.8124406032e+01   3.3964190991e+01     0.654682    0.1151802 -42.30    0.0015525    5.496    0.818
        54  -9.9031    205.3351    110.1413   4.4684419654e+01   1.9167380571e+01    0.2451412    0.2074369  78.96 0.0006126491    1.289    0.224
        55 -11.4691    115.3380    108.4788   6.2575179122e+01   3.7920965886e+01    0.3646705    0.2392929 -48.54  0.001376201    1.420    0.296
        56  -9.1170     93.6087    236.7422   9.2939176928e+01   1.1577482930e+01    0.1685218    0.1154878 -74.30 0.0004166475    1.419    0.295
        57 -10.7328     63.3334     99.6691   7.4054509423e+01   4.8237120359e+01    0.3005411    0.1237649  42.40  0.001238572    2.967    0.663
        58 -10.4505     60.2309     97.2546   7.4304775914e+01   4.9148894503e+01    0.2146575    0.1962769 -88.79 0.0006065454    1.421    0.296
        59 -11.6296     48.4597     95.6693   7.7328575438e+01   5.0955871391e+01    0.2349713    0.2298572 -16.86  0.000524812    1.232    0.188
        60 -11.3435    145.0213    203.2712   7.7022402779e+01   1.0567690420e+01    0.3151652    0.2050111 -54.99   0.00149175    1.464    0.317
        61  -9.3248    111.8397     81.4829   5.5985179625e+01   4.3759941369e+01    0.1857486    0.1356326  47.36 0.0005503142    1.457    0.313
        62 -12.1967     49.0465     74.7426   7.1316840817e+01   5.4884145960e+01     0.361435    0.3076492 -31.61  0.001043177    1.100    0.091
        63  -9.2184    102.7703     73.9819   5.6030846559e+01   4.6718994061e+01    0.1793746    0.1629507 -26.37 0.0002478588    1.044    0.042
        64  -8.6477    154.3234     77.6851   4.5755601663e+01   3.5831094954e+01     0.141967    0.1046171 -73.68 0.0007041846    1.663    0.399
        65  -9.1171     92.1257     67.1243   5.6682238236e+01   4.9720519464e+01    0.1649583    0.1541125 -63.49 0.0004240756    1.312    0.238
        66 -12.6254    180.0505     61.2482   3.7167190524e+01   3.2929276074e+01    0.4559491    0.4129046 -56.92 0.0008267608    1.072    0.067
        67  -7.7701     50.3815    249.1967   1.0240221914e+02   1.4969796283e+01     0.153798    0.1029748 -67.81 0.0003363107    1.384    0.278
        68 -12.4486    202.0172     43.2117   3.0005583765e+01   3.0818304982e+01    0.4441015    0.4042232  84.32  0.001262757    1.143    0.125
        69 -11.6519     53.9840    235.6162   1.0033497382e+02   1.7425105852e+01    0.2658587    0.1785269 -73.29 0.0005812288    1.280    0.219
        70 -10.2831     91.5570    200.9684   8.8089248692e+01   2.0084748758e+01    0.2757149    0.1936146  11.66  0.001272021    2.386    0.581
        71 -10.4704     56.3079     49.4012   6.1063847433e+01   5.7973918170e+01    0.2672613    0.2032422  50.04  0.001277986    1.796    0.443
        72 -10.2011     64.0774     52.5059   5.9781926222e+01   5.6419282684e+01    0.2257306    0.1898878  45.85  0.001235793    1.490    0.329
        73  -9.4365     60.5112     51.4067   6.0470502033e+01   5.7095010438e+01    0.1861674    0.1412094 -15.23 0.0004544508    1.169    0.144
        74 -10.4930     49.7519     47.0984   6.2302996361e+01   5.9188750989e+01    0.1786308    0.1502268  28.40 0.0004618836    1.344    0.256
        75  -8.9594     40.0810    200.7357   9.8952023612e+01   2.7210387844e+01    0.1607644    0.1302756 -87.31 0.0002924165    1.068    0.064
        76 -10.5245     33.9670    199.3066   1.0002506538e+02   2.8260687696e+01    0.2154448    0.1483743 -77.38 0.0003740448    1.161    0.139
        77 -11.3922     51.0213    245.2147   1.0188862685e+02   1.5729955704e+01    0.2104634    0.1350296 -68.94 0.0007736625    1.393    0.282
        78 -10.9673    242.0937    248.1326   6.6672179095e+01  -1.3302869476e+01    0.1936942    0.1406131  -8.72 0.0007677323    1.285    0.222
        79 -10.3910     60.2851     21.0059   5.0006813538e+01   6.0783086911e+01    0.1832976    0.1384774  29.48 0.0004479185    1.182    0.154
        80  -9.6880     62.8285     24.6232   5.0589396583e+01   6.0030758583e+01    0.1431272    0.1004728  49.60 0.0005663882    1.637    0.389
