#   1 NUMBER                 Running object number                                     
#   2 MAG_AUTO               Kron-like elliptical aperture magnitude                    [mag]
#   3 X_IMAGE                Object position along x                                    [pixel]
#   4 Y_IMAGE                Object position along y                                    [pixel]
#   5 X_WORLD                Barycenter position along world x axis                     [deg]
#   6 Y_WORLD                Barycenter position along world y axis                     [deg]
#   7 A_WORLD                Profile RMS along major axis (world units)                 [deg]
#   8 B_WORLD                Profile RMS along minor axis (world units)                 [deg]
#   9 THETA_WORLD            Position angle (CCW/world-x)                               [deg]
#  10 FWHM_WORLD             FWHM assuming a gaussian core                              [deg]
#  11 ELONGATION             A_IMAGE/B_IMAGE                                           
#  12 ELLIPTICITY            1 - B_IMAGE/A_IMAGE                                       
         1 -12.0884     13.6349     32.6750   1.0202756592e+02   6.8065761163e+01     1.236334    0.6414695 -19.18  0.006774205    2.137    0.532
         2 -10.9598     19.4148     15.2142   9.2158631383e+01   7.0678983708e+01    0.2595963    0.2130675   8.88  0.001241005    1.332    0.249
         3 -11.8385    101.1333     28.2941   6.5635478195e+01   5.6007477837e+01     0.540015     0.281249 -23.61 0.0004372329    2.017    0.504
         4 -12.1279     81.7110     35.5299   7.4685645716e+01   5.8858113739e+01    0.6294215    0.4308915 -27.57  0.002323222    1.386    0.279
         5 -11.1541    177.4832     30.5685   5.0328616361e+01   3.7092282614e+01    0.4392149    0.1750517 -32.91  0.001692688    2.449    0.592
         6 -11.0554     62.2302     16.1722   7.3182607608e+01   6.5005493503e+01     0.426893    0.2426213   4.91  0.002009021    2.284    0.562
         7 -11.6484     60.5893     23.5291   7.7235241324e+01   6.4263521675e+01    0.5360846    0.2759876 -46.81   0.00246877    2.595    0.615
         8 -11.5406    136.0903     21.4555   5.4578795375e+01   4.8701920436e+01    0.6677053    0.3237231  34.74  0.001951178    2.523    0.604
         9 -12.4036    129.2215     22.2973   5.6312373690e+01   5.0288783862e+01    0.4633769    0.2831146 -18.70 0.0009736753    1.795    0.443
        10 -10.8790    120.1564     21.5983   5.8073759160e+01   5.2537079177e+01     0.396177    0.2571783  -0.70   0.00111664    1.850    0.459
        11 -11.2433     49.0943     30.7785   8.5128336304e+01   6.4815030380e+01    0.4182047    0.2225767 -26.66  0.002097513    1.852    0.460
        12 -10.6550     30.7787     13.6790   8.5699455099e+01   6.9757959047e+01    0.3605005     0.137391 -35.30 0.0008037817    2.255    0.557
        13 -10.0626      3.1477     12.9838   9.9922070358e+01   7.2292322821e+01    0.3809032    0.1580912  -5.06  0.001788812    3.533    0.717
        14 -10.8897      6.5229      8.3109   9.5960401430e+01   7.2839695683e+01    0.1819277    0.1546965 -32.68 0.0004801586    1.331    0.249
        15 -11.7501      4.5043     18.6259   1.0146906499e+02   7.1230233831e+01    0.3918192     0.284023  25.47  0.002798128    1.757    0.431
        16 -10.7588      9.8751     15.7665   9.7434185669e+01   7.1366848407e+01    0.2329691    0.1324734 -32.66 0.0007529627    1.357    0.263
        17 -11.2409     74.1696      7.6857   6.4851819132e+01   6.3878170525e+01    0.4813045    0.3181171   4.64  0.001872614    1.516    0.341
        18 -12.6064     76.1096     15.5576   6.7894589039e+01   6.2630487359e+01    0.4832028    0.3161012  -6.46  0.001005095    1.561    0.359
        19 -11.2038     70.5232     13.9698   6.9084460121e+01   6.3845366414e+01    0.4546206    0.2170466 -21.23  0.002139289    2.152    0.535
        20 -11.1151     80.9909      6.2612   6.2007619838e+01   6.2701853519e+01    0.3500103    0.1734678 -24.04 0.0002512829    2.016    0.504
        21 -10.4499     84.8527      5.0638   6.0300001730e+01   6.2040770516e+01    0.2859499    0.1819925  55.69  0.001010449    1.599    0.375
        22 -11.0268    132.9409     11.4118   5.1565729275e+01   5.0525921383e+01    0.4488595    0.2487725   2.96  0.001933631    2.498    0.600
        23  -9.9368     50.9270     11.0760   7.5229613895e+01   6.7449864209e+01    0.3477491    0.1716206  -5.63  0.001434894    3.267    0.694
        24 -10.2671    174.0189     13.4532   4.5663444511e+01   3.9933976424e+01    0.3430552    0.1331743 -56.63  0.001096393    4.063    0.754
        25 -10.1698    157.6405     12.9353   4.7861095760e+01   4.4175511165e+01    0.3934657    0.2058367 -68.50  0.001517093    2.938    0.660
        26 -10.2323    100.1307     12.7521   5.9459679944e+01   5.8052703926e+01     0.269448    0.1823727  -9.65 0.0007464449    1.545    0.353
        27 -10.5443     55.1569     12.5698   7.4228352765e+01   6.6608415232e+01    0.3637548    0.1547887 -29.82  0.001262258    2.197    0.545
        28  -9.7783     59.0878      9.9520   7.1375465445e+01   6.6297871403e+01    0.2434708    0.1596982  28.74  0.001312004    1.402    0.287
        29 -10.3879    113.3831      3.2118   5.2370742685e+01   5.5949818888e+01    0.3029779    0.2150485 -70.28  0.001087416    1.998    0.500
        30 -11.2428    117.3605      9.2288   5.3900136680e+01   5.4483428288e+01    0.6628301    0.3031191 -29.52  0.002957157    2.274    0.560
        31 -11.2120    113.4269      7.5970   5.4115529614e+01   5.5554133925e+01    0.2476912    0.2073958  33.73 0.0002130965    1.078    0.072
        32 -10.3671     40.1646     11.0825   7.9957710395e+01   6.8975330133e+01    0.1930928    0.1649151  -6.78  0.000407973    1.194    0.162
        33  -9.5565    165.2511      9.9914   4.5805821160e+01   4.2523893248e+01    0.1697982    0.1191509 -24.67 0.0008828244    1.564    0.360
        34 -11.6880    146.5396      7.7955   4.7906544157e+01   4.7481866043e+01    0.4964445    0.3765184 -64.04  0.002700857    1.514    0.339
        35  -9.6185     43.0111      8.0499   7.7119026361e+01   6.8988240968e+01    0.2005929    0.1502444 -48.02  0.001221506    2.035    0.509
        36  -9.6268     11.4017      9.7212   9.3892781024e+01   7.2242980967e+01     0.137999    0.1069605  32.05 0.0006589105    1.800    0.444
        37 -10.4425     16.9131      3.9311   8.7971376278e+01   7.2636024463e+01    0.4012591    0.1712901 -45.44  0.002090266    2.469    0.595
        38 -11.3696     11.2995      3.2863   9.0778047447e+01   7.3240275405e+01     0.366829     0.177596 -32.92  0.002196721    1.621    0.383
        39 -11.2227     22.9233      7.4697   8.6579870415e+01   7.1523945184e+01    0.3401518    0.3164299 -76.24  0.001050395    2.069    0.517
        40 -10.2228     19.9988      1.7382   8.5117566452e+01   7.2635586137e+01    0.1520813    0.1031481  15.62 0.0003114182    1.413    0.292
        41  -9.0663    212.2413      8.6533   4.0011657627e+01   3.0843309855e+01    0.1373698   0.08411913 -57.56 0.0004855649    1.569    0.363
        42 -10.5129    127.0517      8.0652   5.1464219199e+01   5.2276808548e+01    0.2031065    0.1801279  44.23 0.0003620468    1.016    0.015
        43 -10.2998    181.0178      6.9629   4.2861681030e+01   3.8798780063e+01    0.2494908    0.2026964 -77.22 0.0007932317    1.194    0.163
        44 -10.8320     92.0740      6.2181   5.8786985769e+01   6.0431457092e+01    0.4160425    0.2190659  16.39  0.001010128    2.388    0.581
        45  -9.3304     67.4792      7.5223   6.7063255250e+01   6.5127706566e+01    0.1304209     0.101664  13.14 -2.122629e-05    1.088    0.081
        46  -9.9455    164.7402      5.5762   4.4500550581e+01   4.3071989138e+01    0.2362943    0.1579971  79.14  0.001018628    1.430    0.301
        47 -10.2658    228.5073      5.3116   3.7772576251e+01   2.7324352263e+01    0.2256532    0.1585748 -86.25 0.0006998334    1.296    0.228
        48 -10.9305    232.4588      4.5345   3.7277669106e+01   2.6492131116e+01     0.202231     0.165791 -70.49 5.553856e-05    1.022    0.022
        49  -9.1389    196.5885      5.5394   4.0742644357e+01   3.5017616877e+01    0.1330363    0.1166871 -81.25 8.928495e-05    1.024    0.023
        50  -9.9528    131.9199      5.5001   4.9601642482e+01   5.1320068588e+01    0.2088174     0.119866  61.46  0.001013781    1.542    0.351
        51 -11.2480    241.7332      2.9115   3.6216766603e+01   2.4561285819e+01    0.3256096    0.1542083 -67.17  0.001334886    2.146    0.534
        52 -12.6276     32.1270      2.0264   7.9012763426e+01   7.1200275420e+01    0.3069294    0.1838768  23.20 0.0006851541    1.587    0.370
        53  -9.9765     26.9626      3.0000   8.2133444760e+01   7.1699909103e+01    0.1831038    0.1307091  18.95  0.000822618    1.357    0.263
        54  -9.7558    107.5681      9.2573   5.6135949015e+01   5.6743805450e+01    0.2212881     0.125849 -24.03 0.0008093643    1.838    0.456
        55  -9.7909    167.3884      1.6487   4.2947448351e+01   4.2750854843e+01    0.2105798    0.1428007 -66.56 0.0008271268    1.611    0.379
        56  -9.8669    126.9609      2.0560   4.9236652718e+01   5.2819412526e+01    0.2226965    0.1351691  36.69  0.001117132    1.628    0.386
        57 -10.2721     73.3272      2.1989   6.2477435599e+01   6.4585130343e+01    0.2140763    0.1506079  40.79 0.0003991538    1.283    0.221
        58  -9.9494    138.2471      9.5893   4.9935837630e+01   4.9388621641e+01    0.1982739    0.1122076  54.44 0.0005860464    1.546    0.353
        59  -9.5376    211.4831    188.4887   8.4308219100e+01   2.1595838668e+00    0.2356796    0.1217607 -25.37 0.0008761551    2.294    0.564
        60 -10.0716    247.1423    250.1030   8.8686568105e+01  -1.1467593159e+01    0.1827326    0.1159586  12.70  0.001225166    1.307    0.235
        61  -9.9369     72.6437    250.0667   1.1980642979e+02   1.4450958421e+01    0.1651969    0.1486698  30.08    0.0012576    1.593    0.372
        62 -10.4598      5.5237    235.1973   1.3015006214e+02   2.4836613159e+01    0.2485365    0.1861332  74.64  0.001456078    1.151    0.131
        63 -12.0413     29.1526    248.6566   1.2699309880e+02   1.9999299991e+01    0.6559565    0.2581315  69.95   0.00363006    2.367    0.578
        64 -12.0201     18.6073    238.2627   1.2817660407e+02   2.2971375260e+01    0.6537058    0.2193038  36.68  0.003492695    2.888    0.654
        65 -12.4365     20.5082    248.6897   1.2837241264e+02   2.0929271768e+01    0.6400096    0.1931691  44.33  0.003365375    2.386    0.581
        66 -12.9701      6.9658    244.5816   1.3031242459e+02   2.3027917239e+01    0.8081837     0.527095  44.13  0.005207254    1.563    0.360
        67  -9.3148      1.5786    188.2425   1.2855185412e+02   3.4356528494e+01    0.1480802   0.08110352 -74.23 0.0006330975    1.550    0.355
        68 -11.5574     15.9290    182.4217   1.2536498860e+02   3.4328166753e+01     0.434894    0.1973869  85.25  0.002273311    2.033    0.508
        69  -9.8536    167.1760    183.6079   9.2329329612e+01   1.1276947022e+01     0.207131    0.1257992  32.27 0.0008899794    1.687    0.407
        70  -9.4967      2.0058    180.4614   1.2801855694e+02   3.5960648866e+01     0.145544   0.09808233  45.75 0.0005144055    1.538    0.350
        71 -10.0887    244.2548    178.3923   7.6327916481e+01  -1.9827108430e+00    0.2415785    0.1408916 -20.56 0.0009061974    1.716    0.417
        72 -10.7744    224.1424    178.4891   7.9941211897e+01   1.4837682837e+00    0.2433731    0.2150169 -13.98 0.0004001379    1.103    0.093
        73  -9.5035     70.0677    177.8688   1.1322618646e+02   2.9141651662e+01    0.1846068    0.1539254 -34.99 0.0006347112    1.658    0.397
        74  -9.0661     36.4537    178.4676   1.2074958099e+02   3.3137561626e+01     0.122777    0.0981966  85.94 0.0002823528    1.028    0.027
        75  -9.8876     46.7638    177.2644   1.1838190988e+02   3.2245642379e+01    0.2158457    0.1421178  46.56  0.001269727    1.488    0.328
        76  -9.6698    200.4528    176.4919   8.4074790527e+01   6.1941558314e+00     0.142424    0.1263095   8.47 0.0001899363    1.048    0.045
        77 -10.0073    100.9807    176.0105   1.0585237988e+02   2.4885688431e+01    0.1937336     0.176647  75.90  0.001151873    1.022    0.021
        78 -11.0915     17.7769    172.6549   1.2425155521e+02   3.6292994710e+01    0.3793457     0.176948  65.85  0.001975296    2.097    0.523
        79 -10.9611     12.7846    170.6680   1.2515782341e+02   3.7177401417e+01    0.3325128    0.1478926 -89.48   0.00171078    1.998    0.499
        80 -11.9569     36.9839    157.9292   1.1855585400e+02   3.7762041043e+01    0.2486371    0.1894692 -85.41 0.0003213397    1.078    0.072
        81 -11.7327     35.9948    163.0252   1.1933393521e+02   3.6685258491e+01    0.5413612    0.2716509 -68.02   0.00265908    1.695    0.410
        82  -9.6151     67.1708    165.1803   1.1225284920e+02   3.2445128774e+01    0.1945021    0.1388472  70.38 0.0009875344    1.374    0.272
        83 -10.8636     51.3932    164.0729   1.1585689121e+02   3.4713531453e+01    0.4528452    0.2285528 -64.55  0.002261449    1.758    0.431
        84 -11.3807     44.7771    161.8654   1.1715722502e+02   3.5996770060e+01    0.3653432    0.2092859 -71.14  0.001963469    1.510    0.338
        85 -10.0439     48.4775    159.5082   1.1599940619e+02   3.6122428841e+01    0.2365804    0.1956645  68.36   0.00144605    1.146    0.127
        86  -9.2403    200.4754    162.5755   8.1163991375e+01   8.6508655517e+00    0.1425742    0.1343189   9.67 0.0001898703    1.043    0.041
        87 -11.5989     22.5855    156.8327   1.2181561228e+02   3.9426067458e+01    0.4899715      0.36864  74.83  0.003233857    1.175    0.149
        88 -10.0100    247.3002    158.3082   7.1631697675e+01   5.3123314333e-01    0.1374007   0.09503325   1.23 0.0002627903    1.598    0.374
        89  -9.0300    147.6584    156.3299   9.1282758235e+01   2.0632615939e+01    0.1560953    0.1185972  81.67 0.0007051369    1.745    0.427
        90 -10.3408     12.2708    153.2815   1.2387045003e+02   4.1127081082e+01    0.2518077    0.1666278  16.79  0.001546706    2.176    0.540
        91 -10.3505    178.0320    151.4371   8.3386032388e+01   1.5359884637e+01    0.2742431    0.2543943 -71.37   0.00102653    1.224    0.183
        92 -11.5109     11.2557    145.7087   1.2343483095e+02   4.2943241288e+01    0.3891077    0.2303221  50.72  0.002349355    1.735    0.424
        93 -10.0928    207.1246    146.2312   7.6224891197e+01   1.0266068199e+01    0.2219185     0.193675   9.81 0.0006957036    1.148    0.129
        94  -9.5461     30.5514    144.9155   1.1865077029e+02   4.1460584630e+01     0.195921    0.1034683 -72.84 0.0006639077    1.564    0.360
        95  -9.4859    220.2551    143.9715   7.3221653300e+01   7.9917685817e+00    0.1864556    0.1174677 -35.56 0.0006401783    1.500    0.333
        96 -10.4902      2.6837    143.7137   1.2528624133e+02   4.4030450487e+01    0.2346599    0.1417527 -69.31  0.000966778    1.350    0.259
        97  -9.5831     49.7824    141.8021   1.1334132851e+02   4.0177770990e+01    0.2208378    0.1205127 -36.72 0.0007833419    2.800    0.643
        98 -10.7163     15.5178    140.0000   1.2185124335e+02   4.3930999393e+01    0.3314365    0.1320611  14.91  0.001385956    4.413    0.773
        99 -10.9160      2.7626    137.4123   1.2473087726e+02   4.5465423291e+01    0.3389275    0.1383337 -73.97 0.0009423572    1.843    0.457
       100 -10.0357      5.7112    133.6837   1.2366606628e+02   4.6123922672e+01    0.2358012    0.1359924 -77.99 0.0008392661    1.333    0.250
       101  -8.7345    143.6708    137.2991   8.8046987927e+01   2.5603239439e+01     0.156903    0.1227787  84.10 0.0007029729    1.641    0.390
       102 -10.7293      9.1178    136.7537   1.2311337421e+02   4.5172894769e+01    0.2065532    0.1435357 -71.27  0.000251278    1.174    0.149
       103 -10.5864     21.7717    135.9970   1.1984645064e+02   4.4356977962e+01     0.254144    0.1849751  50.81 0.0009372781    1.478    0.324
       104  -9.2443    137.5227    135.5061   8.9141949688e+01   2.7282449036e+01    0.1521878    0.1505895 -73.68 3.741096e-05    1.011    0.011
       105  -9.4941    249.6926    134.3203   6.5983058903e+01   3.8814269749e+00    0.1334549    0.1038984 -58.42 0.0007032672    1.639    0.390
       106 -10.0808    107.1363    133.1910   9.6450652022e+01   3.3744729122e+01    0.2525144    0.2458283 -42.46   0.00141032    1.098    0.089
       107  -9.9781     33.3427    133.3179   1.1649843642e+02   4.3951485843e+01    0.3041552    0.1671288 -79.95 0.0003972995    1.661    0.398
       108 -11.0335     37.2995    130.5123   1.1505351094e+02   4.4237852772e+01    0.2966966    0.2462517 -77.72 0.0006764474    1.008    0.008
       109 -10.0507     79.6518    133.0223   1.0385986459e+02   3.8349870549e+01    0.2005266    0.1701645 -65.00  0.001112045    1.080    0.074
       110 -10.1813     54.9742    133.0442   1.1062628948e+02   4.1681957224e+01    0.3212942    0.1955936  38.64  0.001280016    1.787    0.440
       111 -10.3533     73.9881    129.4797   1.0474983943e+02   4.0040802310e+01    0.2778856    0.1964355 -61.66  0.000653541    1.279    0.218
       112 -11.1247      1.8281    125.1144   1.2382783796e+02   4.8357837032e+01    0.3336409    0.1384672 -76.98  0.001063949    1.864    0.464
       113 -10.4813      3.2890    120.6940   1.2300022540e+02   4.9290871096e+01    0.3585695    0.1636343  83.57  0.001536421    2.380    0.580
       114 -11.4119     10.3860    122.6179   1.2131491833e+02   4.8378752099e+01    0.2555861    0.2147763  78.70 0.0009501888    1.195    0.164
       115  -9.1434     82.0040    125.0058   1.0161476177e+02   3.9933349377e+01     0.177139    0.1529589 -64.26 0.0004549737    1.060    0.056
       116  -9.5659     33.2744    125.6334   1.1546318113e+02   4.5800460809e+01    0.1405437    0.1258165   1.31 0.0002552103    1.463    0.317
       117  -9.4458      6.6178    125.7405   1.2264792833e+02   4.7905237514e+01    0.1163551   0.07564219 -47.05 0.0006974182    1.675    0.403
       118  -9.8591    219.8195    124.2096   6.8670136754e+01   1.1564291819e+01    0.2037906    0.1686324  -1.89 0.0005988668    1.305    0.234
       119 -10.5365     21.2978    121.1759   1.1816746535e+02   4.7907094089e+01    0.2012723     0.125558 -55.59 0.0006818118    1.441    0.306
       120 -10.9338     23.3727    107.3702   1.1561337461e+02   5.1022162404e+01    0.3749692    0.2490324  56.07  0.001770619    1.760    0.432
       121 -12.0560     12.5143    102.5444   1.1816802439e+02   5.2942557006e+01    0.5410126    0.3317576  60.39  0.002721256    1.960    0.490
       122 -11.7415     16.8659    115.3736   1.1864883430e+02   4.9621930429e+01    0.4113021    0.2030768 -61.88  0.002059582    1.585    0.369
       123 -12.2392     15.8084    108.7705   1.1806260180e+02   5.1256507865e+01    0.5661077    0.3944696 -44.31   0.00262817    1.490    0.329
       124  -9.6043    220.2556    116.9857   6.6842032077e+01   1.2748863709e+01    0.2157294    0.1795599 -35.14 0.0005051832    1.117    0.105
       125 -10.4943     86.0475    116.6086   9.8645258362e+01   4.1320683591e+01    0.2613227    0.1927787 -51.27  0.001314627    1.261    0.207
       126  -9.0573    179.4772    116.5112   7.4654612516e+01   2.2039228344e+01    0.1558232    0.1515433 -23.32 0.0002442949    1.004    0.004
       127  -9.1903    214.1720    115.5963   6.7584056005e+01   1.4326615098e+01    0.2022856    0.1386034  37.49 0.0006247778    1.604    0.376
       128  -9.3016    166.1637    115.4224   7.7307755015e+01   2.5333148972e+01    0.2137739    0.1529151  61.76 0.0005986198    1.598    0.374
       129 -12.3302     35.3510    108.1335   1.1211932273e+02   4.9807576180e+01      0.43665    0.2813085  86.88 0.0009011351    1.787    0.440
       130 -13.4407     55.1235    109.8942   1.0642437486e+02   4.7278258593e+01    0.3448351    0.3045738 -65.74 0.0007303515    1.023    0.023
       131 -10.8868     62.7634    107.2544   1.0353716697e+02   4.6958982876e+01    0.3527261    0.2032547  34.92  0.001293185    1.939    0.484
       132 -10.3414    249.1834    112.2277   6.1014685196e+01   7.5424818311e+00    0.1939674    0.1536153 -52.65 0.0008042681    1.340    0.254
       133 -12.2982      3.2578    106.4480   1.2141360241e+02   5.2598019613e+01    0.4580688    0.3091266 -67.43  0.002967565    1.138    0.121
       134 -12.6175      2.8447    100.2102   1.2075922079e+02   5.4064214617e+01    0.3258904    0.2260565 -84.62 0.0007697924    1.257    0.204
       135 -10.7579     34.6286    103.1872   1.1146986675e+02   5.1055621695e+01    0.4499983    0.2700963 -18.90     0.002188    2.531    0.605
       136 -10.4537     91.0852    108.4330   9.5244759577e+01   4.2435177354e+01    0.2899592     0.192322 -37.25  0.001268788    1.620    0.383
       137  -9.6910    223.2782    103.9840   6.3117801017e+01   1.4360576919e+01    0.2099091    0.1760569 -35.28 0.0004209294    1.099    0.090
       138 -10.8426    243.5586    104.6353   6.0073466247e+01   9.9138006264e+00    0.2492348    0.1919589 -11.99 0.0006508337    1.428    0.300
       139  -9.8255    119.4290    102.2599   8.5494948398e+01   3.8523321421e+01    0.3035739    0.1449655 -41.03  0.001119824    2.108    0.526
       140 -10.9275    247.6478    102.1254   5.8878693492e+01   9.4831669016e+00    0.2302392    0.1988172  81.34 0.0009850197    1.398    0.285
       141 -10.8384    161.6694     99.3137   7.3977712302e+01   2.9671948684e+01    0.3358835    0.2393858   6.96  0.001359912    2.087    0.521
       142  -9.9720    145.2392     99.4798   7.7942978853e+01   3.3481045344e+01    0.4277976    0.2152229 -52.13  0.001538482    2.261    0.558
       143 -11.0246     66.9105     98.0795   1.0014724862e+02   4.8586997859e+01    0.5371791     0.159246 -52.91  0.001858489    2.828    0.646
       144 -11.1774     62.1426     98.6643   1.0180746836e+02   4.9086284558e+01    0.3364553    0.3012718  25.04 0.0009381677    1.277    0.217
       145 -11.1469     19.9314     97.0780   1.1503431074e+02   5.3710814849e+01    0.4327116    0.2663478 -70.08  0.002482187    1.329    0.248
       146 -10.1036     40.9104     97.1242   1.0831314510e+02   5.1892059192e+01    0.2395423    0.1627778 -51.79 0.0006886594    1.261    0.207
       147 -10.0114    250.1297     95.8347   5.7046766924e+01   9.9837349726e+00    0.2110752    0.1730227 -52.40 0.0005802608    1.206    0.171
       148  -9.4811     85.3606     98.6920   9.4509829602e+01   4.5666707281e+01    0.2073305    0.1254858 -44.99 0.0006717627    1.548    0.354
       149 -11.0223     94.0198     92.9299   9.0294440330e+01   4.5506128387e+01    0.6748944    0.3792152 -21.98  0.002323264    3.312    0.698
       150 -10.1633     31.4919     93.5150   1.1066659550e+02   5.3623763971e+01    0.2459012    0.1531607 -69.79 0.0006711842    1.424    0.298
       151  -9.7686     57.8518     93.3890   1.0195516448e+02   5.0873068780e+01    0.1749478    0.1325307   6.69  0.000568598    1.658    0.397
       152 -11.7651    158.2914     90.1270   7.2136521672e+01   3.2304172812e+01    0.5438154    0.3001749 -33.63  0.002120923    1.888    0.470
       153 -12.1027    165.9343     85.2187   6.8995379088e+01   3.1391352876e+01    0.8251541    0.5549518  34.46   0.00352882    1.724    0.420
       154  -9.9563    103.9265     91.9130   8.7021008778e+01   4.3903885053e+01    0.2240839    0.1949377 -16.22            0    1.238    0.192
       155  -9.1248     21.3285     91.3230   1.1359507837e+02   5.4952797154e+01    0.1330021   0.07568407 -42.78 0.0004833376    1.694    0.410
       156 -10.7201     25.4925     91.8345   1.1231934278e+02   5.4515527745e+01    0.2918291    0.2135844 -31.93  0.001206669    1.499    0.333
       157 -11.0985     22.8639     87.4335   1.1236801230e+02   5.5741212256e+01    0.3760965    0.2607429 -59.00  0.001208171    1.141    0.123
       158 -11.2475     11.0489     90.9600   1.1688326854e+02   5.5729114037e+01    0.3272222    0.2119791  17.64  0.001211676    1.979    0.495
       159  -9.8544      1.4197     91.6713   1.2005835821e+02   5.6102353329e+01    0.2489745   0.09628323 -77.31  0.001151672    2.272    0.560
       160 -10.7757     45.0908     83.4666   1.0388237043e+02   5.4645629799e+01    0.4823677    0.3908613  68.20  0.002840414    1.562    0.360
       161 -11.2407      4.7885     85.8032   1.1811377106e+02   5.7269142672e+01    0.3723576    0.2251074 -74.11  0.002236926    1.358    0.264
       162 -10.1644    112.9602     86.4657   8.2775250103e+01   4.3292776559e+01    0.2487404    0.1938679 -42.00 0.0007217555    1.233    0.189
       163 -11.0165     67.1325     84.9092   9.6708924767e+01   5.1600588022e+01    0.3576632    0.2112494 -35.59  0.001162857    1.784    0.439
       164 -11.8708     13.0163     80.4391   1.1442406032e+02   5.8020129580e+01    0.6433694    0.2422721 -75.54  0.001458532    2.937    0.660
       165 -12.1941      6.3199     75.1922   1.1581379076e+02   5.9588334184e+01    0.6921875    0.3739336 -45.16  0.003718767    1.597    0.374
       166  -9.2694    127.4267     92.4963   8.0538109058e+01   3.8948410879e+01    0.1555851    0.1493226 -31.15 0.0001771783    1.017    0.017
       167  -9.3908    132.9879     83.3091   7.6309498878e+01   3.9604268129e+01    0.2109219    0.1958149  40.43 0.0005486794    1.094    0.086
       168  -9.3827    117.6241     83.2655   8.0472015734e+01   4.2991822408e+01    0.2212431    0.1413715 -33.53 0.0009467577    1.618    0.382
       169 -10.2741     30.3895     82.0157   1.0868022312e+02   5.6386285981e+01    0.2318536    0.1752365 -42.16 0.0008081141    1.214    0.176
       170  -9.4090    195.9879     82.2499   6.2173635063e+01   2.4533541475e+01    0.1901252    0.1319602  57.69 0.0003800582    1.494    0.331
       171  -9.2277    146.5146     81.5428   7.2365194804e+01   3.6798283771e+01    0.1560894    0.1521522 -66.34  0.000100826    1.058    0.054
       172 -11.7225     21.0853     78.2457   1.1116192916e+02   5.7977897018e+01    0.4642214    0.3203812 -53.68   0.00134529    1.148    0.129
       173 -10.6622     60.3501     65.8495   9.3517750938e+01   5.6694774585e+01    0.7567618    0.2490124 -36.28  0.002298972    4.360    0.771
       174 -10.1789     54.0493     74.5042   9.8376971352e+01   5.5640555605e+01    0.3142633     0.163163 -50.05  0.001168738    1.635    0.388
       175 -11.7400     62.5316     71.5630   9.4487389379e+01   5.5185371797e+01    0.3915412     0.247501 -38.48  0.001633101    1.454    0.312
       176 -11.0263     60.8992     78.1239   9.6969529787e+01   5.3969852967e+01    0.3984663    0.3198966 -30.65  0.001045586    1.207    0.172
       177 -10.1548     57.9884     74.2252   9.6889314140e+01   5.5208770772e+01    0.2687658    0.2240269  23.11 0.0004403114    1.343    0.255
       178 -10.8570     87.9154     83.3168   8.9437476398e+01   4.8708743333e+01    0.3130881    0.2223937 -61.65 0.0003786701    1.581    0.367
       179 -11.2520     91.9518     77.4016   8.6353870031e+01   4.9268696489e+01    0.4342105    0.3355847  29.57  0.002226383    1.391    0.281
       180  -9.1676    121.6529     76.2873   7.7161345803e+01   4.3535821243e+01    0.1528043    0.1236535 -86.36 0.0007022405    1.655    0.396
       181 -10.1982     49.0033     76.0100   1.0060096837e+02   5.5901263427e+01    0.2022257    0.1744655 -45.37 0.0004568468    1.020    0.020
       182 -12.1095     44.7389     75.1966   1.0192230316e+02   5.6553510345e+01    0.2238412     0.217896   8.59 0.0002836929    1.203    0.169
       183 -10.1375    145.4487     74.2940   7.0386116696e+01   3.8427037551e+01    0.2970364    0.1542347 -32.35  0.001127189    2.031    0.508
       184 -12.0128    102.4780     72.9012   8.1638529716e+01   4.8210111524e+01      0.34136    0.2891192  27.35   0.00179736    1.229    0.186
       185 -11.2035    150.1994     71.7204   6.8460050828e+01   3.7747161790e+01    0.4046278    0.2599864 -43.04  0.000378631    1.563    0.360
       186  -9.5287    194.8042     70.7310   5.9189947133e+01   2.6785080060e+01    0.3864783     0.188137 -27.31    0.0014383    2.318    0.569
       187 -10.9329     77.2790     71.2105   8.9234674059e+01   5.3071374229e+01    0.3605478    0.2980176  67.68  0.001508037    1.621    0.383
       188 -10.8239     37.2964     69.3556   1.0312215748e+02   5.8604146221e+01    0.4519443    0.2747224 -69.97  0.002311749    1.871    0.466
       189  -9.5193    128.9420     71.5639   7.3673822168e+01   4.2816258822e+01    0.2177725    0.1502846  48.28 0.0002841597    1.466    0.318
       190 -10.2694    167.7453     69.9896   6.4090387384e+01   3.3699411631e+01    0.2460703    0.2145378  56.39 0.0004780018    1.150    0.131
       191 -11.8150     94.2251     67.7578   8.2513718215e+01   5.0825580206e+01    0.5696166    0.2551473 -40.10  0.002236343    2.133    0.531
       192 -10.7374     68.7054     67.8746   9.1151782521e+01   5.5090123016e+01    0.4689683     0.152788 -45.77  0.001314685    2.707    0.631
       193 -11.3787     50.5218     68.5632   9.7962386518e+01   5.7359153075e+01     0.405307    0.2698467 -23.78  0.001743854    1.663    0.399
       194 -10.3907     51.1005     63.3508   9.6179518178e+01   5.8399770413e+01    0.3482343    0.1893862 -38.16  0.001649278    1.689    0.408
       195 -10.1302    138.2336     74.6920   7.2283165403e+01   4.0069568494e+01    0.3355226     0.257293 -78.65  0.001502019    1.772    0.436
       196 -12.0022     16.4649     67.8749   1.1062555220e+02   6.0617044000e+01    0.3161878    0.2148822 -60.15  0.001965435    1.182    0.154
       197 -11.4829     20.7902     64.6910   1.0823034291e+02   6.1016949986e+01    0.7306058    0.4289189  79.22  0.003271184    3.423    0.708
       198  -9.4455    140.5877     68.7311   6.9799602135e+01   4.0613238188e+01    0.1642392    0.1164042  22.82 0.0006964114    1.769    0.435
       199  -9.2936    123.1393     68.2085   7.4129271460e+01   4.4759711236e+01    0.1981389    0.1771077 -66.11 0.0004444921    1.276    0.216
       200 -10.1213     31.3275     68.3284   1.0510503058e+02   5.9379325623e+01    0.2411966    0.1421014 -28.65 0.0009704286    1.853    0.460
       201  -9.7662     31.1490     65.4096   1.0441294759e+02   6.0032408250e+01    0.1968984    0.1449567 -51.32 0.0004314228    1.109    0.098
       202 -11.1210      5.4840     58.9137   1.1288447334e+02   6.3208540617e+01    0.3554415    0.1768779 -67.54 -0.0001232611    1.713    0.416
       203 -10.8666     12.3379     51.1298   1.0820193770e+02   6.4473075413e+01    0.2483912    0.1893909 -67.22 0.0004233993    1.332    0.249
       204 -10.0399      4.1052     47.1489   1.1067354304e+02   6.5756926282e+01    0.2883621     0.121795 -39.48   0.00115513    1.972    0.493
       205 -11.4449     11.4586     44.4281   1.0673310714e+02   6.5903667849e+01    0.4635989    0.2308514 -35.83  0.001595371    1.753    0.429
       206 -10.5508      6.9847     41.2601   1.0781855783e+02   6.6803994847e+01    0.2674562     0.115805 -52.96 0.0005657633    1.665    0.399
       207 -10.2215      6.4188     67.8346   1.1438724168e+02   6.1218499736e+01    0.1972202    0.1360994 -39.21 0.0004092215    1.341    0.254
       208 -11.8823      3.1139     64.7342   1.1501439104e+02   6.2064195817e+01    0.3547465    0.2392874 -57.37   0.00118593    1.103    0.094
       209  -9.7772     15.8623     73.7491   1.1210942581e+02   5.9350228584e+01    0.2666888   0.08865505 -54.38 0.0009997839    2.115    0.527
       210  -9.9566     99.7182     64.4727   7.9675970792e+01   5.0409946467e+01     0.253063    0.1721061 -17.53 0.0007710904    1.754    0.430
       211 -10.6557     77.3061     63.9578   8.6856767936e+01   5.4554466769e+01    0.3714702    0.2521701 -46.73  0.001330468    1.409    0.290
       212  -9.3980    222.7989     62.8731   5.2734199462e+01   2.1222646628e+01    0.1975476    0.1486408 -56.12 0.0003288124    1.293    0.227
       213 -10.5818     84.1400     61.3206   8.3623472411e+01   5.3917991102e+01    0.5816603    0.3093725  36.30  0.002572967    2.009    0.502
       214 -11.1763     87.1261     56.1480   8.0796636063e+01   5.4364772530e+01    0.3469192    0.2381301 -27.02 0.0002927936    1.446    0.308
       215 -10.9035     87.2645     52.4250   7.9394038460e+01   5.5017636612e+01    0.2626522     0.208554 -37.65 0.0007506423    1.227    0.185
       216 -10.5300     11.1695     61.7653   1.1128505944e+02   6.2282000434e+01    0.3324886    0.1182143 -57.78  0.001477915    1.989    0.497
       217 -11.0351    201.2686     61.8339   5.5644008769e+01   2.6610237574e+01    0.2638337    0.2385613  61.69  0.000285816    1.136    0.120
       218  -9.6541    155.3543     61.6838   6.4139466511e+01   3.8220508252e+01    0.3080589    0.1944078  -5.92  0.001176394    2.457    0.593
       219 -10.9721     61.9820     54.5046   8.9137125610e+01   5.8764061574e+01    0.4247355    0.2591932 -45.15  0.002119857    1.495    0.331
       220 -11.3598     63.7850     59.9758   9.0345492300e+01   5.7424539066e+01    0.3874007    0.1990596  35.65  0.001368988    2.132    0.531
       221 -10.5637     57.8566     58.7159   9.2134991178e+01   5.8497524273e+01    0.3391188    0.2794673 -35.26  0.002033115    1.049    0.047
       222 -10.4228     45.0303     50.0759   9.4228287062e+01   6.1814582457e+01    0.4656607    0.1530329 -46.84  0.001891236    2.513    0.602
       223 -11.1321     29.7201     60.8026   1.0372487300e+02   6.1148825102e+01    0.5715691    0.2365749  14.32  0.002460429    3.432    0.709
       224 -12.9365     37.7207     50.7226   9.7438943596e+01   6.2483076496e+01    0.8121783     0.572206 -23.99  0.003331547    1.357    0.263
       225  -9.6248    102.8261     60.2035   7.7242913184e+01   5.0590321972e+01    0.2014735    0.1645726   3.97 0.0003830975    1.324    0.244
       226 -10.3269     47.9832     58.2475   9.5769551848e+01   5.9829641742e+01    0.2809038    0.2045455 -71.02  0.001518672    1.843    0.457
       227 -10.4458     43.9520     57.0294   9.6961851770e+01   6.0538922531e+01    0.2214544    0.1777147  -2.14 0.0003218259    1.323    0.244
       228 -10.6288    146.9345     56.7520   6.4409651538e+01   4.1129010836e+01    0.2679833    0.2175256 -44.90  0.000406744    1.271    0.213
       229 -10.0116    129.8148     56.1824   6.8314467720e+01   4.5358656302e+01    0.2661693    0.1965422 -26.85 0.0006581434    1.388    0.280
       230 -11.5167     75.3219     56.0781   8.4822654688e+01   5.6419862756e+01    0.2313969    0.2108301 -19.22 0.0002904666    1.048    0.046
       231 -10.3761    122.9436     56.2086   7.0107695279e+01   4.6946702826e+01    0.2595646    0.1959007 -31.72  0.001273571    1.320    0.242
       232 -10.7291    100.2754     55.4518   7.6334869144e+01   5.1966216531e+01    0.3276212    0.1696758  40.19  0.001381338    1.985    0.496
       233  -9.6096     54.7873     54.4230   9.1856078738e+01   5.9759997963e+01    0.1757128    0.1219772  10.39 0.0009437802    1.654    0.395
       234 -11.9733    128.5614     50.1831   6.6550205584e+01   4.6633264101e+01    0.5070729    0.3601533   5.17 0.0006502934    1.809    0.447
       235 -11.2754     69.8397     49.9000   8.4548734813e+01   5.8457652101e+01    0.4406358    0.3469404 -79.79  0.001233799    2.156    0.536
       236 -11.2164    151.7511     47.9727   6.0475828333e+01   4.1300678085e+01    0.3926816     0.326435 -19.48  0.002020933    1.277    0.217
       237  -9.9045    155.9140     46.8366   5.9249746232e+01   4.0417903305e+01    0.2324545    0.1990502  25.06 0.0005704302    1.265    0.209
       238 -11.3450    104.4962     49.3426   7.2826270109e+01   5.2150454148e+01    0.3806351    0.3507376 -16.22  0.002172426    1.055    0.052
       239  -9.9298     76.9937     50.7761   8.2301312871e+01   5.7129037204e+01    0.1926482    0.1875208 -28.44  0.001183216    1.209    0.173
       240 -10.3764     78.4558     47.4882   8.0549885417e+01   5.7467005473e+01    0.2408704    0.1819607 -28.14 5.248201e-05    1.221    0.181
       241 -10.8630      5.7429     51.6550   1.1109994799e+02   6.4736438856e+01    0.3546306    0.1730194 -45.61  0.002026331    1.563    0.360
       242 -10.1332     53.3835     49.9473   9.0838105800e+01   6.0815528129e+01     0.202487    0.1797124  31.97 0.0008510662    1.339    0.253
       243  -9.6301    166.9541     48.6922   5.7695626489e+01   3.7329416336e+01    0.2125633     0.185544  65.50  0.000483989    1.125    0.111
       244  -9.5620     95.0934     49.1214   7.5625049983e+01   5.4101888863e+01    0.2309325    0.1793612  13.36  0.001145471    1.370    0.270
       245  -9.8926    113.3330     46.8110   6.9355294172e+01   5.0655511727e+01    0.3123407    0.2318971 -83.97 0.0009725694    2.172    0.540
       246 -10.5458    120.1821     46.6642   6.7450562620e+01   4.9135585514e+01    0.3618831    0.2493658  16.56 0.0008973658    1.805    0.446
       247 -10.0987    124.5364     42.0526   6.4659605452e+01   4.8825998474e+01    0.2040652    0.1822015  -9.48 0.0003093575    1.126    0.112
       248 -10.1287    142.5403     45.5069   6.1632959582e+01   4.3968049569e+01    0.2860693     0.234703 -72.22 0.0007711069    1.460    0.315
       249 -10.8791    163.3254     42.6404   5.6465518499e+01   3.9133287484e+01    0.3418532    0.2225122 -36.19 0.0009631529    1.554    0.356
       250 -10.5108     91.6726     42.3301   7.4116771032e+01   5.5897308574e+01     0.552512    0.1950314 -45.67  0.001839419    3.641    0.725
       251 -10.4396     89.4464     39.0574   7.3543613968e+01   5.6848806989e+01    0.3110195    0.1998455 -31.90 0.0008485568    1.504    0.335
       252 -10.2623     51.1431     44.8654   8.9881280174e+01   6.2067051170e+01    0.2184103    0.1579984 -33.11 0.0003547368    1.180    0.152
       253 -10.7291     51.3310     40.1858   8.8022313748e+01   6.2897835165e+01    0.2433627    0.1904039 -62.42 0.0009004378    1.802    0.445
       254  -9.7666     31.3157     44.9792   9.8224515379e+01   6.4251539661e+01    0.1852654    0.1304219 -41.16 0.0008037267    1.144    0.126
       255 -10.3919    111.2118     42.0022   6.8154685551e+01   5.1871467166e+01    0.3133455    0.1917454  50.23  0.001243118    1.618    0.382
       256 -11.4926     68.9896     39.1483   8.0698562354e+01   6.0483128814e+01    0.6849325    0.4395237 -17.34  0.002087528    1.662    0.398
       257 -12.2695    225.9342    246.0607   9.1662104041e+01  -8.0781506183e+00     0.617601    0.3444997   6.59  0.003353581    2.229    0.551
       258 -10.7703     19.2813     19.3764   9.4077815260e+01   7.0005925113e+01    0.3781367    0.2005553   0.13  0.001326024    2.306    0.566
       259  -9.5723    147.6599    245.6617   1.0578753152e+02   4.0709426026e+00    0.1184311   0.08718887  13.52 0.0007050433    1.763    0.433
       260 -11.0850     20.5273     37.5265   1.0047750293e+02   6.6630334495e+01    0.2482181    0.1664341 -38.93 0.0006050534    1.157    0.136
       261 -12.0414     27.9351     38.0139   9.7285452936e+01   6.5906112743e+01     0.365222    0.2919763 -38.66  0.001373124    1.105    0.095
       262 -11.6631     24.4711     35.0615   9.7793427740e+01   6.6769898911e+01    0.3017517    0.1962791   3.20 0.0008000681    1.687    0.407
       263 -10.2696     96.4801     40.5315   7.1902192149e+01   5.5223135373e+01    0.5076045    0.2148813 -39.53  0.002025461    2.393    0.582
       264 -10.9187    100.9696     37.6427   6.9414109178e+01   5.4733716114e+01    0.5385224    0.3499621  37.24  0.001440309    1.510    0.338
       265 -11.3604    105.3102     34.3691   6.6873655864e+01   5.4279815046e+01    0.3034253    0.2705302  85.71 0.0006560065    1.444    0.307
       266 -11.3069     98.5131     31.6685   6.7762861208e+01   5.6106692689e+01    0.5480845    0.3011142  28.91  0.002387686    2.127    0.530
       267 -12.1005     74.2718    238.8708   1.1861951499e+02   1.6183670872e+01     0.594128    0.3421837 -60.16  0.003634103    2.042    0.510
       268  -9.4502     62.2601     40.7051   8.3874991596e+01   6.1268109826e+01    0.1732347    0.1373832 -14.68  0.000203773    1.138    0.121
       269  -9.5311     61.7287     37.6832   8.2868715226e+01   6.1865742241e+01    0.1769678     0.111931 -41.82 0.0002198432    1.544    0.352
       270 -10.5444     56.5668     40.6995   8.6108044744e+01   6.2095187125e+01    0.2590581    0.1102078 -38.58  0.001140473    2.106    0.525
       271 -10.3955     40.8272     41.2843   9.2833252050e+01   6.3977469947e+01    0.2138304    0.1640246   9.81 0.0007387855    1.362    0.266
       272 -10.3350     42.9496     37.5891   9.0520658720e+01   6.4410428700e+01    0.2814534    0.2009705 -65.11  0.001529668    2.166    0.538
       273 -11.1055     79.0090     31.4874   7.3930099886e+01   5.9963299739e+01    0.5474458    0.3028199   5.50  0.002129739    3.154    0.683
       274 -10.7078    181.3112     37.1735   5.1715924983e+01   3.5257338802e+01    0.4255237    0.2305538 -89.80  0.001590514    2.742    0.635
       275  -9.2735    127.4563     36.4822   6.1920770634e+01   4.8928648375e+01    0.1447848    0.1352684  27.46 7.128042e-05    1.012    0.012
       276 -10.0450    179.3212    243.6774   9.9664762455e+01  -6.7362446995e-01    0.1153273   0.08698263  60.16 0.0007045717    1.676    0.403
       277  -9.2829    155.4648     35.5158   5.5633479092e+01   4.2113715171e+01    0.1475381     0.135989  40.94 0.0001194941    1.081    0.075
       278  -9.2882    110.8541     34.8602   6.5531282483e+01   5.2991468923e+01    0.1821832     0.166881 -64.64 0.0004113922    1.329    0.248
       279 -10.8002     57.2996     34.4686   8.3298165625e+01   6.3060240334e+01    0.3248059     0.250206  34.98  0.001541222    1.448    0.309
       280  -8.8714     35.3719     32.6825   9.1912875360e+01   6.6142802239e+01    0.6402105    0.2807743  16.80  0.002818769    3.174    0.685
       281 -10.1186    247.2942     33.5241   4.2711810601e+01   1.9718274686e+01    0.2210845    0.1245052  79.18 0.0006494905    1.901    0.474
       282 -10.9954    192.8384     32.9958   4.8807873620e+01   3.2853753481e+01    0.2662733    0.1917364  56.76 0.0002851284    1.377    0.274
       283 -10.3755    156.5054    241.5043   1.0360918900e+02   3.2871973342e+00    0.1232283    0.0994117  39.71 0.0008106558    1.004    0.004
       284  -9.3444    145.1539     31.2016   5.6183811338e+01   4.5280369900e+01    0.1977853    0.1669402 -64.49  0.001050857    1.338    0.253
       285 -11.1314    139.5906     30.6951   5.7141670168e+01   4.6733510617e+01    0.3361298    0.2525389  12.57 0.0004657709    1.553    0.356
       286 -10.0046     88.9964    241.0105   1.1613426825e+02   1.3759470531e+01    0.1564856    0.1436141  -4.96  0.001014199    1.702    0.413
       287  -9.4452     61.0007     29.0067   7.9505342606e+01   6.3380414891e+01    0.1769558    0.1528701 -51.44 0.0004590215    1.567    0.362
       288 -10.2508    195.5564    238.6422   9.5949587441e+01  -2.5570748213e+00    0.2576083    0.1707966  20.25   0.00154378    1.454    0.312
       289 -10.5758    232.0389     27.9475   4.2870860888e+01   2.3892147353e+01    0.2039879     0.169062 -67.00            0    1.066    0.062
       290 -10.1513    152.1427     27.7070   5.3661805958e+01   4.3945855902e+01    0.2301359     0.178672  88.59 0.0005450082    1.440    0.305
       291 -10.8588    112.0034     25.1818   6.1453476901e+01   5.4001125834e+01    0.4066394     0.202661 -32.02 0.0006682748    2.044    0.511
       292  -9.9219    113.9059     20.1308   5.8987670676e+01   5.4160637241e+01    0.2326218    0.1851012 -35.85 0.0009900614    1.378    0.274
       293 -10.3996    242.7056     26.7807   4.1575635254e+01   2.1595175370e+01    0.2134115    0.1657996  65.58 0.0006516647    1.385    0.278
       294 -12.1191    237.3170     25.3030   4.1727884916e+01   2.3000498813e+01    0.2607272    0.2178283 -56.33 0.0003553887    1.058    0.055
       295 -10.5704    214.9355     27.1583   4.4475935372e+01   2.8070979727e+01    0.2153216    0.1673356 -66.80 0.0004741021    1.214    0.176
       296 -12.1719     70.6492     26.0339   7.4544825208e+01   6.2240019802e+01    0.3552305    0.2203884  39.04 0.0001537608    1.604    0.377
       297 -10.5739     66.8294     21.6021   7.3968124035e+01   6.3512599690e+01    0.2329878    0.1978038  24.31  0.001089931    1.178    0.151
       298 -10.7321     10.0719     25.1810   1.0108608044e+02   6.9699000381e+01    0.2436623    0.1533832 -17.51 0.0008078439    1.512    0.339
       299  -9.2947      1.3387     26.2988   1.0588211858e+02   7.0009384628e+01    0.1887585   0.08525186 -51.98 0.0004451126    1.625    0.385
       300  -9.4784      3.5188     24.0000   1.0398335066e+02   7.0318765780e+01    0.2394164   0.08127137  14.24 0.0008375723    3.528    0.717
       301 -10.8439    197.2710     24.6981   4.5899631244e+01   3.2756636560e+01    0.2450286    0.2220217 -41.30 0.0002398188    1.151    0.131
       302  -9.2131     50.3042    240.3152   1.2296638279e+02   1.9013459297e+01   0.09026632   0.08603483 -64.24 0.0003798226    1.621    0.383
       303 -11.8750    232.1944    246.9499   9.0720164828e+01  -9.0730272726e+00     0.515381    0.2005461 -23.54  0.002350522    3.536    0.717
       304 -10.8901     94.2811     23.5376   6.5661852439e+01   5.8064591036e+01    0.5372394    0.2695609  46.30  0.002478574    1.857    0.461
       305 -10.2645     86.6873     24.3450   6.8336584525e+01   5.9499227747e+01    0.2603549    0.2144569 -61.48  0.001461328    1.759    0.431
       306 -11.5129     84.2265     20.0834   6.7266991233e+01   6.0525319595e+01    0.5537779    0.2681834  48.33  0.002577225    1.998    0.500
       307 -11.6697     30.1133    233.6796   1.2601428524e+02   2.2572970385e+01    0.4055109    0.1808364 -87.92  0.002346077    2.105    0.525
       308 -10.2701    159.9942    235.9948   1.0221279468e+02   3.5582069898e+00    0.1896848    0.1385253  14.02  0.000608587    1.654    0.395
       309  -9.4439    156.4609     31.5552   5.4147225151e+01   4.2370407346e+01     0.143667     0.136122  65.26 1.310855e-06    1.010    0.010
       310 -10.1938     34.2052     22.9473   8.8356878628e+01   6.7926448452e+01    0.2084322    0.1485095   3.83  0.001323968    1.363    0.266
       311  -9.0695    149.2696     22.7364   5.2512902792e+01   4.5257556283e+01     0.134421    0.1059092 -69.73 0.0006846297    1.464    0.317
       312 -10.5763     35.4944     15.1026   8.4120262362e+01   6.8995028447e+01    0.2659598    0.1670308   1.69 0.0004003253    1.653    0.395
       313 -11.6406     36.6571    242.7442   1.2543786421e+02   2.0194125445e+01    0.5848624    0.2655409  84.08  0.003372543    2.182    0.542
       314  -9.8522    185.4556     21.4516   4.6497985751e+01   3.6136727383e+01    0.1406296    0.1267909 -83.87  5.87826e-05    1.041    0.040
       315 -10.1986     45.5108     20.5220   8.2122752608e+01   6.6911540931e+01    0.2293339    0.1865148 -41.41  0.001482977    1.495    0.331
       316  -9.5295     41.9747     19.7895   8.3353119296e+01   6.7486698717e+01    0.2533637    0.1599679  16.94 0.0009927915    1.618    0.382
       317  -9.8912    177.7869    234.8561   9.8687565247e+01   8.2358507850e-01    0.1888356    0.1481933  18.63 0.0009713708    1.245    0.197
       318 -10.1827    109.6651    243.2243   1.1255543888e+02   1.0352440250e+01    0.2592659    0.1557407  65.38  0.001171195    1.747    0.428
       319 -10.0554    167.3744    233.7715   1.0050022367e+02   2.6881111346e+00    0.1515206    0.1162685 -28.03 0.0007808433    1.592    0.372
       320  -9.8530     86.1446    233.1093   1.1592290952e+02   1.5570799924e+01    0.1737607    0.1134547  63.80  0.000680716    1.337    0.252
       321  -9.4542    150.9977     18.7692   5.0870325289e+01   4.5258889143e+01    0.1949044    0.1673538  59.98  0.000366563    1.073    0.068
       322 -10.0479    107.8213     17.8819   5.9598407653e+01   5.5797797616e+01    0.2496159    0.1603071  41.54  0.001273431    1.424    0.298
       323 -10.0772    214.8520     17.1149   4.1906327588e+01   2.9281200885e+01       0.4043   0.09227879  60.72  0.001362028    3.646    0.726
       324  -9.9963     24.2225    232.3082   1.2693593459e+02   2.3466071845e+01    0.1685746    0.1351973  80.39 0.0006170462    1.218    0.179
       325  -9.7808     79.9255    231.5097   1.1693588905e+02   1.6740354215e+01    0.1754225   0.09728576  44.56 0.0004519115    1.522    0.343
       326  -9.6789     12.9952    231.2718   1.2875836526e+02   2.4819173845e+01    0.1486729    0.1043953  69.18  0.000835971    1.046    0.044
       327 -10.9524      5.0924    226.7733   1.2985396132e+02   2.6423149867e+01    0.4044872    0.1370826  68.57  0.002091249    2.629    0.620
       328 -10.7341    153.7330    233.7660   1.0310268313e+02   4.9290046615e+00    0.2135734    0.1757388   2.64 0.0007306332    1.504    0.335
       329  -9.9592    248.7656    227.4087   8.4698296001e+01  -9.1744681226e+00    0.2024298    0.1202512  -4.37 0.0009133556    1.738    0.424
       330 -10.1826     50.3872     15.4260   7.7599813432e+01   6.6955985489e+01    0.2826359    0.1140287  41.51  0.001305743    2.634    0.620
       331 -10.1318    190.5573    226.7249   9.5044705004e+01  -8.8029249970e-02    0.2498665    0.1238171 -43.13 0.0009654461    2.391    0.582
       332 -11.3101     29.4676     20.5641   8.9548678659e+01   6.8828543408e+01    0.2545678    0.1567192 -27.63  0.001542907    1.349    0.259
       333  -9.7608    129.8424    226.6680   1.0680070169e+02   1.0018846129e+01    0.2864491     0.123483  56.96   0.00115387    2.998    0.666
       334 -10.9957    120.2350    226.3741   1.0864837578e+02   1.1619388360e+01    0.1950114    0.1685671  74.73 0.0006289255    1.161    0.139
       335  -9.8591     88.3670    227.1747   1.1492358350e+02   1.6340939503e+01    0.1602343    0.1041172 -85.62 0.0009449524    1.657    0.397
       336 -10.3249     66.6484    226.2684   1.1895199008e+02   1.9527559353e+01    0.2819072     0.132996  42.76  0.001093551    1.824    0.452
       337 -10.1720     25.8809    225.2731   1.2625448370e+02   2.4607072069e+01    0.2007063     0.145491 -46.64   0.00134583    2.317    0.568
       338 -10.8618     26.6038     14.0670   8.7954593615e+01   7.0155125761e+01    0.1866631    0.1360327  -3.84 0.0006752383    1.209    0.173
       339 -10.9133     23.2504     41.1743   1.0048142711e+02   6.5705745324e+01    0.2303194    0.2192135  80.63 0.0007377648    1.483    0.326
       340 -10.4222    250.2119    246.2708   8.7570972839e+01  -1.1474107836e+01    0.2253907    0.1380511 -23.82  0.001498941    1.659    0.397
       341 -10.1739    123.4352    222.2762   1.0750655857e+02   1.1836773625e+01     0.202128    0.1223445 -52.47 0.0006923677    1.928    0.481
       342 -10.4025     13.5179    222.0347   1.2821136313e+02   2.6498837979e+01    0.1820153    0.1127405 -77.12  0.001036909    1.508    0.337
       343 -10.1248    141.4208    221.1119   1.0377046785e+02   9.0695834699e+00     0.247419    0.1637589  28.72  0.001341322    1.611    0.379
       344  -9.1636     41.6620    220.7182   1.2314236904e+02   2.3715765405e+01   0.09439954    0.0883292 -54.06 0.0007009709    1.623    0.384
       345  -9.3163    250.4949    219.4453   8.3022912424e+01  -8.4716684604e+00    0.1214808   0.09245183   7.80 0.0001080223    1.025    0.024
       346  -9.4000    173.7463    219.7621   9.7179374116e+01   3.7941793983e+00    0.2111031   0.08915152  48.58  0.000886195    2.419    0.587
       347  -9.2205     77.6745    219.0131   1.1617988003e+02   1.9417818207e+01    0.1788308   0.07671469 -46.38 0.0007041178    4.232    0.764
       348 -10.9778      9.6359    216.9542   1.2861993851e+02   2.7852553119e+01    0.2830121    0.1465482  62.79  0.001209644    1.493    0.330
       349 -11.2816    235.9045    214.7450   8.4710124069e+01  -5.7091772724e+00     0.457117    0.3204953  33.62  0.002840424    1.336    0.251
       350 -10.7526    241.4165    211.7902   8.3215993647e+01  -6.1674572127e+00    0.3380859    0.2692453  -0.71  0.002251244    1.070    0.065
       351 -11.0416     24.0923    216.7784   1.2606490497e+02   2.6434971576e+01      0.34049    0.0792641  44.64   0.00157884    3.018    0.669
       352 -10.5383     30.7368    215.8538   1.2480544720e+02   2.5904426752e+01    0.2724096    0.1699018  41.42  0.001794035    1.615    0.381
       353  -9.0273    201.6555    215.7022   9.1139940008e+01  -3.2125384909e-01    0.1333796   0.08884854  11.91  0.000703481    1.673    0.402
       354  -9.5823    194.5094    215.4882   9.2463898107e+01   9.1574451248e-01    0.1302433    0.1098614  23.56 -0.0001437474    1.002    0.002
       355  -9.2980    136.9682    216.0000   1.0395000323e+02   1.0722556054e+01    0.2175373   0.06516931  40.67 0.0007942031    2.886    0.653
       356  -9.3451    115.2136    215.0331   1.0823610359e+02   1.4504003458e+01    0.1534547    0.1031508 -61.08 0.0004529833    1.657    0.397
       357 -10.7783     21.2732    212.3330   1.2630316131e+02   2.7603348013e+01    0.3174747    0.1353954  57.64    0.0017901    1.932    0.483
       358 -10.1715    208.9572    212.0723   8.9138629394e+01  -1.0109066039e+00    0.1971283    0.1616389  15.82 0.0005078418    1.048    0.046
       359 -12.1900      4.7424    207.3586   1.2899006951e+02   3.0188642451e+01    0.5879646    0.2270051  84.39  0.003103703    2.324    0.570
       360  -9.1480    188.4864    209.5025   9.2614766926e+01   2.8788062142e+00    0.1321149    0.1145144  26.89 -8.062358e-05    1.023    0.023
       361 -10.2987     10.7410    208.5609   1.2798376399e+02   2.9392767298e+01    0.1973604    0.1515715 -61.06  0.000613816    1.698    0.411
       362 -11.1544     19.1421    202.9129   1.2611258853e+02   2.9714332923e+01    0.3651026    0.2341383  87.53  0.001991494    1.231    0.188
       363  -8.9183     67.7075    203.7095   1.1664269572e+02   2.3865093485e+01    0.1061718   0.09693425 -41.85 0.0002583154    1.549    0.354
       364  -9.4754    223.6052    201.8072   8.4569155981e+01  -1.9610661231e+00    0.1644546    0.1175756 -42.49 0.0005906157    1.683    0.406
       365 -10.4054    175.4651    202.7296   9.4040999978e+01   6.3013868434e+00    0.2475912    0.1947904  49.68 0.0005751319    1.283    0.221
       366  -9.8822     37.7463    217.5511   1.2363703463e+02   2.4787216568e+01     0.187389    0.1048641  34.65   0.00111209    2.006    0.501
       367  -9.7070     34.5417    201.3333   1.2306051846e+02   2.8425525613e+01    0.1466476    0.1409257   4.98  0.001006164    1.613    0.380
       368 -10.2032    215.4757    194.9150   8.4785146579e+01   4.4882472010e-01    0.1864311     0.124888 -30.81 0.0003884254    1.517    0.341
