#   1 NUMBER                 Running object number                                     
#   2 MAG_AUTO               Kron-like elliptical aperture magnitude                    [mag]
#   3 X_IMAGE                Object position along x                                    [pixel]
#   4 Y_IMAGE                Object position along y                                    [pixel]
#   5 X_WORLD                Barycenter position along world x axis                     [deg]
#   6 Y_WORLD                Barycenter position along world y axis                     [deg]
#   7 A_WORLD                Profile RMS along major axis (world units)                 [deg]
#   8 B_WORLD                Profile RMS along minor axis (world units)                 [deg]
#   9 THETA_WORLD            Position angle (CCW/world-x)                               [deg]
#  10 FWHM_WORLD             FWHM assuming a gaussian core                              [deg]
#  11 ELONGATION             A_IMAGE/B_IMAGE                                           
#  12 ELLIPTICITY            1 - B_IMAGE/A_IMAGE                                       
         1 -14.4847    216.8880     54.4146   4.2459008992e+01   2.4745782325e+01     1.923496      1.34192 -34.51   0.01059568    1.466    0.318
         2 -13.4834    247.3890     35.1564   3.5156772668e+01   2.0978411347e+01     1.371709    0.6600889 -33.77  0.001293739    2.085    0.520
         3 -13.7013    230.1895     51.4899   4.0265594377e+01   2.2298441219e+01     2.129681    0.6432262 -33.95  0.007916488    3.307    0.698
         4 -12.3731    204.7938     41.5285   4.0871117272e+01   2.9257404886e+01     1.005825    0.2068696 -40.06  0.003354153    3.800    0.737
         5 -10.8795    215.8597     31.1206   3.7206687662e+01   2.8115132065e+01    0.3724199    0.1321727 -51.49  0.001516202    2.766    0.638
         6 -12.2205    239.6968     29.6639   3.4683083271e+01   2.3223298248e+01     1.220955    0.6754202 -10.50  0.004536179    5.430    0.816
         7  -8.9556    250.6235     14.6935   3.0871443704e+01   2.2830477116e+01    0.1891366    0.1012862 -33.36  0.000604568    1.951    0.488
         8  -9.2033    216.5596     10.0487   3.2449547735e+01   3.0403945241e+01    0.3530877    0.1099784 -60.64  0.001207631    4.484    0.777
         9  -9.2632    237.5160      9.2913   3.0710832084e+01   2.6058180600e+01     0.257327   0.06651291 -42.34  0.001085479    2.850    0.649
        10  -8.8990    243.0798      8.8701   3.0248705742e+01   2.4978963266e+01    0.1515185    0.1337016  47.79 0.0005409658    1.645    0.392
        11  -8.7425    157.7743      4.0506   3.6889610934e+01   4.4584259153e+01    0.1479241    0.1050225 -29.75 0.0005642109    1.605    0.377
        12  -8.5957     82.6404      8.3201   5.2706240499e+01   6.1542258637e+01    0.1190426   0.09841526 -76.85 0.0007043626    1.767    0.434
        13  -8.5407    132.3091      3.6372   4.0340801112e+01   5.0709170534e+01    0.1311942    0.0896289 -66.94 0.0007039759    1.745    0.427
        14  -9.2378    208.4283    103.9435   5.5479902928e+01   1.8456618937e+01    0.2981536    0.1778832 -81.41  0.001041089    3.586    0.721
        15 -12.7509    244.3159    248.0574   7.8168924467e+01  -1.1460206031e+01     1.051135    0.4604461  28.46  0.005762713    2.064    0.516
        16  -9.7265    233.9611    102.5122   5.1164567703e+01   1.3500780106e+01    0.2278091    0.1601142 -40.80 0.0005958348    1.232    0.188
        17 -10.8567    228.1519    100.9977   5.1672000373e+01   1.4906080337e+01    0.4343684    0.2453211 -68.36  0.001729309    2.917    0.657
        18  -9.4161    198.7878    100.7578   5.6377193110e+01   2.1121360630e+01    0.3056841    0.1845177 -49.09  0.001081365    1.610    0.379
        19 -10.4554    249.5701     97.1895   4.7892617321e+01   1.1426940744e+01     0.345544    0.2370963 -59.89  0.000725061    1.487    0.327
        20  -9.7926    245.4729     95.9098   4.8146158809e+01   1.2397838764e+01    0.2264316    0.1570357 -52.32 0.0004011008    1.297    0.229
        21 -10.6822    235.2182     96.3753   4.9623570401e+01   1.4290745518e+01    0.2914776    0.2587341  14.87  0.001015582    1.427    0.299
        22  -9.2953    215.4929     92.9925   5.1735532086e+01   1.8895712713e+01    0.2081248    0.1033688 -56.41 0.0007107916    2.432    0.589
        23 -10.7154    162.4336     91.4371   6.1082509604e+01   3.1170079567e+01    0.5414874    0.2530755 -55.54  0.001800326    2.982    0.665
        24 -11.3502    249.4857    239.1748   7.5802160235e+01  -1.0941016741e+01    0.4046273    0.2306183 -33.42   0.00248534    1.696    0.410
        25 -13.1842    243.2340     53.4578   3.9326210162e+01   1.9339517392e+01    0.9723172    0.6004351 -70.70  0.001764454    1.674    0.403
        26  -9.6755    209.9971     90.3726   5.1970359969e+01   2.0527406474e+01    0.4343806    0.1320754 -34.94  0.001376523    3.452    0.710
        27  -9.4639    126.4859     90.4688   6.9538944853e+01   3.9614200030e+01    0.2990345    0.1411457 -52.31   0.00104073    2.536    0.606
        28 -10.6533    248.4066     89.3193   4.6364877768e+01   1.2910751447e+01    0.3252569    0.2397991 -58.28 0.0006461764    1.268    0.211
        29 -10.6154    245.8156     84.7430   4.5704951826e+01   1.4130211198e+01    0.3977672    0.1951446 -31.17  0.001801966    2.155    0.536
        30 -10.7060    242.0471     88.6244   4.7012647479e+01   1.4234518497e+01     0.511161    0.2325179 -58.27   0.00175608    2.901    0.655
        31  -9.9479    228.1850     89.9237   4.9156338602e+01   1.6775267045e+01    0.2188992    0.1651282 -59.09 0.0007154465    1.279    0.218
        32 -10.6788    194.3549     87.6442   5.3884953814e+01   2.4475653901e+01    0.3438241    0.2225223 -54.96  0.001171595    1.600    0.375
        33 -10.6292    216.0456     86.5818   5.0138642874e+01   1.9872635171e+01    0.3428858    0.1849849 -54.87  0.001040324    1.970    0.492
        34 -10.3188    218.2929     83.0274   4.8972744247e+01   1.9986826224e+01     0.220276    0.1983539 -66.16 0.0007016668    1.052    0.049
        35 -10.5929    182.3241     86.8676   5.5848425517e+01   2.7374681399e+01    0.3663291    0.2257139 -64.07  0.001515766    2.113    0.527
        36  -9.3372    109.9982     86.9971   7.3177442545e+01   4.3871773268e+01    0.2721556     0.164468 -64.50 0.0008294189    2.593    0.614
        37  -9.3041    197.0744    129.5407   6.3637437475e+01   1.5990830202e+01    0.2876223    0.1986851 -57.12  0.001045739    1.637    0.389
        38 -11.5815    198.6329     82.7506   5.1933930607e+01   2.4358262960e+01    0.6029523    0.3290268 -67.22  0.002239815    2.926    0.658
        39 -10.7169    184.8709     82.5703   5.4257004328e+01   2.7546405683e+01    0.3902523    0.1971666 -56.31  0.001469577    2.477    0.596
        40 -10.7496    181.7442     78.0021   5.3619842790e+01   2.9070196487e+01     0.278324     0.236996 -83.18 0.0006711077    1.234    0.189
        41 -10.5483    167.3597     80.8065   5.7125036442e+01   3.1976875129e+01    0.2775182      0.20192 -29.09  0.001313251    1.486    0.327
        42 -11.3887    213.0529     78.5492   4.8673605541e+01   2.1856921411e+01    0.4434156    0.1942496 -28.72   0.00164218    2.907    0.656
        43 -10.4675    209.4030     83.2597   5.0349901762e+01   2.1872268660e+01    0.2597519    0.1605468 -47.29  0.000870951    1.490    0.329
        44 -10.3939    208.1337     78.2071   4.9320034537e+01   2.2995405572e+01    0.2548642    0.1875906 -85.23 0.0006962563    1.566    0.361
        45 -10.8565    201.2245     77.5786   5.0228561766e+01   2.4646181394e+01    0.2923123    0.2055758 -63.17 0.0008663964    1.509    0.337
        46  -9.9867    150.5508     81.5654   6.0942003950e+01   3.5822026831e+01    0.2882817    0.1324926 -48.77   0.00103582    2.404    0.584
        47 -11.0886    160.3001     76.9076   5.7484287945e+01   3.4349864840e+01    0.5031646    0.2809852 -61.79  0.001760353    2.623    0.619
        48  -9.8906    153.4844     77.0020   5.8969427604e+01   3.5957266173e+01    0.2348621    0.1468406 -40.25 0.0008999517    1.597    0.374
        49 -10.9590    193.4185     74.0997   5.0602210142e+01   2.7007645114e+01    0.3155662     0.197394  66.99  0.001472563    1.716    0.417
        50  -8.8016    248.2516    121.1454   5.3159856525e+01   7.6885590901e+00    0.1816225    0.1373712 -56.62 0.0004966336    1.381    0.276
        51 -11.0621    176.2283     72.9423   5.3267790197e+01   3.1234729176e+01    0.3894032    0.2293458 -45.83  0.001734796    1.670    0.401
        52 -10.2148    152.0413     69.9767   5.7236412083e+01   3.7530307732e+01    0.2959056    0.2157076 -48.19 0.0007452884    1.412    0.292
        53 -10.0002    192.4862     69.4899   4.9573523550e+01   2.7977196410e+01    0.2866317    0.1348529 -37.04 0.0008315539    2.058    0.514
        54 -10.8731    168.3334     67.2566   5.3171169212e+01   3.4067716399e+01      0.43463    0.1716638 -36.73  0.001594314    2.517    0.603
        55 -10.9245    183.8002     67.3358   5.0437458825e+01   3.0361718292e+01    0.3857358    0.2393526 -66.42  0.001687476    2.016    0.504
        56 -11.7048    205.2383     64.8241   4.6481144909e+01   2.5788430806e+01    0.4044834    0.2072166 -54.18  0.001575853    2.045    0.511
        57 -10.8760    160.5085     65.9518   5.4315317737e+01   3.6166805760e+01    0.4448661    0.1891486 -30.60  0.001599635    2.728    0.633
        58  -9.9872    131.1826     65.1885   6.0588767069e+01   4.3291898153e+01    0.2062005    0.1769035 -73.15 0.0006733225    1.358    0.264
        59 -10.8202    195.8349     63.8015   4.7603258740e+01   2.8101409226e+01     0.296946    0.1830866 -49.17  0.001061523    1.554    0.356
        60 -10.7871    194.3254     59.6678   4.6779903332e+01   2.9087492739e+01    0.2945514    0.2045349 -69.56  0.001203888    1.566    0.362
        61 -13.3975    227.5274     76.6100   4.6221316352e+01   1.9081079749e+01        1.222      0.55544 -46.65  0.004338689    1.955    0.488
        62 -10.8104    198.5689     57.7528   4.5679135437e+01   2.8391045136e+01    0.3557625    0.1352473 -32.95  0.001341292    2.753    0.637
        63 -11.7231    201.5023     53.4178   4.4194420139e+01   2.8353451556e+01    0.4150927    0.2993523 -85.76  0.002217868    1.454    0.312
        64 -11.6864    188.4899     55.0911   4.6476614668e+01   3.1143050824e+01    0.6735501    0.2306271 -32.04  0.002372959    3.176    0.685
        65 -10.8770    180.3266     51.4397   4.6766948493e+01   3.3620151361e+01    0.2619953    0.2316714  31.28  0.001470712    1.352    0.260
        66 -10.6646    157.3653     48.9515   4.9976902160e+01   3.9541075995e+01    0.3616816    0.2373672 -68.44  0.001070431    1.935    0.483
        67  -9.0236    190.7940    116.1636   6.1653713273e+01   1.9941303326e+01    0.2610466    0.1642642 -75.14 0.0009520302    2.921    0.658
        68 -10.2243    172.4856     58.9711   5.0115017019e+01   3.4383282130e+01    0.2197073    0.1397492 -36.39 0.0008986117    1.595    0.373
        69 -10.6506    198.5068     46.4499   4.2867652999e+01   3.0033913623e+01    0.2742631    0.1289991 -34.07  0.001204364    2.145    0.534
        70 -11.0811    215.9462     43.5389   4.0045049211e+01   2.6478271906e+01      0.32514    0.2076889 -34.99  0.001264385    1.587    0.370
        71  -9.9442    177.5907     43.2704   4.4989472578e+01   3.5421332669e+01    0.2635868    0.1233822 -37.90  0.001056913    2.100    0.524
        72 -10.3971    152.8176     43.3204   4.9147977175e+01   4.1434886780e+01    0.3354158    0.1960202 -54.12 0.0009819401    2.000    0.500
        73 -10.0013    184.9559     41.9971   4.3576343650e+01   3.3828658745e+01    0.2285226    0.1491394 -67.49  0.001130031    1.672    0.402
        74 -10.3349    180.3414     38.4537   4.3294989951e+01   3.5399757578e+01    0.2681791    0.1676093 -37.85  0.001356584    1.618    0.382
        75 -11.7319    189.6857     40.3069   4.2488326115e+01   3.2931908421e+01    0.5738288    0.2279757 -48.54  0.002301166    2.572    0.611
        76 -10.5209    210.3132     35.7417   3.8859561280e+01   2.8766096896e+01    0.2798512    0.1591369 -42.70   0.00103225    1.624    0.384
        77 -13.6597    233.5419     78.3045   4.5826566968e+01   1.7574185213e+01     1.586145    0.6350664 -42.38  0.005657407    2.112    0.527
        78  -9.4427    171.4046     36.2171   4.3995927262e+01   3.7841847313e+01    0.1945557    0.1180788 -45.55 0.0009520017    1.666    0.400
        79  -9.2522    123.2465     34.9848   5.2544657320e+01   4.9637541429e+01    0.1726816    0.1190584 -28.69 0.0005798178    1.573    0.364
        80 -10.9020    197.0560     31.8802   3.9444243352e+01   3.2286059913e+01    0.3262564    0.1816359 -38.84  0.001650271    1.747    0.428
        81 -10.4928    246.0181    114.1836   5.1994651710e+01   9.2601990742e+00    0.2419108    0.2051861 -79.04 0.0006917589    1.399    0.285
        82 -10.2886    232.9360     28.1905   3.4955932318e+01   2.4803742508e+01    0.3200762    0.1775188 -19.22  0.001513429    2.923    0.658
        83  -9.5938    227.6022     27.8508   3.5357317100e+01   2.5971351848e+01    0.3331264    0.1967798 -13.86  0.001561361    3.069    0.674
        84  -9.9761    201.6302     28.3475   3.8064155882e+01   3.1663777992e+01    0.2103037    0.1280652 -65.62  0.001089928    1.653    0.395
        85  -9.8138    184.7801     25.4380   3.9300908637e+01   3.5943258111e+01    0.2407586     0.206744 -73.58 0.0004763334    1.071    0.067
        86  -9.4972    224.1551     23.6554   3.4759081169e+01   2.7217100722e+01    0.2470149    0.1648918 -30.40 0.0009178409    1.693    0.409
        87  -9.5095    181.8300     29.8732   4.0825796036e+01   3.6119389560e+01    0.3482142    0.1255667 -43.25  0.001284966    2.667    0.625
        88  -9.2427    221.4587     19.9047   3.4181687292e+01   2.8239979451e+01    0.2006738      0.14212 -79.90 0.0004650497    1.244    0.196
        89  -9.6094    249.7399    112.9294   5.1210586579e+01   8.8042019585e+00    0.1871354    0.1453532 -42.69 0.0003801589    1.075    0.070
        90 -13.0801    238.7213     63.0863   4.1864034477e+01   1.8856546889e+01      1.34885    0.5549684 -42.18  0.006133311    2.028    0.507
        91  -8.5505    215.3228    115.6650   5.7070054772e+01   1.4886325323e+01    0.1479135    0.1075647 -68.02 0.0003643551    1.709    0.415
        92  -9.0908    235.2908    113.6230   5.3429548298e+01   1.1336512104e+01    0.2413987    0.1406576 -46.99 0.0004609003    1.549    0.354
        93  -8.7060    211.4684    110.5064   5.6520026408e+01   1.6621594323e+01    0.1462254    0.1303465 -50.42 0.0001342097    1.055    0.052
        94  -9.6774    237.8111    107.5938   5.1733989097e+01   1.1895249284e+01       0.1747    0.1297493  77.83 0.0007585784    1.738    0.425
        95 -12.6702    248.6096     68.4275   4.1917759002e+01   1.6104354988e+01     1.669516    0.4662714 -38.08  0.006379718    2.981    0.665
        96 -11.0653    244.3046    103.9964   5.0043327231e+01   1.1282025923e+01    0.3440205    0.2366734 -73.88  0.001013678    1.919    0.479
        97  -9.1244    218.2237    105.2013   5.4164573441e+01   1.6183372227e+01    0.1971647    0.1543581 -61.92 0.0004637723    1.336    0.251
