#   1 NUMBER                 Running object number                                     
#   2 MAG_AUTO               Kron-like elliptical aperture magnitude                    [mag]
#   3 X_IMAGE                Object position along x                                    [pixel]
#   4 Y_IMAGE                Object position along y                                    [pixel]
#   5 X_WORLD                Barycenter position along world x axis                     [deg]
#   6 Y_WORLD                Barycenter position along world y axis                     [deg]
#   7 A_WORLD                Profile RMS along major axis (world units)                 [deg]
#   8 B_WORLD                Profile RMS along minor axis (world units)                 [deg]
#   9 THETA_WORLD            Position angle (CCW/world-x)                               [deg]
#  10 FWHM_WORLD             FWHM assuming a gaussian core                              [deg]
#  11 ELONGATION             A_IMAGE/B_IMAGE                                           
#  12 ELLIPTICITY            1 - B_IMAGE/A_IMAGE                                       
         1 -13.0686     11.6676     24.8719   1.0739207192e+02   6.9759141030e+01    0.5293109    0.3536045 -55.40  0.003485029    1.234    0.190
         2 -12.2451    209.2991     20.5398   4.9600534638e+01   2.9519192857e+01     0.472755    0.3170985  18.65  0.001149802    2.008    0.502
         3 -12.9769    217.3550     10.9456   4.6068616397e+01   2.8487838981e+01    0.6995046    0.6093503 -62.52   0.00339868    1.072    0.068
         4 -13.3344     21.3283     23.0947   1.0191053793e+02   6.9362098758e+01    0.8070485     0.394624 -32.73  0.004237805    2.034    0.508
         5 -13.1347    107.9949    185.2035   1.0989220959e+02   2.3428639129e+01     1.124103    0.6528444  48.09  0.005442705    1.477    0.323
         6 -14.0396    246.5948    239.5989   9.2750846486e+01  -6.2203278603e+00     1.418468    0.6195145 -21.76   0.00832498    2.679    0.627
         7 -12.2656    170.6751    248.0226   1.0606154610e+02   4.0437140498e+00    0.6223046    0.2627232  53.34  0.003077595    2.778    0.640
         8 -12.2062    206.0545    241.4862   9.9423031946e+01  -5.5228507058e-01    0.5894303    0.4169313  47.67  0.003918333    1.472    0.320
         9 -12.8153    193.8493    247.7033   1.0221515398e+02   6.1229020500e-01    0.8883482    0.3888698  40.48  0.005175802    1.678    0.404
        10 -11.4755    195.6765    240.0720   1.0093648112e+02   1.1616845296e+00    0.4629248    0.2635607  52.95  0.002761519    2.005    0.501
        11 -13.8602    126.9958    247.4767   1.1330466385e+02   1.0595188495e+01     2.135492    0.3987063  41.61  0.008153137    3.950    0.747
        12 -13.5482    162.0645    224.4307   1.0465379545e+02   8.3400674211e+00     1.639772    0.8109693  53.29  0.008621228    2.064    0.516
        13 -13.4945    118.6712    191.3765   1.0852841145e+02   2.0592354691e+01     1.261949    0.9504395 -23.00  0.007207565    2.166    0.538
        14 -12.8134    117.2241    208.6947   1.1095705856e+02   1.7858869887e+01     0.920258    0.5567992  45.04  0.004938964    1.349    0.259
        15 -14.8017    117.4124    225.5319   1.1277641754e+02   1.5154612684e+01      2.67904     1.246558  48.17   0.01498482    1.679    0.404
        16 -14.9829     63.1180    244.5169   1.2367689052e+02   1.9619651659e+01     1.661417    0.6775847  49.04  0.009142755    1.722    0.419
        17 -13.2388     45.8823    223.6951   1.2527611200e+02   2.4994819303e+01     1.044473    0.5311903  75.01  0.006713466    1.811    0.448
        18 -14.2070     27.5959    219.0940   1.2813923583e+02   2.7772878710e+01     1.607776    0.7077218  71.88  0.009911389    1.993    0.498
        19 -12.0071     99.2837    228.0915   1.1626430018e+02   1.7401912673e+01    0.7633339    0.4115308  67.70  0.004412905    2.066    0.516
        20 -10.9092     90.6218    222.9001   1.1733961791e+02   1.9445742654e+01    0.2794737    0.1970885 -68.60  0.001374509    1.643    0.391
        21 -11.2566     86.0308    229.1602   1.1869451673e+02   1.9069015188e+01    0.3458728    0.1913557  60.92  0.001842221    1.563    0.360
        22 -12.0394    178.2836    217.7613   1.0087754701e+02   6.5938597861e+00    0.4896817    0.4126016  11.18  0.003468556    1.279    0.218
        23 -10.9030     73.9534    219.1178   1.2001585012e+02   2.2322495717e+01    0.3073808    0.1650918  59.28  0.001472069    1.549    0.354
        24 -12.7690    228.2864    213.6318   9.1691637302e+01  -9.8477534830e-01    0.5630833    0.3148269  -2.72  0.003029699    2.406    0.584
        25 -13.8455    143.0901    227.7417   1.0842975395e+02   1.0890916885e+01     1.061956    0.9068141  46.18  0.007118647    1.109    0.098
        26 -10.7348     74.4514    208.3722   1.1901879889e+02   2.4108710606e+01    0.2766883    0.1887181 -61.32  0.001854884    1.745    0.427
        27 -10.2356     89.4025    205.2733   1.1589491221e+02   2.2597685561e+01    0.5172465    0.1520569  38.88  0.002176978    3.051    0.672
        28 -11.8271     40.2389    198.8708   1.2469586640e+02   3.0012168308e+01    0.6541811    0.4420345 -78.34  0.003501749    1.438    0.304
        29 -11.3068    101.5857    198.4654   1.1280068903e+02   2.2014231133e+01    0.4701767    0.3368764 -31.11  0.002690495    2.413    0.586
        30 -11.2334     84.0021    198.8978   1.1629722717e+02   2.4499920910e+01    0.4052501    0.3253125  38.01   0.00231658    1.393    0.282
        31 -10.1487     78.7749    196.6651   1.1709861035e+02   2.5633831842e+01    0.1709972    0.1605689 -86.88 0.0009079069    1.323    0.244
        32 -11.7203    197.0922    195.9619   9.4167703185e+01   6.3139975298e+00    0.5073179    0.3739664  46.70  0.003129269    1.312    0.238
        33 -13.0631     88.8005    182.7772   1.1356891494e+02   2.6823852625e+01     1.103002    0.7339941  74.66  0.005950151    1.533    0.347
        34 -13.8535    213.1929    180.9010   8.8667421887e+01   5.4963229440e+00     1.456148    0.8479242 -16.60  0.007381879    2.133    0.531
        35 -11.5210     71.2699    177.8459   1.1668670135e+02   3.0254618959e+01    0.3632384    0.2889277 -48.82  0.002247267    1.663    0.399
        36 -11.1439     11.4981    178.0111   1.2889315983e+02   3.6860961356e+01    0.3634956    0.1708708 -85.14  0.001663001    1.777    0.437
        37 -11.0036    121.1350    174.0677   1.0557744987e+02   2.3344277518e+01    0.3268216    0.3084792  11.36  0.002120908    1.304    0.233
        38  -9.4206     66.5604    184.5002   1.1834880952e+02   2.9571668829e+01    0.1155344    0.0980802  72.54 0.0002733429    1.097    0.088
        39 -13.5208    149.4029    161.1699   9.7408008209e+01   2.0621336917e+01     1.075693    0.8053564 -79.35   0.00561856    1.794    0.443
        40  -9.9566     80.6992    167.9004   1.1349860979e+02   3.0945603654e+01    0.1667157    0.1390388 -89.30  0.000620492    1.120    0.107
        41 -12.1548     68.3247    164.2942   1.1580394218e+02   3.3397957264e+01    0.3656802    0.2223585 -46.19  0.001133196    2.228    0.551
        42 -12.0573     88.3322    159.7239   1.1070361334e+02   3.1502661117e+01    0.5406362    0.4654206  53.53   0.00278439    1.139    0.122
        43 -12.8523     98.6940    145.4207   1.0608371153e+02   3.2875908367e+01    0.6091058    0.5286552 -18.74  0.003555962    1.575    0.365
        44 -10.7845     70.3420    144.6956   1.1281790933e+02   3.7297357568e+01    0.3071524    0.2258175 -83.81  0.001132598    1.280    0.219
        45 -11.0341     66.2118    142.1250   1.1346575140e+02   3.8415002440e+01    0.4397652    0.2682524  55.79  0.002382417    1.604    0.377
        46 -11.7122     88.9581    144.1368   1.0821679439e+02   3.4703860697e+01    0.2534864    0.2373415  62.86 0.0004000122    1.129    0.115
        47 -14.4249     25.6550    186.2150   1.2663658214e+02   3.3939235218e+01     2.170756     1.108925 -55.84   0.01276105    2.551    0.608
        48 -13.5067      5.5927    131.3989   1.2715555840e+02   4.6931402092e+01    0.9824231    0.5262742 -89.15  0.005993695    1.517    0.341
        49 -16.2673     16.0528    241.6803   1.3097941074e+02   2.5249167550e+01     2.449658    0.6842993  51.25   0.01481774    2.214    0.548
        50 -12.2194    165.2736    179.8459   9.7449040848e+01   1.4423585898e+01     0.747069     0.334019  40.48  0.003339949    1.994    0.498
        51 -10.6747     98.1338    129.3069   1.0334242653e+02   3.6444965434e+01    0.2245274    0.1855455 -45.77 0.0007038608    1.327    0.247
        52 -12.4377      2.0758     90.6192   1.2434054563e+02   5.6127708406e+01    0.5691975    0.1065414 -74.47  0.002018142    4.106    0.756
        53 -10.7591    244.3230     84.3407   6.2252387092e+01   1.2885580397e+01    0.1448348    0.1023344  14.50 0.0007050787    1.724    0.420
        54 -12.6276      2.6779     73.5510   1.2200116291e+02   5.9891426244e+01    0.4815566    0.1674025 -76.49  0.002221769    2.453    0.592
        55 -11.3070    237.4935     71.9991   6.0078525615e+01   1.6089431275e+01    0.2263027    0.1299377 -29.03  0.001040177    1.611    0.379
        56 -12.1291    193.6422     34.6131   5.5743656192e+01   3.1931477423e+01     0.336814    0.2760417  46.54  0.001021366    1.260    0.206
        57 -12.9278    202.4382     28.3631   5.2692357457e+01   3.0396656201e+01    0.6558214    0.5452965 -42.96  0.003547241    1.172    0.147
        58 -12.3216      3.8336     23.8350   1.1102065288e+02   7.0443001464e+01    0.3982407    0.2663635 -31.91  0.002718027    1.387    0.279
        59  -8.6522     27.2018    236.5121   1.2903023811e+02   2.4935390853e+01    0.8062415     0.205736  60.71  0.003445839    3.432    0.709
        60  -9.9498     98.0081    250.2585   1.1836906473e+02   1.4279905055e+01    0.1541325   0.09914969  49.27  0.000647844    1.127    0.112
        61 -14.9232     25.4333    158.0685   1.2469112943e+02   3.9599584740e+01     2.591013      1.72846  42.61    0.0170422    1.527    0.345
