#   1 NUMBER                 Running object number                                     
#   2 MAG_AUTO               Kron-like elliptical aperture magnitude                    [mag]
#   3 X_IMAGE                Object position along x                                    [pixel]
#   4 Y_IMAGE                Object position along y                                    [pixel]
#   5 X_WORLD                Barycenter position along world x axis                     [deg]
#   6 Y_WORLD                Barycenter position along world y axis                     [deg]
#   7 A_WORLD                Profile RMS along major axis (world units)                 [deg]
#   8 B_WORLD                Profile RMS along minor axis (world units)                 [deg]
#   9 THETA_WORLD            Position angle (CCW/world-x)                               [deg]
#  10 FWHM_WORLD             FWHM assuming a gaussian core                              [deg]
#  11 ELONGATION             A_IMAGE/B_IMAGE                                           
#  12 ELLIPTICITY            1 - B_IMAGE/A_IMAGE                                       
         1 -13.8219    123.4156     84.4285   5.5671393646e+01   4.1378016658e+01     3.713365     2.121909   0.66  0.008244891    8.843    0.887
         2 -14.4886    133.8761     71.2345   4.9313787108e+01   4.1388061857e+01     1.800822     1.354666   0.80  0.008836694    1.831    0.454
         3 -12.0956     75.9290     22.3534   4.8696357786e+01   6.0384557662e+01     1.648879     1.111086  49.09  0.007708801    1.324    0.245
         4 -15.0615     38.9743     71.9983   8.0817299901e+01   5.8541345560e+01     2.586078     1.903692 -71.45   0.01128483    2.032    0.508
         5 -13.6927     13.2978     74.1387   9.2521638397e+01   6.0448421011e+01     2.581913          nan -46.79  0.006977588    5.766    0.827
         6 -11.9441     37.2994     28.2962   6.5857916579e+01   6.6247516115e+01    0.7244321    0.3253856 -34.23  0.003657597    2.242    0.554
         7 -12.6389     54.8254     20.4118   5.5163075089e+01   6.4485750158e+01     1.629396    0.7094786  45.30   0.00800554    2.058    0.514
         8 -14.0574      4.2227     53.2136   9.1139399176e+01   6.5343604012e+01     1.752649     1.126315 -56.34   0.01053227    1.553    0.356
         9 -13.5563     14.0241     35.8676   8.0407172531e+01   6.7769866789e+01     1.635794     1.172242 -30.43   0.01036256    1.210    0.173
        10 -12.4452     58.9757     62.2446   6.9476841945e+01   5.7713760942e+01    0.7528895    0.5203672 -52.51  0.003917596    1.813    0.448
        11 -14.0771     78.7787     42.6550   5.5345999020e+01   5.7369859205e+01     1.289863      1.06025  43.26  0.007803316    1.201    0.168
        12 -13.0809     49.7578     28.3852   6.0492456200e+01   6.4372124781e+01    0.8346477    0.4919108  38.54  0.001714752    1.551    0.355
        13 -14.2514     52.4190     43.6632   6.5444351977e+01   6.1809845546e+01     1.122647     0.675275  -6.66  0.005542659    2.054    0.513
        14 -13.9589    188.5226     48.4042   3.3697825111e+01   3.2513220484e+01      1.63547     1.187458  41.49  0.009345961    1.786    0.440
        15 -13.4300    177.7391     36.4648   3.2345763293e+01   3.6410533752e+01     1.893339    0.7588238  52.83  0.008404776    2.546    0.607
        16 -12.3338    228.9081     49.0086   2.9225638347e+01   2.4156536684e+01     0.891594    0.2877629 -45.90  0.004031197    2.549    0.608
        17 -11.3576    137.5900     59.9127   4.5268090216e+01   4.2335196125e+01     1.070375    0.3695197 -36.84  0.003952118    3.044    0.671
        18 -12.5496    151.1076     42.7265   3.7921881186e+01   4.1628710188e+01     1.274332     0.876343  34.91  0.006762386    1.808    0.447
        19 -14.8598    205.1121     62.2422   3.4619729360e+01   2.7041733539e+01     1.904948     1.228253  80.74  0.008968066    1.641    0.391
        20  -9.8046     89.4511     21.4893   4.4500337579e+01   5.7737450527e+01    0.3450504    0.3052916  31.14  0.002316516    1.084    0.078
        21 -10.6135    162.2522     19.7617   3.0336778292e+01   4.1739004968e+01    0.4647398    0.2556059 -75.69  0.002302191    2.249    0.555
        22 -11.4173     31.2258     19.2841   6.4793289790e+01   6.8261601165e+01     0.308613    0.2319735 -18.85  0.001340401    1.297    0.229
        23 -12.1029    149.2542     12.2214   3.0148623474e+01   4.5388101001e+01    0.4276098     0.218844 -77.34  0.001139202    2.762    0.638
        24  -9.8483    134.6840     13.4312   3.2598541808e+01   4.8557412775e+01    0.1860876    0.1379175  22.86 0.0008518614    1.740    0.425
        25 -11.3214    116.0597     10.5176   3.4906081169e+01   5.2984310849e+01    0.3655549    0.3266182 -76.85  0.001981943    1.266    0.210
        26 -10.1529     89.0645     12.0349   4.1202684765e+01   5.8701559834e+01    0.1781687    0.1432827  42.28 0.0003555576    1.037    0.035
        27  -9.8795     95.1361     11.0846   3.9410179224e+01   5.7500147445e+01    0.1529947    0.1357344  84.49 0.0005122561    1.318    0.241
        28 -10.3097     53.1741      9.6398   5.1168533961e+01   6.5876135026e+01    0.2026081     0.178121 -58.25 0.0009713148    1.848    0.459
        29  -9.5479    169.2821      9.5980   2.7056377662e+01   4.1181952027e+01    0.1261492   0.07415266 -66.34 0.0006989369    1.778    0.437
        30  -9.8082     71.4654      9.3301   4.4971329591e+01   6.2502228170e+01    0.1364043    0.1138832 -29.55  0.000921593    1.483    0.326
        31 -10.2796     99.7560      6.7883   3.6917045026e+01   5.6860109005e+01    0.1467126    0.1265288  77.96 0.0003593555    1.249    0.199
        32  -9.5997     91.5463      7.4821   3.8979243280e+01   5.8558186488e+01    0.1196272    0.1019211  57.99 0.0003236652    1.125    0.111
        33 -10.5056      3.5408      6.0752   7.3538178831e+01   7.3120860965e+01    0.1991017    0.1151074   2.59 0.0006064283    1.464    0.317
        34  -9.5140    145.8973      4.4159   2.8565718259e+01   4.6824179218e+01    0.1689904    0.0971558  71.73 0.0009632381    1.434    0.303
        35  -9.4307    110.4058      4.2305   3.3981545208e+01   5.4738317636e+01    0.1298725   0.06817055  46.69 0.0004622677    1.670    0.401
        36 -10.1204     73.4214      3.5380   4.2117921536e+01   6.2586684096e+01    0.2913286    0.1238978  56.41  0.001454447    1.974    0.494
        37 -10.1909     67.1256      3.8694   4.4069515603e+01   6.3794705835e+01    0.1619226    0.1384375  43.32 0.0003045716    1.161    0.139
        38 -10.1363     56.3065      2.3002   4.6858826593e+01   6.5952399675e+01    0.2352024    0.1263901  26.45 0.0009294213    1.784    0.439
        39 -13.0189    123.8991     95.4467   5.8649309645e+01   3.9147708932e+01    0.7879448    0.3164409  48.80  0.001250134    2.560    0.609
        40 -10.4840    228.9281    249.6845   6.7995153537e+01  -9.8408602273e+00    0.2055873    0.1305784 -21.02 0.0005436534    1.309    0.236
        41 -13.0161    165.9345    248.3346   8.0521415561e+01  -1.6687677182e+00    0.5709345     0.391827  14.46   0.00318308    1.351    0.260
        42 -12.0486    153.4439    249.4921   8.3428082865e+01  -1.2798378127e-01    0.5089406    0.2553093  17.30   0.00220103    2.337    0.572
        43 -12.1765    136.3907    249.8065   8.7266198999e+01   2.2396784367e+00    0.4361403    0.1520477  33.11  0.001719992    2.497    0.599
        44 -12.9333    110.2924    240.9070   9.1998404811e+01   7.7731717606e+00    0.5922274    0.4219411  24.69  0.002224726    1.341    0.254
        45 -12.3102    113.4141    245.2177   9.1850439585e+01   6.4407908053e+00    0.3373786    0.2910492 -60.15  0.001979203    1.314    0.239
        46 -12.3762    104.9712    249.4996   9.4322427436e+01   6.7767011119e+00    0.6090127    0.2276579  31.16  0.002457861    2.425    0.588
        47 -13.5703     37.7784    247.5821   1.0896690554e+02   1.5813224801e+01     0.758825    0.6751264  44.43  0.005227981    1.179    0.152
        48 -12.2108      3.3531    248.4421   1.1597511678e+02   1.9162012618e+01    0.9651243    0.2750806 -86.49  0.003738191    4.015    0.751
        49 -11.4430     87.1808     97.7475   7.0296208337e+01   4.5937811485e+01     0.385159    0.3195818  -5.87  0.001051785    1.265    0.209
        50 -11.5793     81.5816     99.2924   7.2603232190e+01   4.6577967646e+01    0.3020515    0.2542023 -16.98  0.001572154    1.187    0.157
        51 -11.5084    200.9653     97.6223   4.3026519246e+01   2.2161724286e+01    0.4315981     0.240535 -53.44  0.002008961    1.773    0.436
        52 -10.7095    192.0285     99.3278   4.4897788616e+01   2.3686791235e+01     0.377053    0.1902419  58.79  0.001265823    2.221    0.550
        53 -11.1990    170.3593     97.8373   4.8539141568e+01   2.8559295895e+01    0.3550198    0.2954132  24.14   0.00155611    1.469    0.319
        54 -11.7816    138.7609     97.9100   5.5519257449e+01   3.5453237337e+01    0.5920272    0.2886631  35.67            0    2.542    0.607
        55 -10.3801    144.1894     98.1749   5.4286266068e+01   3.4216169638e+01    0.2262124    0.2086527  24.22  0.001217135    1.150    0.130
        56 -13.6505    106.6106     90.9962   6.2258468168e+01   4.3635986609e+01     1.022145    0.6665519 -59.31  0.004414184    1.973    0.493
        57 -13.0927     79.5135     60.2261   6.1252085193e+01   5.4564818852e+01    0.7641307    0.6512352  54.97  0.004377406    1.408    0.290
        58 -13.4216     97.0039     69.9464   5.8785890473e+01   4.9528859639e+01     1.378627     0.815284  24.18  0.005898407    2.138    0.532
        59 -11.5364     93.9621     60.7840   5.6766197778e+01   5.1677481799e+01     0.550295    0.3330392 -55.96  0.002090373    2.440    0.590
        60 -11.5053     88.4651     55.2739   5.6637981760e+01   5.3643236227e+01    0.4144716    0.2092401  40.89  0.001191906    1.826    0.452
        61 -12.3566     98.4526     79.8485   6.1414921460e+01   4.7443194246e+01    0.7207522     0.337061 -30.44  0.002413227    2.753    0.637
        62 -12.0755    104.1027     75.2344   5.8305323557e+01   4.7148284016e+01    0.4390389    0.3113438  11.11 0.0004614019    1.812    0.448
        63 -11.5475     59.9504     96.9470   7.9628160713e+01   5.0479758805e+01    0.2602241    0.2161064 -35.98 0.0003132008    1.109    0.099
        64 -12.4760     61.6788     92.3819   7.7739021576e+01   5.1256100144e+01    0.4721662    0.2610745 -53.41  0.001194417    1.858    0.462
        65 -10.6202    151.1754     96.3478   5.2200961632e+01   3.3036837308e+01    0.2081818    0.1927313 -23.88  0.001133812    1.144    0.126
        66 -10.1973    158.2455     95.4174   5.0417193198e+01   3.1658139776e+01    0.2779584    0.1383293  46.73 0.0009427298    2.054    0.513
        67  -9.9170     68.8056     94.8575   7.5827173467e+01   4.9641892144e+01    0.1899479    0.1713552  49.93 0.0004553783    1.314    0.239
        68 -10.6785     74.0211     93.9968   7.3728092232e+01   4.9003384867e+01    0.2156707    0.1848358  76.67 0.0004216846    1.606    0.377
        69 -11.4998    193.2132     93.0342   4.3253457587e+01   2.4560357968e+01    0.2406267     0.199093  64.20  0.001052281    1.264    0.209
        70 -11.5230     98.9557     92.5099   6.5019345393e+01   4.4847053955e+01    0.3545654    0.2465877  43.53  0.001174451    1.450    0.310
        71 -11.7274     94.6399     89.1143   6.5384660605e+01   4.6372911229e+01    0.4713926    0.3201828  34.07  0.002228909    1.458    0.314
        72 -11.5754     10.5491     92.7449   9.7811015804e+01   5.6429932289e+01    0.2966463    0.1320729  29.63  0.001360619    2.549    0.608
        73 -11.9363    175.3327     90.0914   4.5690567327e+01   2.8889411303e+01    0.3049159     0.224096  53.10 0.0006163947    1.397    0.284
        74 -12.7287    178.2307     84.9669   4.3922011442e+01   2.9154955084e+01     1.157344    0.5395091 -54.55  0.004552285    2.524    0.604
        75 -12.3794    187.8054     90.1824   4.3500629231e+01   2.6194938229e+01    0.3708478    0.2817436  38.43  0.001352679    1.591    0.371
        76 -11.9998    185.4382     86.6369   4.3070650021e+01   2.7312654265e+01    0.3080334    0.2669648 -77.89 0.0006828962    1.135    0.119
        77 -12.6128     52.9627     90.3637   8.0468707602e+01   5.2906659965e+01    0.4238578    0.3586586 -78.68  0.001575781    1.580    0.367
        78 -12.1301     52.9836     86.0721   7.9261479143e+01   5.3844136583e+01    0.3627894    0.1926439  30.21 0.0002945158    1.913    0.477
        79 -12.0201     40.0055     90.1066   8.5456769759e+01   5.4528527023e+01    0.2630776    0.2327189 -29.50 0.0002755527    1.045    0.043
        80 -11.8362     38.6538     85.9899   8.4915077887e+01   5.5597598570e+01     0.342371    0.2793484  -7.93 0.0006946287    1.165    0.142
        81 -11.6308    128.0514     89.4032   5.5875715997e+01   3.9435529144e+01    0.2799669    0.2202652 -49.62 0.0006013555    1.331    0.249
        82 -12.1303    115.9423     89.0864   5.9026325039e+01   4.2087084126e+01    0.4316396    0.2787547 -55.98 0.0002769874    1.862    0.463
        83 -12.3179    113.8884     80.4588   5.7084914427e+01   4.4153655201e+01    0.5365835     0.272197 -32.59  0.001888895    2.266    0.559
        84 -10.0260    162.0284     88.7095   4.7920760871e+01   3.2056970718e+01    0.2023301     0.177143  61.22 0.0003555882    1.142    0.124
        85 -12.2430    162.1887     83.8570   4.6651233350e+01   3.2881470555e+01    0.4792126    0.3885192  53.62  0.001737282    1.234    0.190
        86 -13.1251     83.0605    248.2068   9.9121794476e+01   1.0060918582e+01    0.7295472     0.364904  19.99  0.003142901    2.534    0.605
        87 -13.7850    169.6053     79.5025   4.4136516540e+01   3.1980153262e+01     1.508428     0.990741 -20.26  0.006918445    2.159    0.537
        88 -11.0979    160.2286     50.8586   3.8509300346e+01   3.8476156587e+01    0.3798277      0.31908 -86.21  0.001393699    1.168    0.143
        89 -11.9661    125.6658     56.7031   4.6991513067e+01   4.5503294929e+01    0.9524927    0.6231968 -52.43  0.004702508    1.808    0.447
        90 -12.1233    123.8368     68.8904   5.1045363611e+01   4.4011283310e+01    0.6321775    0.3637638 -60.46   0.00141422    2.680    0.627
        91 -12.0742     94.6109    247.3621   9.6414121573e+01   8.6588169500e+00    0.3128264    0.2255777  56.78  0.001100355    1.442    0.307
        92 -12.7971    162.8179     67.4555   4.2329608400e+01   3.5454761451e+01    0.6040779    0.5544114   4.68 0.0007510916    1.330    0.248
        93 -13.0786    162.3932     59.3847   4.0333956095e+01   3.6774190557e+01     1.425227    0.7073417  80.48 0.0005858652    3.613    0.723
        94 -13.3012    117.0283     62.8974   5.0967112702e+01   4.6475102914e+01    0.8304131    0.5423854 -26.37   0.00403469    1.763    0.433
        95 -11.2592    115.3142     56.5631   4.9458856240e+01   4.7820993850e+01    0.3721914    0.2831957  10.39  0.001043376    1.620    0.383
        96 -12.8261    154.3267     64.5589   4.3157978376e+01   3.7825018539e+01      1.19014    0.4995623  45.83  0.004063304    2.572    0.611
        97 -12.4198    152.5807     59.0209   4.2015254681e+01   3.9055557343e+01    0.8993682    0.6331358  48.56  0.002862483    1.414    0.293
        98 -11.7158    173.8784     56.5228   3.7721127816e+01   3.4608200682e+01    0.4252479    0.2766895 -38.42  0.001086849    1.597    0.374
        99 -12.1945    168.7010     55.3306   3.8248943188e+01   3.5937466161e+01    0.5474752    0.3448811  89.96  0.001393262    1.973    0.493
       100 -10.8379    206.1084     87.8950   4.0080196064e+01   2.2795588529e+01    0.2618072    0.1893719  -9.24  0.001281688    2.312    0.568
       101 -11.8050    149.2199     85.3887   4.9750071697e+01   3.5503303343e+01     0.546909    0.3644196  68.11   0.00222316    1.761    0.432
       102 -11.6822    138.6248     87.6437   5.2774918246e+01   3.7447704678e+01     0.329593    0.2740448 -64.33  0.001709522    1.334    0.251
       103 -11.7660    139.7174     80.3363   5.0513082507e+01   3.8525120963e+01    0.3982245      0.30312 -45.80 0.0004619378    1.351    0.260
       104 -13.1015     66.5569     82.7387   7.3134158372e+01   5.2582614876e+01    0.9752151    0.6667457  66.00  0.003729609    2.720    0.632
       105 -13.5651     53.8522     72.3398   7.4808948930e+01   5.6568087299e+01    0.7925409    0.5490777 -42.40  0.001169711    1.407    0.289
       106 -11.9795     61.4543     71.3786   7.1528199418e+01   5.5636016070e+01    0.3808365    0.2658161  11.19  0.000914222    1.493    0.330
       107 -13.8315     58.3016    244.3011   1.0425293758e+02   1.4092845066e+01    0.7914283    0.4598232  57.74  0.004116069    1.706    0.414
       108 -13.5159     49.9351    233.9240   1.0515322522e+02   1.7394198019e+01    0.6740507    0.3552228  43.46  0.003390118    1.693    0.409
       109 -13.3495    178.0857    237.1243   7.6096337213e+01  -1.3569759593e+00    0.6490178    0.4048626 -50.49  0.003341108    1.896    0.472
       110 -12.3525     63.3336     45.0043   6.1656275201e+01   5.9835155866e+01    0.6049987    0.5623097  84.77  0.002593636    1.626    0.385
       111 -11.0862    227.0994    242.2307   6.7094996020e+01  -8.5021138510e+00    0.2020578    0.1583271  30.06  0.001232687    1.578    0.366
       112 -11.7013    144.1693    242.0529   8.4379817090e+01   2.5966786795e+00    0.2068733    0.1636098  82.58  0.001094269    1.983    0.496
       113 -13.3112     87.4217    239.2086   9.7097380174e+01   1.1372920405e+01    0.5155759    0.3964319  17.28  0.002892363    1.410    0.291
       114 -13.3594    109.9615    248.9903   9.3127073258e+01   6.1744535138e+00      1.13347    0.4092259  47.52   0.00410161    3.289    0.696
       115 -10.8657    219.6005    240.2749   6.8183982455e+01  -7.3136894140e+00    0.2517238    0.2157448   5.83  0.001710012    1.252    0.202
       116 -11.2088     15.7951    238.4320   1.1291274402e+02   2.0108067544e+01    0.2237622    0.1501978 -83.14   0.00067112    1.365    0.267
       117 -12.2071     86.9088     30.1218   4.8307079766e+01   5.7334783140e+01    0.7172801    0.4675511  75.73  0.002406121    2.487    0.598
       118 -12.4513     11.1317    248.7548   1.1447733134e+02   1.8358120410e+01    0.6095966    0.2960188 -66.01   0.00336669    2.065    0.516
       119 -10.7447    151.0108    234.4986   8.1656348938e+01   3.0568363067e+00    0.2075125    0.1247054  30.12 0.0004260713    1.528    0.345
       120 -12.9919     60.0198     36.5666   5.9708144960e+01   6.1600267807e+01    0.7707645    0.4872883  29.07   0.00293073    1.409    0.290
       121 -11.6901    236.6510     86.4206   3.5705808705e+01   1.7189299011e+01    0.4509529    0.2409448  63.98  0.001651556    2.158    0.537
       122 -12.8980    193.5327     84.4403   4.1232113140e+01   2.5968417032e+01     0.703743    0.4293569 -87.47  0.002646902    2.475    0.596
       123 -11.3113    165.8762    234.8859   7.8386605883e+01   7.9828310925e-01    0.2231388    0.1723208  -5.59   0.00125373    1.256    0.204
       124 -13.7979    194.8676     77.7003   3.9486094529e+01   2.6798692217e+01      1.30241    0.6444939  79.36  0.004773424    3.625    0.724
       125 -12.6701    172.4757     45.9020   3.5339519565e+01   3.6382053733e+01    0.6546068    0.5110702  37.39  0.002507654    1.610    0.379
       126 -10.1303     16.3122    227.3425   1.1206259192e+02   2.2524313395e+01    0.1195548   0.08799094 -46.65  0.000704638    1.702    0.412
       127 -13.3560    183.3879     64.1172   3.8080002545e+01   3.1391160088e+01     1.191062     0.468997 -39.67  0.004980301    2.463    0.594
       128 -11.3666    165.0215     38.7234   3.4665962747e+01   3.8972432807e+01    0.3540891    0.2595344 -51.89 0.0004128946    1.393    0.282
       129 -11.7041    148.5174     81.0840   4.8753882477e+01   3.6423237081e+01     0.462133     0.351784 -66.94  0.001563503    1.523    0.344
       130 -10.9478     33.3656     85.8460   8.7020389912e+01   5.6182007359e+01    0.2148805    0.1795122  22.04 0.0003377102    1.309    0.236
       131 -12.5094    210.5943     82.0609   3.8169038172e+01   2.2855999472e+01    0.4520677    0.2486144 -49.77  0.001224639    1.643    0.391
       132 -13.2827    217.1230     76.7908   3.6175348204e+01   2.2400397334e+01    0.5379351     0.352944  42.64  0.002429239    2.072    0.517
       133 -13.5295      6.9320     68.5142   9.3950401686e+01   6.2060968493e+01    0.9853303    0.4908136 -34.41  0.002485228    1.706    0.414
       134  -9.3822    242.2678     84.2691   3.4630999442e+01   1.6525125712e+01    0.1040741    0.0927025 -23.03            0    1.470    0.320
       135 -12.3770     53.3330     55.5844   6.9429510826e+01   5.9737553279e+01    0.9472947    0.5507042   2.54  0.004262851    2.333    0.571
       136 -10.0946     81.8079     83.0714   6.7806778077e+01   4.9961387942e+01    0.2150036    0.2047752  58.56 0.0009746239    1.257    0.205
       137 -11.1652     19.2497     81.0925   9.1677919345e+01   5.8490492085e+01     0.230505     0.184672  15.90 0.0006256111    1.361    0.265
       138 -10.4837    232.1310     79.8748   3.4949214661e+01   1.9047768204e+01    0.1930349    0.1439248 -66.25 0.0004464868    1.214    0.176
       139 -12.4193     87.3927     73.8712   6.3077504694e+01   5.0702532438e+01    0.6078991    0.4363893   7.62 0.0006033081    1.653    0.395
       140 -11.3274     80.3382     77.4524   6.6579512085e+01   5.1325647463e+01    0.3469527    0.2747986 -77.93 0.0009702219    1.974    0.493
       141 -12.1465     73.4955     76.0212   6.8535240618e+01   5.2793379752e+01    0.4930948    0.2504202  39.12  0.001385945    1.951    0.487
       142 -11.7931     67.2335     74.2492   7.0260771739e+01   5.4172540515e+01    0.4713426    0.1848653  33.43  0.001176603    2.556    0.609
       143 -11.3968     23.7271     77.9646   8.8990517010e+01   5.8812872448e+01    0.2127165    0.1759744 -26.46 0.0005801362    1.026    0.025
       144 -11.7205     20.1528     75.8503   8.9975691926e+01   5.9567589392e+01    0.2711923    0.2035502 -10.28 0.0003588336    1.263    0.208
       145 -10.4895    154.8905     76.9691   4.6326783646e+01   3.5697278100e+01     0.473097    0.2204972  36.02    0.0016291    3.441    0.709
       146 -12.7460    229.9875     72.7619   3.3784057018e+01   2.0543438251e+01    0.6206062    0.2383924 -40.49  0.002539182    2.320    0.569
       147  -9.3395    236.3831     75.2446   3.3546732023e+01   1.8977636364e+01    0.1065066   0.09486599  30.01 0.0006939766    1.648    0.393
       148 -10.4994    152.0721     71.9435   4.5565872706e+01   3.7166174559e+01    0.2049618    0.1983058  72.07 0.0003317837    1.038    0.036
       149 -10.6751     78.3394     71.4530   6.5367623212e+01   5.2812141067e+01    0.2568812    0.2194814 -77.42 0.0007844404    1.696    0.410
       150  -9.9760    240.3394     70.9770   3.2290343157e+01   1.8899315585e+01    0.1726126    0.1251767 -53.09 0.0003623196    1.135    0.119
       151 -12.0259    160.9939     39.3173   3.5423977326e+01   3.9808778268e+01    0.4793288    0.3134077 -38.57  0.002366159    1.634    0.388
       152 -11.5742    159.9239    219.5876   7.7141160630e+01   4.6784759399e+00    0.2409993    0.2130841 -25.98 0.0003018007    1.118    0.106
       153 -10.1409    243.2501     65.5043   3.0951050961e+01   1.9177616243e+01    0.2776351    0.1114549  63.90  0.001362913    2.731    0.634
       154  -9.3597    230.3698    123.7762   4.4040167406e+01   1.1963431587e+01    0.1231808    0.0958961 -80.04 0.0004591237    1.588    0.370
       155 -11.5322    133.6399     52.2064   4.3902357450e+01   4.4348647829e+01     0.692643    0.3548157  70.31  0.002825565    2.530    0.605
       156 -11.9121    133.6279     46.7606   4.2329613334e+01   4.5093451274e+01    0.4394937    0.3492219 -25.36 0.0005851258    1.444    0.308
       157 -10.8117    128.8115     47.5953   4.3585583296e+01   4.6074569320e+01    0.2887739    0.2256229  74.67  0.001052157    1.345    0.256
       158 -11.7979    124.2478     43.5941   4.3380883161e+01   4.7630411735e+01    0.6279512     0.340594  56.70  0.003023424    1.653    0.395
       159 -11.6298    103.8439     60.7702   5.3854153816e+01   4.9643874470e+01    0.4336561    0.2069528  45.80 0.0009843209    1.931    0.482
       160  -9.8984    162.6714    123.5337   5.6434944622e+01   2.5089042051e+01     0.204846    0.1477857  59.53 0.0006568685    1.594    0.373
       161 -12.5833    221.6374     54.8174   3.1123046188e+01   2.4770699282e+01    0.5298345    0.3308001  89.40  0.003034849    1.691    0.409
       162 -12.0194    100.7527     53.6203   5.2418268694e+01   5.1386127737e+01    0.6000527    0.2602195  41.15  0.001514943    2.221    0.550
       163 -10.1665    238.3591     52.3729   2.8957485228e+01   2.1919678988e+01    0.2246966     0.208923  33.10  0.001631923    1.643    0.391
       164  -9.9934    111.1702     52.4608   4.9233663983e+01   4.9325879867e+01    0.2056672    0.1233035  48.55 0.0009943673    1.507    0.337
       165 -10.8614     99.8482     46.5687   5.0344126697e+01   5.2580343432e+01    0.3287961    0.2527842 -61.29  0.001780591    1.767    0.434
       166 -12.5303    207.7392     43.1149   3.0232674199e+01   2.9150959497e+01    0.5371901    0.2794511 -51.97  0.002403157    1.757    0.431
       167 -11.4508     41.1529     39.6431   6.8707922038e+01   6.4070824630e+01    0.3945113    0.2164313  32.18  0.002101413    1.703    0.413
       168 -12.3588    231.3640     62.6755   3.1638789017e+01   2.1778350130e+01    0.3823119    0.2136784 -68.16  0.001869026    1.912    0.477
       169 -10.4648     35.7065     42.8269   7.2391703335e+01   6.4287760482e+01    0.2318159    0.1946167  41.77  0.001063355    1.642    0.391
       170 -10.4943    109.5688     38.6839   4.5232458800e+01   5.1512446974e+01     0.227238    0.2040406   9.12 0.0007192881    1.198    0.165
       171 -10.7035    124.7207     37.4820   4.1437033713e+01   4.8285348735e+01    0.3845936    0.2504405  54.56    0.0020745    1.343    0.256
       172 -12.3835     26.5682     35.9678   7.4084943836e+01   6.6478508114e+01    0.4063538    0.2397423   9.48   0.00228217    1.630    0.387
       173 -11.2695    131.8646     34.4215   3.9097942470e+01   4.7029684876e+01    0.4416918    0.3308002  64.39  0.001530811    1.194    0.162
       174  -9.3916    250.2596     69.3096   3.0962466627e+01   1.7384423734e+01    0.1009704   0.08808929 -28.76 0.0001455484    1.527    0.345
       175  -9.6534    122.5178     31.5294   4.0092713035e+01   4.9474144145e+01    0.1971383    0.1283415  -7.70 0.0009073196    2.148    0.534
       176  -9.9234    111.5302     32.5411   4.2793405457e+01   5.1809856053e+01     0.132409    0.1124216  45.50 0.0001282412    1.049    0.047
       177  -9.9553    139.2957     29.6136   3.6371561994e+01   4.5884303234e+01    0.3184061    0.1331434  54.44  0.001438449    2.047    0.511
       178 -10.2674     29.2782     29.7614   7.0254690594e+01   6.7095872618e+01     0.199389    0.1274348 -35.98  0.000634677    1.602    0.376
       179 -10.0913    102.8542     22.7041   4.1580381012e+01   5.4764345092e+01     0.235395    0.1670544   1.32   0.00124495    1.753    0.430
       180 -11.1369    104.7136     28.3795   4.3031786902e+01   5.3766771286e+01    0.3338166    0.2231353  60.57  0.001347548    1.390    0.281
       181  -9.6637    100.3371     27.6997   4.3868474811e+01   5.4786481295e+01    0.1337478     0.112802  44.07 0.0002040961    1.012    0.012
       182 -10.5247    205.9392     32.5793   2.8228909787e+01   3.0847904648e+01    0.2070119    0.1478176 -57.41 0.0003617227    1.254    0.202
       183  -9.5882    250.1122    117.8329   4.0126898433e+01   9.7179428285e+00    0.1625147    0.1349852 -27.68 0.0006059083    1.319    0.242
       184  -9.5053    114.0739     28.3306   4.0883892654e+01   5.1714301405e+01    0.3134325    0.1037292  58.02  0.001239637    2.565    0.610
       185  -9.2557    207.5174     27.1004   2.6947618633e+01   3.1175751216e+01    0.1489383    0.1040475 -47.94 -9.65874e-05    1.375    0.273
       186 -10.7507    147.3558     25.6586   3.3967119227e+01   4.4481103573e+01    0.3578516    0.2635077  16.19  0.002044873    1.946    0.486
       187  -9.8804    175.4805     24.4941   2.9821134490e+01   3.8298562019e+01    0.3981211    0.1156778 -48.34  0.001531057    3.699    0.730
       188  -9.6973    154.6241     26.2276   3.3019953374e+01   4.2772368837e+01    0.1524715     0.123555 -14.82 0.0009379877    1.602    0.376
       189 -10.2520    112.1161     24.2560   4.0012143405e+01   5.2577000340e+01    0.2576952    0.1541475  40.42  0.001367002    1.625    0.385
       190 -13.8765    192.0319     69.2004   3.7968522219e+01   2.8745951021e+01    0.9771895    0.6323917 -76.64  0.004921159    1.841    0.457
       191  -9.1458    156.6991    118.7042   5.6610389318e+01   2.7353042977e+01    0.1500909    0.1207286  -1.73 0.0002903231    1.575    0.365
       192 -10.2120     97.7279     21.8585   4.2518586260e+01   5.5953243995e+01    0.2609519    0.1789206 -23.57  0.001525725    1.688    0.407
       193  -9.7654    181.9647     22.0072   2.8497577156e+01   3.7152101447e+01    0.1786983    0.1346984  44.70 0.0007272411    1.665    0.399
       194 -10.8752    118.3237     21.9671   3.8009987687e+01   5.1427082340e+01    0.3193317    0.1578052  56.74  0.001594535    1.667    0.400
       195  -9.6622    204.0134    116.3331   4.6667031944e+01   1.8151605246e+01    0.2151882    0.1153951  74.84    0.0007049    4.317    0.768
       196 -10.3615    181.9225    115.2007   5.0432786137e+01   2.2787893741e+01    0.2420128    0.2137647 -25.89  0.001323801    1.201    0.167
       197 -10.3168    201.8540     20.0819   2.6046957186e+01   3.3139450324e+01    0.1950438    0.1394883  85.35  0.000710025    1.192    0.161
       198 -10.4094    139.9973     17.4540   3.2885914996e+01   4.6981901001e+01       0.2271    0.1527445 -57.85  0.001284064    1.691    0.409
       199  -9.7383    195.6486     16.7278   2.5935748819e+01   3.4796377604e+01    0.1431572   0.09510504 -51.31 0.0003721109    1.428    0.300
       200  -9.9840    188.3984     15.7979   2.6444718222e+01   3.6427796238e+01    0.1318829    0.1145965 -18.00 0.0004637393    1.596    0.374
       201  -9.4725     94.6502     16.6888   4.1478340604e+01   5.7106862671e+01    0.1348737   0.07843009  34.44 0.0007045342    1.718    0.418
       202  -9.2694    212.3487     14.8404   2.4076082058e+01   3.1571669409e+01    0.1227719    0.1016827 -40.52 0.0002805374    1.450    0.311
       203 -11.9700    131.7053    111.5293   6.0913310260e+01   3.4159424552e+01    0.4667332    0.2881061  44.46  0.001359756    1.637    0.389
       204  -9.9152    102.8441     14.8676   3.8962874635e+01   5.5511742732e+01    0.1679508    0.1371894  42.32 0.0002929616    1.104    0.094
       205 -10.2680    216.6735    108.6409   4.2966252408e+01   1.7137523408e+01    0.3003911     0.146775 -41.21 0.0009755313    1.820    0.451
       206  -9.9268    199.3333    110.4104   4.6154595901e+01   2.0173608769e+01    0.2508837    0.1662249  81.45 0.0007558864    2.218    0.549
       207 -10.4783     29.9365    106.7076   9.3216437700e+01   5.1623529661e+01    0.1847549    0.1659713 -23.20 0.0003763995    1.096    0.088
       208 -10.7861    135.1549    104.8727   5.8272075788e+01   3.4827489691e+01    0.3016425    0.2409288  12.65  0.001137507    1.523    0.343
       209 -10.2530    214.1386    102.7460   4.2095657683e+01   1.8661070875e+01    0.3151981    0.2186935  -7.32  0.001305865    2.638    0.621
       210 -10.3180    218.4436    100.3651   4.0953673202e+01   1.8253346437e+01    0.2308592    0.2007425  -9.88 0.0005806301    1.496    0.332
       211 -10.8886    165.4231    103.2914   5.0887962788e+01   2.8592743433e+01    0.3800847    0.2339967 -49.02   0.00124148    1.608    0.378
       212 -10.3134    144.5466    103.1318   5.5503151466e+01   3.3156126064e+01    0.3088105    0.1995589  30.33 0.0009074066    1.901    0.474
       213 -11.3836     69.8216    101.9397   7.7400198789e+01   4.7890217832e+01    0.2365763    0.2084458  10.49 0.0002959317    1.125    0.111
       214 -12.2815     49.9728     95.3809   8.2956642026e+01   5.2159569122e+01    0.3991091    0.2745035  63.72  0.001405634    2.402    0.584
       215 -11.0565     50.7510    101.9976   8.4349561190e+01   5.0527002128e+01     0.208479    0.1870634  -3.59  0.000257891    1.103    0.093
       216 -11.9136     53.9099     99.4516   8.2528403171e+01   5.0720908360e+01    0.3322096    0.2486011 -29.64 0.0003656957    1.272    0.214
       217  -9.2628    234.2653    101.6185   3.9023420543e+01   1.5130785463e+01    0.1350581   0.08401981 -62.38  0.000698535    1.686    0.407
       218 -13.0221    124.7699    100.5184   5.9811861405e+01   3.7935041119e+01    0.8014551    0.3293123  38.69   0.00276744    2.653    0.623
