#   1 NUMBER                 Running object number                                     
#   2 MAG_AUTO               Kron-like elliptical aperture magnitude                    [mag]
#   3 X_IMAGE                Object position along x                                    [pixel]
#   4 Y_IMAGE                Object position along y                                    [pixel]
#   5 X_WORLD                Barycenter position along world x axis                     [deg]
#   6 Y_WORLD                Barycenter position along world y axis                     [deg]
#   7 A_WORLD                Profile RMS along major axis (world units)                 [deg]
#   8 B_WORLD                Profile RMS along minor axis (world units)                 [deg]
#   9 THETA_WORLD            Position angle (CCW/world-x)                               [deg]
#  10 FWHM_WORLD             FWHM assuming a gaussian core                              [deg]
#  11 ELONGATION             A_IMAGE/B_IMAGE                                           
#  12 ELLIPTICITY            1 - B_IMAGE/A_IMAGE                                       
         1 -12.0006     26.3559     56.5942   9.4352365687e+01   6.2995992080e+01      1.13659    0.7298684   5.18  0.005486543    1.679    0.405
         2 -11.6667     60.1411     46.4855   7.6365892159e+01   6.0653378721e+01     1.304738    0.7170009 -30.04  0.006337116    1.812    0.448
         3 -11.5380     61.2115     36.5557   7.1982463732e+01   6.2061802583e+01    0.8858814    0.5494375   1.02  0.003094537    2.005    0.501
         4 -13.1045     42.5190     45.5794   8.3354918801e+01   6.3322849169e+01    0.7680498    0.5820746  49.12  0.000651299    1.895    0.472
         5 -11.5453     49.0617     30.3118   7.4302095875e+01   6.4902492132e+01    0.8276488    0.4011759  41.74  0.004047145    2.206    0.547
         6 -12.6265    125.2489     28.0415   4.9852701242e+01   4.9855966704e+01     1.419303     0.693576  66.64  0.006101475    2.140    0.533
         7 -11.2023    154.8703     23.2944   4.2995734215e+01   4.3222493825e+01     2.098417     0.738961  42.99  0.007128086    3.845    0.740
         8 -11.9138    136.8514     22.7493   4.5836413326e+01   4.7657415060e+01     1.128098    0.5907548  60.34  0.005363341    1.667    0.400
         9 -12.2157    130.5707     14.7478   4.4357294264e+01   4.9965757329e+01     2.153702    0.7934271  69.94  0.008159675    2.885    0.653
        10 -11.5902    164.9296     18.0510   4.0038186421e+01   4.1329625553e+01    0.6504346    0.3722736  25.84  0.002868299    2.858    0.650
        11 -12.8093    116.4211     41.8585   5.6644362633e+01   5.0197859122e+01    0.9716779    0.7263566 -81.06  0.004807531    1.924    0.480
        12 -12.5979    119.5208     37.8629   5.4505423714e+01   5.0011398276e+01    0.8240381    0.5899832 -82.86  0.002648498    2.041    0.510
        13 -12.2637    159.8239     29.9221   4.4168208668e+01   4.1270366465e+01    0.4476298    0.4365225  -7.08  0.001023819    1.171    0.146
        14 -11.3399    145.8853     47.4510   5.1912645198e+01   4.2434046638e+01    0.9924726    0.4137954 -23.89  0.003533272    3.230    0.690
        15 -10.5885     78.0810     34.3614   6.4949201678e+01   5.9357490083e+01     1.087617    0.3205091  37.87  0.003556283    3.897    0.743
        16  -8.9867      8.3988     32.4405   9.4865382629e+01   6.9063542432e+01     1.117909    0.5641732 -48.83  0.006367839    1.684    0.406
        17 -11.7977     27.1209     28.0511   8.3471401060e+01   6.8109209872e+01    0.5405452    0.4125112   4.84  0.002302503    1.172    0.147
        18 -12.1363     48.5523     12.9324   6.6530562342e+01   6.7263336956e+01    0.5874209    0.2937319  42.62  0.001551693    1.906    0.475
        19 -11.9200     19.9974     21.6095   8.4292600812e+01   6.9881514633e+01    0.6215166    0.2469942 -38.67  0.002622489    2.175    0.540
        20 -12.6539     16.8653     12.7511   8.1823647722e+01   7.1522154813e+01    0.7490578    0.4558014 -16.84  0.003474836    1.430    0.301
        21 -12.1021     22.9683     11.5078   7.7903861390e+01   7.1019603749e+01    0.5239372    0.3237114  -5.44  0.002323703    1.516    0.340
        22 -12.1009     36.1904     17.7288   7.4352183972e+01   6.8508730218e+01    0.6628783    0.4655643 -35.46  0.004192438    1.558    0.358
        23 -10.7619    198.3176     29.0632   3.8805442954e+01   3.2145521017e+01    0.3922448    0.3333838  75.32  0.001784596    1.138    0.121
        24 -10.8485    178.7940     21.1547   3.9099277418e+01   3.7660359799e+01     0.543107    0.2554198  49.18  0.001751687    2.315    0.568
        25 -10.5949    213.8998     24.3392   3.6058073478e+01   2.9153914019e+01    0.5274825    0.3571514  18.08  0.002639128    2.787    0.641
        26  -9.0699     94.2424     12.6031   5.1335268483e+01   5.8516066951e+01    0.2294703    0.1557388 -15.50  0.001295011    1.618    0.382
        27 -11.1832     87.2636      7.6991   5.1149923148e+01   6.0455596921e+01    0.5318472    0.3282433  62.22  0.002141041    1.631    0.387
        28 -11.1451     90.9421     21.3617   5.5718564942e+01   5.8344164922e+01    0.5645023    0.3409925 -19.38  0.002165637    1.806    0.446
        29 -11.2185     86.1758     14.4374   5.4238461078e+01   6.0064580203e+01    0.7766929    0.4614253  18.78   0.00354154    1.935    0.483
        30 -11.9114     68.1959     18.1371   6.1466958392e+01   6.3249365353e+01    0.5226043    0.4028888  30.17  0.001926386    1.113    0.101
        31 -11.3807    234.3595      6.5167   3.0546305632e+01   2.6724350506e+01    0.4676343    0.3375576  64.15  0.003076926    1.543    0.352
        32 -10.7831    241.9095      3.6759   2.9483570841e+01   2.5479028081e+01    0.2746803    0.1774204  82.32   0.00122402    1.417    0.294
        33 -12.0042    246.4378      7.7226   2.9983289036e+01   2.4142345835e+01     0.928938    0.5081471 -15.87  0.004584358    3.411    0.707
        34 -11.8610    238.1056     15.7957   3.2163890494e+01   2.4939921328e+01    0.5494768    0.3559031  71.68  0.003308007    1.536    0.349
        35 -11.2586    227.2009     15.4132   3.2923638920e+01   2.7267591298e+01    0.5338439    0.3226628 -72.98  0.001954958    1.529    0.346
        36 -10.3852    211.2753     18.0375   3.4868520708e+01   3.0457170840e+01    0.3216875    0.1899561 -33.22  0.001032697    1.766    0.434
        37  -9.6032    198.0699     18.0161   3.6145153612e+01   3.3462710515e+01    0.3776109    0.2183455  33.88  0.001740719    2.909    0.656
        38 -11.5343    192.3070      9.5086   3.4661335793e+01   3.5683549799e+01    0.8398671    0.4836783 -10.48  0.004090401    2.722    0.633
        39 -12.2134    104.8919     12.9725   4.8914357354e+01   5.6119266135e+01    0.4608651     0.380209  -9.42  0.001730168    1.331    0.249
        40  -9.8383     99.2279     10.7976   4.9399869970e+01   5.7584327653e+01    0.4053539    0.2057984  19.93  0.001757742    2.759    0.638
        41 -12.4925    120.1451     57.4149   6.0998583782e+01   4.7047317261e+01     2.289024      1.37067 -70.49  0.007944752    3.736    0.732
        42  -9.7095      4.7363     12.5760   8.8704426481e+01   7.2659787588e+01    0.2715876    0.1693224  22.21  0.001807121    1.692    0.409
        43  -9.1692      5.3557      9.2916   8.6765917392e+01   7.3104378099e+01    0.1703622    0.0890597 -36.07 0.0005802723    1.578    0.366
        44 -11.3201    211.9155      9.4434   3.2872911105e+01   3.1236456273e+01    0.4991395    0.3306643   2.96  0.002540903    2.780    0.640
        45 -10.1359     65.5473     10.2715   5.8826304550e+01   6.4576340637e+01    0.2618248    0.1927001  44.31 0.0009660516    1.278    0.217
        46  -9.6337     62.4565      7.0870   5.8411208650e+01   6.5460775280e+01     0.331589    0.1951019  24.68  0.001840989    1.620    0.383
        47  -9.5341    168.6832      9.7878   3.7284516982e+01   4.1239843652e+01    0.3237912    0.1184657  55.83  0.001372897    2.437    0.590
        48  -9.2245    162.9516     10.0473   3.8058604206e+01   4.2593166950e+01    0.2023129    0.1363744  43.62 0.0007278407    1.630    0.387
        49  -9.4532      1.0000      8.1715   8.8878257268e+01   7.3618157793e+01    0.2149313   0.05200235 -46.92  0.000899928    3.659    0.727
        50  -9.4175     78.4682      7.5332   5.3514853797e+01   6.2301232171e+01    0.2286519    0.1483686  51.47  0.000600552    1.377    0.274
        51 -11.3353     75.0419      3.4702   5.2728603282e+01   6.3343034113e+01    0.6735418    0.3122582  47.61  0.003432968    1.748    0.428
        52 -10.8306    184.2293      4.6630   3.4261208115e+01   3.8032919924e+01    0.4328829    0.3526308 -22.33  0.002767803    1.501    0.334
        53 -11.1099    177.1031      5.8561   3.5294279328e+01   3.9600032311e+01    0.4047498    0.1961773  82.24 0.0008010844    2.006    0.501
        54  -9.7272    158.2555      2.4585   3.6511873074e+01   4.4394081005e+01    0.3557433    0.1933595  46.47  0.001809453    1.935    0.483
        55  -9.2555    153.7212      7.0226   3.8389768876e+01   4.5092046052e+01    0.1749423    0.1556707  71.98 0.0005777695    1.048    0.046
        56 -10.1385    228.3775      2.8030   3.0199527043e+01   2.8357915358e+01    0.3012305    0.2108262 -31.31  0.001748815    1.627    0.385
        57 -11.0542    218.9838      2.9946   3.0908147865e+01   3.0343660383e+01    0.3025187    0.2535171 -37.37  0.001105679    1.374    0.272
        58 -10.6832    223.6815      1.9291   3.0344688432e+01   2.9440972567e+01    0.2940935    0.1878936  75.49  0.001046315    1.440    0.305
        59 -10.1514    116.1360      2.8557   4.2915718896e+01   5.4386403588e+01    0.4464207    0.3394092  58.40  0.002739116    1.109    0.098
        60  -9.2850    108.5061      5.5252   4.5356290548e+01   5.5937376358e+01    0.2099637    0.1666074 -16.23  0.001176587    1.430    0.301
        61 -10.0390    109.7290      1.9977   4.3818572219e+01   5.5930979737e+01    0.2872741    0.2018236  47.84 0.0009371898    1.213    0.175
        62 -10.6762    105.4065      1.7551   4.4589195137e+01   5.6935000169e+01    0.3906784    0.1821272  66.34  0.001218784    1.985    0.496
        63 -10.5948     41.5809      4.4091   6.5226352946e+01   6.9303407352e+01    0.3716294    0.2022524   7.76  0.001599198    2.124    0.529
        64 -12.0317    134.1948      2.5766   3.9806343377e+01   5.0149367523e+01    0.4487073    0.2500303  71.97 0.0006109505    1.608    0.378
        65 -10.0023    143.0114      3.3006   3.8743796485e+01   4.7982675026e+01    0.3320439    0.2050294  81.20  0.001770911    1.564    0.361
        66  -8.6540     53.2536      3.6233   6.0077770853e+01   6.7443563595e+01    0.2291614     0.165709 -30.95  0.001023647    1.642    0.391
        67 -11.3400    105.9441     20.3472   5.1436721732e+01   5.5161830482e+01    0.4698723    0.4066943 -45.05  0.001962377    1.363    0.266
        68 -10.8398    207.5988      2.4938   3.1672137988e+01   3.2893383694e+01    0.2666788    0.1880149  84.28 0.0004514763    1.225    0.184
        69 -10.1301    203.5040      1.5447   3.1788352720e+01   3.3900672629e+01    0.2841024    0.1532259  64.95  0.001010061    1.725    0.420
        70  -8.5933    170.3155      3.6663   3.5453691814e+01   4.1409030926e+01    0.1337058   0.08306169 -66.94 0.0003089823    1.688    0.408
        71 -11.3454      2.6076      2.0036   8.4740637393e+01   7.4377623076e+01    0.3219982    0.1619748   8.65  0.001688847    1.973    0.493
        72 -10.1955     12.9539      1.7776   7.8336268436e+01   7.3409669884e+01    0.2656721    0.1322516  22.01  0.001230236    1.868    0.465
        73  -9.2707    151.7914      1.3499   3.6993498313e+01   4.6034709258e+01    0.2452937    0.1069475  74.14 0.0008062624    2.067    0.516
        74  -9.2059    122.6368      1.4219   4.1276713112e+01   5.2975251842e+01    0.2674876    0.1067716  65.83 0.0007146674    2.114    0.527
        75 -10.3931     82.2400      1.3126   4.9786281703e+01   6.2034968061e+01    0.2006797   0.09551676  55.15 0.0003308378    1.765    0.434
        76 -10.0726    122.1544      5.0252   4.2586200129e+01   5.2808964298e+01    0.2147167    0.1606464  64.78 0.0003231888    1.164    0.141
        77  -9.7440     69.9975    139.3168   9.8624752698e+01   3.8615410566e+01     0.197542    0.1924042 -52.85 0.0006563207    1.070    0.065
        78 -10.0957    142.9467    249.7037   9.8221016465e+01   2.9730389870e+00    0.1877723     0.140383  35.57  0.001157573    1.113    0.102
        79  -9.9380     40.0964    138.2250   1.0731574042e+02   4.2584637856e+01    0.2781408    0.2167055  35.31 0.0009490962    1.422    0.297
        80 -10.0428     79.8985    137.5311   9.5342197495e+01   3.7594009076e+01    0.3906651    0.2733844 -30.85  0.001672938    1.715    0.417
        81  -9.8081     67.1602    136.2603   9.8886500595e+01   3.9781862942e+01    0.4543485    0.2445816 -42.72  0.001916623    1.990    0.498
        82 -10.1969     46.9190    135.4619   1.0483649363e+02   4.2535203847e+01     0.487112    0.2598457 -72.31  0.001825494    1.871    0.465
        83  -9.7896    245.0020    134.7050   5.6878746355e+01   6.0047616022e+00    0.1810465    0.1640503 -31.64  0.000479827    1.082    0.075
        84 -10.5072     93.0148    131.6929   9.0216583666e+01   3.6900710044e+01    0.7032334    0.3547416 -54.81  0.002787172    1.922    0.480
        85 -10.0223     74.1588    132.5135   9.6032089059e+01   3.9715150646e+01    0.3265477    0.2175614 -27.92  0.001452102    1.921    0.479
        86  -9.9057     61.6936    131.9157   9.9709128623e+01   4.1614385808e+01    0.4465776    0.2835496 -24.26  0.001951973    2.213    0.548
        87  -9.3189     38.4454    133.3502   1.0704717103e+02   4.3979449130e+01    0.2485394    0.1724634  33.29 0.0008851347    1.599    0.375
        88 -10.0499    103.8595    130.9626   8.6892038548e+01   3.5153824873e+01    0.2391334    0.2195784  28.27  0.000260002    1.133    0.117
        89 -10.8885     10.4729    127.0930   1.1456687548e+02   4.7908334092e+01    0.6887725    0.2007909 -55.26  0.002794591    2.642    0.621
        90  -9.5078     78.7940    128.6528   9.3808827932e+01   3.9972265535e+01    0.2978287    0.1930269 -41.02 0.0006851761    1.591    0.371
        91  -9.7757     81.0000    124.9130   9.2307463989e+01   4.0549170386e+01    0.4289398    0.2922384  40.32    0.0020226    1.544    0.352
        92 -10.5899     22.7154    127.1137   1.1088037612e+02   4.6985899501e+01    0.2069213    0.1926957 -63.65 0.0003238506    1.116    0.104
        93  -9.0671    223.9910    126.9334   5.8524363863e+01   1.1193846805e+01    0.2173978    0.1603401 -62.49 0.0006100332    1.644    0.392
        94  -9.8577      2.2539    126.0520   1.1687017161e+02   4.8682335700e+01    0.2573169    0.1746882  79.49 0.0008454911    1.491    0.329
        95  -9.6974     49.5370    123.1004   1.0181729329e+02   4.5334664454e+01    0.3171192    0.2076156   6.28  0.001343246    2.043    0.510
        96 -11.2023     44.9049    119.2902   1.0257924343e+02   4.6807791011e+01    0.6172443    0.3671752  84.87  0.002601448    2.547    0.607
        97  -9.5958     53.4954    124.9439   1.0091547154e+02   4.4402871857e+01    0.3427804    0.2028606 -61.00  0.001022352    1.520    0.342
        98  -9.5660     56.4621    122.4689   9.9486566055e+01   4.4652543843e+01    0.2557936    0.2050142 -41.09 0.0007366736    1.229    0.186
        99 -10.8089     33.5422    144.3755   1.1011243427e+02   4.1708315269e+01    0.4355256    0.2729933  52.86  0.001758618    1.745    0.427
       100 -12.3016    103.9209    122.4455   8.4832450969e+01   3.7179822623e+01    0.4478047    0.4004913   4.29 0.0006939028    1.223    0.182
       101  -9.3241     18.9806    122.6047   1.1138127896e+02   4.8396452721e+01     0.166451    0.1532052 -79.07 0.0005497924    1.109    0.099
       102  -8.6588    143.3266    122.3039   7.4065609760e+01   2.9192084273e+01    0.1605405    0.1254548   0.47 0.0007033616    1.645    0.392
       103  -9.1683     71.3353    120.8707   9.4417903707e+01   4.3020317325e+01     0.211252    0.1752179 -48.63 0.0007061814    1.124    0.110
       104  -9.1423    221.2072    120.4225   5.7512586661e+01   1.2895504803e+01    0.1811217     0.138904  68.86 0.0006529053    1.629    0.386
       105 -10.5817     33.8950    118.8744   1.0606454207e+02   4.8040463155e+01    0.2214486    0.1580686 -44.46  0.000887612    1.340    0.254
       106  -8.9930    148.0123    120.2371   7.2374526643e+01   2.8622938053e+01    0.2861076    0.1738687  -9.92 0.0008943795    3.582    0.721
       107  -9.1706    185.3264    118.6803   6.3660427466e+01   2.0720609164e+01    0.1541533    0.1193516 -76.09  0.000689882    1.681    0.405
       108  -9.2418     58.4814    118.0757   9.7930774448e+01   4.5484379103e+01    0.2272066    0.1289155 -56.65  0.001024752    1.579    0.367
       109  -9.5517    113.5200    116.0954   8.0448008984e+01   3.6812065630e+01    0.2822119    0.2284193 -40.99  0.001259648    1.213    0.176
       110 -11.5120     16.9297    100.9295   1.0861645063e+02   5.3822453539e+01    0.4283631    0.3135439   4.03 0.0003524692    1.636    0.389
       111 -11.8820      7.0157     88.7885   1.1002230943e+02   5.7314811512e+01     0.615827    0.4640578  16.70  0.003919465    1.590    0.371
       112 -11.7674      9.6655     97.3813   1.1054952369e+02   5.5143637563e+01    0.8081043    0.5400349 -84.22  0.001175857    1.560    0.359
       113 -10.0455     45.7389    105.8579   9.9570992589e+01   5.0012237788e+01    0.2233455     0.179491 -41.07 0.0005687679    1.158    0.136
       114 -11.2372     51.2717     98.7853   9.6024075431e+01   5.1061132888e+01     1.458892    0.3371362 -53.62  0.004646396    3.410    0.707
       115 -12.1300     34.2788     93.6547   1.0095370095e+02   5.4116436502e+01     1.327652    0.8466744 -54.34   0.00487162    1.328    0.247
       116 -11.4719     26.9624     86.3376   1.0203866679e+02   5.6482699965e+01    0.5955338    0.5620067 -27.01  0.001166726    1.143    0.125
       117 -12.2740     42.7385     85.2521   9.5773761469e+01   5.5189741816e+01    0.9469223    0.5197251  25.93  0.002564133    2.002    0.500
       118 -11.5569     18.7360    106.0417   1.0887590773e+02   5.2462317536e+01    0.3029025     0.224713 -33.72 0.0002011903    1.388    0.280
       119 -11.8137     24.6740    113.7278   1.0818761320e+02   5.0127488725e+01     1.132385    0.4476882   9.82  0.004250816    4.020    0.751
       120 -12.3422     25.5135    107.8218   1.0688756649e+02   5.1500573165e+01     1.134255    0.6813909  -9.86  0.005593627    2.254    0.556
       121 -11.6488     22.3212     94.8414   1.0556595352e+02   5.4872336620e+01    0.5555175    0.3363314   7.35  0.002134491    2.020    0.505
       122 -11.8272     18.3525     90.2039   1.0609926129e+02   5.6260017266e+01    0.4289818    0.2533776 -61.28 0.0002493738    1.409    0.290
       123  -9.2539     79.1460    114.2665   9.0402471056e+01   4.3436585224e+01    0.2776687    0.1881208 -42.86   0.00129805    1.425    0.298
       124  -9.5524     67.0140    114.4884   9.4365943291e+01   4.5208674081e+01    0.3215384    0.2383436  71.02  0.001544243    1.787    0.440
       125  -9.7757     65.8062    110.8199   9.3912434478e+01   4.6270986028e+01    0.4237793    0.2176834  27.21  0.001771575    2.212    0.548
       126 -10.4032      6.9847    114.4653   1.1400525304e+02   5.1207909755e+01    0.2609134    0.2249993 -56.56 0.0009352905    1.114    0.102
       127 -12.6727      2.1994    111.3457   1.1510970418e+02   5.2234853729e+01    0.3730492    0.2264976 -72.28 0.0005588381    1.339    0.253
       128 -11.2928      4.1311    104.9874   1.1361492162e+02   5.3652313164e+01     0.423299    0.3493566  41.71  0.002079238    1.462    0.316
       129  -8.8229    126.6946    113.6813   7.6149787149e+01   3.4654111005e+01    0.1598314    0.1247403  -5.18  0.000702902    1.631    0.387
       130 -10.2322    107.3515    112.0007   8.1160556744e+01   3.8965930001e+01    0.3752777    0.3307582  71.60  0.001399609    1.309    0.236
       131 -10.9148    103.0180    108.6854   8.1564548004e+01   4.0561102773e+01     0.665095    0.5302382 -22.85  0.003223894    1.384    0.277
       132  -9.4503     94.0291    112.5314   8.5304744521e+01   4.1332864492e+01    0.2997557    0.2185123 -70.11  0.001360862    1.667    0.400
       133  -9.8709     48.7929    112.2959   9.9904861247e+01   4.8095314102e+01    0.2577707    0.2192163 -59.24  0.001265701    1.066    0.062
       134 -10.6614    170.4477    110.4855   6.4685097471e+01   2.5642329069e+01    0.4428886    0.3644963 -29.03  0.001389163    1.245    0.197
       135 -10.6238    175.1781    107.7877   6.2988232842e+01   2.5104575513e+01      0.36585      0.25576 -20.00 0.0008783412    1.761    0.432
       136 -10.6813    130.9123    110.6234   7.4202179402e+01   3.4427807629e+01    0.4859968    0.3503059  70.73  0.002079694    1.881    0.468
       137 -10.1297    120.4796    109.2659   7.6670392504e+01   3.6936943669e+01    0.3446248    0.2530579 -31.02  0.001346797    1.457    0.313
       138 -11.5231     79.7050    108.3667   8.8761086378e+01   4.4756803568e+01    0.6506592    0.3660752  31.19  0.001223564    1.930    0.482
       139  -8.9953     58.8650    109.3985   9.5895485223e+01   4.7559245345e+01     0.198283    0.1754839 -73.50 0.0006704681    1.184    0.155
       140 -10.0349    157.3712    106.3037   6.6490266787e+01   2.9446784085e+01    0.3313789    0.2553409   7.80  0.000924598    1.713    0.416
       141 -10.7263    143.4928    105.9907   6.9717418005e+01   3.2648698158e+01    0.3189963    0.3054512 -54.33  0.001678648    1.059    0.055
       142 -11.4446    145.4289    100.0739   6.7614893535e+01   3.3427753843e+01    0.4432311    0.3476106 -37.61 0.0003230407    1.271    0.213
       143 -11.6460     88.1335    103.9028   8.4885758493e+01   4.4384369939e+01    0.5826478    0.3893407  40.23  0.001333965    1.565    0.361
       144  -9.6989    246.3623    102.7913   4.9835075550e+01   1.1050593744e+01    0.1877778    0.1114324 -31.54 0.0007561205    1.606    0.377
       145  -9.5828     57.2268    102.5304   9.4843174635e+01   4.9424061283e+01    0.2752367    0.1862103 -55.12  0.001041205    1.350    0.259
       146  -9.3385    208.7717    101.0376   5.5035380131e+01   1.8907576888e+01    0.2106852    0.1843169 -17.71 0.0003812746    1.245    0.197
       147  -9.5764    209.6689     97.6844   5.4081172309e+01   1.9302257072e+01    0.2458528    0.2180748 -58.19  0.001389718    1.088    0.081
       148  -9.3653    120.9691    101.0211   7.4253530265e+01   3.8632247844e+01    0.2527878    0.1936911  -1.86  0.001131704    1.688    0.407
       149 -11.0305     90.0476     89.4316   8.0182800080e+01   4.7272442283e+01    0.8653702     0.444143 -28.10  0.003100328    2.786    0.641
       150 -10.1195     80.7561     98.4209   8.5795584736e+01   4.6898797731e+01    0.3325034    0.2353228  25.84 0.0009343527    1.535    0.349
       151  -9.6532     77.5394     96.5651   8.6358062672e+01   4.7849806628e+01    0.2418765    0.2094936  11.29 0.0001024736    1.215    0.177
       152 -11.1195     79.2658     93.0588   8.4798836604e+01   4.8357206254e+01    0.7434045    0.3673877  38.21    0.0030586    2.110    0.526
       153 -11.2883     78.7193     82.3481   8.1830799506e+01   5.0779535842e+01     1.069777    0.5983574 -63.04  0.004131372    2.735    0.634
       154 -10.6760     72.7308     78.2196   8.2650347383e+01   5.2639341505e+01    0.4846294    0.3059067 -47.40  0.001925424    1.539    0.350
       155  -9.4556     65.3876     98.8259   9.1100366173e+01   4.9184373285e+01    0.2463418    0.1939265 -37.03 0.0004277398    1.200    0.167
       156 -10.9409     67.7001     95.0705   8.9310008288e+01   4.9716963070e+01     0.518522    0.3092875  42.53  0.002371395    1.874    0.466
       157  -9.0280     97.9376     97.6506   8.0068670128e+01   4.4010718888e+01    0.2633318    0.1716742 -84.06 0.0009134166    3.312    0.698
       158  -9.9326     58.3360     97.5434   9.3227407026e+01   5.0456597497e+01    0.4473731    0.2300487  32.67  0.001970809    2.084    0.520
       159  -9.7184    140.8634     96.7958   6.7819184710e+01   3.5127814089e+01    0.4400461    0.2660616  20.34 0.0009569763    2.833    0.647
       160 -10.6788     42.8562     94.4474   9.8005739416e+01   5.3052649953e+01    0.3247775    0.2991937  12.57 0.0009213848    1.199    0.166
       161 -10.1756    117.6860     93.9562   7.3144839289e+01   4.0823981233e+01    0.3917699    0.2695859  34.71  0.001452549    1.529    0.346
       162 -11.0328    124.8843     93.7099   7.1082083041e+01   3.9322871001e+01    0.6194367    0.3278228  43.19  0.001706725    1.907    0.476
       163 -11.2092    120.9382     87.9948   7.0474969668e+01   4.1343919774e+01    0.7009188     0.391998 -41.53  0.002847301    1.782    0.439
       164 -10.7199    152.3279     92.2442   6.3796341048e+01   3.3385945953e+01    0.4569817    0.3058542  42.97  0.001655584    1.538    0.350
       165  -9.4698    104.0225     93.2208   7.6923759925e+01   4.3791741346e+01    0.2907258    0.2027082 -71.17  0.001222078    2.114    0.527
       166 -10.4446    104.9804     86.6648   7.4677515623e+01   4.4974337999e+01    0.5154635    0.3100267 -21.75  0.002020301    2.316    0.568
       167 -10.3561     99.1620     90.9045   7.7729865904e+01   4.5240089083e+01    0.4839913    0.2484407  36.38  0.001335649    2.054    0.513
       168  -9.8766     94.3136     90.9369   7.9260409582e+01   4.6158363949e+01    0.2159509    0.2050669 -12.79 0.0002920902    1.010    0.009
       169 -11.0310    113.7283     83.7645   7.1219827199e+01   4.3741560334e+01    0.4836281    0.3813658 -61.46  0.002345162    1.505    0.336
       170 -10.4908    109.0258     80.9411   7.1710749169e+01   4.5292740961e+01    0.3633859     0.311018 -18.07  0.001115121    1.205    0.170
       171  -8.8110    137.6007     93.7079   6.7756563586e+01   3.6487995047e+01    0.1638588    0.1210747  13.86 9.879928e-05    1.798    0.444
       172 -10.5471    183.5911     85.7419   5.5585922449e+01   2.7256889842e+01    0.7389283    0.3084054 -46.64  0.002707769    2.443    0.591
       173 -10.3214     66.4546     88.6982   8.7991676748e+01   5.1344203606e+01    0.2992959    0.2282075 -13.19 0.0007615013    1.457    0.314
       174 -10.3538    165.8284     83.7503   5.8491883304e+01   3.1788175489e+01    0.3718967    0.3275795 -73.00  0.001378908    1.207    0.172
       175 -11.1278    142.8821     84.3257   6.3739746081e+01   3.7092166960e+01    0.4460267    0.3283103  44.56 0.0008688082    1.361    0.265
       176 -10.4759     67.1090     82.1451   8.5858357836e+01   5.2686313607e+01    0.3915969    0.3307457 -27.05  0.002187732    1.102    0.093
       177 -10.0587     60.5134     83.4660   8.8643260305e+01   5.3360413091e+01    0.2979333    0.2372166 -51.04 0.0005438097    1.227    0.185
       178  -9.6957     47.7704     76.4241   9.1421256440e+01   5.6565966889e+01    0.3036936     0.217437  21.18  0.001079738    1.494    0.331
       179 -11.7187     52.8837     75.5929   8.9198413899e+01   5.6100471567e+01    0.6534465    0.4592192 -58.20  0.003425371    1.534    0.348
       180 -10.8719     58.1208     77.8659   8.7887331075e+01   5.4909835290e+01    0.3630205    0.3352101 -63.46  0.001057411    1.264    0.209
       181 -11.7495    122.8939     69.0917   6.4090557632e+01   4.4467913317e+01    0.5583637    0.5104038  24.93  0.001603666    1.086    0.079
       182 -10.1228    127.2481     82.7921   6.7207106612e+01   4.0967330006e+01    0.4298999    0.3062885 -57.30  0.001734057    1.648    0.393
       183 -10.3674    126.9749     76.8936   6.5474376436e+01   4.2138650289e+01    0.3105464    0.2706564  13.40 0.0002929711    1.238    0.192
       184  -9.6945     21.0491     80.8972   1.0308699064e+02   5.8205769585e+01    0.1949907    0.1691838 -46.79 0.0006539042    1.060    0.057
       185  -9.4848    160.3066     93.6679   6.2401946318e+01   3.1253530622e+01    0.4782191    0.2645032  72.92  0.001591997    3.275    0.695
       186 -11.4791    103.8742     75.0937   7.1391461892e+01   4.7497336785e+01    0.5889628    0.3008284 -39.11            0    1.961    0.490
       187 -10.0650    233.1614     77.7494   4.6038741081e+01   1.7631392486e+01    0.3177988    0.2308959 -35.23   0.00152588    1.317    0.241
       188 -11.5865     85.4489     73.1586   7.6631717688e+01   5.1467972962e+01    0.7847791    0.4662318  38.87  0.002795343    1.702    0.412
       189 -11.4699     76.9910     65.2833   7.6908951280e+01   5.4498567280e+01    0.8784121     0.540427 -66.15   0.00297736    3.206    0.688
       190 -11.1618     76.3847     58.9154   7.4900074892e+01   5.5777811940e+01    0.4353683    0.2812316 -50.18  0.001689028    1.808    0.447
       191 -12.0476     73.0102     48.6106   7.2319776156e+01   5.8146101426e+01      1.05122    0.9713616  82.98  0.003460114    1.529    0.346
       192 -11.6412     13.9844     74.8746   1.0453124750e+02   6.0065506613e+01    0.5157414     0.364172 -65.39  0.002296959    1.338    0.253
       193  -9.0647     13.9134     67.5237   1.0282163379e+02   6.1687798914e+01    0.5119287     0.271485   0.19  0.002629696    2.279    0.561
       194  -9.1092     15.5365     61.3683   1.0053177739e+02   6.2891779398e+01    0.1772558    0.1514589 -12.97 7.014336e-05    1.188    0.158
       195 -11.7045      1.9477     71.3505   1.0866026822e+02   6.1537470814e+01    0.7121098    0.2239351 -68.05  0.002910555    2.905    0.656
       196 -12.6727      5.8811     62.2423   1.0497738608e+02   6.3316379710e+01    0.6640444    0.4189201  -8.74  0.002951319    1.717    0.418
       197  -9.1423    170.6660     77.7072   5.5859533200e+01   3.1698127407e+01    0.1493654    0.1162836  21.89 0.0003861728    1.638    0.389
       198 -12.2920    186.3941     70.6291   5.1118906442e+01   2.9140238326e+01    0.9367473     0.588399 -42.03  0.003018686    1.532    0.347
       199  -9.3829     66.4729     74.5002   8.3745474975e+01   5.4399400383e+01    0.2725902    0.2396716 -20.13  0.001570674    1.033    0.032
       200  -8.8246     63.6595     76.2637   8.5333844962e+01   5.4456259577e+01    0.2120791    0.1356137 -49.16 0.0002741572    1.514    0.340
       201  -9.2606    114.2482     75.1396   6.8377770902e+01   4.5291948822e+01    0.3104685    0.1665304  34.56  0.001221613    2.126    0.530
       202 -11.9353     36.8700     71.6335   9.4376144200e+01   5.8831874702e+01     1.179782    0.4497029  20.63   0.00469645    3.194    0.687
       203 -11.3399     21.0520     46.7785   9.3597035389e+01   6.5399737727e+01     0.461061     0.281248 -39.24    0.0021151    1.339    0.253
       204  -9.0889    213.6728    248.6725   8.4194770851e+01  -7.1783410804e+00    0.1264677   0.07754297   2.54 0.0007050415    1.702    0.412
       205 -11.6811     27.1954     47.1815   9.0860209580e+01   6.4755255004e+01    0.7922534    0.4101364 -18.87  0.003768213    2.322    0.569
       206 -10.3318     22.5415     36.8954   8.9329404755e+01   6.7088475604e+01    0.5433697    0.3350963  50.15  0.002716137    3.122    0.680
       207  -9.8018    175.1310    247.3010   9.1406964976e+01  -1.4891140214e+00    0.2211033    0.1927461 -37.84  0.001487557    1.387    0.279
       208 -11.4011    127.3959    242.0631   1.0042388580e+02   6.6519697060e+00    0.3463354    0.3183362  43.94  0.001937857    1.089    0.081
       209 -11.3297     52.8048     49.3100   8.0397213891e+01   6.1269893715e+01     0.487269    0.3744463  51.96   0.00273313    1.830    0.453
       210  -9.2719    163.2397    243.4112   9.3222711350e+01   9.1438721805e-01    0.1833795    0.1028714  42.12  0.000948852    1.643    0.391
       211 -12.2352     58.1509     29.8893   7.0377058531e+01   6.3535215182e+01    0.4542085    0.2730158  25.70  0.001080617    1.624    0.384
       212  -9.9675     68.1168    240.3088   1.1247928426e+02   1.5531706297e+01    0.1826175    0.1458563  27.98 0.0008873753    1.445    0.308
       213 -11.1961     41.2616     57.2903   8.8087118258e+01   6.1291727282e+01    0.4312877    0.2413827  37.31  0.001256692    2.053    0.513
       214 -11.8383     44.9956     59.9122   8.7397873207e+01   6.0325478199e+01    0.8220721    0.4115489 -27.63  0.003586546    2.338    0.572
       215 -11.1570     50.7623     61.0985   8.5430113780e+01   5.9351622377e+01    0.3547034    0.2853376  36.61  0.001327756    1.430    0.301
       216 -10.5481     93.3258     76.5896   7.5157210523e+01   4.9311310792e+01    0.7391028    0.3689718  35.18  0.002624721    2.137    0.532
       217  -9.8338    153.0641     72.8836   5.8076788785e+01   3.6736943354e+01    0.4915738    0.1671344  43.79  0.001517648    3.430    0.708
       218  -9.7340    162.0838     70.8014   5.5609154369e+01   3.4921826217e+01    0.3058955    0.2347501 -62.96  0.001148938    1.449    0.310
       219  -9.0197     19.6491     71.6981   1.0146116374e+02   6.0367282966e+01    0.1823614   0.09134107 -19.72 0.0008239183    2.504    0.601
       220  -9.0743     25.7714     65.5713   9.7270150339e+01   6.1191419378e+01    0.1501897     0.119089  27.50 0.0003427993    1.468    0.319
       221  -9.3008     23.0000     68.5069   9.9244663711e+01   6.0798104887e+01    0.3264436    0.1279885 -54.95  0.001021276    2.079    0.519
       222  -8.8388     21.4857     64.9922   9.8938545186e+01   6.1673841828e+01    0.1914284    0.1050236 -52.68 0.0009504415    1.518    0.341
       223 -10.0567    172.1851     68.5896   5.3056440094e+01   3.2854081480e+01    0.3599225    0.3084612  -2.82  0.001430252    1.414    0.293
       224  -9.9131    172.0000     64.9688   5.2087308237e+01   3.3476890666e+01    0.5579687    0.3303221 -82.77  0.002108096    2.872    0.652
       225 -11.4100    219.6581     66.6317   4.5220225544e+01   2.2193144764e+01    0.5101457    0.3348215  67.00  0.002009217    1.605    0.377
       226  -9.7650    192.4104     65.7593   4.8878261601e+01   2.8495519890e+01    0.2672856    0.2011947 -72.43 0.0006800554    1.433    0.302
       227  -9.4724     53.1163     66.0197   8.6119098643e+01   5.8058164148e+01    0.2566996    0.1798328  41.79  0.001034913    1.685    0.407
       228 -10.2595    199.9958     63.8667   4.7252649871e+01   2.7023565426e+01    0.5203041    0.3108961 -88.92   0.00225626    2.303    0.566
       229  -9.6617     84.5706     61.7649   7.3074379123e+01   5.3775620580e+01    0.3231544    0.2515076 -40.73  0.001110867    1.323    0.244
       230 -11.4540     91.4398     63.2741   7.1332409339e+01   5.2187965851e+01    0.8305244    0.4067917  47.40  0.002244198    2.123    0.529
       231 -10.7655     87.9218     56.7391   7.0181993967e+01   5.4016160535e+01    0.5794692    0.2575513 -34.94  0.001678665    2.311    0.567
       232 -10.5287     91.9689     57.4996   6.9143428118e+01   5.3090468795e+01    0.3180827    0.2779056  45.89 0.0009228028    1.214    0.176
       233 -10.5190     59.6005     63.9326   8.2887632846e+01   5.7558114406e+01    0.3823352    0.2654055 -27.29  0.001052105    1.390    0.280
       234  -9.3855     57.3304     61.3115   8.2881151873e+01   5.8397970770e+01    0.2635647    0.1863614   2.13 0.0007195738    1.559    0.359
       235  -9.5077    105.7301     63.8699   6.7138586776e+01   4.9157944820e+01    0.3678394    0.2090912 -40.86  0.001618902    1.806    0.446
       236 -10.9927    105.9950     58.4824   6.5226903910e+01   5.0015831347e+01    0.5241771    0.3043353  55.94  0.001429621    1.902    0.474
       237 -11.4331    234.7805     60.9842   4.2108941300e+01   1.9814039294e+01      0.38699    0.3651902 -77.49  0.001438999    1.157    0.135
       238  -9.8340    156.9121     63.0988   5.4415094634e+01   3.7421841085e+01    0.3085555    0.1927756  49.59 0.0007306266    1.573    0.364
       239  -9.7297    160.9990     61.5479   5.3163933608e+01   3.6674714998e+01     0.289778    0.2321394  56.43  0.000793383    1.213    0.176
       240 -11.3553    156.5079     53.1588   5.1569498802e+01   3.9033040957e+01     1.048047    0.4730577 -46.73  0.004106409    2.441    0.590
       241 -11.2533    148.4485    237.6481   9.5431649473e+01   4.1651859137e+00    0.5008764    0.2591122  32.59  0.002029625    1.722    0.419
       242  -9.6175    167.6702    237.6882   9.1467841822e+01   1.1637279144e+00    0.1317907   0.09145625   4.10 0.0007042869    1.670    0.401
       243  -9.7683    177.5053    236.4788   8.9283274692e+01  -1.5532182539e-01     0.130733    0.1072019  14.76 0.0001139884    1.060    0.057
       244 -10.9264    198.3065    232.9888   8.4584944773e+01  -2.7526058349e+00     0.321974    0.3113145 -24.50   0.00222189    1.397    0.284
       245 -11.0519    155.8032     42.1360   4.8431526435e+01   4.0736950753e+01    0.3860866    0.3604017 -80.72  0.001038729    1.072    0.067
       246 -12.3692    153.0229     35.8743   4.7049455540e+01   4.2217368114e+01    0.3450062    0.2933354  49.52 0.0003824989    1.160    0.138
       247 -10.5134    247.3684    231.6349   7.5314786714e+01  -9.3086856483e+00    0.2130684     0.163125 -24.62 0.0008746759    1.328    0.247
       248  -9.5246     23.7828    231.8053   1.2059527400e+02   2.2513073658e+01    0.1674708    0.1028185  61.96 0.0007216282    1.331    0.249
       249  -9.3036     15.2725    233.7772   1.2232600691e+02   2.2990862720e+01    0.1934256    0.1169793 -87.62  0.001244506    1.448    0.309
       250  -9.3048    181.3069    228.3175   8.7204317106e+01   5.7866687942e-01    0.1334838   0.09220587   1.17 0.0005415924    1.632    0.387
       251 -11.3341    164.1313     27.7578   4.2890775059e+01   4.0469674872e+01    0.3096352    0.2415597 -59.39 0.0004967146    1.327    0.246
       252  -9.6537     64.8930     61.3513   7.9976070636e+01   5.7249195210e+01    0.3108862      0.14222 -44.40 0.0009920307    2.114    0.527
       253  -9.8057    149.1284     60.9460   5.5367519678e+01   3.9644398019e+01    0.4656763    0.2022047  58.39   0.00176345    2.297    0.565
       254 -10.7114    136.1795     55.6545   5.6548651493e+01   4.3573716065e+01    0.8312607    0.4975777 -26.80  0.003723827    1.871    0.465
       255  -9.6799    233.8634    223.1363   7.6211744063e+01  -6.3811453895e+00    0.1793197     0.122325  -0.07  0.001080292    1.340    0.254
       256  -9.6487    238.2019     55.7477   4.0588496603e+01   1.9855208400e+01    0.2103976    0.1425223 -50.18 0.0003141082    1.263    0.208
       257 -10.5192    240.1593     50.4493   3.9243799065e+01   2.0189667390e+01    0.3376531      0.25233 -63.55  0.001531068    1.173    0.148
       258 -10.2121     66.7495     54.4970   7.6828246833e+01   5.8207391705e+01    0.3841233    0.2240019 -52.15  0.001465633    2.167    0.539
       259  -9.3298    188.1394     55.2842   4.6810884382e+01   3.1077177788e+01     0.221028    0.1659926  49.68 0.0006277221    1.425    0.298
       260  -8.7736      6.7009     54.7307   1.0270213055e+02   6.4848534826e+01     0.124468   0.06996311 -33.82 0.0002550006    1.523    0.343
       261  -9.5265    212.4669     53.1573   4.2950193091e+01   2.5755901587e+01    0.2726518     0.168132 -88.30  0.001322916    1.910    0.476
       262  -9.1759    205.5170     52.5082   4.3676186686e+01   2.7421762191e+01    0.2326935    0.1286088  66.44 0.0008803217    1.816    0.449
       263  -9.3930    201.8190     53.1456   4.4321271745e+01   2.8180859968e+01    0.2620361    0.1913744 -26.54  0.001175479    1.549    0.354
       264 -10.0223    201.5349     48.5169   4.3211673853e+01   2.8894901554e+01    0.2711154    0.2197457 -66.11  0.001142913    1.154    0.133
       265 -10.9511    199.2266     44.6175   4.2541745198e+01   2.9961043438e+01    0.7539504     0.281983  73.11  0.002727358    3.283    0.695
       266 -10.1204    245.1280     51.0635   3.8882609116e+01   1.9100018063e+01    0.2122448    0.1726506  82.84   0.00136689    1.265    0.210
       267 -10.8453    173.9940     48.2363   4.7111921035e+01   3.5475413228e+01     0.533547    0.3655873 -88.99  0.002615155    1.681    0.405
       268 -10.1146    176.6010     43.4995   4.5406087078e+01   3.5488169334e+01    0.4245278    0.2224369  58.93  0.001940678    1.791    0.442
       269  -8.8313    215.6592     49.2925   4.1650328930e+01   2.5582663116e+01    0.1402968   0.08932304 -68.46 0.0005537607    1.652    0.395
       270  -9.6232     91.3484     48.5843   6.6115311505e+01   5.4664485116e+01    0.2559143    0.1969261 -54.18 0.0008399953    1.667    0.400
       271 -10.7702     12.6422     48.1490   9.8029512205e+01   6.5795904328e+01    0.3548087    0.1643102 -32.76  0.001799111    1.960    0.490
       272  -9.1243      1.9948     48.0638   1.0308417573e+02   6.6468075538e+01    0.5531807    0.1577574 -55.48  0.002477038    2.477    0.596
       273  -9.1146      5.9963     43.1595   9.9702846686e+01   6.7212312661e+01    0.3333516    0.2142139 -46.74  0.002104142    1.247    0.198
       274 -10.8782    134.9968     45.7037   5.3625106088e+01   4.5305056095e+01     0.451757    0.2169374  56.16  0.000605199    1.927    0.481
       275 -10.9164    139.7902     43.9554   5.2054134237e+01   4.4391249741e+01    0.4172089    0.3708296 -31.14  0.002392534    1.202    0.168
       276 -10.1969    162.9513     43.7322   4.7658741822e+01   3.8777794251e+01    0.5026069    0.2469918  56.37  0.002193353    1.879    0.468
       277  -9.1381    104.5368     52.9533   6.3723895983e+01   5.1222546987e+01    0.2060821    0.1235838  -6.41 0.0008094403    2.632    0.620
       278 -10.3618    189.1638     41.1458   4.2984603927e+01   3.2786667220e+01    0.5095398    0.1986753 -29.01  0.001984088    2.893    0.654
       279 -10.6814     94.2305     41.2867   6.2508751259e+01   5.5156083231e+01    0.6895941    0.2663784  47.92  0.002728238    2.391    0.582
       280 -10.5617     81.8389     39.9154   6.5897903427e+01   5.7850695082e+01    0.6696693    0.4024711  48.44  0.002209242    1.681    0.405
       281  -9.0917    209.2883    223.4013   8.0828126547e+01  -2.9168691748e+00    0.1367232   0.08622912  -4.97 0.0002323983    1.793    0.442
       282  -9.7121     17.4882     41.6099   9.3535779791e+01   6.6680720243e+01    0.2526926    0.1556493 -22.24  0.001479382    1.485    0.327
       283 -10.4249     82.3931     32.2043   6.2658106852e+01   5.8805047155e+01     0.510898    0.3318945 -68.59  0.002032368    3.869    0.742
       284 -10.0593    231.4590     38.5027   3.7520155724e+01   2.3590059609e+01    0.3252395    0.1847101 -42.92  0.001768556    1.552    0.356
       285  -9.1967    217.2269     38.6236   3.8994375362e+01   2.6658592453e+01     0.290591   0.09537075 -55.54 0.0009611634    4.079    0.755
       286  -9.6095    193.7809     38.8394   4.1788663696e+01   3.1994774494e+01    0.2169641    0.1666199  58.28  0.000535071    1.334    0.250
       287 -10.8154    175.5849     30.8826   4.2121174043e+01   3.7325306653e+01    0.5300904    0.2282543  50.70   0.00116991    2.386    0.581
       288 -11.3590    176.8074     36.7347   4.3535842133e+01   3.6314013768e+01    0.4024784    0.3371605 -30.59  0.002349986    1.315    0.240
       289  -9.6140    133.2587     37.1729   5.1222041625e+01   4.6851426427e+01    0.3967275    0.2477255 -80.07  0.001664774    2.608    0.617
       290  -9.3591    206.7980     37.1550   3.9801947558e+01   2.9193004030e+01    0.1996934    0.1584482 -69.90 0.0006281534    1.148    0.129
       291  -9.2441     94.4763     36.0997   6.0470233766e+01   5.5816804909e+01    0.2602556    0.1815139  70.73  0.001278299    1.987    0.497
       292  -9.2604     63.3393    222.3300   1.1178019193e+02   1.9817531499e+01    0.1182584   0.09827671 -27.47 0.0003505365    1.739    0.425
       293 -10.4926    164.8003    212.3911   8.7988751237e+01   6.0325686617e+00    0.2780694    0.2217683  46.27 0.0007500158    1.320    0.242
       294  -9.7252    153.3931    207.6498   8.9668268936e+01   8.8646494545e+00    0.2551876     0.214337  39.21 0.0006983099    1.137    0.121
       295 -10.9433     13.9659     23.5989   8.8389178424e+01   7.0139698547e+01    0.2835071    0.1633819 -23.28 0.0002769086    1.514    0.339
       296  -9.4826     61.1917    206.6450   1.1064357676e+02   2.3509053377e+01    0.2118963    0.1621289  85.94    0.0007275    1.237    0.192
       297  -9.4964    238.4960    204.5441   7.2016087794e+01  -4.3040636515e+00    0.2639026    0.1099789 -36.72  0.001222046    2.204    0.546
       298  -8.7081    196.3415    205.2835   8.0129743591e+01   2.0502156130e+00    0.1400568   0.09611786   2.97 0.0004979549    1.634    0.388
       299 -11.8493    106.0906     32.7620   5.6010032980e+01   5.3719326306e+01    0.5935505    0.3265978  22.45  0.002338741    2.603    0.616
       300 -12.3342    113.8462     25.2623   5.1385589730e+01   5.2833675295e+01     0.789836    0.3246486  49.38  0.002228097    2.096    0.523
       301  -9.4255    215.6173     33.4288   3.7968628170e+01   2.7674809485e+01    0.3225039    0.1942013  31.24  0.001439301    3.164    0.684
       302 -10.4192    240.0327     31.7575   3.5301566361e+01   2.2655576928e+01    0.3543576    0.2782746 -28.70  0.001727761    1.508    0.337
       303  -9.2641    240.4941     26.4845   3.4169559195e+01   2.3205088411e+01     0.174247    0.1397166 -65.03 0.0007396206    1.017    0.017
       304 -10.0011    145.5042     39.4832   4.9519681257e+01   4.3596083413e+01    0.2299167    0.1661928  52.33 0.0005878122    1.292    0.226
       305 -11.5706      6.5218    195.7793   1.2177411807e+02   3.1881491368e+01     1.574174          nan -67.16  0.004072628    8.099    0.877
       306 -11.8065      4.5684    185.5948   1.2151411918e+02   3.4345966893e+01    0.5273449    0.3560736 -72.78  0.002503876    1.312    0.238
       307  -9.3402    221.6874     29.8842   3.6560738095e+01   2.6773596368e+01    0.1800964    0.1394919 -50.91 0.0008639126    1.180    0.153
       308 -10.5778      2.5174    181.4815   1.2168598042e+02   3.5452045818e+01     0.270586    0.1899243 -70.47  0.001081454    1.301    0.231
       309 -10.6932    189.2841     27.5967   3.9492963209e+01   3.4436337748e+01    0.3442461    0.2902663  -4.25  0.001544681    1.559    0.359
       310 -11.5345    183.0505     25.5923   3.9737275203e+01   3.6148568043e+01    0.5387807    0.3300954  56.59  0.002598371    1.594    0.373
       311  -9.1020     99.7066     30.4165   5.6828014088e+01   5.5416320719e+01    0.1843563    0.1139525  43.52 0.0003322193    1.453    0.312
       312 -10.5478    230.2779     26.9032   3.5120363237e+01   2.5284987973e+01    0.3271908     0.188126 -39.21 0.0009483885    1.615    0.381
       313 -10.3658     16.8419    203.1216   1.2008571186e+02   2.9308093374e+01    0.2851846     0.133947 -69.81  0.001509159    1.895    0.472
       314  -9.6024    250.5217     26.9643   3.3476650216e+01   2.1131186349e+01    0.1749539    0.1021783 -38.49 0.0004526158    1.578    0.366
       315  -9.6712     97.6005     26.6117   5.5944844416e+01   5.6325872366e+01    0.2150735    0.2093461  66.26 0.0008116013    1.204    0.169
       316 -10.4887     46.9478     19.3046   7.0248278431e+01   6.6740459113e+01    0.2970559    0.2372215  -3.54  0.001441589    1.076    0.071
       317 -10.3999    245.6262    200.8696   7.0089290474e+01  -4.7589786868e+00    0.2115217    0.1510179  13.14 0.0007208947    1.335    0.251
       318 -10.6598    234.2030    197.0213   7.1360524998e+01  -2.5255372082e+00    0.4013863     0.288363   0.21  0.001512506    1.342    0.255
       319  -8.8792    195.4830    199.9818   7.9314101551e+01   3.1134189155e+00     0.173113    0.1228628 -65.79 0.0007018647    2.410    0.585
       320  -9.4482     82.7271    196.2455   1.0435493327e+02   2.2882159438e+01    0.3257993    0.2044609  18.72  0.001503329    2.154    0.536
       321  -9.5716    168.9814     23.8804   4.1111413411e+01   3.9726470362e+01    0.2431853      0.16539  62.34 0.0008921865    1.339    0.253
       322  -9.2333     59.5522     23.5362   6.7044157036e+01   6.4150438494e+01    0.2492691    0.1759724  23.84 0.0008391806    1.266    0.210
       323  -9.6537     60.4328     19.8385   6.5047557262e+01   6.4455873814e+01    0.2784734    0.2150821 -55.61  0.001476049    2.115    0.527
       324 -10.0399    170.2677    191.2525   8.2975524079e+01   9.1041172339e+00    0.4447275    0.2128923  27.04  0.001688658    2.576    0.612
       325  -9.7214     74.7437     19.4576   5.9836326315e+01   6.1852939372e+01    0.2386258    0.1487901  34.25 0.0008389154    1.434    0.303
       326 -10.1673    250.3223    178.2082   6.4946547247e+01  -1.9646086594e+00    0.4315929    0.1275313 -32.53  0.001541826    3.419    0.708
       327 -10.1615    239.6030    184.9648   6.8080186342e+01  -1.4301899927e+00    0.3525651    0.2142957  -4.88  0.001067891    2.043    0.511
       328 -10.3322     52.0123    173.4489   1.0897146919e+02   3.2458959012e+01    0.5318864     0.246389 -88.58  0.001952069    3.194    0.687
       329  -9.6498     27.7227    175.9140   1.1532926081e+02   3.4532935281e+01    0.2411449    0.1723215  50.48  0.001082029    1.382    0.276
       330  -9.9938    247.5481    174.0614   6.4583394502e+01  -8.9430351729e-01    0.4576055    0.1867475  27.91  0.001741593    3.760    0.734
       331  -8.6168      1.3372     20.7363   9.4243494238e+01   7.1587627662e+01   0.09297097   0.08569913  24.80 0.0003563337    1.587    0.370
       332  -9.6662    230.6039    175.4566   6.7765900663e+01   1.5346983272e+00    0.2760967    0.1271385  37.33  0.000701756    2.331    0.571
       333 -10.1653     38.5863    173.1573   1.1234627480e+02   3.4073501449e+01    0.3672724    0.2002421  50.54  0.001817094    1.845    0.458
       334 -10.1462     35.3697    169.7808   1.1277838687e+02   3.5237214069e+01    0.2866826    0.1813043 -71.44   0.00154036    1.392    0.282
       335 -10.1582    186.4431     15.1662   3.6667665349e+01   3.6479305236e+01    0.2405858    0.1970071  89.75 0.0004132931    1.063    0.059
       336  -8.9829    174.3190     15.9777   3.8271918465e+01   3.9279040513e+01    0.1702113    0.1534445  88.85 0.0004558603    1.046    0.044
       337  -8.9392     16.4424    191.4925   1.1931556552e+02   3.1963618197e+01    0.1221188   0.09976147  87.79 5.171989e-05    1.049    0.047
       338  -9.6678      9.3098    156.0628   1.1801288997e+02   4.0925786607e+01    0.2376373    0.1797852 -61.26  0.001124037    1.263    0.208
       339  -9.3502     75.9038     13.8768   5.7048254548e+01   6.2217073390e+01    0.1911672    0.1418598  30.08 0.0003444097    1.159    0.137
       340 -11.5338      9.6638    166.9700   1.1890156431e+02   3.8281962826e+01    0.4843975     0.377359  79.31   0.00238345    1.123    0.110
       341 -11.1913     13.5368    159.3062   1.1724156514e+02   3.9810522005e+01     0.579959    0.2478863 -66.87  0.002784016    1.899    0.473
       342  -9.2408    198.0126    167.7737   7.2349727459e+01   8.5694913624e+00    0.2013463    0.1823959  -1.06 0.0009022139    1.039    0.038
       343  -9.6951    188.8247    163.9760   7.3425146968e+01   1.1025455485e+01    0.2977116     0.184959 -19.63   0.00110191    2.051    0.512
       344  -9.2492    156.3212    166.0777   8.1084570929e+01   1.6889582205e+01    0.2127386    0.1860428 -42.83 0.0004694065    1.154    0.133
       345  -8.9247    152.4435    166.5241   8.2091421105e+01   1.7545937202e+01    0.1505607    0.1442054  -1.35 9.893309e-05    1.021    0.021
       346 -10.1842     18.9506    164.8134   1.1640657267e+02   3.8022320535e+01    0.3042683      0.25215 -24.04  0.001904527    1.602    0.376
       347 -10.0078    204.9763    162.9611   6.9941613901e+01   8.1890230102e+00     0.396867    0.2410855  50.74  0.001822148    1.966    0.491
       348  -9.8057    208.4764    160.4797   6.8731237847e+01   8.0058317112e+00    0.3290576    0.1702127 -42.36  0.001432296    1.840    0.457
       349 -10.1996     28.0047    163.7470   1.1399158829e+02   3.7449650948e+01     0.271025    0.2011975  54.53  0.001191195    1.357    0.263
       350  -9.2004     78.9547    159.9916   9.9807894545e+01   3.2135549453e+01    0.2356827    0.1692126  75.21 0.0009630033    1.644    0.392
       351  -9.3064     38.8757    160.3529   1.1074278453e+02   3.7182947234e+01    0.2578394    0.1017759  38.12  0.001088653    2.506    0.601
       352  -9.6092    224.2501    157.3389   6.5139289168e+01   5.7329439948e+00     0.341941    0.1822937 -48.89  0.001506829    2.082    0.520
       353  -9.4030    215.4317    157.8401   6.6850432570e+01   7.2195204036e+00    0.2623971    0.1725858   0.32  0.001162318    2.122    0.529
       354 -11.8995     15.8966    147.9393   1.1545612104e+02   4.2391140307e+01    0.7226557    0.4351772  45.96  0.003971771    1.773    0.436
       355 -12.4903     12.7736    138.2145   1.1522866351e+02   4.5017938345e+01     1.492054    0.8722467 -65.23  0.008171688    1.399    0.285
       356 -10.9797     22.2882    155.1302   1.1453575512e+02   4.0088634059e+01     0.520162    0.2472058  33.17  0.001688858    2.233    0.552
       357 -10.6925      3.6436    146.9444   1.1862902063e+02   4.3534182389e+01    0.2592955    0.1806189 -76.68 0.0008735941    1.154    0.133
       358 -11.9746      2.3834    141.5067   1.1844607383e+02   4.4931104957e+01     1.212709    0.3867689 -79.75  0.004784618    2.893    0.654
       359 -11.2117     21.2997    150.6990   1.1430296038e+02   4.1264578257e+01    0.2222177    0.1942196  60.41 0.0005536233    1.208    0.172
       360 -11.6091     24.2119    148.0185   1.1319486267e+02   4.1672067945e+01    0.3637167     0.194877 -65.67  0.000793679    1.560    0.359
       361 -10.3109    104.8220    154.0596   9.1632777894e+01   2.9377814511e+01    0.3909911    0.3199549 -24.63  0.001938194    1.426    0.299
       362 -11.0099     31.5490    153.2812   1.1183060021e+02   3.9684751709e+01    0.4674187    0.3115217  81.36  0.002491714    1.545    0.353
       363  -9.6446     41.6410    149.0175   1.0846747561e+02   3.9711105023e+01    0.2256702    0.2027679  15.71 0.0006350477    1.327    0.246
       364 -11.3578     46.3384    146.5567   1.0677281739e+02   3.9808814601e+01       0.7466    0.3652385 -61.92  0.002952337    1.779    0.438
       365 -11.0803     63.4230    150.5046   1.0252918926e+02   3.6707161151e+01    0.5120338    0.3215732   5.88  0.002044428    2.491    0.599
       366  -9.7459     71.4820    151.3513   1.0039055710e+02   3.5382465288e+01    0.2768116    0.1888703  29.04  0.001341505    1.613    0.380
       367  -9.6300    234.5663    149.9625   6.1789508467e+01   5.2173697696e+00    0.3011602    0.1842216 -14.70   0.00138382    2.092    0.522
       368 -10.2280    239.6798    146.6195   6.0240174482e+01   4.9087348696e+00    0.2389123    0.1860261 -27.74 0.0005907417    1.117    0.105
       369 -10.8083    249.6412    142.7823   5.7870983169e+01   3.8730219601e+00     0.642668    0.2166995 -37.62  0.002542008    2.509    0.601
       370  -9.7622    132.9288    140.3593   8.1143133772e+01   2.7300756905e+01    0.3266194    0.2614524 -70.36  0.001055016    1.459    0.315
       371 -12.0140     29.9571    132.9568   1.0954008604e+02   4.4902496350e+01     0.707688    0.3974628 -71.67 0.0003543366    1.581    0.368
       372 -10.7085     21.2556    135.2733   1.1243367046e+02   4.5083197676e+01    0.5309458    0.2783881 -75.09   0.00259982    1.690    0.408
       373 -10.3552     25.4960    135.4811   1.1122054956e+02   4.4672665142e+01      0.33135    0.2244339 -75.19 0.0009095155    1.292    0.226
       374 -10.5181    217.1148    138.3027   6.2258149019e+01   1.0466692429e+01    0.3844305    0.3032489 -61.60  0.001397241    1.522    0.343
