#   1 NUMBER                 Running object number                                     
#   2 MAG_AUTO               Kron-like elliptical aperture magnitude                    [mag]
#   3 X_IMAGE                Object position along x                                    [pixel]
#   4 Y_IMAGE                Object position along y                                    [pixel]
#   5 X_WORLD                Barycenter position along world x axis                     [deg]
#   6 Y_WORLD                Barycenter position along world y axis                     [deg]
#   7 A_WORLD                Profile RMS along major axis (world units)                 [deg]
#   8 B_WORLD                Profile RMS along minor axis (world units)                 [deg]
#   9 THETA_WORLD            Position angle (CCW/world-x)                               [deg]
#  10 FWHM_WORLD             FWHM assuming a gaussian core                              [deg]
#  11 ELONGATION             A_IMAGE/B_IMAGE                                           
#  12 ELLIPTICITY            1 - B_IMAGE/A_IMAGE                                       
         1 -13.4065    211.6033     26.9200   1.7402026223e+01   2.8711244820e+01    0.8682377     0.826391 -71.90  0.004785783    1.114    0.103
         2  -9.0932     70.2900    233.7990   9.0246198042e+01   1.7978921724e+01    0.1190895   0.09230417 -77.77 0.0002567027    1.382    0.277
         3 -13.5131    248.1546    247.1808   5.9974264692e+01  -1.1987569752e+01    0.7656313    0.7005557  33.62  0.005986509    1.568    0.362
         4 -13.7491    249.2166    235.2081   5.7873898865e+01  -1.0834899444e+01     1.081036    0.3449564 -33.59   0.00499465    3.365    0.703
         5 -16.7209    121.4234    236.2072   8.1160182818e+01   9.8359710275e+00     15.69284     7.914907 -89.24   0.05583905    5.459    0.817
         6 -12.7633     83.1640    196.3685   8.4021987413e+01   2.3449727621e+01    0.4083186    0.2365296 -63.70  0.001094888    1.742    0.426
         7  -9.6649    210.9542    198.5387   5.8288592074e+01   2.3034168997e-01    0.1938004    0.1178366  39.94  0.000435316    1.489    0.328
         8 -10.4180     63.0983    197.6161   8.8262748241e+01   2.6049543948e+01    0.1196366     0.102185  75.61 0.0002049293    1.130    0.115
         9  -9.9418     69.2070    193.4618   8.6577945980e+01   2.6085307753e+01    0.2096708   0.09185507 -68.56 0.0009844298    2.208    0.547
        10 -10.5757     46.1377    192.4133   9.1167085040e+01   2.9313855890e+01    0.3771295    0.1378692  58.05  0.001645028    2.823    0.646
        11 -10.3554      2.4800    192.3588   9.9517298377e+01   3.3873801672e+01    0.1023901    0.0809788 -87.25 0.0004764597    1.241    0.194
        12 -18.8733     22.2939     94.0190   8.4760781259e+01   5.3993278486e+01     13.96027       0.9043 -65.94   0.02651496   12.631    0.921
        13 -10.6002     76.2013    183.3642   8.3920933493e+01   2.7257445596e+01    0.4370303    0.2482123  77.72  0.001841236    2.049    0.512
        14 -11.9457     62.7721    180.1191   8.6436561354e+01   2.9847647479e+01     0.365658    0.2909674 -19.07  0.001530856    2.214    0.548
        15 -11.3837    173.4453    177.6690   6.1804302812e+01   1.0981096659e+01    0.4641269     0.351686 -65.95  0.002361197    1.648    0.393
        16 -11.8010    145.7961    178.7038   6.7903324091e+01   1.6246537522e+01     0.283841    0.1987512 -66.04  0.001011156    1.663    0.399
        17 -11.3439      1.4156    177.2817   9.8808060575e+01   3.7070896604e+01    0.1366003   0.08187503 -83.96 0.0008568588    1.269    0.212
        18 -12.6361    118.2898    171.9159   7.2849126820e+01   2.2861172921e+01    0.6419086    0.3096389 -69.62  0.002394328    2.968    0.663
        19 -11.9502     53.6492    230.5406   9.2924069478e+01   2.0792314488e+01    0.3061544    0.1503459 -88.93  0.001714888    2.071    0.517
        20 -13.2295    111.7793    169.3085   7.3899638475e+01   2.4601384424e+01    0.6901897    0.3889473 -78.07  0.002137809    2.491    0.599
        21  -9.6244     56.7919    173.5858   8.6986530753e+01   3.2079767137e+01    0.1684581    0.1016325  54.86 0.0007171846    1.556    0.357
        22 -11.3637    179.5169    168.5316   5.8736455827e+01   1.1479781125e+01    0.4959964    0.3815949 -74.68  0.002438389    1.754    0.430
        23 -12.9233    101.4380    165.8905   7.5730806093e+01   2.7159559018e+01    0.5138263    0.3157017 -44.09  0.002410708    1.981    0.495
        24 -12.2949     47.7208    228.7829   9.3830571824e+01   2.1867820881e+01    0.2466526    0.1952678  85.53  0.001842744    1.201    0.167
        25 -12.3353     59.9095    227.8125   9.1603967868e+01   2.0487030902e+01    0.1815662    0.1705311 -71.46  0.001112152    1.557    0.358
        26 -11.7104     92.6173    161.5357   7.7100376994e+01   2.9612088638e+01    0.3168623    0.2235464 -83.84 0.0008991963    1.476    0.322
        27  -9.5752    167.4035    156.1865   5.8771066023e+01   1.6429366225e+01    0.2012665    0.1426912 -57.40  0.000436488    1.581    0.367
        28 -11.9715     88.7551    219.1419   8.5449731594e+01   1.8051234026e+01    0.3777777    0.3199339  83.85  0.001830202    1.149    0.130
        29 -11.6652    111.6754    150.0488   7.0486549690e+01   2.8951215921e+01     0.382241    0.2491653  83.83  0.001501167    2.130    0.530
        30 -11.7971    108.7890    145.4501   7.0313118440e+01   3.0531567609e+01    0.3310166    0.2811709 -76.72 0.0009258263    1.146    0.128
        31 -11.9055    134.0791    147.0994   6.4477365714e+01   2.5300014701e+01      0.77152    0.2730969 -54.89  0.002482353    3.214    0.689
        32 -11.0176    154.3055    146.0203   5.9513845149e+01   2.1326071702e+01    0.3536515    0.2376827 -68.99  0.001134973    1.940    0.484
        33  -9.4203    149.4231    147.4691   6.0950802866e+01   2.2051660370e+01     0.150985    0.1432838  79.11 0.0001053742    1.040    0.039
        34 -12.3059    106.5176    131.2645   6.8006233217e+01   3.4230221155e+01    0.5380921    0.4094513 -78.22  0.002670347    1.431    0.301
        35 -11.8081     97.1738    131.2466   7.0446440135e+01   3.5890177721e+01    0.2582113    0.2512295  37.08 0.0003372206    1.164    0.141
        36 -11.4655    134.2056    127.8592   6.0193101128e+01   2.9560478474e+01    0.4346082    0.3200583  46.80  0.002056574    1.358    0.263
        37  -9.9867    115.2505    125.7765   6.4527789222e+01   3.3858301202e+01    0.2002335    0.1792665 -14.52 0.0005351145    1.348    0.258
        38 -10.3475    103.1175    120.6849   6.6584547085e+01   3.7305256336e+01    0.2427602    0.1957098 -28.53 0.0008566862    1.490    0.329
        39 -10.2767    110.1065    116.4269   6.3713714054e+01   3.6988820887e+01    0.2439042    0.1987571 -41.46  0.000446517    1.264    0.209
        40  -9.8076    121.2991    114.7005   6.0320478888e+01   3.5178887401e+01    0.1530043    0.1193826  88.26 0.0002797854    1.579    0.367
        41  -9.6391    106.0389    113.5260   6.4121791485e+01   3.8419007857e+01    0.2097638    0.1473476  44.16 0.0001004937    1.478    0.323
        42 -10.5187    101.6277    110.1821   6.4529749981e+01   3.9996544051e+01    0.2442738    0.1948541  59.44 0.0007581607    1.356    0.263
        43 -10.7186     89.7443    109.7555   6.7772334180e+01   4.2165575881e+01    0.2811611    0.2140428  71.01  0.000607605    1.570    0.363
        44 -11.8727    117.4565    108.6785   5.9828933751e+01   3.7305373691e+01    0.3610267    0.2703602 -55.00  0.001737145    1.319    0.242
        45 -10.9529     86.7645    102.9854   6.7015970042e+01   4.4214739167e+01    0.2302232    0.2046689  47.50 0.0004808005    1.206    0.171
        46 -11.9549    112.2905     99.5865   5.8863778490e+01   4.0353659619e+01    0.5574731    0.3364749  73.35    0.0019726    3.156    0.683
        47 -10.5913    135.9149     96.8832   5.1844871712e+01   3.5941869538e+01    0.2268809     0.223492 -46.03 0.0003410578    1.021    0.020
        48  -9.6680    190.6491    213.8090   6.4806458908e+01   1.5205814749e+00    0.1690748    0.1224409 -52.94 0.0009502495    1.761    0.432
        49  -9.4125    113.6754     76.3017   5.1787073252e+01   4.4970744590e+01    0.1481663    0.1195405 -85.61 0.0003320571    1.636    0.389
        50 -12.6996    171.4823     66.2581   3.4793299450e+01   3.3190316094e+01    0.4404417    0.4058303 -48.03 0.0008135882    1.091    0.083
        51 -13.4621    187.8968     53.1412   2.7967405942e+01   3.1104058288e+01     1.146682    0.8605362  35.67  0.003665581    1.566    0.361
        52 -11.9222    193.4752     47.1286   2.5361262350e+01   3.0570669929e+01    0.3806171    0.3322779  39.52 0.0009349432    1.279    0.218
        53 -10.6912     69.3658     50.9484   5.7418682777e+01   5.7831044136e+01    0.2880902    0.1831947  52.24  0.001371869    2.127    0.530
        54  99.0000     39.0966    210.5821   9.4030912004e+01   2.6425805199e+01     5.196618     2.378145  86.62    0.0271782    2.211    0.548
        55  -9.4381     54.6302    205.6938   9.0703562233e+01   2.5498895275e+01    0.4879027     0.141664  57.59  0.001757971    4.160    0.760
        56  -9.7432     65.4701     43.4514   5.6126831428e+01   5.9754419414e+01    0.1296316     0.113886 -17.97 7.924179e-05    1.030    0.029
        57 -11.7827     91.9630    241.1614   8.7040178709e+01   1.3563902356e+01    0.2042719    0.1526213 -70.64 0.0005342296    1.516    0.340
