#   1 NUMBER                 Running object number                                     
#   2 MAG_AUTO               Kron-like elliptical aperture magnitude                    [mag]
#   3 X_IMAGE                Object position along x                                    [pixel]
#   4 Y_IMAGE                Object position along y                                    [pixel]
#   5 X_WORLD                Barycenter position along world x axis                     [deg]
#   6 Y_WORLD                Barycenter position along world y axis                     [deg]
#   7 A_WORLD                Profile RMS along major axis (world units)                 [deg]
#   8 B_WORLD                Profile RMS along minor axis (world units)                 [deg]
#   9 THETA_WORLD            Position angle (CCW/world-x)                               [deg]
#  10 FWHM_WORLD             FWHM assuming a gaussian core                              [deg]
#  11 ELONGATION             A_IMAGE/B_IMAGE                                           
#  12 ELLIPTICITY            1 - B_IMAGE/A_IMAGE                                       
         1 -13.4981      3.9965     12.1719   1.1340600703e+02   7.0833553165e+01     1.974765    0.3488917 -42.28  0.008342846    3.997    0.750
         2 -13.2771    206.4469     13.2838   6.1151030957e+01   3.2254850301e+01    0.6488042    0.6097285  26.32   0.00149692    1.442    0.307
         3 -13.8359    200.1237     20.3800   6.3507474519e+01   3.2953284886e+01       1.3014    0.8925883 -41.51  0.005705758    1.529    0.346
         4 -12.8687    219.3656      2.0500   5.7444892235e+01   3.0471655507e+01     1.264914    0.3374756  64.13  0.002701389    3.018    0.669
         5 -13.8699    192.8845     26.1969   6.5809544465e+01   3.4009472584e+01     1.619285     1.161119 -12.33  0.006988691    1.984    0.496
         6 -10.8851    193.3393    195.6148   1.0609660739e+02   3.2633611497e+00    0.8617737    0.4091966 -62.98  0.002211537    6.922    0.856
         7 -11.5065    247.5236    249.5412   1.0554772871e+02  -1.4134396372e+01    0.5507194    0.1762869  33.20  0.002400517    2.946    0.661
         8 -15.6388     92.7508    246.8956   1.3459068397e+02   1.1358136910e+01     9.056386     2.526697  39.66   0.03449861    3.329    0.700
         9 -11.7499     68.1984    191.6902   1.3316377766e+02   2.6741948444e+01    0.4152793    0.2557735 -45.06   0.00174839    2.116    0.527
        10 -11.6832     73.1241    184.8644   1.3113702434e+02   2.7614796314e+01    0.3029799    0.2371425 -55.68 0.0005942929    1.367    0.269
        11 -12.6468     88.2602    165.3615   1.2448436678e+02   2.9917375608e+01      1.88625     0.648659  51.74  0.001331624    3.809    0.737
        12 -13.5637     67.8886    145.1091   1.2614477483e+02   3.7882235869e+01     2.580432     1.254198 -87.53  0.002861753    5.542    0.820
        13 -11.0817     81.9623    173.3931   1.2735325131e+02   2.8992198458e+01    0.2473066    0.2190871 -72.92 0.0003657033    1.092    0.084
        14 -13.2348     69.4901    170.6364   1.2993027131e+02   3.1506494352e+01    0.5068979    0.2846597 -44.26  0.001432725    2.190    0.543
        15 -12.5433     33.2857    150.5447   1.3592684406e+02   4.0725131228e+01    0.5873449    0.1862236 -66.28  0.002367525    2.564    0.610
        16 -12.1582     89.8057    148.2647   1.2095058711e+02   3.3788377303e+01    0.2949298    0.2599807 -42.82 0.0004633708    1.222    0.182
        17 -15.1890     23.9291    177.8045   1.4129392411e+02   3.5316613457e+01     5.828273     2.120268  84.50  0.002831292    6.810    0.853
        18 -10.0269    100.9936    148.9907   1.1817487309e+02   3.1704858302e+01    0.3124359     0.236689 -49.18 0.0009425704    1.313    0.238
        19  -9.6738    103.4970    145.4922   1.1680251038e+02   3.2097611222e+01    0.3052863    0.2146625 -22.18   0.00131907    2.128    0.530
        20  -9.7918    111.3586    135.3207   1.1251425849e+02   3.3061851980e+01    0.3099939    0.2433321 -14.52  0.001024911    1.719    0.418
        21 -10.4355     98.9527    132.2059   1.1514450807e+02   3.6074524989e+01    0.2985505    0.2249042 -31.50 0.0007826519    1.551    0.355
        22  -9.9116     44.3002    130.3379   1.2993487075e+02   4.4350862474e+01    0.1364331   0.08874723 -40.46 0.0005711039    1.663    0.399
        23 -14.0024     42.4314    223.3601   1.4181929978e+02   2.3187400671e+01     1.213275    0.4413921  51.18  0.001200123    2.395    0.582
        24  -9.6862    108.0304    122.6801   1.1044739893e+02   3.6641573015e+01     0.198775    0.1898057  43.11 0.0003345108    1.094    0.086
        25 -10.8097    168.0039    113.0401   9.2996157565e+01   2.5773354215e+01    0.3854248    0.2933534 -81.15 0.0009428334    1.656    0.396
        26  -9.3033    205.5214    110.4742   8.4762069881e+01   1.7494372043e+01    0.1497068    0.1439559 -55.82 0.0002060531    1.044    0.042
        27 -11.0420     53.2345    109.5943   1.2332015114e+02   4.8161855181e+01    0.2724332    0.1704137 -58.01  0.001411211    1.407    0.289
        28 -11.4770     43.9080    109.1762   1.2606214070e+02   4.9309462387e+01    0.3181844    0.2580321  45.55  0.001943239    1.443    0.307
        29 -11.3702    116.4277     47.2860   8.6226569519e+01   4.9439486551e+01    0.4683262    0.3118349  79.20  0.001410826    2.433    0.589
        30  -9.3309    111.1613     44.1248   8.6539649858e+01   5.1005160920e+01    0.1999653    0.1670861 -80.96  0.000241333    1.639    0.390
        31 -14.5661      5.3714    246.2840   1.4979752472e+02   2.2816712325e+01     1.779019     1.420775  29.26   0.01359989    2.023    0.506
        32 -15.9243      6.8013    212.8201   1.4756396189e+02   2.9332002807e+01      9.06852    0.9610751 -72.12   0.01578037    5.813    0.828
        33 -15.1033     52.5095    212.1470   1.3881575664e+02   2.4295444733e+01     2.608224     1.742832  61.95    0.0156486    1.314    0.239
        34 -10.0208    226.3602    201.5776   1.0075459245e+02  -3.8412711048e+00    0.2467546    0.2118751 -57.65 0.0007059483    1.500    0.334
