#   1 NUMBER                 Running object number                                     
#   2 MAG_AUTO               Kron-like elliptical aperture magnitude                    [mag]
#   3 X_IMAGE                Object position along x                                    [pixel]
#   4 Y_IMAGE                Object position along y                                    [pixel]
#   5 X_WORLD                Barycenter position along world x axis                     [deg]
#   6 Y_WORLD                Barycenter position along world y axis                     [deg]
#   7 A_WORLD                Profile RMS along major axis (world units)                 [deg]
#   8 B_WORLD                Profile RMS along minor axis (world units)                 [deg]
#   9 THETA_WORLD            Position angle (CCW/world-x)                               [deg]
#  10 FWHM_WORLD             FWHM assuming a gaussian core                              [deg]
#  11 ELONGATION             A_IMAGE/B_IMAGE                                           
#  12 ELLIPTICITY            1 - B_IMAGE/A_IMAGE                                       
         1  -7.2059     82.0265     12.0040   2.9030013582e+01   6.3120916855e+01     0.164509    0.1451103  33.51            0    1.082    0.076
         2  -7.8896     98.0317      6.4249   2.1795593251e+01   5.9971865985e+01    0.2081719    0.1709111 -11.97 0.0002245001    1.227    0.185
         3  -8.5857     90.8335    250.6541   8.2477545957e+01   1.2985914599e+01    0.1801092   0.08105692  36.75 0.0002553683    1.769    0.435
         4  -9.2461    249.1896    249.1169   5.5114216438e+01  -7.4928753981e+00    0.2157444    0.1445267  27.52   0.00167231    1.374    0.272
         5  -7.7250     15.8558    250.1453   9.5496771875e+01   2.1506010736e+01     0.156349   0.08941052  61.26 0.0005336492    1.232    0.189
         6  -8.1201      3.2092    249.5265   9.7553071732e+01   2.2788791825e+01    0.2065884   0.09545661  61.97  0.001455269    1.512    0.339
         7  -7.5368     14.2528    245.3716   9.5606004156e+01   2.2443710023e+01      0.14481   0.06211673  45.50 0.0009455891    1.617    0.382
         8  -8.9302    115.4484    241.4800   7.7164913680e+01   1.1133248605e+01    0.1998299    0.1631247  34.89  0.000514359    1.141    0.124
         9  -8.4981     41.1782    238.6673   9.0637072996e+01   2.0821894315e+01     0.163727    0.1454172  74.69 0.0003967338    1.311    0.237
        10  -8.2033    101.0631    236.7842   7.9407394065e+01   1.3808360418e+01    0.2339486    0.1568716 -68.99  0.001039556    1.825    0.452
        11  -8.5185    222.5343    245.2255   5.8742735540e+01  -3.9109957199e+00    0.1720547    0.1416964  28.48  0.000605124    1.446    0.308
        12  -9.7014      9.0546    225.3658   9.5829248521e+01   2.6396214320e+01    0.2141087     0.199935 -27.67  0.001802506    1.786    0.440
        13  -8.9856      4.0194    224.6893   9.6706428387e+01   2.6974369620e+01     0.202975    0.1659687  69.33  0.001045794    1.228    0.186
        14  -8.7498      2.7704    234.2279   9.7210074271e+01   2.5398446025e+01    0.2158737    0.1084569  32.14  0.001433822    2.011    0.503
        15  -9.9026      2.3838    229.7606   9.7147881659e+01   2.6214673607e+01    0.7186885    0.1269791  49.85  0.003544573    2.897    0.655
        16  -9.2570     13.5137    230.8586   9.5229638920e+01   2.4999239960e+01     0.196376    0.1285484  37.98  0.001451179    1.492    0.330
        17  -7.3754     54.4305    230.5065   8.7724446028e+01   2.0742505180e+01    0.1120446   0.08346084  58.88 7.876593e-05    1.018    0.018
        18  -9.0082     21.3078    229.2311   9.3772023197e+01   2.4533555569e+01    0.2617486    0.1192445  27.04   0.00146807    2.646    0.622
        19  -7.3885     41.7129    224.3149   8.9745951394e+01   2.3288555417e+01    0.1169022   0.06101302  61.43 0.0002607348    1.586    0.369
        20  -8.6168     42.9677    214.7979   8.8923643768e+01   2.4915865634e+01    0.1831812    0.1401455  81.70 0.0005400801    1.189    0.159
        21  -8.4897     48.9505    212.4552   8.7577950399e+01   2.4684808725e+01    0.1680046    0.1320499  72.06 0.0004560515    1.088    0.081
        22  -7.4783     23.5596    211.2601   9.2527499079e+01   2.7637304046e+01    0.1341108   0.09115977 -75.02 0.0004141411    1.543    0.352
        23  -9.7950     10.3937    207.3740   9.4903618422e+01   2.9641195983e+01    0.3975776     0.258676  26.38  0.002284245    1.877    0.467
        24  -8.2376     78.7164    204.1784   8.0741083253e+01   2.2576185653e+01    0.2268805    0.1458003  61.64 0.0006081652    1.451    0.311
        25  -9.4116      1.6859    192.2954   9.6026173480e+01   3.3397240056e+01    0.2297437    0.1286638 -84.58 0.0008252066    1.542    0.351
        26 -11.3506      9.4775    186.8933   9.4189603550e+01   3.3850073491e+01    0.7264806    0.4984561  74.38  0.003445477    1.117    0.104
        27  -9.6338    129.4537    190.5235   6.8130106969e+01   1.7625438463e+01    0.2296309    0.2177713  32.10 0.0004148743    1.080    0.074
        28  -7.8099    135.3199    188.1657   6.6509546387e+01   1.7100967009e+01    0.2212956    0.1626891  31.48 0.0007105231    1.292    0.226
        29  -7.1099    223.2839    187.7052   4.9324100358e+01   2.7281431282e+00    0.1017724   0.09966911 -32.29 0.0001681599    1.541    0.351
        30  -9.6846     19.5725    174.4437   9.1300176381e+01   3.5613853222e+01    0.4448269    0.1519538  67.08    0.0018181    3.236    0.691
        31  -9.5896     22.5111    179.5132   9.0960928053e+01   3.4231838695e+01    0.3584553    0.1494166  42.45  0.001534867    2.023    0.506
        32  -6.9667    161.2540    182.2914   6.0063104310e+01   1.3768350603e+01    0.1265763   0.09783449   0.71 0.0002437252    1.485    0.327
        33  -8.8718     72.8250    177.1882   7.9153462313e+01   2.8922694142e+01    0.2013101    0.1887185  73.38  0.001323522    1.137    0.121
        34  -8.7050     37.1665    169.7610   8.6860788902e+01   3.4908810436e+01    0.2100058    0.1870039 -85.72  0.000523288    1.194    0.162
        35  -7.9661    216.8951    167.9632   4.6654478278e+01   6.4991424414e+00    0.1924099    0.1632801  -0.41 0.0003413334    1.019    0.018
        36  -8.9957     45.3905    164.3827   8.4372775634e+01   3.5227482013e+01     0.221174    0.2053903 -83.09 0.0004795908    1.212    0.175
        37  -9.4157     21.2004    182.6107   9.1442427378e+01   3.3689851106e+01    0.2179879    0.2072866  34.11  0.001076369    1.420    0.296
        38  -7.5911     38.1492    160.1049   8.5751928637e+01   3.7012705642e+01    0.1689183    0.1530314 -82.58 0.0003570008    1.195    0.163
        39  -7.7987    229.9448    157.4707   4.2295117084e+01   5.8338997115e+00    0.1776539    0.1221198  37.92 0.0005155837    1.515    0.340
        40  -8.3309     59.0542    156.0027   7.9992566761e+01   3.5534935799e+01     0.197973    0.1742981  81.88 0.0003696857    1.031    0.030
        41  -7.4379     83.0108    153.1955   7.3396941636e+01   3.2875538548e+01    0.1796917    0.1616467  68.31  0.001057122    1.036    0.035
        42 -10.3324     43.3455    151.7746   8.3577182632e+01   3.8404696983e+01    0.4136707    0.2991955 -19.44  0.001548075    2.227    0.551
        43  -9.5792     67.5251    150.6245   7.7068879997e+01   3.5693874472e+01    0.5847394    0.3819461 -36.81  0.002831626    2.144    0.534
        44  -9.6505     68.1467    143.6719   7.5888170992e+01   3.7271837866e+01    0.5625751    0.2979635  58.56  0.002267796    2.146    0.534
        45  -8.6217      7.2336    149.4322   9.2652714263e+01   4.2326999904e+01    0.1677859   0.09157462  46.00 0.0009537779    1.710    0.415
        46  -8.7940    143.2544    145.9918   5.7048291827e+01   2.3959057145e+01    0.3306396    0.2424213 -32.22    0.0010298    1.495    0.331
        47  -8.1836      5.5030    144.9660   9.2805668261e+01   4.3499606285e+01    0.1855176   0.07243594  73.61 0.0008093278    2.553    0.608
        48  -9.3813     73.9140    136.4563   7.3140091864e+01   3.8205179994e+01    0.3307721    0.2773578 -10.44  0.001410099    1.614    0.381
        49  -8.5988     28.6733    134.4322   8.5676573324e+01   4.4109787504e+01    0.3308042    0.1762719 -87.14 0.0005041843    1.746    0.427
        50  -8.8817     64.7831    132.1991   7.5025728557e+01   4.0530793789e+01    0.2690707    0.2045593  20.08  0.001420909    1.642    0.391
        51  -7.0106    122.0306    130.0522   5.8780816307e+01   3.1504326836e+01    0.1718809    0.1645975 -58.46 0.0009354605    1.036    0.035
        52  -7.2864     61.5989    123.2375   7.4447594711e+01   4.3185082606e+01    0.1949373    0.1181573 -55.61 0.0003811115    1.551    0.355
        53 -10.4356     50.2441    120.9395   7.7514695680e+01   4.5191641818e+01    0.2832574    0.2350761  79.98 0.0004563776    1.153    0.133
        54  -7.5008    101.5674    110.9936   5.9896490665e+01   3.9803179991e+01    0.2220207     0.143765 -52.55 -9.258158e-06    1.481    0.325
        55  -8.2890    196.0269     89.9319   3.1997894380e+01   2.3294885148e+01    0.2167428     0.200514 -23.55 0.0002893981    1.023    0.022
        56  -7.3203    129.0145     89.9485   4.6432041066e+01   3.8892997921e+01    0.1853435    0.1799876 -41.65 0.0005482308    1.007    0.007
        57  -7.4898    208.7807     86.8421   2.9063667258e+01   2.0925848103e+01    0.1914616    0.1544149 -51.04 0.0002048696    1.275    0.216
        58  -7.7350    122.9255     86.3014   4.6952331105e+01   4.1022826261e+01    0.2051558    0.1963893  50.20 0.0002693641    1.087    0.080
        59  -7.1583     91.4604     84.9965   5.5926573935e+01   4.7801731211e+01    0.2172749     0.143084 -49.07 5.222758e-05    1.424    0.298
        60  -9.0297     94.2647     73.1200   5.1245745545e+01   4.9929391797e+01    0.3698957     0.301214 -54.04 0.0005181027    1.223    0.182
        61  -7.2991     91.8636     56.6362   4.6125319565e+01   5.3855603430e+01    0.1960376    0.1433763  57.82  0.000406897    1.602    0.376
        62  -8.0621    143.7580     51.3710   3.0089823744e+01   4.2584733347e+01    0.2401599    0.1922711 -39.30 0.0003894205    1.218    0.179
        63 -10.8058    241.0575     44.3407   1.3910284306e+01   1.9870296400e+01    0.6454112    0.5113437  22.98  0.003348393    1.640    0.390
        64  -8.2488    181.0978     31.4270   1.6962425216e+01   3.5733690354e+01     0.221518    0.1932175 -13.10  0.000440525    1.232    0.188
        65  -7.2063     96.2765     31.6619   3.4250428612e+01   5.7275835139e+01      0.14515    0.1121381 -59.32 0.0005943659    1.613    0.380
        66  -6.9615    132.4686     27.5251   2.3524688044e+01   4.8935583061e+01    0.1452312    0.1438658  37.44 0.0001240317    1.004    0.004
        67  -8.0682      8.0227    248.5393   9.6739868995e+01   2.2508614575e+01    0.1563865    0.1214392 -82.16  0.001340904    1.539    0.350
