#   1 NUMBER                 Running object number                                     
#   2 MAG_AUTO               Kron-like elliptical aperture magnitude                    [mag]
#   3 X_IMAGE                Object position along x                                    [pixel]
#   4 Y_IMAGE                Object position along y                                    [pixel]
#   5 X_WORLD                Barycenter position along world x axis                     [deg]
#   6 Y_WORLD                Barycenter position along world y axis                     [deg]
#   7 A_WORLD                Profile RMS along major axis (world units)                 [deg]
#   8 B_WORLD                Profile RMS along minor axis (world units)                 [deg]
#   9 THETA_WORLD            Position angle (CCW/world-x)                               [deg]
#  10 FWHM_WORLD             FWHM assuming a gaussian core                              [deg]
#  11 ELONGATION             A_IMAGE/B_IMAGE                                           
#  12 ELLIPTICITY            1 - B_IMAGE/A_IMAGE                                       
         1 -13.5309     54.1721     67.6930   7.5075852924e+01   5.9169925323e+01     1.998396     0.752965  33.93  0.007020685    2.759    0.638
         2 -15.1124      6.1901     70.7064   1.0020274905e+02   6.3383703215e+01     1.414225    0.8763865 -73.98  0.006461817    1.408    0.290
         3 -13.2119      6.6109     43.0379   9.5227858761e+01   7.0572173530e+01     1.281942    0.6695936  -9.68  0.005934166    2.305    0.566
         4 -13.6050      2.7887     10.2449   8.7422719095e+01   7.8634230442e+01    0.7506626    0.5378071 -72.24  0.003468634    1.473    0.321
         5 -13.4603      8.9875      3.1100   7.5790581176e+01   7.9631084216e+01    0.8211625     0.471272  44.31  0.003527761    2.254    0.556
         6 -16.0247     11.9513     22.4408   8.4291364194e+01   7.5220018291e+01     2.110116     1.142563 -37.31  0.008407808    1.808    0.447
         7 -14.0924     24.5487     13.6363   6.8377837085e+01   7.5673658814e+01     0.855822    0.3757562  31.07  0.003706696    2.412    0.585
         8 -14.1620    146.4698     29.0495   3.2112154558e+01   4.4585615866e+01     1.289625    0.9669868  81.11  0.005479605    1.327    0.247
         9 -13.9041    166.0018     29.1113   2.9494313652e+01   3.9494693364e+01    0.9731101     0.759149  86.63  0.003724206    1.279    0.218
        10 -13.3881    190.0640     27.0614   2.6299416309e+01   3.3797980263e+01    0.7502211    0.1980207 -44.28  0.002608079    3.129    0.680
        11 -12.7309    120.6426     25.5518   3.5186810641e+01   5.1943403088e+01    0.6683387    0.5162817  28.25  0.003293635    1.543    0.352
        12 -12.8566     86.3380     14.3469   3.7882322640e+01   6.2423276061e+01     0.818165    0.4080454 -54.28  0.003096233    2.692    0.628
        13 -15.0639     98.6228     11.3187   3.3287986010e+01   5.9526397333e+01     1.646072    0.9040496  72.53  0.007139278    1.801    0.445
        14 -11.8915     59.2617     16.0671   4.8514640573e+01   6.8775139349e+01     0.379565    0.3322356 -88.56  0.002118849    1.382    0.276
        15 -12.0490    187.8761      9.5173   2.1384273697e+01   3.6162679090e+01     0.340722    0.2243915 -66.93  0.001671016    1.411    0.291
        16 -12.7298    214.9227      9.9746   1.9807215403e+01   2.9918909364e+01    0.3521918    0.2767946 -45.48  0.001376158    1.049    0.047
        17 -14.0938     40.5188      4.2151   4.9762820339e+01   7.4440477007e+01    0.8787354    0.5685614  44.70  0.004295012    1.478    0.323
        18 -11.3151    153.1632      8.3230   2.3921193105e+01   4.5071582682e+01    0.2199019    0.1969913 -11.05   0.00064971    1.271    0.213
        19 -10.7725     59.4665      7.4759   4.2800997468e+01   6.9874949998e+01    0.2588181    0.1062326  47.53  0.001022664    2.275    0.560
        20 -12.1589    224.3862      4.5007   1.7949823503e+01   2.8419196182e+01    0.2925296    0.1729156  46.62  0.001575857    2.372    0.578
        21 -10.6798     66.8719      3.8257   3.7597268288e+01   6.8505918327e+01    0.1841231    0.1600984 -80.53 0.0004492226    1.302    0.232
        22 -11.0957     74.9620      8.1541   3.7703332086e+01   6.6031348280e+01    0.3722653    0.1860725 -18.72  0.001046819    2.253    0.556
        23 -11.9081     46.7202     12.7300   5.2563473012e+01   7.1954010859e+01    0.3145651    0.2651411  65.13  0.001515158    1.392    0.281
        24 -11.2151     61.3004      1.4456   3.7932244565e+01   7.0106671366e+01    0.3712213    0.1270765  62.53  0.001360935    2.753    0.637
        25 -11.6345    118.9534      2.7033   2.5717608496e+01   5.4817155535e+01    0.4214835    0.1995696 -68.35  0.001596241    2.613    0.617
        26 -12.3822     70.0633     15.9542   4.4027819809e+01   6.6285864361e+01    0.4149307    0.3268572 -74.07  0.001984704    1.589    0.371
        27 -12.0261    248.6391    197.2820   5.6512743850e+01   1.4148115024e+00     0.341601     0.149693 -38.54  0.001924178    2.733    0.634
        28 -12.2270     51.0141    248.4363   9.9868680796e+01   1.8443092831e+01    0.3283588    0.3113118  -3.99  0.002748682    1.451    0.311
        29 -12.7636      2.9544    248.8443   1.0943172796e+02   2.2850319770e+01    0.4297593    0.2525975  69.41  0.002902912    1.519    0.342
        30 -13.5506      9.4585    245.4516   1.0809837147e+02   2.2866217107e+01    0.6920647    0.2912793  51.93  0.003431316    1.653    0.395
        31 -11.5231    200.7405    191.6350   6.3134000318e+01   8.0119772704e+00    0.1975835    0.1375397  34.59  0.001027923    1.458    0.314
        32 -11.1817    206.4375    190.7114   6.2002074122e+01   7.3652407297e+00     0.200697    0.1034042 -37.45  0.001048962    2.031    0.508
        33 -11.7154     49.0242    181.7275   9.6024412804e+01   3.1294297775e+01    0.2839484    0.1896791 -79.21  0.001605106    1.590    0.371
        34 -12.1834    124.2871    166.9835   7.4686705037e+01   2.3734311281e+01    0.5264512    0.3662282 -74.76   0.00260141    2.081    0.519
        35 -11.3602    178.0013    167.4914   6.3085979374e+01   1.4840206353e+01    0.1967605    0.1169279  36.52   0.00100165    1.599    0.375
        36 -10.8239    193.0063    164.5107   5.9722719457e+01   1.2933100126e+01    0.1868316    0.1147957  35.32  0.001029361    1.580    0.367
        37 -11.8715     76.9531    156.6965   8.5555576940e+01   3.3368795419e+01    0.3964893    0.2779375  37.52  0.001245502    1.300    0.231
        38 -12.9144     73.3352    153.1281   8.6094275781e+01   3.4722306357e+01      0.69002    0.4434312  25.58  0.002971565    1.626    0.385
        39 -12.1731    189.1767    155.9870   5.8786105833e+01   1.4830700418e+01    0.2318875    0.1807536  28.96  0.001404699    1.241    0.194
        40 -11.5586    110.1104    153.9136   7.6001259595e+01   2.8772617867e+01    0.3038447    0.2171761 -85.06    0.0014523    1.938    0.484
        41 -13.4326     40.7851    195.3013   9.9129435316e+01   2.9296751483e+01    0.4666732    0.2248359  69.42  0.002282773    2.230    0.552
        42 -11.9233    246.1944    149.3365   4.8465231930e+01   7.1752680170e+00    0.2230423    0.2002046  -0.34   0.00170573    1.284    0.221
        43 -12.0716    189.4721    149.9979   5.7543254149e+01   1.5709483280e+01    0.2012557    0.1193031 -35.15  0.001040764    1.619    0.382
        44 -11.0764    103.0618    149.9965   7.7192739696e+01   3.0807017280e+01    0.2286755      0.17451 -16.14 0.0009199372    1.740    0.425
        45 -12.0358     60.4397    147.1746   8.9130334621e+01   3.7929875916e+01    0.4071661    0.2937684  20.54  0.002084505    1.538    0.350
        46 -13.7894     22.0934    180.9162   1.0305873374e+02   3.4246309996e+01    0.7122312     0.400539 -73.21  0.003917516    1.858    0.462
        47 -12.0691     40.5895    137.1349   9.4191702387e+01   4.2863446414e+01    0.3288682    0.1777467  53.64  0.001351591    1.785    0.440
        48 -12.1719     44.8790    132.6477   9.2227599904e+01   4.3521575502e+01    0.5452626    0.3179447  84.11  0.002451768    1.902    0.474
        49 -11.4188    135.0850    125.5157   6.3795090326e+01   3.0178110489e+01    0.2262845    0.2036296 -41.46  0.001227979    1.130    0.115
        50 -13.5153    108.1313    122.7926   7.0339684411e+01   3.6031322797e+01    0.8843779    0.7744145  85.05  0.004633693    1.260    0.206
        51 -13.3915    111.6581    116.5553   6.7888419261e+01   3.6759769993e+01    0.5074378    0.3688176  42.13  0.001664915    1.347    0.258
        52 -14.3961    106.4805    105.2425   6.6580533538e+01   4.0362829180e+01     2.063336     1.233301 -35.11  0.008364357    2.033    0.508
        53 -11.7275    180.8401    121.1596   5.2910198784e+01   2.1935678751e+01    0.1986411    0.1596446   3.99  0.001086443    1.349    0.259
        54 -12.1084      4.5268    119.4233   1.0508946759e+02   5.0559078232e+01    0.5774125    0.1690587  17.21  0.002131021    3.592    0.722
        55 -12.1458     78.3173    110.2354   7.6834035361e+01   4.4464279629e+01    0.5626996    0.4080248  72.32   0.00258605    1.630    0.386
        56 -11.8175     86.7112    114.8387   7.5072563806e+01   4.1864321423e+01    0.3935131    0.2725485  16.07  0.001437534    1.921    0.480
        57 -12.2450     81.9882    114.9923   7.6651331887e+01   4.2652368985e+01    0.3891718    0.3023384  54.14  0.001901818    1.286    0.223
        58 -12.1918     48.9838     93.2736   8.4130555111e+01   5.3349879253e+01    0.4450718     0.319333  53.53  0.001907882    1.442    0.307
        59 -11.4609     35.3468     86.4290   8.8606151389e+01   5.6832316334e+01    0.2697338    0.2290231 -33.81 0.0005919178    1.305    0.234
        60 -12.3797     49.5169     98.7408   8.5055494229e+01   5.1835495347e+01    0.8506116    0.4897881  19.43  0.003604799    2.095    0.523
        61 -12.6207     42.5479     90.7638   8.6317926584e+01   5.4839950264e+01    0.5107212    0.3127145 -86.51  0.002233682    1.858    0.462
        62 -14.6837     24.4438     93.6348   9.4681250286e+01   5.5971679290e+01     1.421088     1.324614  23.01  0.008473691    1.190    0.159
        63 -12.0966     36.5935     92.8785   8.9293051136e+01   5.4970605783e+01    0.4236897    0.2637759  16.03  0.001452103    1.889    0.471
        64 -14.9944     15.8193    107.5608   9.9936230854e+01   5.2928876152e+01     1.638412     1.053501  56.18  0.007598531    1.494    0.331
        65 -13.4613      2.2848     97.1190   1.0454633484e+02   5.6540922025e+01    0.8673828    0.2843399 -85.32  0.003247203    2.765    0.638
        66 -11.1948    121.9363    112.2505   6.3991983890e+01   3.5634951612e+01    0.2603068    0.2208808 -46.99 0.0006262994    1.193    0.162
        67 -12.0540     62.4560    109.7668   8.2335708730e+01   4.7123515865e+01    0.4940886    0.3680324  71.35   0.00239189    1.461    0.315
        68 -11.5139     42.1794    106.9223   8.9466167520e+01   5.0581407167e+01    0.3110946    0.2101298  18.69   0.00112091    1.690    0.408
        69 -12.1062    136.6514    103.0432   5.7823089754e+01   3.4435484847e+01    0.5640528     0.284391  53.30  0.001881879    2.150    0.535
        70 -13.3222     95.3599    109.9553   7.1172634856e+01   4.1452232508e+01    0.8134956    0.7071985  46.54  0.004204629    1.128    0.113
        71 -11.9204     60.9860     97.5808   8.0271934260e+01   5.0501695842e+01    0.4453077    0.2832871  66.99  0.001883053    1.968    0.492
        72 -13.2355     28.9333    122.0128   9.6505559106e+01   4.7986547685e+01    0.5055661    0.3696854 -63.62  0.002607882    1.360    0.265
        73 -12.4558    136.0960     94.6278   5.5651982918e+01   3.6244572554e+01    0.4003327    0.3037336  44.28  0.001928518    1.342    0.255
        74 -10.8502     81.5868     93.2038   7.1485750995e+01   4.8097354539e+01    0.2240869    0.1404813 -43.38  0.000944327    1.702    0.412
        75 -12.3987    187.6645     84.4958   4.2634028867e+01   2.6502961765e+01    0.4043696    0.2010808  41.33  0.001682782    2.447    0.591
        76 -13.3205    163.9630     71.6223   4.3050940043e+01   3.3923308828e+01    0.5953063     0.533057  37.44  0.003259479    1.222    0.182
        77 -11.7579    158.0065     83.4969   4.7632435294e+01   3.3308660512e+01    0.3478776    0.2666548  67.54 0.0007971035    1.448    0.309
        78 -12.8394    161.3930     79.9147   4.5943501115e+01   3.3142732946e+01    0.5942991    0.3701165  30.75   0.00190993    2.194    0.544
        79 -13.2721     65.1239     51.6548   6.4166197734e+01   6.0971091318e+01     1.350481    0.7665045 -34.44  0.005509218    2.065    0.516
        80 -13.1940     91.7743     58.0241   5.6327098309e+01   5.3934910854e+01    0.6066973    0.5441356 -27.42  0.003133053    1.188    0.158
        81 -13.4041     87.2155     65.0382   6.0549121226e+01   5.3490159672e+01     1.093632    0.7162112  14.67  0.004100075    2.690    0.628
        82 -13.7719    107.2274    246.6725   8.8374296096e+01   1.2430321397e+01    0.7547759    0.4380984  69.77  0.004114357    3.128    0.680
        83 -13.1997     70.9709     75.0398   7.0167583942e+01   5.4483597017e+01    0.6964708    0.5022898   5.07  0.002191397    2.058    0.514
        84 -12.3465     77.1735     73.0881   6.7090050320e+01   5.3763255717e+01    0.5420552    0.3699185 -25.70   0.00179274    1.988    0.497
        85 -11.3406    216.9840     82.0000   3.7873056484e+01   2.0864350610e+01    0.1899803   0.07623637  58.99 0.0005881744    2.915    0.657
        86 -12.4146    135.6922     79.6994   5.1358000320e+01   3.9246009506e+01    0.6250433    0.3298062  51.16  0.002077791    1.912    0.477
        87 -11.7359    114.1892     79.5842   5.6911310256e+01   4.4317624880e+01    0.4135446    0.3256761 -59.42  0.001857117    1.341    0.254
        88 -11.3599     42.5069     79.4787   8.3807489555e+01   5.7825471709e+01    0.3043569    0.2009415 -55.14  0.001021911    1.434    0.303
        89 -11.2454     41.6236     76.1803   8.3404361414e+01   5.8799974475e+01    0.2613738     0.205717 -64.22 0.0006007485    1.197    0.165
        90 -12.2955     28.3218    245.2596   1.0432442247e+02   2.1203294276e+01    0.3874911    0.1810294  36.09  0.002423668    1.485    0.326
        91 -14.0196      4.8208     63.5172   9.9991852431e+01   6.5351557662e+01    0.7134167    0.5412275  26.13  0.003752605    1.453    0.312
        92 -12.8909     54.2685     81.3208   7.9012958532e+01   5.5717422863e+01    0.6724064    0.4797003 -83.48  0.003134055    1.604    0.377
        93 -11.5274     27.2897     75.8282   9.0272076064e+01   6.0486797573e+01    0.4276669    0.2253919  78.58  0.001674492    2.575    0.612
        94 -12.6647    199.0799     69.8174   3.7110639161e+01   2.6225898118e+01    0.4752906    0.3383397  31.35  0.002468868    1.783    0.439
        95 -12.2745    134.6813     66.2876   4.7318574383e+01   4.1965038432e+01    0.5589697    0.3252867  51.48  0.001755905    1.732    0.423
        96 -12.2087     31.4185     62.7099   8.5027832143e+01   6.3502971575e+01    0.6273867    0.3249868 -79.05  0.002522125    2.334    0.572
        97 -11.7747     24.9631     58.9214   8.7601048911e+01   6.5143097406e+01    0.5493281     0.326071 -62.40   0.00222964    1.516    0.340
        98 -11.0786     99.4516     64.2210   5.6123385270e+01   5.0903101050e+01    0.4806204     0.225934 -50.90  0.001723559    2.338    0.572
        99 -13.8284    169.8100     77.0674   4.3585173516e+01   3.1667235004e+01     1.077385    0.4811683  49.58   0.00424949    2.361    0.576
       100 -12.6870     78.9736     60.3949   6.1884407908e+01   5.6260693099e+01    0.5765902    0.4759171 -51.32  0.002667192    1.208    0.172
       101 -12.9489     82.1980     54.4688   5.8337716193e+01   5.6816608210e+01    0.7116505    0.5831394  -1.78    0.0034434    1.544    0.352
       102 -11.3603    117.6049     72.2540   5.3573783989e+01   4.5003831711e+01    0.2694257    0.2130921  54.99 0.0005162823    1.269    0.212
       103 -13.1584    177.9432     58.0862   3.6801229726e+01   3.2686417059e+01     0.646238     0.504169 -49.35  0.002253131    1.200    0.167
       104 -11.0474     39.0569     59.9102   8.0103658392e+01   6.3297043715e+01     0.317662    0.2003372  67.92   0.00135155    2.243    0.554
       105 -11.4088    111.3471     58.9926   5.0658401424e+01   4.9076910776e+01    0.2961015     0.253355  31.02 0.0007042052    1.305    0.234
       106 -14.3785    120.5162     54.6356   4.6636915937e+01   4.7574007985e+01    0.8157085    0.6151613  44.30  0.002103681    1.397    0.284
       107 -11.4341     17.6835     55.4200   9.0985430766e+01   6.6680395639e+01    0.3580528    0.1994892 -72.85  0.001671115    1.693    0.409
       108 -13.6100    103.1649     50.2893   4.9667218846e+01   5.2694250561e+01      1.15116    0.5832159 -58.44  0.002510087    2.947    0.661
       109 -13.0482     97.8875     50.1312   5.1202616881e+01   5.4015546544e+01    0.6782205    0.4149744 -51.88  0.002148264    1.783    0.439
       110 -14.0269     61.4593     75.5855   7.4283815756e+01   5.6026521702e+01    0.7585235    0.6097522 -22.63  0.001264559    1.501    0.334
       111 -11.4547     36.7432     53.5785   7.9287922913e+01   6.5168260156e+01    0.3432195     0.194101  23.90   0.00152235    1.961    0.490
       112 -11.1752     38.0083     50.4948   7.7481532598e+01   6.5752033135e+01    0.2515707    0.1948784  16.41 0.0009892181    1.425    0.298
       113 -11.4768    136.3380     49.5439   4.1224245820e+01   4.4360476726e+01    0.2762848    0.2616538  36.77 0.0006335242    1.150    0.131
       114 -10.6382     23.5179     49.9813   8.5944396568e+01   6.7558272099e+01    0.2043097    0.1264505 -62.74 0.0004466258    1.475    0.322
       115 -11.8421    154.0679     47.3999   3.7210551622e+01   4.0123904827e+01    0.4140846    0.3292671  81.48  0.002120236    1.302    0.232
       116 -11.9776    159.3330     43.2046   3.4991495757e+01   3.9377321193e+01     0.474014    0.3069397  59.54  0.002083386    1.571    0.364
       117 -12.0276     60.4545    245.8812   9.7808621794e+01   1.7861759969e+01    0.2048043    0.1765385  18.75  0.001599205    1.337    0.252
       118 -12.8981    170.7917    241.6972   7.5692458877e+01   5.4716283393e+00    0.1821909    0.1587048 -38.59  0.001456688    1.641    0.391
       119 -12.8392     24.2662    216.8559   1.0413732850e+02   2.6645171363e+01    0.6918952      0.23555  40.15  0.003537382    1.964    0.491
       120 -14.0607     26.4954    226.2623   1.0401197379e+02   2.4683664973e+01    0.8970522    0.4080732 -53.19  0.004664152    3.311    0.698
       121 -12.7734    204.9921     39.8717   2.8445503708e+01   2.8866436532e+01    0.8376637    0.3528254 -83.40  0.002761147    4.693    0.787
       122 -12.6203    212.5568     43.2326   2.8612908547e+01   2.6813007365e+01    0.5073842    0.2692047  61.89  0.002241233    2.088    0.521
       123 -12.8751    219.6463     41.6332   2.7562439601e+01   2.5507164465e+01     0.550158    0.3568016 -81.66  0.002381513    1.791    0.442
       124 -13.9120     20.7217    223.9707   1.0518066025e+02   2.5641160142e+01    0.7652063    0.4303281  30.77  0.004822578    1.475    0.322
       125 -12.0222    109.6711     41.8739   4.4451664785e+01   5.2491236300e+01    0.5406367    0.2066073  57.62  0.001178939    2.527    0.604
       126 -12.9356    132.3267     32.7445   3.5828905942e+01   4.7870860448e+01    0.5724314    0.4455926  61.39  0.001556903    1.265    0.209
       127 -13.9086     92.2948    230.2647   8.9993754057e+01   1.6754625660e+01    0.5346341    0.4308515  33.98  0.003821231    1.053    0.050
       128 -12.6353    139.2751     21.4855   3.0410571752e+01   4.7410107504e+01    0.5259972    0.2633788  64.81 0.0008151962    1.887    0.470
       129 -13.7680    122.0947     36.5716   3.9358324118e+01   5.0056487180e+01    0.9672311    0.5476676  41.34  0.003292701    2.076    0.518
       130 -12.4171    114.1982     37.6145   4.1573094606e+01   5.1981676187e+01     0.380731     0.346536  53.22   0.00137482    1.109    0.098
       131 -11.4957    134.4466     39.2939   3.7889921899e+01   4.6397453307e+01      0.47005    0.2627941 -88.64  0.001745439    2.588    0.614
       132 -12.2159     75.8895     36.9644   5.3035678114e+01   6.1607331931e+01     0.404647     0.263328  49.06  0.001014061    1.515    0.340
       133 -11.5130     70.5041     35.9936   5.4727599688e+01   6.2991291985e+01    0.3211228    0.2648565  52.09 0.0007690818    1.218    0.179
       134 -12.2476    242.0570     36.1207   2.4497545165e+01   2.1683294377e+01    0.3749915    0.2195075  76.54  0.001800935    2.034    0.508
       135 -10.7215    104.6110     36.7860   4.3651076664e+01   5.4601491338e+01    0.2260851    0.1337997 -44.13 0.0009539517    1.722    0.419
       136 -11.1219     35.0113     34.7245   7.2731500353e+01   6.9820070161e+01     0.237755     0.199273  23.95 0.0006395096    1.235    0.191
       137 -12.2633     45.7732     33.2403   6.5453880901e+01   6.8433411641e+01    0.5790603    0.5478969 -80.19  0.003340213    1.199    0.166
       138 -12.0963     39.9857     32.3053   6.8410444876e+01   6.9590329426e+01    0.7200327    0.3244466 -33.23  0.002578916    3.100    0.677
       139 -13.2354     65.0400    223.2400   9.5362999813e+01   2.1190422790e+01     1.004706      0.54431  44.08  0.005907443    1.435    0.303
       140 -12.9458     59.2994    212.9631   9.5916858198e+01   2.3736437457e+01    0.3300142    0.2952312 -28.58  0.001307219    1.488    0.328
       141 -13.4989     64.1899    214.1752   9.4880625847e+01   2.2944254708e+01    0.5118618    0.2863008  54.70  0.002895772    1.651    0.394
       142 -13.0436     55.5116     26.9583   5.6814063149e+01   6.7804332576e+01    0.7266334    0.3679932  50.12  0.002613809    2.049    0.512
       143 -11.8954     63.4779     24.9617   5.1930645064e+01   6.6457388117e+01    0.4437668    0.3137574  14.67  0.001938221    1.858    0.462
       144 -11.9063     30.8671     25.3759   7.0752117832e+01   7.2421167704e+01    0.4477463    0.2643836  14.10   0.00160553    2.245    0.555
       145 -11.4955     36.3357     23.3706   6.5845684887e+01   7.1994520984e+01    0.3914887    0.2268046 -45.92  0.001870314    1.680    0.405
       146 -11.1021     51.5047     20.4998   5.5066678933e+01   6.9736876450e+01     0.270522    0.1739022  50.32 0.0009161344    1.593    0.372
       147 -12.0661     46.6889     20.3000   5.7576348995e+01   7.0724078512e+01    0.4213265    0.3021092  24.84  0.002153251    1.536    0.349
       148 -11.7930    249.0219    216.0090   5.9369541529e+01  -5.3700047093e-01    0.1643473    0.1167668   0.70  0.001327588    1.058    0.055
       149 -11.5572    156.6204    214.2374   7.4811734675e+01   1.0879797562e+01    0.1554734    0.1035476 -27.23 0.0008701217    1.687    0.407
       150 -12.9312      4.1463    211.3114   1.0847540456e+02   2.9474486838e+01    0.4631212    0.2699733  82.47  0.002970548    1.641    0.391
       151 -11.9081     72.3786    207.0880   9.2392623735e+01   2.3303337726e+01    0.3161902     0.239824  67.81   0.00201498    1.364    0.267
       152 -12.2151     41.2252    206.1133   9.9694896620e+01   2.7051225981e+01    0.2336305    0.1371257  64.15   0.00135052    1.597    0.374
       153 -13.2285     16.8957    195.8051   1.0503349149e+02   3.1515543321e+01    0.8885042    0.2059296 -64.12  0.003358581    4.663    0.786
       154 -11.9781     57.5353    203.0485   9.5587990749e+01   2.5860308522e+01    0.4323195    0.1921627  80.08  0.001814929    3.442    0.710
       155 -11.2854    185.4885    203.5033   6.7752581658e+01   8.4905363466e+00     0.118519   0.09385284  10.56 -1.817977e-05    1.003    0.003
       156 -14.6579      7.2494    146.7503   1.0558542419e+02   4.3470329633e+01     2.606998    0.9179525 -84.12   0.01081503    2.632    0.620
       157 -13.3870     22.3239    165.8118   1.0217008427e+02   3.7664210281e+01    0.5206598    0.4309942 -80.54 0.0005211894    1.263    0.208
       158 -13.8289     29.8640    169.3846   1.0028515572e+02   3.6120157788e+01      1.12077    0.8694358 -71.05  0.006648864    1.392    0.282
       159 -15.4904      7.7963    183.3828   1.0684986268e+02   3.4932080612e+01     1.295096     1.132896  75.62  0.009199944    1.180    0.152
       160 -15.2920     15.2572    174.5906   1.0456472294e+02   3.6266640719e+01     1.926229    0.5934461  41.74  0.008505185    2.327    0.570
       161 -13.2169     36.8484    194.6904   1.0006837576e+02   2.9835889856e+01    0.3542772    0.2361466  74.86  0.002134603    1.452    0.311
