#   1 NUMBER                 Running object number                                     
#   2 MAG_AUTO               Kron-like elliptical aperture magnitude                    [mag]
#   3 X_IMAGE                Object position along x                                    [pixel]
#   4 Y_IMAGE                Object position along y                                    [pixel]
#   5 X_WORLD                Barycenter position along world x axis                     [deg]
#   6 Y_WORLD                Barycenter position along world y axis                     [deg]
#   7 A_WORLD                Profile RMS along major axis (world units)                 [deg]
#   8 B_WORLD                Profile RMS along minor axis (world units)                 [deg]
#   9 THETA_WORLD            Position angle (CCW/world-x)                               [deg]
#  10 FWHM_WORLD             FWHM assuming a gaussian core                              [deg]
#  11 ELONGATION             A_IMAGE/B_IMAGE                                           
#  12 ELLIPTICITY            1 - B_IMAGE/A_IMAGE                                       
         1 -14.5927     68.4362    144.3499   1.0192058407e+02   3.7415523911e+01     4.873675     2.557381  72.87  0.006880633    3.801    0.737
         2 -14.3318    216.0488     27.2931   3.8093467882e+01   2.8581520208e+01     1.249099     1.002416  24.75  0.007409685    1.827    0.453
         3 -14.4173    203.3249     39.5883   4.2471973912e+01   2.9938960896e+01      1.97466     1.454893  36.13  0.007145264    1.801    0.445
         4 -13.1108    241.5282      3.9076   3.0943966805e+01   2.5747474286e+01    0.7595831    0.4050305  79.45   0.00444969    1.741    0.426
         5  -9.3683     61.0000      3.0644   5.9388240546e+01   6.6359698485e+01    0.1841558   0.06483642 -23.89  0.000803525    2.950    0.661
         6 -10.2306    107.8160    204.0947   1.0132008833e+02   1.7212362546e+01    0.2046449    0.1887451  60.32  0.000340605    1.016    0.016
         7 -17.0416     28.2874    181.1942   1.1724302315e+02   3.3040026841e+01     13.58254     5.354746  58.62   0.05271789    2.881    0.653
         8 -12.2106     65.5386    174.8273   1.0742756021e+02   3.0247332953e+01    0.4965994    0.2964617 -43.93  0.002332255    2.009    0.502
         9 -12.0639     70.1524    169.9112   1.0555408993e+02   3.0819624208e+01     0.350453    0.2663379 -40.68 0.0006720176    1.538    0.350
        10  -9.1832    120.1323    194.1423   9.6924622933e+01   1.7351174885e+01    0.1899893     0.159176  71.37 0.0003721386    1.292    0.226
        11 -12.6907     86.4131    154.2561   9.8657476463e+01   3.2297576388e+01     1.722615    0.7931511 -58.87  0.006840924    2.080    0.519
        12 -12.3508     79.2808    160.8748   1.0174000594e+02   3.1741155626e+01    0.5843591     0.403752  59.62 0.0004185471    1.574    0.365
        13 -13.6056     66.8945    156.5676   1.0439162499e+02   3.4562664121e+01    0.6083323     0.442586 -50.16  0.001377594    1.389    0.280
        14 -13.7066     57.1162    239.3894   1.1609886730e+02   1.7092470873e+01    0.4843562    0.3348622  85.31  0.001236165    1.381    0.276
        15  -9.2441    154.2390    154.9816   8.1219333609e+01   1.9721107111e+01    0.2113008    0.1884262 -42.92  0.000340511    1.117    0.104
        16 -11.1175    133.6570    144.0499   8.3872299356e+01   2.6304510999e+01     1.174374    0.3063035 -54.94  0.002608949    6.181    0.838
        17 -11.7907     55.6653    146.4986   1.0591612394e+02   3.8532354429e+01    0.6104924    0.5006054 -47.01  0.003443831    1.264    0.209
        18 -10.3301    174.5959    148.8631   7.5166073876e+01   1.6914367012e+01    0.3030514    0.2853231  88.16 0.0007644884    1.225    0.184
        19 -15.4737     32.8015    249.3416   1.2136078801e+02   1.8051350023e+01     2.564631    0.7706318  27.17   0.00862716    6.568    0.848
        20 -16.2915      7.2017    246.3362   1.2570660811e+02   2.1281048829e+01     1.769144     1.532219  77.78   0.01461437    1.305    0.234
        21 -10.8430    100.8300    139.7979   9.1787237780e+01   3.3487563185e+01    0.5860948      0.37397 -22.39  0.002301816    2.440    0.590
        22  -9.4910    198.8633    140.7722   6.8218670741e+01   1.3615592233e+01    0.2834052    0.1871874 -62.78  0.001211845    2.118    0.528
        23 -12.4125     88.0739    139.5272   9.5359777353e+01   3.5694604373e+01    0.3013644    0.2581353 -47.97 0.0003885434    1.146    0.127
        24 -11.3737     78.8409    139.1082   9.7944576471e+01   3.7235714807e+01    0.3994976    0.2760398  69.28 0.0006618989    1.830    0.454
        25  -9.5996     29.4968    136.8981   1.1197443727e+02   4.3726395382e+01    0.1861286    0.1722282  89.47 0.0007110562    1.113    0.102
        26 -10.9519    109.6433    200.8467   1.0042298483e+02   1.7622459212e+01     0.419627    0.2351728 -48.41   0.00194264    1.955    0.488
        27 -10.4303    105.9983    131.0345   8.8376329625e+01   3.4698706787e+01    0.3895722    0.3152777 -56.91   0.00148959    1.214    0.176
        28 -10.0652    110.3380    130.3479   8.6989009075e+01   3.4061247577e+01    0.3108522    0.2422878  -5.67  0.001132799    1.673    0.402
        29 -10.4742    135.6434    128.1851   7.9607870252e+01   2.9550940676e+01    0.4806313    0.1475601 -49.93  0.001378716    3.436    0.709
        30 -10.4322    146.4826    171.8614   8.6608041626e+01   1.7521412810e+01     0.276126    0.2324597  81.60  0.001393358    1.472    0.320
        31 -11.5901    193.6251    195.8484   8.0877637330e+01   4.1615322785e+00    0.9305671    0.5021268 -62.75  0.003064864    4.852    0.794
        32  -9.5858    160.3945    127.1996   7.3254245896e+01   2.4498023576e+01    0.2332471    0.1445104 -52.86 0.0009572261    1.729    0.422
        33 -11.1622     97.7368    126.2994   8.9666080711e+01   3.7327129813e+01    0.3303236    0.2644534 -17.11  0.001593721    1.503    0.334
        34  -9.3963    136.0701    165.4874   8.7851310837e+01   2.0910095603e+01    0.2349673    0.1466308  40.68  0.001027411    1.580    0.367
        35  -9.2758    116.7582    124.4308   8.3767616042e+01   3.4237824127e+01    0.2136615    0.1514833  25.36 0.0008096859    1.640    0.390
        36 -11.1391     26.3567    120.7136   1.1058202171e+02   4.8020797897e+01    0.4111587     0.183758  45.19  0.001513009    2.652    0.623
        37  -9.3006    135.0000    119.9376   7.7701073348e+01   3.1551554989e+01    0.2602727    0.0885821 -45.79 0.0007616032    2.879    0.653
        38  -9.8262    107.1162    119.0591   8.5179863029e+01   3.7357432513e+01    0.2188991    0.2112739 -32.24 0.0003649822    1.024    0.024
        39  -9.7485     84.6511    118.7636   9.1842868645e+01   4.1372215866e+01    0.2729127    0.2134486  82.29 0.0007189685    1.628    0.386
        40 -10.5190     39.9934    113.4625   1.0500420103e+02   4.8559423158e+01    0.2490135    0.1786733 -81.68 0.0004663371    1.472    0.321
        41  -9.5934    135.0000    112.5037   7.5759577154e+01   3.3205115925e+01    0.3505729   0.08851037 -44.79 0.0009282774    3.883    0.742
        42 -11.0262     32.7267    108.8817   1.0655227139e+02   5.0380760975e+01    0.5410929    0.2914529  71.60  0.002144361    3.271    0.694
        43 -10.1125    205.4756    110.1849   5.9729170792e+01   1.8059708969e+01    0.3024527    0.2125362  41.35 0.0008826077    1.582    0.368
        44 -11.6803    248.8658    101.9166   5.1086015370e+01   1.0747701737e+01    0.3603377    0.2272532 -20.28  0.001767511    1.971    0.493
        45  -9.4565    134.6099    105.7670   7.4043864730e+01   3.4757361100e+01    0.2301644    0.1460507 -52.95 0.0009536193    1.681    0.405
        46 -11.1012     41.7270    103.4773   1.0245262643e+02   5.0826342338e+01    0.4657837    0.1848722  42.93  0.001815598    3.123    0.680
        47 -11.5745    242.5042    100.9984   5.1750441393e+01   1.2104568985e+01    0.2498875    0.1926332  31.35  0.001395191    1.663    0.399
        48 -14.4548     20.3148    220.8699   1.2195974772e+02   2.5026040415e+01    0.9429079    0.7754359  80.88  0.003884569    1.118    0.106
        49 -10.3529     53.1805     91.0742   9.5557370892e+01   5.2486409992e+01    0.2613222    0.1954981 -73.37  0.001042558    1.557    0.358
        50 -11.2277    246.6748     90.1665   4.8807578889e+01   1.3059291231e+01    0.2883644   0.09185418 -42.96  0.001096201    2.607    0.616
        51  -9.4768     73.3346     83.8829   8.6405585872e+01   5.1303008331e+01     0.221474    0.1941254  48.72 0.0004998329    1.320    0.242
        52  -9.2420    151.0468     82.8502   6.3485233486e+01   3.5639805582e+01    0.2255028     0.199491 -81.70 0.0004215588    1.260    0.206
        53  -9.4123    159.5205     82.5005   6.1494424551e+01   3.3703381733e+01    0.1497935     0.148533 -59.51  2.24605e-05    1.011    0.011
        54  -8.6369    109.5141     79.4847   7.3326483271e+01   4.5591611997e+01    0.1486425     0.145263 -12.87 0.0008046004    1.044    0.042
        55  -8.4614    102.3186     74.3053   7.3847707606e+01   4.8080140859e+01    0.1522152    0.1143755   2.24 0.0007028951    1.631    0.387
        56 -10.5240    207.4835    192.9812   7.7549894728e+01   2.3302340262e+00    0.2051307    0.1267466 -38.12 0.0008669965    1.586    0.370
        57 -10.4266     51.0340     63.8715   8.8568817960e+01   5.8704290430e+01    0.3433108    0.2192543  49.12  0.001517013    2.189    0.543
        58 -10.6422     13.4466     59.9205   1.0323434013e+02   6.3137062304e+01     0.245077    0.1903781 -56.46 0.0004881661    1.195    0.163
        59 -15.5236      9.5397    207.4539   1.2326088574e+02   2.8902597726e+01     1.531463    0.9254479 -68.19  0.008088025    1.601    0.375
        60 -12.8451    194.2863     45.8966   4.5255604674e+01   3.1211525480e+01    0.7051374    0.5848264  18.94  0.001116019    1.606    0.378
        61  -9.6686     79.5261    182.9041   1.0504907198e+02   2.6362583131e+01    0.2534322    0.1955277  79.98 0.0009292279    1.329    0.248
        62  -9.2647     78.7435     57.5890   7.5928266828e+01   5.5681545438e+01    0.1917219    0.1312181  48.35 0.0009501761    1.672    0.402
        63 -10.4297    137.9800     44.0111   5.4455197497e+01   4.5131043142e+01    0.2915434     0.234742 -85.16 0.0004705444    1.474    0.322
        64  -9.7515    141.3307     38.8865   5.2104014014e+01   4.5015600849e+01    0.2187349    0.1842425  76.14 0.0004254619    1.215    0.177
        65 -10.8264    187.9492     30.9879   4.2216854213e+01   3.4662420753e+01    0.2093453    0.1870075 -85.28 0.0006002524    1.000    0.000
        66  -9.5934    189.5118     15.0628   3.7912236318e+01   3.6105352059e+01    0.1803086    0.1240104 -34.09 0.0005905097    1.545    0.353
        67  -9.6388     99.4730    180.9040   9.9793994517e+01   2.3775688136e+01     0.210403    0.1867612  46.08 0.0005487276    1.105    0.095
