#   1 NUMBER                 Running object number                                     
#   2 MAG_AUTO               Kron-like elliptical aperture magnitude                    [mag]
#   3 X_IMAGE                Object position along x                                    [pixel]
#   4 Y_IMAGE                Object position along y                                    [pixel]
#   5 X_WORLD                Barycenter position along world x axis                     [deg]
#   6 Y_WORLD                Barycenter position along world y axis                     [deg]
#   7 A_WORLD                Profile RMS along major axis (world units)                 [deg]
#   8 B_WORLD                Profile RMS along minor axis (world units)                 [deg]
#   9 THETA_WORLD            Position angle (CCW/world-x)                               [deg]
#  10 FWHM_WORLD             FWHM assuming a gaussian core                              [deg]
#  11 ELONGATION             A_IMAGE/B_IMAGE                                           
#  12 ELLIPTICITY            1 - B_IMAGE/A_IMAGE                                       
         1 -10.3065     70.8709     12.7574   2.4072460501e+01   6.6182890312e+01    0.2784159    0.1563332 -39.16  0.001263921    1.897    0.473
         2 -11.0136     35.1990     11.9743   4.1162884757e+01   7.3854237382e+01    0.1879552      0.18026 -68.57 0.0004907259    1.314    0.239
         3 -10.3182    199.2226    235.7666   5.1792574905e+01   1.6712637486e+00    0.2333804    0.1238306   2.31 0.0009545726    2.131    0.531
         4  -9.6960    211.8685    250.5061   5.1642141975e+01  -1.3309222454e+00     0.151987   0.09926037  13.48  0.001127661    1.102    0.093
         5 -10.4653    212.7547    246.3141   5.0944912841e+01  -9.8171472896e-01     0.257872     0.121785   4.66  0.001409837    2.583    0.613
         6 -10.4794    201.9656    248.9605   5.3083552080e+01  -1.2321344711e-01    0.2271131    0.1279003 -22.87  0.001559196    1.782    0.439
         7  -9.4802    197.7001    250.6558   5.4023007763e+01   1.4929353013e-01    0.1092534     0.062644   1.24 0.0005810265    1.677    0.404
         8 -10.6408    182.4447    250.0805   5.6597946550e+01   1.8917912086e+00    0.3577545    0.1220819  27.41   0.00175328    2.393    0.582
         9 -10.4599    187.6242    245.8668   5.5152973075e+01   1.8016659009e+00    0.2598508    0.1572217   0.74  0.001289042    1.599    0.375
        10 -10.4131    183.9586    228.0308   5.3430353559e+01   4.4167119255e+00    0.4482902    0.2007419 -22.80  0.002170413    3.074    0.675
        11 -11.9706    177.0586    243.9193   5.6792108027e+01   3.2426166569e+00    0.5322304    0.2987328 -19.63  0.003127809    2.046    0.511
        12 -11.1419    183.4088    236.4569   5.4675744365e+01   3.4191773067e+00     0.397466    0.2088189 -15.07  0.001793756    2.398    0.583
        13 -10.6715    188.3394    230.7237   5.3011545487e+01   3.5477899152e+00    0.3068122    0.1674512  -5.45  0.001335046    2.257    0.557
        14 -10.6665    190.9006    225.3541   5.1799412572e+01   3.9152855364e+00    0.2377359    0.1656523   2.94 0.0009806282    1.225    0.183
        15 -11.3922    170.2236    240.7426   5.7644591336e+01   4.4433247153e+00    0.4479147    0.2424938  -5.76  0.001921723    2.573    0.611
        16 -10.0494    160.6969    249.6466   6.0499322648e+01   4.4367672530e+00    0.1717839    0.1031137   5.59 0.0007471333    1.741    0.426
        17 -10.9665    164.5722    247.0101   5.9465660533e+01   4.3160259131e+00    0.3082299    0.1863882   8.06  0.001008812    1.622    0.384
        18 -10.8972    168.4975    250.4923   5.9158773340e+01   3.4271763986e+00    0.3064613    0.1279435  27.06  0.001428233    1.880    0.468
        19 -10.0564    170.2393    246.9925   5.8417446176e+01   3.6564227877e+00    0.1773903    0.1281732  14.45 0.0006700538    1.049    0.047
        20 -10.8962    150.5009    250.3555   6.2499740950e+01   5.5430698084e+00    0.3197312    0.1097359  31.03  0.001540087    2.203    0.546
        21 -11.4311    156.4224    245.8279   6.0854780711e+01   5.4318630889e+00    0.3290652    0.2046584  -1.99  0.001603078    1.835    0.455
        22 -11.0406    141.0025    249.2892   6.4204813438e+01   6.8120709174e+00    0.2869669    0.2012625   2.81  0.001967404    1.467    0.318
        23 -10.5363    192.3623    248.2910   5.4636553714e+01   9.9501484722e-01    0.2505773    0.1362968  -8.98  0.001373024    2.087    0.521
        24 -10.8281    195.1910    243.6171   5.3542146379e+01   1.2147006341e+00    0.3026829    0.2002716  19.80  0.001785433    1.157    0.136
        25  -9.9867    125.4933    249.0135   6.7221337629e+01   8.7075206109e+00    0.1374916    0.1129176 -42.55 0.0008159031    1.568    0.362
        26  -9.8450    224.4957    246.5156   4.9084903043e+01  -2.2090784413e+00     0.166179   0.07551192 -20.82  0.001023464    2.205    0.546
        27 -10.6298    135.6449    246.4757   6.4946640281e+01   7.8423981888e+00    0.1743188    0.1208875 -15.13  0.001081354    1.741    0.426
        28 -10.3859    218.9273    245.1483   4.9787702854e+01  -1.5007382003e+00       0.2098    0.1173956 -21.90  0.001137437    1.674    0.403
        29  -9.3782    243.2406    244.7493   4.5971925185e+01  -3.8668794345e+00    0.1484758   0.05995772 -20.74 0.0008810288    2.421    0.587
        30 -10.2742    234.0618    244.0446   4.7261169761e+01  -2.9127874888e+00     0.219013    0.1065999   0.30  0.001340395    2.158    0.537
        31 -11.4292    147.4584    243.8617   6.2344856423e+01   6.7719657238e+00    0.3248224    0.2133404  25.09  0.001410909    1.160    0.138
        32  -9.9295    210.0936    242.2948   5.0844239045e+01  -2.6698630542e-01    0.1756554    0.1107221  -7.07 0.0009255947    1.387    0.279
        33 -10.7862    201.7597    240.7816   5.2039125182e+01   8.0905464758e-01    0.2671724     0.171656 -20.55  0.001599512    1.504    0.335
        34 -10.3066    204.3886    234.8946   5.0788422587e+01   1.1892691722e+00    0.2506195     0.136276  -7.87  0.001342116    1.997    0.499
        35  -9.3771    113.3554    243.3080   6.9104677224e+01   1.1013552071e+01     0.115664   0.07891332   3.78 0.0007042427    1.724    0.420
        36 -10.7268    139.4090    241.7567   6.3682051029e+01   8.0464000811e+00    0.2256263    0.1517806  14.45 0.0009266571    1.345    0.257
        37 -10.7094    131.9414    241.9935   6.5196128142e+01   8.9307832524e+00    0.1829544    0.1402168  20.81  0.001013287    1.065    0.061
        38 -11.0178    123.1361    240.7080   6.6839175480e+01   1.0205378466e+01    0.2247504    0.1614346 -40.51  0.001522615    1.728    0.421
        39  -9.5589    107.4781    242.5063   7.0238872316e+01   1.1851044324e+01    0.1176172   0.09041593  28.07 6.644203e-05    1.045    0.043
        40 -10.9422    186.5609    240.4519   5.4639113273e+01   2.5642162949e+00    0.3294218    0.1622175  13.36   0.00140743    2.132    0.531
        41 -10.0410    189.9467    235.6627   5.3400032039e+01   2.7504857203e+00    0.2321236    0.1526866  -0.73 0.0009608945    1.380    0.275
        42 -10.6594    154.0580    239.6789   6.0573637532e+01   6.5366389144e+00    0.2638821    0.1807168 -10.53   0.00119146    1.611    0.379
        43  -9.6549    214.6135    240.0905   4.9800275135e+01  -5.1051087023e-01    0.1411275   0.07788505 -16.95 0.0009310204    1.728    0.421
        44  -9.4825    206.4713    240.4680   5.1200880605e+01   3.2660082507e-01    0.1090992   0.07621767   7.20  0.000184736    1.048    0.046
        45  -9.0241    248.5626    238.3752   4.4301130492e+01  -3.7587330703e+00    0.2099403   0.06273279 -20.84  0.000807226    5.708    0.825
        46 -10.4126    221.6914    238.3280   4.8410951969e+01  -1.0695575930e+00    0.2694901    0.1358056  12.12   0.00168825    1.829    0.453
        47 -11.6438    160.3605    236.4641   5.8965185974e+01   6.1984363833e+00    0.3984141    0.2683193 -12.50  0.001909268    1.622    0.384
        48 -10.2537    165.9420    232.0236   5.7329627266e+01   6.1080289729e+00    0.2225806    0.1342868  11.62   0.00130122    1.600    0.375
        49 -11.0497    175.2162    227.8411   5.5018837207e+01   5.5167607773e+00    0.4172158    0.2194022  10.66  0.001912412    2.203    0.546
        50 -10.6251    166.9725    237.0517   5.7783819803e+01   5.3119658590e+00    0.1978462    0.1420365  -2.94  0.001066344    1.339    0.253
        51 -10.6457    170.7514    233.2951   5.6586858073e+01   5.3452835781e+00    0.2731371    0.1687209 -14.30  0.001229324    1.816    0.449
        52 -11.0445    146.8580    237.1680   6.1676693953e+01   7.7727974493e+00    0.3080438    0.1743182  12.72  0.001258224    1.883    0.469
        53  -9.5779    117.6251    238.7001   6.7761581449e+01   1.1191688617e+01    0.1188124   0.07967764   4.23 0.0007027888    1.753    0.430
        54 -10.3043    209.5107    236.3304   5.0125280307e+01   4.5687017509e-01    0.2303717    0.1268486  -5.24  0.001300259    1.871    0.465
        55 -10.0239    134.9047    236.8938   6.4031039708e+01   9.3057865139e+00    0.1831677    0.1324391   7.79  0.001118172    1.368    0.269
        56 -10.4008    129.5202    236.0990   6.5035489373e+01   1.0099753815e+01    0.2501863    0.1656859 -16.04  0.001214619    1.964    0.491
        57  -9.6884    102.6609    237.6492   7.0785698035e+01   1.3204728115e+01    0.1168254    0.0828848  -2.31 0.0007044657    1.796    0.443
        58  -9.5924    243.5185    235.9615   4.4704485715e+01  -3.0370527729e+00    0.1415924   0.06373619 -11.06 0.0008085821    2.433    0.589
        59 -10.4358    230.6953    234.4426   4.6442204797e+01  -1.5955705446e+00    0.2380717     0.150376 -19.75  0.001786978    1.401    0.286
        60 -10.5852    177.1410    234.7694   5.5593810111e+01   4.3781096281e+00     0.244322    0.1787006  -8.46  0.001177663    1.298    0.230
        61 -10.5317    140.2999    234.3748   6.2650516967e+01   8.9959146560e+00    0.2448615    0.1648746  -1.14  0.001509808    1.694    0.410
        62 -10.5402    219.6792    230.6261   4.7647975751e+01  -1.8315853130e-02    0.2603304    0.1377432  -4.74  0.001578299    1.989    0.497
        63 -10.2045    152.7260    233.7910   6.0110755295e+01   7.5146946334e+00    0.2125449    0.1282954  19.74  0.001078371    1.422    0.297
        64  -9.0871    248.3382    233.3100   4.3614425861e+01  -3.2431604705e+00    0.1064114   0.05621262   0.61 0.0005894215    1.686    0.407
        65 -11.0086    195.2127    230.0085   5.1692165424e+01   2.8226529261e+00    0.3300076    0.1863075   1.07  0.001466437    1.907    0.476
        66 -10.1630    208.4691    230.1624   4.9433674653e+01   1.2767540031e+00    0.2109367    0.1279722   3.45  0.000823505    1.471    0.320
        67 -10.8854    213.1233    226.4563   4.8122200608e+01   1.1801640953e+00    0.2918804    0.1634428 -18.31  0.001687813    1.702    0.413
        68 -10.3231    202.7417    230.0320   5.0388423984e+01   1.9447664321e+00     0.202974    0.1224481 -11.52  0.001088662    1.602    0.376
        69 -10.6046    132.9903    229.7806   6.3596721402e+01   1.0615421435e+01     0.285797    0.1867569   8.04  0.001240232    1.668    0.401
        70 -10.3965    123.4920    230.9706   6.5708590843e+01   1.1651030326e+01     0.233536    0.1441321  17.66  0.001027921    1.566    0.362
        71 -10.4744    114.3756    229.9774   6.7524878682e+01   1.2975016678e+01    0.2879312    0.1814925 -21.79  0.001590184    2.310    0.567
        72 -10.3950    236.2445    228.2258   4.4689948274e+01  -1.5159200472e+00    0.2847772   0.09177259 -28.76   0.00147327    2.989    0.665
        73 -10.8995    158.2520    229.6012   5.8497167876e+01   7.4062723805e+00    0.2445502    0.1715776   3.67 0.0009451196    1.384    0.277
        74 -10.4545    162.0130    224.6410   5.7107390943e+01   7.6259205433e+00    0.2558098    0.1708422  -1.12  0.001248211    1.582    0.368
        75 -11.4169    143.9144    227.8529   6.1127280258e+01   9.4961086788e+00     0.341731    0.2207114 -30.57  0.002103669    1.816    0.449
        76 -11.0795    139.5239    227.2188   6.1943531490e+01   1.0160470522e+01    0.2838248    0.1961813  28.67 0.0009224516    1.154    0.134
        77 -10.1353    100.1877    230.2102   7.0598100719e+01   1.4732396317e+01    0.1948704    0.1189828  -9.99 0.0009538906    2.846    0.649
        78  -9.8840    249.0664    227.8897   4.2722967868e+01  -2.7745737056e+00    0.1667455   0.08824394  -3.29  0.001111922    1.707    0.414
        79 -10.4709    151.9769    227.9683   5.9522911798e+01   8.4398044869e+00     0.270961      0.14306  23.02  0.001052635    1.667    0.400
        80  -9.5607     56.7736    227.9943   7.9995426858e+01   2.0292358176e+01    0.1379807   0.09638132 -80.55 0.0008840138    1.683    0.406
        81 -10.0474    230.0447    226.3494   4.5375454025e+01  -6.6498643763e-01     0.195202     0.111128  -4.92  0.001225256    1.588    0.370
        82 -10.8804    168.1941    225.5828   5.6039968476e+01   6.7042906593e+00    0.2677675    0.1824832 -13.19   0.00131422    1.539    0.350
        83  -9.7235    107.6741    227.6597   6.8718070411e+01   1.4211703808e+01    0.1196717   0.08615795  -2.64 0.0007051353    1.731    0.422
        84  -9.4506    244.3302    226.2954   4.3187105114e+01  -2.1406386040e+00    0.1070924   0.05853201   0.86  0.000304904    1.635    0.388
        85 -10.3050    224.3544    225.0926   4.6091375316e+01   8.7078350013e-02    0.2297054    0.1239158   6.82  0.001228387    1.791    0.442
        86  -9.3783    240.4296    225.1855   4.3607644925e+01  -1.6280652579e+00    0.1224492   0.08339734 -25.83 0.0007770551    1.507    0.336
        87 -10.4024    206.8587    223.0168   4.8673800987e+01   2.3051516932e+00    0.2741143    0.1538793 -14.88  0.001340157    1.799    0.444
        88 -10.6175    200.5217    223.9383   4.9898365075e+01   2.9389391769e+00    0.2698061    0.1508472  -8.76  0.001237304    1.965    0.491
        89 -10.0595    127.4239    224.8499   6.4175487599e+01   1.2109490651e+01    0.2491421    0.1385479  17.45  0.001269663    1.895    0.472
        90 -10.2341    120.1348    224.5867   6.5696000931e+01   1.3106984936e+01    0.2211539    0.1485808 -27.82  0.001092181    1.904    0.475
        91 -10.0283    248.9061    223.0496   4.2032324256e+01  -2.2673727304e+00    0.1673337   0.09019837  -1.74  0.001052671    1.678    0.404
        92 -11.2831    182.2764    220.5600   5.2683092930e+01   5.6043795970e+00    0.4760527    0.2456668   6.60  0.002192681    2.632    0.620
        93 -10.2445    134.6499    222.5315   6.2373124915e+01   1.1524548790e+01    0.2213231    0.1488572  14.31  0.000951876    1.445    0.308
        94 -10.7617    217.0092    220.8685   4.6656859349e+01   1.3882883928e+00    0.2672009    0.1664118  -2.15  0.001536333    1.416    0.294
        95 -11.0385    173.7601    220.0259   5.4204605045e+01   6.7612700848e+00    0.3378402    0.2127796  -5.00  0.001527212    1.751    0.429
        96 -11.2384    149.8014    219.6672   5.8873014632e+01   9.9540817682e+00    0.4319574    0.2648614  -0.28  0.002135738    2.080    0.519
        97 -10.7614    140.8819    219.7408   6.0717786332e+01   1.1133111653e+01    0.2465287    0.1576654 -26.65  0.001154551    1.889    0.470
        98  -9.8807     51.6862    221.6848   8.0728326125e+01   2.2033732788e+01    0.1086282   0.09028847 -12.40 0.0005252894    1.642    0.391
        99 -10.7339    239.6995    218.8507   4.2771081649e+01  -8.7844204123e-01    0.2783654     0.155188   3.43  0.001838802    1.642    0.391
       100 -10.7917    227.0860    218.2546   4.4635419280e+01   5.5462809343e-01    0.3433435    0.1700496  -6.90  0.001887244    2.399    0.583
       101 -11.4361    192.7856    217.1636   5.0269917410e+01   4.7355755628e+00    0.3988675    0.2335525 -20.55  0.002136492    1.745    0.427
       102 -11.1731    198.8864    213.1977   4.8587220555e+01   4.4903255282e+00    0.3288349    0.1972233   1.03  0.001381232    1.720    0.419
       103  -9.7231    167.6942    220.4330   5.5425591184e+01   7.4877952211e+00    0.1666692   0.09337282  20.80 0.0009068628    1.603    0.376
       104 -10.6837    203.8208    217.0576   4.8309862889e+01   3.3955311461e+00    0.3370784    0.1731187  -5.22   0.00171631    2.613    0.617
       105 -10.5919    210.7218    216.4358   4.7037666736e+01   2.6468136709e+00    0.2747207    0.1702329   0.37  0.001369671    1.490    0.329
       106 -10.9614    160.4234    217.4462   5.6433377307e+01   8.8734645372e+00    0.3459869    0.1871571  16.48  0.001474414    1.952    0.488
       107 -10.7314    249.7236    213.3737   4.0448176465e+01  -1.3418907128e+00    0.3818855    0.1574515 -32.29  0.002298155    2.196    0.545
       108 -10.7804    136.4834    215.7170   6.1117742074e+01   1.2366429906e+01    0.2971817    0.1851455  -5.17  0.001533562    2.244    0.554
       109 -10.3181    180.2361    215.1774   5.2279518529e+01   6.5958486125e+00    0.2463219    0.1656107   3.59  0.001153599    1.417    0.294
       110 -10.3036    244.6033    214.4015   4.1358026579e+01  -9.1665905550e-01     0.208838     0.120689   8.88 0.0009543258    1.505    0.335
       111 -10.5754    118.7760    215.3773   6.4906280660e+01   1.4828859407e+01    0.1833157    0.1023773  23.55 0.0008368205    1.676    0.403
       112 -10.8709    169.8123    212.9398   5.3942614901e+01   8.2823978062e+00    0.3241166     0.201611  -0.06  0.001467772    1.841    0.457
       113 -11.0389    143.3793    212.7578   5.9266895513e+01   1.1899364115e+01    0.2840145    0.2070724 -11.66  0.001236807    1.540    0.351
       114 -10.4597    112.2872    213.6946   6.6147170495e+01   1.5998637047e+01    0.2531153    0.1407954  11.76  0.001170302    2.451    0.592
       115 -10.5851    232.5381    212.1303   4.2839728643e+01   6.4285415920e-01    0.2729151    0.1450984 -11.42  0.001611225    1.841    0.457
       116 -10.9290    186.4601    211.0674   5.0505947440e+01   6.3538027443e+00    0.3660973    0.2018884  -0.96  0.001860668    2.400    0.583
       117 -10.3305    154.5717    212.0780   5.6855563011e+01   1.0471107145e+01    0.2471916    0.1663491   5.79   0.00144388    1.564    0.361
       118 -10.5765    124.8900    211.7013   6.3102868786e+01   1.4623396474e+01    0.2090545    0.1409553  15.23  0.001184866    1.506    0.336
       119  -9.8853    225.4786    210.4696   4.3694205127e+01   1.6352228295e+00     0.185693   0.08406526 -22.74  0.001019173    2.193    0.544
       120  -9.8506    208.8728    211.3834   4.6577366606e+01   3.4919696883e+00    0.1586058   0.08595446  19.34 0.0008092478    1.690    0.408
       121  -9.0873    205.2767    211.3705   4.7191848355e+01   3.9334673422e+00    0.1190358   0.07156982  -3.88 0.0007007304    1.685    0.407
       122 -11.2447    205.7959    204.8469   4.6079752737e+01   4.7061713494e+00    0.5075761    0.2153939 -21.73  0.002300113    3.121    0.680
       123 -10.9107    162.7959    208.6194   5.4692575379e+01   9.8730019696e+00    0.3376591     0.213747   5.40  0.001870925    1.760    0.432
       124 -11.0070    132.5325    208.8681   6.1059095747e+01   1.4043991817e+01    0.3134389    0.2163692  -0.67  0.001504953    1.740    0.425
       125 -11.5612    215.9720    206.4703   4.4613658231e+01   3.2416365525e+00    0.4711156    0.2537035  -2.14  0.002448582    2.186    0.543
       126 -10.6474    192.5403    207.6585   4.8869515921e+01   6.0293299999e+00     0.271277    0.1766483 -18.90  0.001448004    1.489    0.328
       127 -10.9369    177.9657    207.1943   5.1510412881e+01   8.0200741178e+00    0.3756557    0.2262116  -0.04  0.002043806    1.963    0.491
       128 -11.3431    237.2949    205.0213   4.0989186217e+01   9.2109359453e-01    0.3712131    0.2283514  -9.02  0.002372562    1.373    0.271
       129  -9.3824    229.5091    208.4287   4.2734837550e+01   1.4111681843e+00    0.1132044   0.07905808  -0.03  0.000804103    1.106    0.096
       130 -10.8571    148.7075    205.9403   5.7189999395e+01   1.2254858405e+01    0.3714354    0.2239683  -9.31  0.001828977    2.383    0.580
       131 -10.4885    247.3002    205.1910   3.9522538149e+01  -2.0121388640e-01    0.2389771    0.1302705  -7.10  0.001049673    1.724    0.420
       132 -10.6425    250.2655    199.5066   3.8182557212e+01   1.0595010115e-01    0.2993659    0.1102766 -26.00  0.001581656    2.453    0.592
       133 -10.7053    156.8106    205.0540   5.5377975204e+01   1.1255776743e+01     0.226206     0.158117 -13.73  0.001329535    1.580    0.367
       134 -10.6258    126.8500    205.7021   6.1884603796e+01   1.5387007406e+01    0.2090634    0.1437092  16.22  0.001178571    1.455    0.313
       135 -11.1000    118.0470    205.3740   6.3819774086e+01   1.6685747923e+01    0.3325269    0.1973131   9.70  0.001577165    2.259    0.557
       136 -10.1525     65.4932    206.5354   7.6348550779e+01   2.3411096762e+01    0.1278302    0.1053238  43.21 0.0001032308    1.017    0.017
       137 -10.1464    139.5662    204.6747   5.8955180250e+01   1.3758687758e+01    0.2562633    0.1695115   8.23  0.001138894    1.706    0.414
       138 -11.0745    229.4233    200.1524   4.1423900467e+01   2.4009783648e+00    0.4993289    0.2375382  -9.41  0.002436643    2.881    0.653
       139 -10.9491    197.8677    201.1877   4.6886826926e+01   6.2127480186e+00    0.3475101    0.2051923  -8.39  0.001675391    1.880    0.468
       140  -9.8369    175.6130    201.8519   5.1135451039e+01   9.1215138116e+00    0.1774246    0.1322235  10.24 0.0007093154    1.175    0.149
       141 -10.9266     57.1165    201.7495   7.7991690192e+01   2.5383492797e+01    0.2333393    0.1520107 -40.15  0.001249731    2.139    0.532
       142 -10.9900    244.0981    198.6547   3.8943566117e+01   8.8406165296e-01    0.3424644     0.147397 -23.93  0.001926095    2.106    0.525
       143  -9.2657    243.7447    186.4128   3.6962944326e+01   2.3501126434e+00     0.268907    0.1320572  15.94  0.001457725    2.425    0.588
       144 -10.0741    248.5338    185.5233   3.6118619390e+01   1.8947429919e+00    0.2029234    0.1439117   0.57 0.0006918482    1.148    0.129
       145 -10.2335    250.0355    181.9925   3.5303936921e+01   2.1335612451e+00    0.1789243    0.1144323  -4.82  0.001212501    1.354    0.261
       146 -11.3744    245.9889    190.5390   3.7329358001e+01   1.6039210836e+00    0.3698519    0.2062541   1.75  0.001468204    1.879    0.468
       147  -9.5984    250.3107    189.6914   3.6565146413e+01   1.2086999452e+00    0.1486231   0.08060716 -20.36  0.000690171    1.523    0.343
       148 -10.7813    211.4415    199.4235   4.4239964322e+01   4.6957015868e+00    0.3007083    0.1946055  -1.75  0.001519765    1.446    0.308
       149 -10.9307    184.9554    200.6899   4.9170314068e+01   8.0090174953e+00    0.3384447     0.197246   3.94  0.001774248    2.071    0.517
       150  -9.9704    110.4738    201.4727   6.5061990826e+01   1.8467510036e+01    0.1307616    0.1110366  30.27 0.0001027674    1.016    0.016
       151 -10.5489    101.3899    199.7113   6.6983861745e+01   2.0076476973e+01      0.37872    0.2483382  -3.95  0.001847584    2.296    0.564
       152 -10.3367    222.4507    199.1673   4.2375521559e+01   3.3591135213e+00    0.2277148    0.1410258   4.19  0.001083943    1.519    0.342
       153 -11.3011    165.7884    198.1552   5.2495914881e+01   1.1066883241e+01    0.5349468    0.2716644  12.23  0.002249416    3.025    0.669
       154 -10.1972    131.9113    199.8437   5.9949097442e+01   1.5690231075e+01    0.2943271    0.1583296  23.81  0.001287732    1.843    0.458
       155 -10.1409     68.4765    199.5080   7.4986658259e+01   2.4478183027e+01    0.1298443    0.1098838  43.28 0.0008100332    1.026    0.025
       156 -11.0376    237.5498    195.2798   3.9370441598e+01   2.0261731172e+00    0.4203605    0.1687439 -22.97  0.002115917    2.571    0.611
       157 -10.3853    177.7129    195.9706   4.9790985717e+01   9.7070399293e+00       0.2857    0.1737405  11.43  0.001540534    1.780    0.438
       158 -10.6114    140.3205    196.6692   5.7627285019e+01   1.5016481635e+01    0.2630262    0.1428919  14.58  0.001164748    2.434    0.589
       159 -10.5093    203.2081    195.2386   4.4969715246e+01   6.3175655778e+00    0.2547496     0.168025  -0.55  0.001343028    1.461    0.316
       160 -10.6721    193.2235    194.5759   4.6645680341e+01   7.7536824996e+00     0.361024    0.1991422   0.44  0.001742558    2.514    0.602
       161 -10.9773    149.7753    193.4054   5.5078410200e+01   1.4178037106e+01     0.414376    0.2314442  10.87  0.001845228    2.528    0.604
       162 -10.4728    216.0682    192.5171   4.2320172172e+01   5.0026524513e+00    0.3238277    0.1776575 -21.71  0.001875861    1.732    0.423
       163 -10.1596    209.8594    193.3503   4.3505034919e+01   5.6967692149e+00    0.2275579    0.1285631 -16.60  0.001125857    1.815    0.449
       164 -10.2711    231.7829    191.9593   3.9702644414e+01   3.1121438683e+00    0.2126928    0.1246465 -11.23  0.001185014    1.596    0.373
       165 -10.9396    224.8697    190.4185   4.0532040169e+01   4.1558337450e+00    0.3585542    0.1945958 -15.65  0.001850009    1.846    0.458
       166 -10.7775    186.4454    190.7023   4.7255111647e+01   9.2585833531e+00    0.3715739    0.2126625 -15.89  0.001914509    2.080    0.519
       167  -9.8172    134.0452    192.8047   5.8443850941e+01   1.6629973557e+01    0.2222332    0.1413673   7.54  0.001085501    2.004    0.501
       168 -10.4473    161.5898    190.5932   5.2141750122e+01   1.2890200442e+01     0.338495    0.2019727   0.94  0.001590583    2.377    0.579
       169 -10.0668     90.8366    192.3700   6.8661181184e+01   2.3004830766e+01     0.195622    0.1163391  21.46 0.0009479299    1.773    0.436
       170  -9.9487    113.6334    191.6902   6.3016198688e+01   1.9872466639e+01    0.1362865   0.09869087  -2.80 0.0007037628    1.758    0.431
       171 -10.4165    199.4277    189.2798   4.4637087961e+01   7.6524924202e+00    0.2695354    0.1657929  -2.36  0.001499143    1.800    0.445
       172  -9.9938    205.9505    189.0773   4.3455459461e+01   6.7931124088e+00    0.1967097     0.122203  -2.10  0.001123963    1.702    0.413
       173 -10.2218    179.8162    188.6267   4.8169260831e+01   1.0521521663e+01    0.2175188    0.1528848 -17.25 0.0009845677    1.417    0.294
       174 -10.1575    172.7047    188.3261   4.9512823544e+01   1.1608702583e+01    0.2568741    0.1599539  -0.56  0.001150833    2.006    0.502
       175 -10.7852     68.1714    189.1981   7.4055823820e+01   2.6694793213e+01    0.3573385    0.1063382  37.65   0.00137497    2.561    0.609
       176  -9.8033    210.8111    187.2280   4.2304665220e+01   6.3931287382e+00    0.1672862    0.1145125   2.50 0.0005959738    1.350    0.259
       177 -10.6931    231.4432    184.9962   3.8573338627e+01   4.0162520909e+00    0.3072081    0.1709995   4.21  0.001556629    2.076    0.518
       178 -10.8332    217.6865    184.7113   4.0720453373e+01   5.8181130828e+00    0.3158862     0.184604  -4.16  0.001407587    1.901    0.474
       179 -10.3146    191.5030    184.1454   4.5192198901e+01   9.5085499874e+00    0.2484228    0.1685127   4.26  0.001090854    1.492    0.330
       180  -9.6417    149.3231    185.3214   5.3881857806e+01   1.5640470735e+01    0.1356584   0.09511858  -1.51 0.0004271713    1.677    0.404
       181 -10.4746    139.9947    184.8208   5.5864947445e+01   1.7169972835e+01    0.2274405    0.1453682   6.42  0.001086108    2.046    0.511
       182 -10.0496    165.1349    183.0076   5.0143855544e+01   1.3606798443e+01     0.282413    0.1737327  -1.95  0.001346154    2.231    0.552
       183 -10.4175    211.2505    180.8844   4.1125791752e+01   7.2003439450e+00    0.3254947    0.1871776  -7.50  0.001726282    2.036    0.509
       184 -10.5497    203.1981    181.6320   4.2645840408e+01   8.2121784392e+00    0.3129304    0.1785915 -15.42  0.001657901    1.939    0.484
       185 -10.4012    130.4517    183.1880   5.7788482096e+01   1.8953063087e+01    0.2580554    0.1519613  12.63  0.001137621    2.304    0.566
       186 -10.6591    224.9719    180.6350   3.8830724742e+01   5.3991104674e+00    0.3043259    0.1747427  -0.55   0.00162798    2.004    0.501
       187 -10.2813    183.5569    181.2217   4.6174865861e+01   1.1112678854e+01    0.3079548    0.1900457   6.13   0.00158605    1.939    0.484
       188 -10.3672    156.3346    181.2934   5.1696716597e+01   1.5255773705e+01    0.2974978    0.1998297  -2.13  0.001526286    1.834    0.455
       189 -10.1391    197.4880    180.9278   4.3536850073e+01   9.1231747404e+00    0.2324588    0.1493807  14.70 0.0008472506    1.560    0.359
       190 -10.5802    175.2065    179.1015   4.7428327303e+01   1.2706055745e+01    0.3797353    0.2117352 -12.02   0.00165759    2.746    0.636
       191 -10.5699    238.0775    185.8763   3.7712478817e+01   3.0919201265e+00    0.2698797    0.1440258 -15.02  0.001483838    1.818    0.450
       192 -11.2875    243.7883    179.3072   3.5737539381e+01   3.1976207987e+00     0.340567    0.1865502   2.28   0.00148976    2.147    0.534
       193  -9.9983    235.3314    180.0672   3.7124350023e+01   4.1470137126e+00     0.204352    0.1265825   3.09 0.0008287965    1.606    0.377
       194  -9.8467     66.6653    180.6788   7.3559692835e+01   2.8761189782e+01     0.131621    0.1033828 -20.41 0.0007049963    1.705    0.413
       195 -10.5351    111.6628    179.6035   6.1752051820e+01   2.2567849684e+01    0.2830987    0.1248489  29.28   0.00114821    2.237    0.553
       196  -9.8746     75.4939    179.4707   7.1066831022e+01   2.7864586997e+01    0.1364985    0.1211863  44.42 0.0008097641    1.028    0.027
       197 -10.8250    249.4114    176.1319   3.4380264043e+01   2.9019055547e+00    0.3214153    0.1543269 -16.91  0.001754709    2.119    0.528
       198 -10.7395    192.3220    174.4614   4.3319315071e+01   1.0843377860e+01    0.4375671    0.2138634 -17.82  0.001796098    3.148    0.682
       199 -10.7542     98.1552    177.3876   6.4845300315e+01   2.5081251106e+01    0.3214076    0.1134828  35.76  0.001219919    2.420    0.587
       200 -10.0925     45.3356    177.3201   7.9012069628e+01   3.2101346155e+01    0.1281074    0.1006275 -29.28 0.0007049643    1.704    0.413
       201 -10.3690    240.8744    176.1989   3.5620110505e+01   3.9361642447e+00    0.1631995    0.1078859  -4.10  0.001072914    1.347    0.258
       202 -10.9008    241.5850    172.1901   3.4806783022e+01   4.3450292670e+00    0.2300217    0.1109777 -15.49 0.0009729895    2.349    0.574
       203 -10.5474    231.1902    174.5960   3.6790169053e+01   5.3720914352e+00     0.352718     0.132786 -27.86  0.001651721    2.557    0.609
       204 -10.3016    218.4298    173.3437   3.8584189196e+01   7.2491375910e+00     0.382967    0.2116088   2.87  0.001890292    2.468    0.595
       205  -9.8978    205.8049    175.3945   4.1078196171e+01   8.7338799186e+00    0.1753931    0.1012287  23.17 0.0009502072    1.763    0.433
       206  -9.4566    200.3226    175.3600   4.2034035777e+01   9.5290842172e+00    0.1327772   0.08404223  -2.36 0.0007043218    1.775    0.437
       207  -9.9654    148.6882    175.0047   5.2277395589e+01   1.7583184729e+01    0.2803337    0.1605858  10.78  0.001161223    2.667    0.625
       208 -10.4012    225.1946    171.4653   3.7159257194e+01   6.5794543209e+00    0.2950403    0.1677738  -9.64  0.001600867    1.961    0.490
       209 -10.3015    183.9341    172.2213   4.4486677694e+01   1.2466339618e+01    0.3238814    0.1858936  -0.55  0.001423394    2.697    0.629
       210  -9.8536     91.3171    172.6629   6.5967493264e+01   2.7125237639e+01    0.1477046   0.09865718  61.75  0.000704851    1.701    0.412
       211  -9.7969    211.8738    173.8671   3.9765129734e+01   8.0897720219e+00    0.1948013    0.1382371  -3.27  0.001210452    1.308    0.235
       212  -9.9403     80.3224    170.6443   6.8657490302e+01   2.9176976978e+01    0.1518008     0.096057  61.71 9.332057e-05    1.762    0.433
       213 -10.1313     24.7121    169.8781   8.4174200538e+01   3.5973063015e+01    0.2176032    0.1171901 -38.38 0.0009583094    2.846    0.649
       214 -10.1814    177.3598    167.6608   4.4920669687e+01   1.4238435313e+01    0.3360784    0.1939652  -8.21  0.001447699    2.693    0.629
       215 -11.7762    248.4689    167.0615   3.2908419623e+01   4.1167185897e+00    0.2848169    0.1545172  -9.36   0.00159205    2.010    0.502
       216 -10.6149    237.8575    167.2422   3.4462483533e+01   5.4483966718e+00    0.2276488    0.1235249 -10.70   0.00116986    2.063    0.515
       217 -10.1254    205.8784    167.1028   3.9540501757e+01   9.9249867053e+00    0.2254345    0.1537704 -22.63  0.000974695    1.327    0.246
       218  -9.9778    198.8934    167.2563   4.0795341324e+01   1.0947052025e+01    0.2469649    0.1460509 -10.49 0.0009856137    2.073    0.518
       219 -10.2289    219.5283    165.4839   3.6961843502e+01   8.1784126571e+00    0.2715424    0.1551345  -0.03   0.00136153    2.305    0.566
       220  -9.7310    229.5077    164.4861   3.5209961450e+01   6.9246153208e+00     0.214058   0.09441826 -24.18  0.001025916    2.292    0.564
       221  -9.6557    168.9657    164.3398   4.5987731467e+01   1.6163845734e+01    0.2211188    0.1010311  20.27 0.0007041201    4.293    0.767
       222  -9.8186     67.3292    164.6961   7.1524253715e+01   3.2357084630e+01    0.1510284   0.09397671  58.58 0.0004476559    1.651    0.394
       223 -10.1661    240.8086    162.6726   3.3197767905e+01   5.6470597332e+00    0.2053945    0.1282293 -18.60  0.000929913    1.355    0.262
       224 -10.0678    234.6584    162.4622   3.4058549359e+01   6.4928256862e+00    0.2068609    0.1180333 -15.05  0.001108914    1.736    0.424
       225  -9.1880    226.3304    163.2933   3.5477773671e+01   7.5234166932e+00    0.1225731   0.07904154   0.03 0.0003441137    1.631    0.387
       226  -9.9615    192.3997    162.3941   4.1049330953e+01   1.2697935102e+01    0.2534851    0.1035351 -26.74 0.0009555692    3.258    0.693
       227 -10.2714     56.9971    163.3280   7.4337570263e+01   3.4024881684e+01    0.2995967     0.175957  20.28  0.001384023    1.898    0.473
       228 -12.2101    247.0445    156.2593   3.1134934277e+01   5.6452760901e+00    0.5512408    0.2718509 -15.52   0.00283426    2.287    0.563
       229  -9.0699     38.6871    162.6904   7.9618844395e+01   3.6307301481e+01    0.1299057    0.1020142 -35.66 0.0006802756    1.628    0.386
       230  -9.1930    133.3345    161.3301   5.3378313126e+01   2.2752518017e+01    0.1465266    0.1074911  -4.51 0.0006191364    1.727    0.421
       231 -10.0599    205.5186    159.4800   3.8153732266e+01   1.1106931075e+01    0.2826454    0.1664593  -1.03  0.001341226    2.328    0.570
       232 -10.4345     81.0106    157.9975   6.6689398332e+01   3.2008032908e+01    0.4374858    0.1163029  41.77  0.001387828    3.292    0.696
       233 -10.0881    237.9728    156.9614   3.2546612497e+01   6.7651781990e+00    0.1948987    0.1206534  -2.29  0.001131899    1.756    0.430
       234 -10.2008    227.5213    156.4586   3.4004986658e+01   8.2869996538e+00    0.2675648    0.1536955  -0.64  0.001355499    2.298    0.565
       235 -11.5350    248.4863    160.6026   3.1736165125e+01   4.9136118698e+00      0.45042    0.2227869  -0.99  0.001959031    3.675    0.728
       236 -10.5346     33.4150    155.8575   8.0588088442e+01   3.8540551344e+01    0.2266644    0.1646776  22.46  0.001227733    1.465    0.318
       237  -9.9433    218.4942    153.9555   3.4931907111e+01   9.9530636237e+00    0.2841641    0.1052156 -29.96  0.001204689    2.648    0.622
       238  -9.8464     23.3280    155.3402   8.3594086458e+01   3.9637118163e+01    0.1336116    0.0962279 -42.18  0.000516638    1.736    0.424
       239 -13.8383    248.3111    115.6891   2.3043134382e+01   1.0728287948e+01     1.100206    0.3272246 -32.28  0.004651524    2.701    0.630
       240 -12.8514    246.5560    136.0732   2.7348428833e+01   8.3100027615e+00    0.7129335    0.3865219  -2.07  0.003380802    2.920    0.658
       241 -13.3858    247.3150    128.1564   2.5684787166e+01   9.2379163100e+00    0.6086993    0.4743115  48.46  0.003057425    1.669    0.401
       242 -10.9985    232.7933    151.4912   3.2262892492e+01   8.2128560041e+00     0.280643    0.1573418 -23.89   0.00149706    1.573    0.364
       243  -9.9597    205.3197    152.6364   3.6848568010e+01   1.2167663921e+01    0.2631574    0.1636022   0.22  0.001188848    2.061    0.515
       244  -9.3665    197.6506    153.6806   3.8394420178e+01   1.3227849635e+01     0.136564   0.09146122   1.12 0.0007048371    1.738    0.425
       245 -10.1613      7.0423    153.2587   8.8357730019e+01   4.1477793147e+01    0.1610211    0.1074484  23.98 0.0007104728    1.559    0.359
       246  -9.6931    223.5443    151.2917   3.3619542507e+01   9.5806929231e+00    0.1693169     0.100195 -22.10 0.0009348273    1.554    0.356
       247 -10.2445     84.4366    149.3699   6.4346675278e+01   3.3541077214e+01    0.2862861     0.139056  17.63 0.0009545185    3.343    0.701
       248 -11.2810    234.2493    145.5003   3.0889018664e+01   8.8156413563e+00    0.3010305    0.1756877  -8.70  0.001604278    2.006    0.502
       249  -9.7081    214.0489    146.8024   3.4232446692e+01   1.1670151711e+01     0.211832    0.1301292  10.28  0.001071078    2.102    0.524
       250 -10.2822     51.5241    148.7350   7.4270562835e+01   3.8302081117e+01    0.2892953    0.1798181   8.92  0.001286455    2.157    0.536
       251  -9.6314     22.5023    147.5034   8.3269551792e+01   4.1679521931e+01    0.1364229    0.1181868  68.83 0.0008106791    1.005    0.005
       252  -9.4956    206.7912    145.3376   3.5131959896e+01   1.3042606692e+01    0.1735295    0.1097425  29.05 0.0009331572    1.688    0.408
       253  -9.9940    224.4168    144.0262   3.2052264985e+01   1.0475415049e+01    0.2117491    0.1450991   9.39  0.001108827    1.612    0.380
       254  -9.6881    218.5801    143.7309   3.2893337419e+01   1.1413549977e+01    0.1729568    0.1043866 -39.40 0.0009458656    1.586    0.370
       255  -9.6231    230.7755    141.4024   3.0584011879e+01   9.8870576339e+00    0.1578973    0.1051695  24.23  0.000652927    1.650    0.394
       256 -10.5034     41.4658    139.9913   7.6446332800e+01   4.1716274619e+01    0.3547633    0.2154805   1.88  0.001537098    2.389    0.582
       257  -9.7812     16.3793    137.7246   8.4507268123e+01   4.4699287859e+01    0.2078031    0.1225217 -84.39 0.0007977218    1.567    0.362
       258 -11.5951     69.4626    135.5351   6.6659741562e+01   3.9234826969e+01    0.3547194    0.2904318 -38.30 0.0006211387    1.407    0.289
       259 -11.1055     58.2970    135.8719   7.0352814771e+01   4.0717989246e+01    0.3987574     0.215729  12.89  0.001538941    2.648    0.622
       260  -9.7678     50.6726    135.3126   7.2800161894e+01   4.1845780505e+01    0.1573761   0.09852652  60.98   0.00057823    1.667    0.400
       261 -10.7057     23.4979    130.7966   8.1529819896e+01   4.5913426398e+01    0.4691636    0.2353435 -31.53  0.001828558    3.130    0.681
       262 -13.2436    244.2392    147.7278   2.9914762550e+01   7.1142095622e+00    0.6991062    0.4276097 -17.65  0.004272968    1.456    0.313
       263 -10.8092     53.7547    130.0518   7.0996070788e+01   4.2826543603e+01    0.2498628    0.2086037  38.05 0.0005861044    1.185    0.156
       264 -11.0110     40.8783    128.3736   7.5208802328e+01   4.4822517170e+01    0.4536469    0.2224271  31.60  0.001943058    1.953    0.488
       265 -10.9386     75.4488    123.4145   6.2492875441e+01   4.1400551804e+01     0.397238    0.2501173  44.82  0.001770487    1.549    0.354
       266 -11.9760     83.4144    121.5222   5.9482101572e+01   4.0561408305e+01     0.717662    0.2632452  32.06  0.002342019    2.938    0.660
       267 -10.7951     15.7570    118.2343   8.3136834372e+01   4.9872405936e+01    0.3499369    0.1738405 -29.90  0.001395879    2.964    0.663
       268 -10.7358    101.9888    117.3514   5.2701961066e+01   3.8213327044e+01    0.3967894    0.1893562  39.20   0.00149716    2.065    0.516
       269 -10.2977     27.0437    117.0331   7.8799310356e+01   4.9258514800e+01    0.1704123    0.1532003  84.86 0.0003661165    1.008    0.008
       270 -10.6502     69.2436    115.4017   6.3006686624e+01   4.4440600308e+01    0.2771691    0.2230949  63.82 0.0002716508    1.285    0.222
       271 -10.7109     72.9671    114.7579   6.1570811253e+01   4.4014685939e+01    0.4104795    0.2099075  29.33  0.001596692    2.111    0.526
       272 -10.6705     14.0245    106.7531   8.2706734550e+01   5.3074949439e+01    0.5051185    0.1541458 -46.77  0.001638794    3.912    0.744
       273 -10.2905     67.5577    105.2438   6.1432093476e+01   4.7338352467e+01    0.3763486    0.1703862 -40.02  0.001248531    3.039    0.671
       274 -12.7050    248.1205    102.4610   2.0326717993e+01   1.2494972360e+01    0.4800775    0.2400057 -35.57  0.002407732    1.573    0.364
       275 -10.5706    117.5266    105.4936   4.5182267785e+01   3.7817663739e+01    0.2907575    0.1477213  33.16  0.001040213    2.418    0.586
       276 -10.5334     88.9051    104.8244   5.3811484622e+01   4.3725909014e+01    0.3326719    0.2260637  24.72  0.001431288    1.747    0.428
       277  -9.8532      1.3869    104.9526   8.7581871709e+01   5.4304283237e+01    0.1990806    0.1145242 -82.09 7.842692e-05    1.521    0.343
       278 -10.1870    118.9865     93.7131   4.1523499739e+01   4.0088778073e+01     0.226628    0.2070994  49.94 0.0004983878    1.096    0.088
       279 -10.7310     46.8454     91.5401   6.6573210523e+01   5.3950374520e+01     0.581068    0.3007353  14.51  0.002200191    2.649    0.622
       280  -9.9618     84.3440     93.3274   5.2340693671e+01   4.7402997383e+01    0.1612077    0.1249162 -12.84 0.0007050805    1.744    0.427
       281 -11.2411     57.7383     91.6595   6.2053427748e+01   5.2390901130e+01    0.4610175    0.3014497   8.31  0.001483166    2.140    0.533
       282  -9.7971     80.6013     85.7801   5.1533569018e+01   4.9950159193e+01    0.2188392    0.1485123 -64.24 0.0005291385    1.613    0.380
       283 -10.8957     65.7388     86.2474   5.7397073532e+01   5.2508099875e+01    0.4310449    0.1982884  24.18  0.001433991    3.063    0.674
       284  -9.9642    135.7508     83.7983   3.4250607061e+01   3.8298721244e+01    0.3739033     0.202363 -23.11  0.001282454    2.911    0.656
       285 -10.8392    249.8442     79.8944   1.5347334222e+01   1.5133394277e+01     0.235336    0.1228775 -25.61  0.001259385    1.714    0.417
       286 -10.1483    181.1014     79.1588   2.3887812383e+01   2.8649076613e+01    0.2965519    0.1615931 -55.11  0.001233199    2.162    0.538
       287  -8.9822     85.6796     78.7193   4.7513658929e+01   5.0616478023e+01    0.1536864    0.1252824  -2.41 0.0006992006    1.584    0.369
       288  -9.9975    176.3027     76.7412   2.4021821504e+01   3.0116612733e+01    0.2791908     0.188321  48.92  0.001241895    1.607    0.378
       289  -9.7874     59.5169     76.5128   5.7203634170e+01   5.5980942918e+01    0.1502087    0.1455914 -76.42 0.0001005326    1.019    0.019
       290 -10.5879     11.5600     74.4621   7.9826130564e+01   6.1920442878e+01    0.2676334    0.1388197  12.19  0.001209723    2.182    0.542
       291 -10.7669      4.8806     73.1166   8.3048328036e+01   6.2635072062e+01    0.2021499    0.1633295  70.31 0.0002624741    1.252    0.201
       292  -9.3649    147.2977     70.6901   2.7667988243e+01   3.7974030648e+01    0.1557155    0.1146465 -69.61 0.0002384561    1.597    0.374
       293  -9.6280    154.4433     67.9542   2.5399801883e+01   3.6710632781e+01    0.2199544    0.1419825 -37.04 0.0003489602    1.492    0.330
       294  -9.5895     44.5241     67.8810   6.1541615208e+01   6.0400910285e+01    0.2032094    0.1390601 -58.84 0.0003237123    1.394    0.282
       295  -9.7978    145.3219     61.6630   2.5233476524e+01   4.0011044185e+01    0.1619346     0.112593 -68.22 0.0007050469    1.712    0.416
       296  -9.6041     57.9878     59.1878   5.2144485448e+01   6.0415112313e+01    0.1943688     0.188535   1.08 0.0003398843    1.047    0.045
       297  -9.2302    236.5010     57.4628   1.1624061408e+01   2.0320737194e+01    0.1243706    0.1013468 -39.23 0.0001927066    1.030    0.029
       298 -11.8467     86.2468     54.8707   3.8793658503e+01   5.5667548470e+01    0.3020974    0.2707001 -64.87 0.0004265112    1.179    0.152
       299  -9.8463     28.1260     42.6029   6.2186948428e+01   6.8638345166e+01     0.187209    0.1671854  -2.66 0.0006896689    1.140    0.123
       300  -9.2905    184.4109     41.5526   1.2935208083e+01   3.3408317121e+01    0.1395592    0.1210525 -54.76 0.0001729153    1.021    0.020
       301 -10.7172    122.0028     36.8852   2.1401689811e+01   4.9901966447e+01    0.2508237    0.2170969 -39.92 0.0008069997    1.173    0.148
       302  -9.6087    176.5649     33.4119   1.1484844710e+01   3.6334345348e+01    0.1368601    0.1251674 -63.46 5.861417e-05    1.040    0.038
       303 -10.3532     89.3527     32.1256   2.7927521209e+01   5.8982641541e+01    0.2869754    0.1460036 -22.66  0.001078223    2.531    0.605
       304 -10.3481     45.9848     30.5818   4.5762999968e+01   6.8631930054e+01    0.3447779     0.169079 -40.04  0.001460028    2.052    0.513
       305 -10.0534    124.1883     28.3529   1.7627376003e+01   5.0499264214e+01     0.206788    0.1761058  84.88 0.0007197819    1.140    0.123
       306  -9.7621     91.0000     25.9338   2.4514109482e+01   5.9483676704e+01    0.2312942   0.08451141 -30.34 0.0004767481    2.867    0.651
       307  -9.6381    183.2760     25.3724   8.4032381939e+00   3.5670232197e+01    0.1308399    0.1038691  23.49 0.0007005914    1.688    0.408
       308  -9.8975    112.7282     21.5842   1.7161488038e+01   5.4396429150e+01    0.2715765    0.1589063 -50.05 0.0008614267    1.838    0.456
       309 -10.6832    194.5595    237.5872   5.2848956329e+01   1.9880932153e+00    0.3022015    0.1725889 -11.38  0.001268764    1.859    0.462
       310 -10.3310     41.2041     13.5912   3.8449020426e+01   7.2504664864e+01    0.1944502     0.118338  33.05 0.0004892017    1.677    0.404
