#   1 NUMBER                 Running object number                                     
#   2 MAG_AUTO               Kron-like elliptical aperture magnitude                    [mag]
#   3 X_IMAGE                Object position along x                                    [pixel]
#   4 Y_IMAGE                Object position along y                                    [pixel]
#   5 X_WORLD                Barycenter position along world x axis                     [deg]
#   6 Y_WORLD                Barycenter position along world y axis                     [deg]
#   7 A_WORLD                Profile RMS along major axis (world units)                 [deg]
#   8 B_WORLD                Profile RMS along minor axis (world units)                 [deg]
#   9 THETA_WORLD            Position angle (CCW/world-x)                               [deg]
#  10 FWHM_WORLD             FWHM assuming a gaussian core                              [deg]
#  11 ELONGATION             A_IMAGE/B_IMAGE                                           
#  12 ELLIPTICITY            1 - B_IMAGE/A_IMAGE                                       
         1 -12.7450    149.3210     60.8476   8.3778628746e+01   3.9850012278e+01     1.414905    0.9693137 -18.09  0.004251187    1.796    0.443
         2 -13.0809    160.1452     45.4156   7.7038102476e+01   3.9502132595e+01     1.214426    0.9908601 -28.26  0.004040113    1.345    0.256
         3 -11.7731    188.8733     14.0887   6.4114528077e+01   3.6240629399e+01    0.6606165      0.38063 -56.90  0.003357359    1.861    0.463
         4 -11.9473    172.1930     17.6726   6.7236955606e+01   3.9904742451e+01    0.8214747    0.3921418  75.56  0.002967443    2.136    0.532
         5 -13.0368    173.3621     11.5661   6.5436521332e+01   4.0243230715e+01     1.121083    0.7024066  71.88  0.004337578    1.395    0.283
         6  -9.0362    231.0274     16.9965   6.0308552291e+01   2.6009785500e+01     0.242293    0.1631145 -40.45  0.001106571    1.522    0.343
         7 -10.5824    187.5843    236.7290   1.1603227556e+02  -2.7474559808e+00     0.284927    0.2288931 -42.98 0.0005879826    1.440    0.306
         8 -15.4668     58.3698    143.9231   1.2942609157e+02   3.9343813365e+01     6.460635     4.969534 -16.91   0.03511014    1.855    0.461
         9 -11.8170    194.9609    169.2656   1.0180210998e+02   8.0550614910e+00    0.5396885    0.4857259 -65.93  0.001064496    1.242    0.195
        10 -10.4365    192.8001    164.5983   1.0123584296e+02   9.4372976004e+00    0.4717416    0.2593339  42.25  0.001683632    1.840    0.456
        11  -9.7322    140.5479    200.1847   1.1957098122e+02   1.2632471946e+01    0.3613029    0.2256619  58.42  0.001664732    1.716    0.417
        12 -11.9311    143.6328    168.9193   1.1301423446e+02   1.8819146369e+01     0.989711    0.6380239  87.48  0.003751379    2.683    0.627
        13 -10.6323    140.7022    175.3061   1.1496868511e+02   1.7982787745e+01    0.3089805    0.2735461  55.73  0.000646572    1.094    0.086
        14 -11.7493    137.8602    172.0973   1.1499302271e+02   1.9267134320e+01    0.5908887    0.4504423  58.76  0.001729747    1.341    0.254
        15 -11.0329    125.8548    172.7780   1.1793118397e+02   2.1460422939e+01    0.4400297    0.3320846 -35.86  0.001394493    1.580    0.367
        16 -10.1816    122.4669    166.7941   1.1757852475e+02   2.3487944365e+01    0.4668064    0.2643088  59.41 0.0007670819    2.127    0.530
        17 -10.3568    176.3255    170.1824   1.0593625769e+02   1.1755811287e+01    0.3293537    0.2170576  29.53  0.001439582    1.762    0.433
        18 -10.0151    230.0957    167.9976   9.4685815773e+01   1.2786672523e+00    0.3952508    0.1670955 -49.56  0.001441432    2.890    0.654
        19 -14.6243     56.9781    211.1978   1.3875412418e+02   2.3962680161e+01    0.5544842    0.3460562  62.23  0.001594137    1.441    0.306
        20 -10.2686    122.5770    158.9553   1.1598426767e+02   2.5291205179e+01    0.4723719    0.3338546 -83.64  0.001217334    1.798    0.444
        21  -8.7136      3.1544    159.6288   1.4475072549e+02   4.1219746647e+01    0.1707621    0.1206418  67.67 0.0006488394    1.392    0.282
        22  -9.3833    190.9972    158.8026   1.0033099560e+02   1.0991688859e+01    0.4286523     0.258765  21.99  0.001618195    2.582    0.613
        23 -10.7793    109.1450    155.8618   1.1866938435e+02   2.8547733763e+01    0.3564403    0.3020413  55.88 0.0004262007    1.189    0.159
        24 -11.8773    112.5691    151.6146   1.1694837084e+02   2.8921573978e+01    0.6769134    0.5155171 -70.28  0.003317481    1.359    0.264
        25 -11.3224    133.6445    145.8268   1.1044775079e+02   2.6130923580e+01      1.28738    0.3307065 -54.29  0.003083293    5.277    0.811
        26  -9.9397    169.0144    194.4816   1.1239899534e+02   8.2798553507e+00    0.4862796    0.2343887 -52.47  0.001948922    2.351    0.575
        27  -9.8360     16.8248    154.0693   1.4110756422e+02   4.1364971656e+01    0.3143254    0.1401322 -71.05  0.001231587    1.761    0.432
        28 -10.7432    170.3989    183.9874   1.1006284129e+02   1.0124917525e+01    0.5458363     0.312531  43.41  0.002004753    1.685    0.407
        29  -9.0826     22.6953    156.8494   1.4007154580e+02   4.0197638131e+01    0.1735469     0.165085 -58.62 0.0004720787    1.320    0.242
        30  -9.1456      7.4736    150.1294   1.4282690381e+02   4.3029342026e+01     0.189824    0.1547844 -36.30 0.0007175162    1.595    0.373
        31 -10.2755     27.2532    146.6203   1.3770861864e+02   4.2145758370e+01    0.3565282    0.2500629 -60.77  0.001214658    1.241    0.194
        32 -10.2711    143.8829    146.3621   1.0808212548e+02   2.3866655371e+01    0.4522668    0.2547617 -57.01  0.001782758    1.943    0.485
        33  -8.9875    180.1665    146.1618   9.9749198477e+01   1.5972111460e+01    0.2239748    0.2071644   2.50 0.0002665827    1.180    0.153
        34  -9.9113    112.7445    137.9802   1.1395877614e+02   3.2108070124e+01    0.2282723    0.2175471 -83.83 0.0002516366    1.027    0.026
        35 -11.7987    108.5774    135.8759   1.1457192109e+02   3.3386331791e+01    0.7282882    0.4605149 -32.21 0.0004680381    2.040    0.510
        36 -10.2716    226.4565    139.9741   8.9172672729e+01   7.1669761338e+00    0.2419069    0.2133297  50.89 0.0001164389    1.225    0.184
        37 -11.2777    135.1062    122.9711   1.0462852994e+02   3.1027380984e+01     1.095595    0.2075887 -46.80  0.002569172    5.220    0.808
        38  -9.3030      3.0422    139.4812   1.4269832406e+02   4.5763275105e+01    0.1925069     0.124206 -73.59 0.0008293188    1.169    0.145
        39 -11.0256    172.7257    189.2627   1.1060334365e+02   8.5877706516e+00    0.4606423      0.40388 -42.09  0.001422516    1.191    0.161
        40 -10.2089    175.9886    187.0277   1.0946813373e+02   8.3826688610e+00    0.3836973     0.276665 -67.26  0.001209485    1.791    0.442
        41 -10.3448    160.4121    128.7096   9.9963838762e+01   2.4156435299e+01    0.4240239    0.2919494 -51.73  0.001865888    1.472    0.321
        42 -19.0316     72.1990    234.8198   1.3823746312e+02   1.6938451714e+01     5.052053     3.505886  47.68   0.01995876    1.363    0.266
        43 -10.7602    121.4550    128.0843   1.0938559596e+02   3.2707051948e+01    0.3476374    0.2820635 -62.64 0.0008718092    1.254    0.203
        44 -10.1605    110.6739    123.9480   1.1122694591e+02   3.5771415060e+01    0.2988724    0.2543508 -35.07 0.0005653951    1.225    0.183
        45 -10.1831    180.1209    193.6650   1.0989540692e+02   6.2529091071e+00    0.3598786    0.2657585  77.96  0.001610951    1.975    0.494
        46  -9.0628    244.8779    121.3083   8.1869996934e+01   6.7988591960e+00    0.2324657    0.1738811 -47.64 0.0003292689    1.222    0.182
        47  -8.8283    139.9062    121.0533   1.0294350133e+02   3.0413190594e+01    0.2387818    0.2078918 -88.93 0.0004794804    1.282    0.220
        48 -11.1260    151.9951    183.4718   1.1400192841e+02   1.3942402378e+01    0.3734751    0.3445425 -44.97  0.002009338    1.144    0.126
        49 -10.0181    114.9864    118.0510   1.0861149762e+02   3.6280881905e+01    0.2875227     0.209188 -49.21 0.0003362498    1.322    0.244
        50  -9.7684      5.4668    234.5372   1.4984628017e+02   2.5171857801e+01    0.2594338    0.1516307  39.90  0.001761512    1.940    0.484
        51 -10.3129    102.7922    113.3903   1.1075964319e+02   3.9655670312e+01    0.2459824    0.2092974  -8.94  0.000659508    1.383    0.277
        52 -11.2652    204.5158    177.2608   1.0156279054e+02   4.5638115247e+00    0.5289195    0.4074543 -51.54  0.001908081    1.417    0.294
        53 -11.0018     70.6457    115.3565   1.2040643993e+02   4.4448855012e+01    0.3255633    0.2835524 -32.54   0.00168366    1.190    0.159
        54 -12.6253     63.6491    107.9315   1.2076947882e+02   4.7107557689e+01    0.8902891    0.8216223  -4.67  0.004444866    1.204    0.169
        55 -11.0658    117.9961    136.4690   1.1225764470e+02   3.1450270307e+01     0.584621     0.350099 -46.48  0.001722509    1.638    0.390
        56  -8.6917    167.3106    113.6302   9.4570198058e+01   2.5760618467e+01    0.1672461    0.1234265 -77.21 0.0007035384    1.768    0.435
        57 -10.1955    122.2644    112.0036   1.0511617067e+02   3.6162796202e+01    0.2843197    0.2241328  43.84  0.001385036    1.307    0.235
        58 -11.3665    203.7958    168.7895   9.9904321656e+01   6.3324780527e+00     1.014719    0.6183792 -52.46  0.004157261    1.856    0.461
        59 -10.6173    117.3324    109.7395   1.0583337889e+02   3.7664990121e+01    0.2630208     0.227215  38.87 0.0008952751    1.204    0.170
        60  -9.8726    134.4344    106.3229   1.0044669623e+02   3.4802045876e+01    0.3893556    0.1480758 -46.22  0.001294559    2.615    0.618
        61  -9.6622    198.8700    178.7897   1.0302081350e+02   5.3997127825e+00    0.4634462     0.317444 -76.79  0.001914334    2.620    0.618
        62 -10.0395    113.0494     95.2307   1.0303024340e+02   4.1623574435e+01    0.2615025    0.2137365 -40.21 0.0006083881    1.187    0.158
        63  -9.1090    143.2204     81.5765   9.1298660748e+01   3.7739926116e+01    0.2427664    0.1837223 -31.99  0.000717741    1.379    0.275
        64  -8.9120    183.9003     76.9402   8.1409506368e+01   2.8743231782e+01    0.2279342    0.2097514 -82.93 0.0005808698    1.059    0.055
        65 -11.3156    163.8591    189.3677   1.1253104232e+02   1.0335776585e+01    0.5253304    0.4185862  36.10  0.002727902    1.243    0.196
        66  -8.9676    146.0253    246.5612   1.2555071470e+02   2.8385373495e+00    0.1697403    0.1612521  75.07 0.0005167502    1.163    0.141
        67 -11.6553    164.4317     36.7358   7.3765230281e+01   3.9597458673e+01    0.4220452    0.4041876  60.50 0.0008172205    1.077    0.071
        68  -9.9090    239.2135     65.5989   7.0104759380e+01   1.7471176910e+01     0.238157    0.2091161 -58.22 0.0003278067    1.077    0.071
        69  -9.3396    125.0268     62.3217   8.9908892933e+01   4.5219395850e+01    0.1966521    0.1781717  46.07 0.0003677917    1.086    0.079
        70 -10.3414    136.1365     39.4315   8.0027090536e+01   4.6036587227e+01     0.229392    0.2187441   2.37 0.0002765806    1.105    0.095
        71  -9.8968    150.6019    240.7250   1.2385016799e+02   3.0478051299e+00     0.241676    0.2270872 -63.99  0.000708756    1.234    0.190
        72 -10.5605    146.3147    189.8784   1.1647254429e+02   1.3697518628e+01    0.3420486    0.2721137 -14.89  0.001427682    1.713    0.416
        73  -9.0424    160.2434    239.7432   1.2182429005e+02   1.5316127058e+00    0.1952089    0.1582213 -53.55 0.0005441131    1.446    0.308
