#   1 NUMBER                 Running object number                                     
#   2 MAG_AUTO               Kron-like elliptical aperture magnitude                    [mag]
#   3 X_IMAGE                Object position along x                                    [pixel]
#   4 Y_IMAGE                Object position along y                                    [pixel]
#   5 X_WORLD                Barycenter position along world x axis                     [deg]
#   6 Y_WORLD                Barycenter position along world y axis                     [deg]
#   7 A_WORLD                Profile RMS along major axis (world units)                 [deg]
#   8 B_WORLD                Profile RMS along minor axis (world units)                 [deg]
#   9 THETA_WORLD            Position angle (CCW/world-x)                               [deg]
#  10 FWHM_WORLD             FWHM assuming a gaussian core                              [deg]
#  11 ELONGATION             A_IMAGE/B_IMAGE                                           
#  12 ELLIPTICITY            1 - B_IMAGE/A_IMAGE                                       
         1 -16.5233    227.6968    100.5637   5.1959539281e+01   1.5043196802e+01     8.893672     3.507114 -45.15   0.03536936    2.310    0.567
         2 -15.2902    226.7131     47.5056   3.9995284687e+01   2.3410294925e+01     2.768871     1.682594 -44.82    0.0124295    1.456    0.313
         3 -14.4642    250.2616     56.7760   3.9575396997e+01   1.7293635900e+01     1.590889    0.4525036 -34.24  0.002879249    3.385    0.705
         4 -13.6885    121.0035    103.8061   7.5024635027e+01   3.8024523759e+01     1.839651     1.200599  42.34  0.008091365    1.554    0.356
         5 -15.6804    248.6503     41.4120   3.6549198021e+01   1.9686728022e+01     4.075071     1.964014 -63.16   0.01709439    2.186    0.543
         6 -15.2027    239.1644     32.9830   3.5632885797e+01   2.2681584553e+01     2.292892    0.7629045 -29.53  0.008960471    3.633    0.725
         7 -10.6412    144.0912     32.5920   4.7638283400e+01   4.4795005490e+01    0.2673305    0.1856175   3.07  0.001089404    1.969    0.492
         8 -16.3373    245.9078     69.2445   4.2663204215e+01   1.6357123997e+01     6.778389     1.232022  52.30   0.01983915    6.658    0.850
         9  -9.7794    204.5318      7.7781   3.3125839188e+01   3.3058906720e+01    0.3427634     0.248628  75.39    0.0021527    1.255    0.203
        10  -9.4255    225.5131      7.0532   3.1286729870e+01   2.8527141113e+01    0.2018032    0.1434884  67.51 0.0005569747    1.453    0.312
        11  -9.1745    179.2618      7.4326   3.5471160539e+01   3.8942050189e+01    0.1728217    0.1072498  86.88 0.0004261608    1.502    0.334
        12  -9.2614    157.6303      5.1309   3.7343592024e+01   4.4316322398e+01    0.2234636    0.1576641   9.39  0.001242093    1.956    0.489
        13  -9.6002    234.1600      3.3863   2.9927719596e+01   2.7091742167e+01    0.2387241    0.1718311 -38.88  0.001368508    1.440    0.305
        14  -9.1522    230.9821      1.2010   2.9696885254e+01   2.7974451991e+01    0.1669509     0.101286  84.06 0.0004204558    1.462    0.316
        15  -9.0292    250.1968      3.9580   2.9028535009e+01   2.3801951184e+01    0.1724224    0.1129082 -65.98  0.000470682    1.206    0.171
        16  -9.3224    239.5532      2.9911   2.9498552099e+01   2.6027122712e+01    0.1928155     0.139074  65.45 0.0007310241    1.553    0.356
        17 -10.5941    190.8716    149.9818   6.9919337245e+01   1.3380143370e+01    0.3671173    0.1914861 -59.63  0.001247272    3.310    0.698
        18 -11.5905     44.7493    141.9164   1.0652049773e+02   4.1154064752e+01    0.4025876     0.328943  14.36 0.0008450887    1.471    0.320
        19 -13.9186     56.3500    138.0491   1.0245319384e+02   4.0759142440e+01     2.171726     1.532388  12.71  0.008265351    1.790    0.441
        20 -10.9750    191.9052    143.8698   6.8320743748e+01   1.4377410975e+01    0.3703084     0.260706 -47.54 0.0009285393    1.430    0.301
        21 -13.5480    186.9922    139.0093   6.8203929551e+01   1.6342533560e+01     1.174265    0.7072641 -20.52  0.004677901    2.270    0.559
        22 -10.1158    158.2884    143.0003   7.5488327530e+01   2.1488962068e+01    0.2247866    0.2068716 -37.90 0.0008157782    1.066    0.062
        23 -10.1161    221.0807    221.2214   7.8212798753e+01  -4.3114675819e+00    0.1971888    0.1596957 -18.55 0.0002453752    1.174    0.148
        24 -13.8594    184.3942    123.5724   6.5050750198e+01   1.9961252716e+01     1.722353    0.6551654 -35.23  0.005686052    2.866    0.651
        25 -10.5376    136.0735    129.9179   7.7824356605e+01   2.9038179109e+01    0.4609384    0.1868131 -44.03  0.001564316    2.445    0.591
        26 -12.6159    199.8079    128.7442   6.3249764005e+01   1.5697291864e+01    0.7248928    0.4862665  77.70  0.002750847    2.508    0.601
        27 -11.2871    161.0505    128.6717   7.1395452006e+01   2.3978230882e+01    0.4170934    0.3304658 -69.99  0.001949754    1.546    0.353
        28 -11.2026    208.2433    126.8727   6.1245389849e+01   1.4321948855e+01    0.3187256    0.2484833  44.39 0.0009354938    1.391    0.281
        29  -9.9514    236.7619    218.0707   7.4794023567e+01  -6.0529593661e+00    0.2123687    0.1545769  21.68 0.0006515961    1.282    0.220
        30  -8.1329     44.5347    177.4443   1.1134681812e+02   3.2372025871e+01    0.1317894    0.1166144 -87.12  0.000136367    1.045    0.043
        31 -10.1013    135.2716    120.9119   7.5765276317e+01   3.1227333053e+01     0.505573    0.1368903 -45.59   0.00140086    3.639    0.725
        32 -11.6592    167.0517    116.1964   6.6895186655e+01   2.5255043487e+01    0.4799579    0.3627322  16.01  0.002175957    1.702    0.412
        33 -12.8013    204.5246    111.2139   5.8210977534e+01   1.7987435879e+01    0.8262665    0.5694188 -18.61  0.003836577    1.786    0.440
        34  -9.8537    231.5595    216.7821   7.5496335351e+01  -5.1441897876e+00    0.2112305    0.1833449  17.92 0.0005457603    1.279    0.218
        35  -9.7511    146.7787    106.0822   6.8935248301e+01   3.1891608837e+01    0.2747701    0.2240821  45.87 0.0006193077    1.242    0.195
        36  -9.6489    174.7976    104.5820   6.2236720822e+01   2.5812587986e+01    0.2829307    0.2292872 -55.48 0.0002790306    1.272    0.214
        37 -11.1548    156.4271    102.7253   6.5744501888e+01   3.0381751227e+01    0.4350538    0.2852481  38.93  0.001893569    1.639    0.390
        38  -9.7707    177.4767    169.4883   7.7022754891e+01   1.2095851087e+01    0.1475842    0.1385785  -4.78 0.0001935762    1.008    0.008
        39 -11.5516    140.0032     96.7256   6.8013491891e+01   3.5337128325e+01    0.4983678    0.3923093  43.94  0.001172237    1.279    0.218
        40 -10.1641    177.0663    112.5072   6.3804268705e+01   2.3755953186e+01    0.2321199    0.1524054  50.06  0.001031057    1.585    0.369
        41 -12.6718    134.1028    103.7969   7.1498352666e+01   3.5196863396e+01     1.548344    0.4011853 -47.09  0.004105239    4.175    0.760
        42 -10.2477     95.0608     89.1928   7.8505963992e+01   4.6390692103e+01     0.244724    0.2073597 -42.85 0.0002659889    1.160    0.138
        43  -9.3968    151.0286     71.3279   5.8058613916e+01   3.7489473814e+01    0.2536639    0.2061363 -38.80 0.0005681294    1.248    0.199
        44 -10.5401    176.4537     69.9673   5.2661476910e+01   3.1607986534e+01    0.2852315    0.2068046  81.49 0.0008076947    1.583    0.368
        45 -11.4512    168.5062     67.4828   5.3429723377e+01   3.3917993750e+01    0.5865038    0.2614692 -56.86  0.001888679    3.603    0.722
        46 -10.2460    126.3080     69.4070   6.3304200986e+01   4.3634920315e+01    0.2628583    0.2461799 -58.89 0.0005454302    1.153    0.133
        47 -11.0213    182.2600     67.8116   5.1068131759e+01   3.0569464738e+01    0.3929953    0.2418277 -37.99 0.0009475325    1.597    0.374
        48 -10.0543    158.0809     67.3417   5.5417001401e+01   3.6456928583e+01    0.2640752    0.2081981 -44.65 0.0003821574    1.282    0.220
        49 -10.7077    172.6284     65.2038   5.2039453620e+01   3.3288448530e+01     0.254426    0.1907422 -25.84  0.001057691    1.480    0.325
        50 -10.4075    186.0768     61.7992   4.8843154985e+01   3.0597502846e+01    0.2954937    0.2279654 -32.76 0.0007984454    1.352    0.260
        51 -11.5364    169.8121     57.7422   5.0460637012e+01   3.5117915833e+01    0.4904877    0.2942105 -28.28   0.00166323    1.853    0.460
        52  -9.1096    190.6037    217.2026   8.3432981563e+01   9.5388652359e-01    0.1706795    0.1169476 -25.01 0.0002828193    1.504    0.335
        53 -12.7341    159.0963     51.2332   5.0520079756e+01   3.8680436247e+01    0.8775398    0.4935244  86.97   0.00332982    2.875    0.652
        54 -10.9827    186.0111     44.8470   4.4385597200e+01   3.3045858453e+01    0.3457213    0.2488316 -60.46 0.0004155012    1.403    0.287
        55 -10.3448    182.6468     45.7039   4.5098339848e+01   3.3735187574e+01    0.2124233    0.1422617 -30.63 0.0009624396    1.605    0.377
        56 -11.2199    158.0241     45.5238   4.9037899968e+01   3.9740037679e+01    0.3459102     0.214364 -25.26 0.0007509199    1.844    0.458
        57  -9.4486     77.7174    108.0138   8.9316886843e+01   4.5158657386e+01     0.208192    0.1797516 -47.59 0.0003193856    1.087    0.080
        58 -11.3986    198.2167    161.6644   7.1002264005e+01   9.6923890486e+00    0.4732073    0.3204588 -80.01  0.001786681    3.430    0.708
        59 -11.3431    192.3783     34.3108   4.0818947371e+01   3.2897049828e+01    0.4408502    0.3046144  30.22  0.001054843    2.105    0.525
        60 -10.3769    157.0104     37.6921   4.6904800655e+01   4.1015255555e+01    0.1993005    0.1668503  66.68 0.0003483377    1.106    0.096
        61 -10.7591    132.9503     37.6864   5.1454560530e+01   4.6860280580e+01     0.204149    0.1744728  58.19 0.0005789797    1.086    0.079
        62  -8.5991    191.3187    212.3460   8.2429684342e+01   1.6584480075e+00    0.1417886   0.09561898  -1.92 0.0004540496    1.727    0.421
        63 -10.0702    183.1772     34.8465   4.2146468422e+01   3.5017095939e+01    0.3003965    0.2152999 -14.42  0.001014316    1.816    0.449
        64 -11.6568    125.1715     32.8240   5.1494689885e+01   4.9314831149e+01     0.369442    0.2791589 -32.25 0.0007554487    1.432    0.302
        65 -10.0383    158.2125    206.7864   8.8456601380e+01   8.2056741702e+00    0.2263429     0.209815 -17.62 0.0004075161    1.113    0.102
        66 -10.5527    179.8375     24.0775   3.9740735053e+01   3.7087925663e+01    0.4018419     0.336857  81.42  0.002464026    1.067    0.063
        67  -8.2984    110.4422    203.5290   9.8819741063e+01   1.6948557281e+01    0.1377878    0.1287312  50.27 0.0001629966    1.017    0.017
        68 -10.6924    191.5196    192.1588   7.8629020132e+01   5.1870219480e+00    0.6639025    0.3412268 -62.41   0.00189798    6.148    0.837
        69  -8.9242     42.7577    193.0429   1.1346096411e+02   2.8877887381e+01    0.1730492    0.1445229 -84.89 0.0001926934    1.090    0.082
        70  -9.0887    180.7840    192.1914   8.0884213337e+01   7.0552212934e+00    0.1964083    0.1884578  18.20 0.0003822124    1.137    0.120
        71  -8.4934    201.5118    227.5245   8.3043485966e+01  -2.3919526027e+00    0.1266658    0.1089568  12.47 0.0008081577    1.099    0.090
        72  -9.4257    211.1069    163.0476   6.8777365942e+01   7.0541523765e+00     0.207379    0.1882085 -16.36 0.0004155866    1.032    0.031
        73 -12.9311     16.6250    151.5022   1.1564577750e+02   4.1459270312e+01    0.8390545      0.67281 -80.57  0.003794665    1.034    0.032
        74 -11.2379    134.3882    148.6348   8.2658151006e+01   2.5104113069e+01    0.8875663    0.2968191 -55.62  0.002448299    4.077    0.755
