#   1 NUMBER                 Running object number                                     
#   2 MAG_AUTO               Kron-like elliptical aperture magnitude                    [mag]
#   3 X_IMAGE                Object position along x                                    [pixel]
#   4 Y_IMAGE                Object position along y                                    [pixel]
#   5 X_WORLD                Barycenter position along world x axis                     [deg]
#   6 Y_WORLD                Barycenter position along world y axis                     [deg]
#   7 A_WORLD                Profile RMS along major axis (world units)                 [deg]
#   8 B_WORLD                Profile RMS along minor axis (world units)                 [deg]
#   9 THETA_WORLD            Position angle (CCW/world-x)                               [deg]
#  10 FWHM_WORLD             FWHM assuming a gaussian core                              [deg]
#  11 ELONGATION             A_IMAGE/B_IMAGE                                           
#  12 ELLIPTICITY            1 - B_IMAGE/A_IMAGE                                       
         1 -14.7683     66.6278    126.2096   4.9635045057e+01   4.2193312569e+01     7.149104     3.491985  88.67   0.01568347    7.682    0.870
         2 -13.4715    220.7871     47.4811   3.5642510740e+02   2.5677402584e+01     0.831328    0.7016829  27.72  0.001423879    1.742    0.426
         3 -12.1877    248.7387     27.8906   3.5042616892e+02   2.3005422698e+01    0.6471706    0.3428604 -38.71  0.003371034    1.424    0.298
         4 -11.7272    248.2347     22.6623   3.4941959779e+02   2.3661537492e+01    0.4421397    0.3474151  35.17  0.003041715    2.126    0.530
         5  -8.8780    234.8323     11.8528   3.4788690978e+02   2.7150379185e+01    0.1646111   0.09140863 -53.80 0.0006342864    1.338    0.253
         6  -9.8240    227.3418      9.5956   3.4776569491e+02   2.8757661972e+01    0.1976378    0.1557174 -54.54 0.0006263565    1.091    0.084
         7  -9.9873      2.3399      2.4465   4.1434955978e+01   7.9243604430e+01    0.2181057    0.1613973 -23.95  0.001393273    1.235    0.191
         8 -10.2562    108.0535    240.0237   5.4887914572e+01   1.0696252773e+01    0.2130947    0.1730841 -54.44  0.001179764    1.502    0.334
         9  -9.1437     74.7955    249.7975   6.3172709368e+01   1.2823031451e+01    0.1966015     0.117289 -45.99 0.0008550417    2.122    0.529
        10  -9.1895     51.9622    250.3285   6.8254145868e+01   1.5179396111e+01    0.1654235    0.1272096  35.84 0.0005439508    1.034    0.033
        11  -8.9873     37.0947    250.8693   7.1549484412e+01   1.6581225098e+01    0.1492533   0.06145058  28.58 0.0002844379    1.901    0.474
        12 -13.0219     53.7790    218.1863   6.5507194038e+01   2.1314835425e+01     1.469092    0.7526164 -59.97  0.007387863    2.172    0.540
        13 -15.9581     10.1496    150.0551   7.2489639124e+01   4.2137646549e+01     12.03381      4.70387  76.63   0.04359638    2.999    0.667
        14 -13.3052    125.2899    229.7914   4.9900027185e+01   1.0359539353e+01      2.14807    0.4973913  30.95  0.007682924    3.508    0.715
        15  -8.9497     72.5762    233.0309   6.2257419480e+01   1.6172163284e+01    0.1977169    0.1390414  32.89 0.0005589987    1.167    0.143
        16 -12.1175     99.0859    226.5094   5.5419307587e+01   1.4231092205e+01     0.592117    0.4157212  32.02  0.003506298    1.201    0.168
        17 -10.2482     47.1854    229.1649   6.7936017404e+01   1.9755073702e+01    0.2169531    0.1680217  69.25  0.000976222    1.308    0.235
        18  -9.3258     72.3441    224.7754   6.1559670661e+01   1.7822261545e+01     0.202449    0.1450471  36.58 0.0008304748    1.168    0.144
        19 -11.9209     87.6955    223.5881   5.7772665315e+01   1.6204711802e+01    0.9662621    0.3735507  42.26  0.004169764    2.339    0.573
        20 -10.2624    174.8904    222.7770   3.8694958422e+01   5.3797509461e+00    0.2111574    0.1413723 -22.99 0.0009715729    1.415    0.293
        21 -11.1545    163.0865    222.6174   4.0984275986e+01   6.8375776864e+00    0.3310279    0.1743437  33.95  0.001795415    1.783    0.439
        22  -8.9037     42.8306    229.2168   6.8972380692e+01   2.0200950898e+01    0.1462034    0.1363875  -1.23 0.0004756888    1.288    0.224
        23 -10.8152     81.1883    220.5360   5.9010542105e+01   1.7610453282e+01    0.3494002    0.1887435  33.68  0.001238684    1.539    0.350
        24  -9.8261     95.8493    209.3627   5.4167522595e+01   1.8014493877e+01    0.2215431    0.1844604 -88.07  0.001310237    1.471    0.320
        25  -9.7847    210.6772    198.7362   2.8431172747e+01   4.6671352088e+00    0.2157127    0.1690972  -3.88 0.0006195839    1.066    0.062
        26 -11.5820     67.9608    191.8935   5.9260190713e+01   2.5463643848e+01    0.5457563    0.3047825  80.86  0.001763816    2.618    0.618
        27  -9.6705    191.6349    192.3759   3.0688309795e+01   8.0053618477e+00    0.4194845    0.2207741 -60.58  0.001344322    6.828    0.854
        28  -9.0390     73.3256    190.8359   5.7684845499e+01   2.5016864557e+01    0.2369736    0.1659249 -52.92 0.0009241062    1.553    0.356
        29 -13.6199     18.8562    235.9647   7.4899447753e+01   2.1171330580e+01     0.784686    0.4654539 -65.24  0.003229606    1.986    0.497
        30  -8.6889     65.0322    185.7469   5.9346760508e+01   2.7275809954e+01    0.1849982    0.1656193  41.02 0.0003275847    1.027    0.027
        31 -10.0132     95.0189    183.3005   5.0850151456e+01   2.3741803857e+01    0.4074336    0.2095183  40.79 0.0008265229    1.822    0.451
        32  -8.4514     78.2961    184.2721   5.5499207866e+01   2.5875033477e+01    0.1353359    0.1074792 -15.95 0.0002537639    1.523    0.343
        33  -9.4301     70.9406    183.4814   5.7427522125e+01   2.7047616453e+01    0.1934345    0.1823202  86.95  8.31513e-05    1.106    0.096
        34  -9.5808    115.3304    183.0008   4.5564352836e+01   2.0789882413e+01    0.2346535   0.09017371 -36.13 0.0007051911    4.358    0.771
        35  -9.4276    111.3216    182.2990   4.6461715361e+01   2.1546387609e+01    0.1429867    0.1062905 -10.94 0.0002780435    1.624    0.384
        36  -9.1594     83.5270    181.0556   5.3625401799e+01   2.5900889414e+01    0.2019325    0.1426117 -66.02 0.0007432016    1.538    0.350
        37  -9.7351     59.9630    178.7617   5.9950179217e+01   2.9598863140e+01     0.244932    0.1895141 -71.53  0.001308009    1.350    0.259
        38 -10.7366    172.2896    173.9789   3.1102952122e+01   1.3820018412e+01    0.3683244    0.2562543  38.06  0.002049641    1.526    0.345
        39 -11.0610    176.3383    170.3274   2.9622070500e+01   1.3857928627e+01    0.3812854    0.2642822 -23.77  0.002104417    1.414    0.293
        40 -10.2834    180.5171    167.4988   2.8279873273e+01   1.3722844700e+01    0.2349171    0.1839391 -38.24 0.0008215382    1.231    0.187
        41 -10.4651    178.5517    163.8950   2.7966741910e+01   1.4659292014e+01    0.4054192    0.2732575  30.76  0.002130055    1.544    0.352
        42  -9.4646     80.0931    173.7291   5.3532273128e+01   2.8120159431e+01    0.2242524     0.191402  86.19  0.000324724    1.276    0.217
        43 -10.5348    104.8298    171.5316   4.6380757881e+01   2.4931670821e+01    0.3632108    0.2172153  53.40  0.001578384    1.991    0.498
        44 -10.7237    125.1137    246.7922   5.1968463253e+01   7.5529888363e+00     0.322788    0.1159068 -48.80  0.001517517    3.133    0.681
        45 -12.1319     60.4253    160.8240   5.7497907979e+01   3.4031816539e+01    0.7684972    0.5526497  19.21  0.001469068    1.491    0.329
        46 -12.1638     65.6400    156.7467   5.5291901373e+01   3.4372348928e+01    0.7752441    0.6195685  16.73  0.002034298    1.353    0.261
        47 -13.6578     62.4573    144.7379   5.4414815568e+01   3.7929874853e+01     1.102292    0.7716822   2.47  0.001329841    1.863    0.463
        48  -9.9642     86.2765    168.9857   5.1062960523e+01   2.8358941907e+01    0.2005794    0.1944989 -72.89 0.0006852832    1.078    0.073
        49 -10.0101    110.4228    166.7198   4.4067170762e+01   2.5135724093e+01     0.267168    0.2491491  59.58 0.0004471035    1.146    0.127
        50 -14.6883     10.1380    206.3445   7.5698638005e+01   2.8230554800e+01    0.8805405    0.6045617  13.04  0.003100801    1.641    0.391
        51  -9.2824    141.9402    163.4785   3.5643820759e+01   2.0648515007e+01    0.2432102    0.1928856 -61.51 0.0006020137    1.488    0.328
        52 -12.6454     69.7589    144.9442   5.2080345614e+01   3.6826733435e+01     1.174539    0.7145025  79.15  0.001873913    2.395    0.582
        53  -9.4888    238.0000    161.0094   1.7640744534e+01   6.7677370680e+00    0.1980909   0.05274425 -37.65 0.0008106913    3.000    0.667
        54 -14.8470      5.6670    229.5384   7.7652828378e+01   2.3619422715e+01      1.08694    0.6189353  71.03  0.005913349    1.621    0.383
        55  -9.7951     41.8305    154.0625   6.2497482913e+01   3.8079854346e+01    0.2290932    0.1752818  61.52  0.000407589    1.286    0.222
        56 -10.3302    134.0000    148.0022   3.4427724802e+01   2.5261488685e+01    0.4919748    0.2200322 -54.27  0.001841273    2.519    0.603
        57 -10.3063    131.9060    143.1393   3.3913194467e+01   2.6688346764e+01    0.7261509    0.3553355 -44.52   0.00290682    2.019    0.505
        58 -11.5759     83.0140    144.5179   4.7826887275e+01   3.4894201342e+01    0.6881198     0.477357 -11.08  0.002931269    2.095    0.523
        59 -10.9020     39.8636    145.1342   6.2024958214e+01   4.0680545644e+01    0.3329023     0.267105 -78.67 0.0003153492    1.215    0.177
        60 -10.5702     36.6439    142.7349   6.2815029305e+01   4.1681888854e+01    0.3598589    0.2480978 -74.30 0.0007661821    1.409    0.290
        61 -10.5180    108.9202    145.2958   4.0389827727e+01   3.0330387253e+01    0.2906058    0.2795277  56.36 0.0006421281    1.064    0.060
        62 -13.2311     31.4450    181.5078   6.8433054614e+01   3.2150485186e+01    0.8082337    0.6334382  47.12  0.001806415    1.140    0.123
        63  -8.9563    100.7332    143.6857   4.2374023824e+01   3.2140738870e+01    0.2039004    0.1728135  75.42 0.0009565036    1.350    0.259
        64 -11.5005     45.9905    139.8155   5.9190276239e+01   4.1394419545e+01    0.5342079    0.3499619  47.92  0.001706551    1.517    0.341
        65  -9.6829    125.0751    133.6554   3.3552122297e+01   3.0041490746e+01    0.3320174    0.2322663 -72.02  0.001054943    1.917    0.478
        66  -9.8436    122.3509    129.2181   3.3247085225e+01   3.1552025806e+01    0.3797268    0.2631179 -75.70  0.001191439    2.053    0.513
        67  -9.7809    108.9253    125.4375   3.6036216133e+01   3.4992549968e+01     0.443727     0.341074 -61.97  0.001817171    1.380    0.276
        68 -11.1388    101.1838    131.1371   3.9580504844e+01   3.5083327633e+01    0.9849666    0.5868602 -12.38  0.003065295    4.021    0.751
        69 -10.1638    105.3438    130.5491   3.8236669870e+01   3.4459713984e+01    0.4675421    0.3346226  51.60  0.001295612    1.483    0.326
        70 -11.4899     43.8250    131.0574   5.8621371561e+01   4.4023052480e+01    0.4349648      0.30275 -59.47  0.001383331    1.395    0.283
        71 -10.3676    133.9762    131.9588   3.0929909332e+01   2.8720379397e+01    0.3886621    0.3215616  10.38  0.001120024    1.392    0.282
        72 -11.7119     85.4338    131.8298   4.4547220666e+01   3.7693964928e+01    0.2986791    0.2920776 -49.55  0.000444656    1.043    0.041
        73 -10.5751     30.7890    131.9156   6.3484436552e+01   4.5235753986e+01    0.3978257    0.1935625  43.68  0.001236429    2.027    0.507
        74  -9.3671    130.4456    127.6331   3.0803948837e+01   3.0337128070e+01    0.2607647    0.2073598 -70.03 0.0006018155    1.478    0.323
        75 -13.8586     42.7869    173.0973   6.4341356979e+01   3.3049789641e+01      2.23971     1.640864  65.04   0.01180557    1.345    0.257
        76  -8.6492    219.1591    126.1750   1.3594525343e+01   1.4601834347e+01    0.1661106    0.1267415 -48.74 0.0004072754    1.309    0.236
        77  -8.2935    184.2938    126.6221   1.9185978205e+01   2.0356180802e+01    0.1377348    0.1014513 -65.02 0.0006428043    1.745    0.427
        78 -11.0074     31.4439    124.9083   6.2275963115e+01   4.7086690478e+01    0.3404389    0.2252859 -54.97  0.001419373    1.477    0.323
        79 -16.3399      5.9014    216.3552   7.7141460210e+01   2.6373762262e+01     4.319633     2.974518  25.54    0.0205532    1.401    0.286
        80 -10.3710     95.8448    121.1106   3.8890957429e+01   3.8493733068e+01    0.3352948    0.2530871  22.01 0.0007039882    1.516    0.340
        81  -8.6196     87.7090    122.3386   4.1735944869e+01   3.9675936768e+01    0.1593759    0.1211434  77.65 0.0007024459    1.644    0.392
        82  -9.6086    115.3187    121.1652   3.3228809224e+01   3.4741336370e+01    0.2639261    0.2154427  28.30  0.001298364    1.316    0.240
        83  -8.8806    105.1870    119.4776   3.5692735205e+01   3.7110084709e+01    0.2662209    0.2093078 -64.60 0.0005622164    1.362    0.266
        84  -9.3016    105.9984    116.0193   3.4604691861e+01   3.7762725525e+01    0.2256061    0.2212694 -44.85  0.001209899    1.026    0.025
        85 -13.2045     56.5316    127.7397   5.3487062342e+01   4.3265900865e+01     1.840701    0.8367481 -81.47  0.003003499    3.674    0.728
        86 -11.4612     32.9982    115.4909   6.0227200886e+01   4.9503931073e+01    0.4496928    0.2437554 -89.07  0.001779664    2.237    0.553
        87  -9.8051    123.5697    116.7743   2.9939233760e+01   3.4079114008e+01    0.2167727    0.1436141 -58.73 0.0009429796    1.657    0.397
        88 -11.6975     33.1179    108.7253   5.9025856378e+01   5.1338453702e+01    0.5145993    0.4071242 -28.07  0.002618817    1.412    0.292
        89  -8.4733    102.2559    115.6755   3.5624951438e+01   3.8575478656e+01    0.1527033    0.1217254  89.68 0.0002344768    1.549    0.354
        90  -9.6478    243.4632    114.4844   8.1659905114e+00   1.2682164148e+01    0.1187099   0.09077733 -36.36 5.515255e-05    1.020    0.020
        91 -11.3658     23.8939    105.2978   6.2320437515e+01   5.3200138541e+01    0.4515199    0.3368503 -62.05  0.001302539    1.249    0.199
        92 -11.2039    117.8222    109.5548   2.9627447442e+01   3.6847631135e+01    0.5988448    0.4064881  80.89  0.002388806    2.367    0.578
        93 -12.3897     23.3859    114.2305   6.3894331630e+01   5.0799403825e+01    0.5391948    0.5159643 -34.46  0.002460421    1.116    0.104
        94  -8.2646    212.5911    106.2807   1.0327032472e+01   1.8778278996e+01    0.1275015   0.09040614 -67.33 0.0005371043    1.792    0.442
        95  -9.8153    134.1903    104.5916   2.4156787730e+01   3.4472707830e+01    0.2997757    0.1118141 -46.28  0.001016016    2.618    0.618
        96  -8.4175     92.7494    105.6926   3.6009084551e+01   4.2800239292e+01    0.1507967    0.1214223 -20.30 0.0001676414    1.509    0.337
        97 -11.6977     15.1336     99.0420   6.5171139141e+01   5.5645456193e+01    0.6086951    0.4275752  19.97  0.002797257    1.521    0.343
        98  -9.7940    109.3989     98.2161   2.8908968479e+01   4.1117490016e+01    0.3701221    0.2515906 -81.53   0.00113127    2.271    0.560
        99  -8.9837     33.3345     99.3023   5.7160305555e+01   5.3866799893e+01    0.1559277    0.1062955 -32.42 0.0007036356    1.660    0.397
       100  -9.1912     83.0323     96.2632   3.6678557986e+01   4.6935447351e+01    0.2560476    0.1740993  66.99  0.001059042    1.947    0.486
       101 -10.3468     23.2642     95.9394   6.0996249697e+01   5.5800679312e+01    0.2529484    0.2336013  60.39 0.0007428927    1.125    0.111
       102  -9.3631     79.0589     93.7874   3.7375900307e+01   4.8286552650e+01    0.3741827     0.198321 -36.88  0.001383318    2.332    0.571
       103  -8.9605    103.9029     93.0856   2.9048912746e+01   4.3415420779e+01    0.2293091     0.201103 -84.97 0.0003140697    1.248    0.199
       104 -10.4588     44.3686     90.1887   5.0266263836e+01   5.4912729783e+01    0.2954135    0.2330339  56.10 0.0001664651    1.389    0.280
       105  -9.4188    240.3294     83.3176   2.2708820075e+00   1.7514570544e+01    0.1097903   0.08586229  -6.59 0.0003698715    1.683    0.406
       106  -9.8371     94.3387     81.4700   2.8478905668e+01   4.7993295530e+01    0.3505503    0.2505884 -82.29 0.0009885092    1.991    0.498
       107 -10.7094     48.6555     80.5143   4.5748997041e+01   5.6752889569e+01    0.4756594    0.2658453  57.16   0.00130877    2.511    0.602
       108  -9.3085     29.4291     79.9816   5.4699963564e+01   5.9403025020e+01    0.2771833     0.185559  44.82 0.0009389394    1.619    0.382
       109  -9.1530     41.5262     77.9539   4.8304269736e+01   5.8417269362e+01    0.2171864    0.1426633 -60.62 0.0003882344    1.507    0.337
       110  -9.8755     22.1664     76.6162   5.7559027402e+01   6.1020942905e+01    0.4043027    0.1932389  41.39  0.001664335    2.278    0.561
       111  -9.4116     16.8367     74.0755   5.9771014200e+01   6.2156469828e+01     0.209214    0.1991381 -53.17 0.0004245576    1.029    0.029
       112  -9.8670     35.6801     74.8888   5.0267713939e+01   5.9957150394e+01    0.2658758    0.2059886  35.90 0.0006359456    1.330    0.248
       113  -8.9698     98.7711     73.8162   2.4625145429e+01   4.8619833719e+01    0.2071796    0.1744408 -81.05 0.0004107323    1.343    0.255
       114  -9.4434     30.9671     72.0704   5.1856576489e+01   6.1239446410e+01     0.217601    0.2099697 -39.34  0.000513777    1.020    0.019
       115  -9.5652     25.9709     69.3086   5.3712253203e+01   6.2494384243e+01    0.2389926   0.07281249  43.38 0.0007043184    4.237    0.764
       116 -11.8731    198.0710     62.5605   2.1604104724e+00   2.8098107434e+01    0.4919505    0.3935561  52.93 0.0008247517    1.501    0.334
       117 -12.8401    209.5765     55.2729   3.5921012881e+02   2.6813709809e+01    0.8725116    0.7318502 -44.76  0.003290462    1.105    0.095
       118 -11.8063     43.8067    241.5970   6.9531821886e+01   1.7653636258e+01    0.4098645     0.237757  72.72  0.001610728    1.946    0.486
       119 -10.8447    103.1496    238.5558   5.5815716107e+01   1.1539359648e+01    0.3245513    0.1857376 -40.53  0.001149378    2.101    0.524
       120  -8.6772     81.5184     58.5878   2.4864740231e+01   5.5459649154e+01    0.1476634    0.1413115  61.53 6.663306e-05    1.034    0.033
       121 -12.4077     75.0110    149.7346   5.1245356340e+01   3.4813755742e+01     1.146331    0.5680301 -64.52 0.0008242945    2.132    0.531
       122 -10.7589     21.4470     46.6420   4.9118312044e+01   6.8395248950e+01    0.2808274     0.222213  47.82 0.0009750919    1.474    0.321
       123  -8.8814    108.7712     39.2401   9.6090089084e+00   5.2254037597e+01    0.2182271    0.1239133 -18.62 0.0008885154    2.446    0.591
       124 -10.0614     58.9270    231.5816   6.5337923363e+01   1.7998582227e+01    0.5000224    0.1923017 -61.03  0.002100849    2.873    0.652
       125 -11.7357     53.7451    238.3852   6.7051087799e+01   1.7232271763e+01    0.6501716     0.235598 -62.25  0.003015791    3.064    0.674
       126  -9.4438     29.4657     25.0752   3.3938329316e+01   7.1682404505e+01    0.1915355    0.1264985 -40.17 0.0004783772    1.538    0.350
       127 -10.3751      1.9594     21.6652   5.3361009388e+01   7.5649053763e+01    0.2575386    0.1754577 -58.33 0.0008395751    1.486    0.327
       128  -9.5726     60.8044     21.3591   1.5927246073e+01   6.6165975343e+01    0.2388762    0.2076051 -81.38 0.0006906579    1.393    0.282
       129 -11.7395     54.7686    230.0612   6.6202894601e+01   1.8758615945e+01    0.2478776    0.2141065 -73.48 0.0004360036    1.347    0.257
       130  -9.4742     35.9082    242.5161   7.1367687992e+01   1.8270432345e+01    0.3105975    0.1979262  59.17  0.001920112    1.449    0.310
