#   1 NUMBER                 Running object number                                     
#   2 MAG_AUTO               Kron-like elliptical aperture magnitude                    [mag]
#   3 X_IMAGE                Object position along x                                    [pixel]
#   4 Y_IMAGE                Object position along y                                    [pixel]
#   5 X_WORLD                Barycenter position along world x axis                     [deg]
#   6 Y_WORLD                Barycenter position along world y axis                     [deg]
#   7 A_WORLD                Profile RMS along major axis (world units)                 [deg]
#   8 B_WORLD                Profile RMS along minor axis (world units)                 [deg]
#   9 THETA_WORLD            Position angle (CCW/world-x)                               [deg]
#  10 FWHM_WORLD             FWHM assuming a gaussian core                              [deg]
#  11 ELONGATION             A_IMAGE/B_IMAGE                                           
#  12 ELLIPTICITY            1 - B_IMAGE/A_IMAGE                                       
         1 -14.8745     68.4043    144.3879   1.0193643164e+02   3.7410338310e+01     5.177132     2.675436  68.86  0.007752273    3.640    0.725
         2 -14.3069    214.3399     28.1983   3.8478607451e+01   2.8856181392e+01     1.110169     0.877891  28.94  0.005347492    1.816    0.449
         3 -14.4570    202.3528     39.8012   4.2645384922e+01   3.0137207775e+01     1.878956     1.432776  31.64  0.006073041    1.783    0.439
         4 -11.6779    217.8196     11.0681   3.4229456003e+01   3.0039064863e+01    0.3192928    0.2340473  55.66  0.001655716    1.573    0.364
         5 -13.1783    239.7937      4.2138   3.1120374888e+01   2.6071390195e+01    0.7702408    0.4354758  80.55  0.004619864    1.632    0.387
         6 -10.9840     56.2847      5.9289   6.2521738630e+01   6.6919087887e+01    0.3409229    0.2106214  59.84  0.001817412    2.345    0.574
         7 -12.0714    193.3473    195.4595   8.0860582711e+01   4.2785591503e+00     1.038562    0.5462366 -61.60  0.003429414    4.747    0.789
         8 -10.8805    140.1860    249.2621   1.0047983082e+02   3.5134628509e+00    0.2428184      0.21348 -83.23  0.001631989    1.440    0.305
         9 -13.9485      7.6317    188.8641   1.2247588192e+02   3.3168224112e+01     1.702812    0.4611278 -56.92  0.006707207    3.882    0.742
        10 -15.7908      5.5362    165.0105   1.2121086596e+02   3.8846001984e+01     6.799353     1.054492 -72.75  0.005869791    4.406    0.773
        11 -16.1123     40.2740    197.9224   1.1604971171e+02   2.7898827459e+01     7.736441     2.661812  57.86   0.02882835    3.578    0.720
        12 -14.3009     50.9821    189.7418   1.1278877628e+02   2.8537579320e+01     1.556682     1.060859  83.69  0.008662744    1.418    0.295
        13 -14.6852     56.8521    238.9677   1.1611659814e+02   1.7207937249e+01    0.9866553    0.6890113  79.01  0.002201696    1.324    0.245
        14 -16.2268     28.3027    249.6959   1.2218715009e+02   1.8479709524e+01     11.24454     3.459076  24.76   0.02181098   21.192    0.953
        15 -15.2330     21.1283    222.2186   1.2188607749e+02   2.4663448943e+01     1.393407     1.047555  59.45  0.005484074    1.138    0.122
        16 -10.1964     65.2882    192.2095   1.0970287083e+02   2.6153722120e+01    0.3779179    0.1967399  80.62  0.001553378    2.701    0.630
        17  -9.9287    149.5183    187.5094   8.8902364126e+01   1.3609552555e+01    0.2594056    0.2026191  74.88  0.001050273    1.717    0.418
        18  -9.9779     79.0298    183.7785   1.0529440912e+02   2.6227539619e+01    0.3552066    0.2620398 -23.61  0.001770771    1.984    0.496
        19  -9.9070     99.3611    180.9111   9.9822976523e+01   2.3792078269e+01     0.246805    0.2058015  30.62 0.0005430543    1.269    0.212
        20 -10.2813    189.1445    177.5475   7.8204993218e+01   8.3432685297e+00    0.4114552    0.2640633 -57.07  0.001857221    2.051    0.513
        21 -12.8333     87.1898    153.8547   9.8371611069e+01   3.2275541378e+01     1.961076    0.7901678 -61.57  0.002741477    2.535    0.605
        22 -12.5497     79.9011    160.5316   1.0151643350e+02   3.1734204680e+01    0.6886361    0.4350534  54.72 0.0003862129    1.716    0.417
        23 -13.6305     67.7914    156.0433   1.0406357391e+02   3.4571981223e+01     0.624851    0.5135409 -47.49  0.001315635    1.275    0.216
        24 -16.5764      6.5659    247.1667   1.2585213886e+02   2.1186777897e+01      3.31481     1.641206  30.91   0.02024783    2.291    0.564
        25 -12.2842     66.5560    174.3125   1.0709936887e+02   3.0236242615e+01    0.4696576    0.2935173 -37.06   0.00173597    2.176    0.541
        26  -9.6353    135.9031    165.5784   8.7910872945e+01   2.0920988804e+01    0.2997329    0.1765283  50.43  0.001252007    1.837    0.455
        27  -8.6739    131.6914    161.3372   8.8096865766e+01   2.2685962485e+01    0.1556899    0.1207425  81.02 0.0007043082    1.680    0.405
        28 -15.7568      9.3785    207.4586   1.2329333917e+02   2.8916257226e+01     1.830438     1.107738 -65.06  0.009110456    1.675    0.403
        29  -9.5283    154.1214    154.9487   8.1240123960e+01   1.9751819333e+01    0.2260245    0.2039901 -81.90 0.0004218241    1.280    0.219
        30 -11.3627    133.7218    144.5221   8.3962404828e+01   2.6182295997e+01      1.24528    0.3247854 -54.37  0.002915121    5.545    0.820
        31 -10.0182     58.8291    151.0601   1.0574557144e+02   3.6993789586e+01     0.319524      0.19257 -40.65  0.001294933    1.954    0.488
        32 -12.0394     55.0784    146.4989   1.0608213934e+02   3.8603850068e+01    0.6528902    0.6380813  27.49  0.004042733    1.177    0.150
        33 -10.4856    174.4228    148.9586   7.5226128973e+01   1.6929704471e+01    0.2869153    0.2629835  65.00 0.0008304241    1.238    0.192
        34 -11.1455     29.4019    144.4132   1.1298633563e+02   4.1866053220e+01    0.3609533    0.2880631  36.45  0.002191468    1.418    0.295
        35  -9.7175    198.8106    140.5868   6.8186535561e+01   1.3662205665e+01    0.2927453    0.1835988 -56.10  0.001107518    1.940    0.484
        36 -11.0874    101.3299    139.4265   9.1566952417e+01   3.3491152665e+01     0.587149    0.3935841 -17.80  0.002386281    2.308    0.567
        37 -12.3873     88.6083    139.2158   9.5142651856e+01   3.5685822203e+01    0.2977087    0.2512182 -48.18 0.0003974185    1.159    0.137
        38 -10.8895     80.5040    140.5618   9.7746376389e+01   3.6620729037e+01    0.2801526    0.2308195  76.31 0.0004767876    1.338    0.253
        39  -9.6133     31.5857    137.9053   1.1151228439e+02   4.3283481932e+01    0.1830638    0.1729164  59.63 0.0004778748    1.187    0.158
        40 -10.9249     25.6788    137.4426   1.1313844096e+02   4.3928840195e+01    0.3302526    0.1806004  39.27  0.001592469    1.989    0.497
        41 -10.6629    106.0236    130.9151   8.8341589553e+01   3.4722927671e+01    0.4060486    0.3472202 -61.09  0.001936453    1.167    0.143
        42 -10.2368    110.9380    130.0352   8.6746839422e+01   3.4023663271e+01    0.3357408    0.2625186   5.64  0.001176315    1.632    0.387
        43 -11.1128    135.7660    128.3609   7.9619381622e+01   2.9485471718e+01    0.6760461    0.1927536 -49.01  0.001896907    3.606    0.723
        44 -12.1114     70.9653    169.5699   1.0529359104e+02   3.0790834598e+01    0.4353511    0.2589511 -51.22  0.001047678    1.718    0.418
        45  -9.8879    160.6622    127.6606   7.3305946215e+01   2.4341317682e+01    0.3155629    0.2334788 -84.58  0.001334038    2.016    0.504
        46 -11.0946     98.0293    126.0667   8.9526157459e+01   3.7332303407e+01    0.3183889    0.2587968 -19.07 0.0009812677    1.442    0.306
        47 -10.8257    146.5103    172.0050   8.6630091718e+01   1.7484780348e+01    0.3320769    0.2548561 -73.05   0.00105237    1.651    0.394
        48 -10.8816    118.1498    123.1014   8.3051293971e+01   3.4276108775e+01    0.6475713    0.3866229  -2.60  0.001784269    5.008    0.800
        49 -11.2101    131.9977    172.5123   9.0237328936e+01   2.0078256082e+01    0.3521644    0.1479635  32.60  0.001221168    2.707    0.631
        50  -9.8511     86.6100    120.1746   9.1571516452e+01   4.0709130306e+01    0.3161644    0.2224928  65.52   0.00109143    1.874    0.466
        51  -9.6418    135.0000    119.9797   7.7711873441e+01   3.1542103212e+01    0.2649278   0.08858211 -45.80  0.000800652    2.930    0.659
        52  -9.9565    107.2854    118.9955   8.5114871705e+01   3.7340582476e+01    0.2373822    0.2145109  31.45 0.0004999575    1.151    0.131
        53 -10.5227     40.0496    113.6679   1.0502418428e+02   4.8503061195e+01    0.1805676    0.1755366 -54.03 0.0005759881    1.122    0.109
        54  -9.2357    168.0103    112.9844   6.7911378510e+01   2.5795403665e+01    0.2552244    0.1940607 -79.86  0.001129875    1.783    0.439
        55 -10.1158    134.6676    105.3625   7.3917885924e+01   3.4831867991e+01    0.4402719    0.1432291 -45.23  0.001339493    3.040    0.671
        56 -10.1887    205.3105    110.2027   5.9762972771e+01   1.8091817277e+01    0.3280031    0.2336981  39.22  0.001066065    1.583    0.368
        57 -10.7767    118.9837    109.9812   7.9431857863e+01   3.7128202391e+01    0.2532146    0.1988661  87.34  0.001137824    1.729    0.422
        58 -11.1620     33.4680    108.4146   1.0621941454e+02   5.0427514282e+01    0.3721553    0.2526189 -68.10  0.002014828    1.321    0.243
        59 -11.1261    247.4003    102.2062   5.1346299377e+01   1.0975113149e+01    0.2749599   0.09894553 -45.80 0.0008130299    2.520    0.603
        60  -9.2755    137.9646    104.9907   7.2960578758e+01   3.4188949597e+01     0.240294    0.1931827 -88.17 0.0004716596    1.620    0.383
        61 -10.3553     42.5017    103.9415   1.0228415035e+02   5.0633383740e+01    0.2390129    0.1827452  46.83  0.000578698    1.529    0.346
        62 -10.9484     36.0675    100.9410   1.0388208294e+02   5.2000749416e+01    0.3250109    0.2458911  81.78    0.0012191    1.630    0.387
        63 -10.3249     34.8265    171.9108   1.1475813947e+02   3.4587548299e+01    0.2178234    0.1707949  67.97 0.0004081453    1.195    0.163
        64 -10.5521     53.0358     91.3226   9.5672276904e+01   5.2446388781e+01    0.2820933    0.1958475 -61.89 0.0007953874    1.434    0.302
        65  -9.2760    156.3454     88.6280   6.3934563893e+01   3.3306311109e+01    0.1657374    0.1204185 -75.86 0.0007014787    1.881    0.468
        66  -8.7974     75.5054     85.4174   8.6100963020e+01   5.0623890905e+01    0.1421774    0.1348417 -30.24 0.0002264933    1.061    0.057
        67  -9.4089    159.4633     82.4945   6.1505110940e+01   3.3718021610e+01    0.1498333    0.1482218 -58.11 0.0001137536    1.009    0.009
        68  -9.6214    110.8531     80.7441   7.3325267288e+01   4.5062687377e+01    0.2762396    0.2045648  64.34   0.00127498    1.703    0.413
        69  -9.4733     52.0456     64.3274   8.8312892110e+01   5.8481528499e+01    0.1792281    0.1611856   8.91 0.0004336695    1.161    0.139
        70 -10.6626     13.4634     59.8930   1.0321987830e+02   6.3141819039e+01    0.2445201    0.1896663 -54.96 0.0004330179    1.173    0.147
        71 -10.1983     90.1342    213.1911   1.0654295745e+02   1.7974416206e+01    0.3723855    0.2127438  67.72 0.0009255728    2.188    0.543
        72 -13.0559    192.8368     46.7481   4.5679459646e+01   3.1437631417e+01    0.7449305    0.5762318  31.57  0.001001145    1.675    0.403
        73 -11.5497    108.0719    203.2210   1.0113497191e+02   1.7360124245e+01    0.4201788    0.3064253 -39.14  0.001100369    1.650    0.394
        74 -10.0069    139.5366     37.5473   5.2036245282e+01   4.5623541627e+01    0.2421259     0.218264 -81.24  0.001396405    1.195    0.163
        75 -11.1088    138.7437     44.5810   5.4475877728e+01   4.4868227654e+01    0.3384244    0.2624438 -80.19  0.001722432    1.594    0.373
        76 -10.3327    198.0094     23.9215   3.9199166216e+01   3.3121840724e+01    0.2711287    0.1941636 -18.98  0.001093198    1.754    0.430
        77 -10.7117      2.2627     24.9771   9.7888463466e+01   7.0657602716e+01    0.1999384       0.1692  -7.64  0.001180708    1.257    0.204
        78  -9.4520    189.6946     15.0216   3.7881689433e+01   3.6066501107e+01    0.1773125    0.1570027 -70.72 0.0005974401    1.080    0.074
        79  -9.2165    120.0207    194.0250   9.6931966115e+01   1.7395660955e+01    0.2150628     0.164179  74.27 0.0005058877    1.563    0.360
        80  -9.6823    112.6922    205.9139   1.0046357040e+02   1.6040778772e+01     0.253915    0.1566012  50.90 0.0008422628    1.591    0.372
