#   1 NUMBER                 Running object number                                     
#   2 MAG_AUTO               Kron-like elliptical aperture magnitude                    [mag]
#   3 X_IMAGE                Object position along x                                    [pixel]
#   4 Y_IMAGE                Object position along y                                    [pixel]
#   5 X_WORLD                Barycenter position along world x axis                     [deg]
#   6 Y_WORLD                Barycenter position along world y axis                     [deg]
#   7 A_WORLD                Profile RMS along major axis (world units)                 [deg]
#   8 B_WORLD                Profile RMS along minor axis (world units)                 [deg]
#   9 THETA_WORLD            Position angle (CCW/world-x)                               [deg]
#  10 FWHM_WORLD             FWHM assuming a gaussian core                              [deg]
#  11 ELONGATION             A_IMAGE/B_IMAGE                                           
#  12 ELLIPTICITY            1 - B_IMAGE/A_IMAGE                                       
         1 -16.8210    239.7270     96.4100   4.5962861751e+01   1.3841465949e+01     7.519325     1.721266 -39.92   0.02508793    3.594    0.722
         2 -12.0366     24.1959     78.4926   9.8033935054e+01   5.8566942901e+01    0.6878102    0.2093939 -60.66  0.002536854    3.041    0.671
         3 -10.1056     40.7962     14.3646   6.7075830183e+01   6.8105429552e+01    0.1662669   0.09271175  28.01 9.962606e-05    1.600    0.375
         4 -10.8212    144.9758    232.5050   9.1818349389e+01   4.6580605904e+00    0.2379581    0.1975829 -80.65  0.001368057    1.641    0.391
         5 -10.4676     72.3953    228.1866   1.0750057415e+02   1.6339727656e+01    0.1837643    0.1175223 -87.02 0.0009539737    1.761    0.432
         6 -10.6681    191.4850    226.5333   8.0962682503e+01  -1.3695720714e+00    0.1327141    0.1114661   3.56 0.0001895392    1.004    0.004
         7 -11.0262    162.7462    224.7642   8.6718303677e+01   3.3275722179e+00    0.2859405    0.1889931 -35.96   0.00149575    1.596    0.374
         8 -10.0369     99.4768    225.4766   1.0106036478e+02   1.3059841429e+01    0.1354714    0.1207533  50.46 0.0002030567    1.018    0.018
         9 -10.4476    183.1618    223.1533   8.2099796199e+01   4.5887359961e-01    0.1716748    0.1603996  40.53 0.0008835784    1.332    0.249
        10 -11.0478    148.8680    222.9113   8.9470435025e+01   5.8734428899e+00    0.2381349    0.1953126 -55.13  0.001200552    1.412    0.292
        11 -10.4188    114.5045    223.5032   9.7352110818e+01   1.1187353657e+01    0.1375803    0.1235056  45.19 0.0008103776    1.038    0.037
        12  -9.9491    174.3132    222.6542   8.3879224581e+01   1.9079346331e+00    0.1269945    0.1081155  68.55 0.0003699583    1.713    0.416
        13 -10.8447    193.4207    221.2053   7.9647672624e+01  -7.5004301729e-01    0.1748544     0.124606 -49.39 0.0009502907    1.710    0.415
        14 -10.7385    125.9987    220.5114   9.4277461673e+01   1.0002361096e+01    0.2110159    0.1256656  36.10 0.0005468637    1.527    0.345
        15 -11.7107    204.8447    218.0717   7.6801120237e+01  -1.9049117620e+00    0.1883999    0.1759087 -13.26 0.0006650548    1.267    0.211
        16 -10.8097    143.8985    216.6197   8.9573772058e+01   7.9135462578e+00    0.2611992    0.2122629 -55.20  0.001450996    1.388    0.280
        17 -10.4443    111.8228    216.3626   9.6957290418e+01   1.3117208771e+01    0.1925001    0.1731634  67.58 0.0008397815    1.153    0.133
        18 -10.8811    199.1419    214.9038   7.7371443681e+01  -5.2184184840e-01    0.1899224    0.1817837 -12.37 0.0007908584    1.284    0.221
        19 -11.4969    185.9111    214.1685   7.9954294124e+01   1.6340957754e+00    0.2984155    0.1938238 -53.04  0.001137808    1.934    0.483
        20 -11.7543    217.9886    210.8061   7.2938704844e+01  -2.5923526296e+00    0.2886019    0.1752886 -53.16  0.001403292    2.386    0.581
        21 -11.4975    116.4185    209.4945   9.4847096394e+01   1.3878288494e+01    0.3734995    0.2238746 -62.56  0.001705028    1.897    0.473
        22 -10.8884    193.4061    210.2302   7.7691167641e+01   1.1751400698e+00    0.1806769    0.1262494 -48.98 0.0007774971    1.666    0.400
        23 -10.8866    177.1546    209.7493   8.1017533521e+01   3.8377739633e+00    0.2565834    0.1647186 -57.72   0.00120967    2.103    0.524
        24 -12.6063    186.0962    204.0454   7.8072523237e+01   3.4632368919e+00    0.4035088    0.2891948 -52.85  0.001360921    1.682    0.405
        25 -11.3250    198.5203    204.0206   7.5501540335e+01   1.4922311027e+00    0.2581847    0.2249958 -57.94  0.001068115    1.531    0.347
        26 -13.0777    164.6162    200.9797   8.2172077446e+01   7.6182003066e+00    0.9896966    0.5968224 -25.15  0.004371914    2.043    0.511
        27 -11.8542    162.3504    193.3922   8.1267254162e+01   9.5545091870e+00    0.4616338     0.315768 -60.15  0.001758299    1.832    0.454
        28 -11.0917    148.8957    197.5808   8.5145622507e+01   1.1010768049e+01    0.3803992    0.2169379 -66.68  0.001469167    2.817    0.645
        29 -10.7460    177.5916    197.8184   7.8722204804e+01   6.0547634130e+00    0.1954965    0.1344242 -54.21 0.0009480771    1.728    0.421
        30 -11.6799    124.2476    197.0988   9.0951778437e+01   1.5338842392e+01    0.3341143    0.2728552 -81.58  0.001553417    1.471    0.320
        31 -11.0458    112.6498    197.4922   9.3865042357e+01   1.7182987326e+01    0.2772134    0.1805753  85.64  0.001145418    2.437    0.590
        32 -10.3557    203.0531    197.0941   7.3278838483e+01   2.0300149330e+00    0.1956014    0.1747163 -80.03 0.0009379477    1.687    0.407
        33 -10.3703    193.4763    195.9760   7.5008706830e+01   3.7743018595e+00    0.2106764    0.1297394 -40.81 0.0008503412    1.575    0.365
        34 -10.5707    209.4769    194.9245   7.1594098677e+01   1.4118071694e+00    0.2063332    0.1227492 -39.03 0.0008359643    1.572    0.364
        35 -10.8884    186.4577    193.4514   7.5988051977e+01   5.4144099018e+00    0.2454286    0.1330544 -53.40  0.001032497    2.297    0.565
        36 -11.0917    205.9118    190.9770   7.1528373461e+01   2.6880748863e+00    0.2480241    0.1787027 -40.62 0.0008936552    1.360    0.265
        37 -10.6016    199.5601    191.0237   7.2806330694e+01   3.7062332009e+00    0.2171248    0.1268543 -39.60  0.001034135    1.617    0.381
        38 -10.1603    179.5646    190.7204   7.6932349995e+01   7.1169381591e+00     0.191047    0.1363676 -51.95 0.0009310955    1.576    0.365
        39 -11.4026    172.3738    190.5784   7.8478781627e+01   8.3870285508e+00      0.28664    0.2507222 -69.32 0.0009865435    1.458    0.314
        40 -11.3168    138.8969    188.8137   8.5912317873e+01   1.4661875855e+01    0.4138529     0.211148 -57.58  0.001629843    2.279    0.561
        41 -10.5292    210.5093    188.9895   7.0240139160e+01   2.3165338456e+00    0.2072667    0.1238591 -40.55 0.0007682064    1.571    0.364
        42 -10.5345    217.5679    187.2585   6.8551770796e+01   1.5172634132e+00    0.2511163    0.1200332 -43.17 0.0009686425    1.991    0.498
        43 -10.5150    192.4936    187.5148   7.3562782686e+01   5.5423036672e+00    0.2434523    0.1316142 -52.39  0.001027249    2.234    0.552
        44 -10.8747    129.0964    187.4886   8.8066924264e+01   1.6683102425e+01    0.3338076    0.2029702 -58.42  0.001457124    1.803    0.445
        45 -11.2152    165.3439    186.0383   7.9168261344e+01   1.0557410171e+01    0.3880215    0.2733456 -60.71   0.00182326    1.772    0.436
        46 -10.5864    155.8752    186.0512   8.1349339901e+01   1.2244585447e+01    0.3375387    0.1672669 -53.95  0.001317541    2.292    0.564
        47 -11.8646    120.1668    183.8400   8.9638857383e+01   1.9082949686e+01    0.7077484    0.2507226 -60.98  0.002091973    3.964    0.748
        48 -11.5539     95.3049    185.1472   9.6248854205e+01   2.2910496787e+01    0.5163398    0.2696872 -70.67  0.002019697    2.378    0.580
        49 -11.2295    204.0321    184.1618   7.0555851302e+01   4.2523946363e+00    0.3720946    0.1962766 -49.03  0.001633995    2.086    0.521
        50 -10.4585    183.2463    183.6596   7.4744173560e+01   7.8836411768e+00    0.2699594    0.1716992 -51.48  0.001249423    1.746    0.427
        51 -11.9823    174.1632    182.6403   7.6517342502e+01   9.6915895599e+00    0.4278465    0.3091333 -47.87  0.001532817    1.431    0.301
        52 -12.0879    244.0165    181.1696   6.2662575458e+01  -1.3814235535e+00    0.2850095    0.1600223 -40.20   0.00135644    1.566    0.361
        53 -11.9240    147.5091    178.9020   8.1927873654e+01   1.5322356921e+01    0.4392017    0.2683522 -53.40  0.001914755    1.738    0.424
        54 -11.5377    137.9698    178.0367   8.4083647206e+01   1.7258979836e+01    0.3927313    0.2325948 -50.35  0.001433565    1.710    0.415
        55 -10.8917    192.1624    177.0416   7.1522957582e+01   7.6356308437e+00    0.3538058    0.1966238 -42.56  0.001585732    1.712    0.416
        56 -11.4238    183.0776    175.1737   7.3054156695e+01   9.6205713856e+00    0.3710755    0.2098618 -40.22  0.001639973    1.690    0.408
        57 -11.7922     77.6973    175.3449   9.9335592138e+01   2.8031487765e+01    0.3972823     0.246838  76.89  0.001657647    2.214    0.548
        58 -10.4563    105.3319    174.6569   9.1814924172e+01   2.3828551683e+01    0.1601614    0.1161466  72.37 0.0007050826    1.754    0.430
        59 -11.5368    177.4244    170.6157   7.3330716845e+01   1.1585885960e+01    0.4167749    0.2793277 -46.09   0.00138972    1.477    0.323
        60 -10.6408    134.4408    170.7611   8.3517055809e+01   1.9584951266e+01    0.2961686    0.1519523 -55.98  0.001131481    2.125    0.529
        61 -11.0414    205.8774    168.9175   6.7086895417e+01   6.8225090870e+00    0.3128994    0.1917191 -52.29  0.001184954    1.864    0.463
        62 -11.8864    121.7952    168.0885   8.6226502042e+01   2.2535840906e+01    0.6188294    0.3495789 -60.96  0.002474218    2.006    0.502
        63  -9.9385    199.4454    169.4897   6.8476096924e+01   7.8347877784e+00    0.1442222    0.1288648 -21.58 0.0001802301    1.012    0.012
        64 -10.8152    167.9670    168.2760   7.4947620474e+01   1.3842101632e+01    0.3442746    0.2063077 -52.93  0.001469773    1.817    0.450
        65 -10.8411    149.6327    168.6927   7.9336892972e+01   1.7214463613e+01    0.3286196    0.1925223 -54.66  0.001358742    1.854    0.461
        66 -10.7868    185.1249    166.3917   7.0776447284e+01   1.1035338602e+01    0.2949124    0.2070721 -47.63  0.001031626    1.433    0.302
        67 -11.5555    192.1645    163.6169   6.8713734089e+01   1.0302657384e+01    0.6238614    0.2021135 -44.06  0.002095792    2.912    0.657
        68 -12.0256    138.9470    163.7425   8.0933143528e+01   2.0372921570e+01    0.6041174    0.3258282 -61.17  0.002249705    2.371    0.578
        69 -12.8896    212.9979    163.4311   6.4582813961e+01   6.6335843222e+00    0.5818627    0.2750817 -33.58  0.002425748    2.079    0.519
        70 -10.6651    159.5355    162.8571   7.5736606700e+01   1.6625350310e+01    0.3809042    0.1487691 -49.05  0.001297414    2.606    0.616
        71 -10.9318     79.3874    163.1394   9.6849768745e+01   3.0878052534e+01    0.4255837    0.2267938  84.73  0.001269513    4.318    0.768
        72 -12.1997    205.6250    161.5395   6.5586842436e+01   8.2822746262e+00    0.4855683    0.2725557 -49.81  0.002155673    1.882    0.469
        73 -11.9878    204.4681    154.5372   6.4312035396e+01   9.8456166912e+00    0.3582542    0.2201971 -33.35  0.001398195    1.546    0.353
        74 -11.2122    177.5269    159.3389   7.0893079869e+01   1.3923931613e+01    0.4777413    0.2509415 -49.66  0.001934791    1.966    0.491
        75 -11.0600     92.9981    160.0376   9.2461769682e+01   2.9527840093e+01    0.3500683    0.2161782 -87.11  0.001321147    2.543    0.607
        76 -12.5535    160.3359    239.5490   8.9570158918e+01   1.0414085081e+00     0.309427    0.2578628 -42.14  0.001857099    1.364    0.267
        77 -11.3982    195.5058    143.2843   6.3581605585e+01   1.3748728231e+01    0.3031687    0.2404494 -16.43  0.001547896    1.369    0.269
        78 -11.5187    124.4823    141.9461   7.9893728528e+01   2.8327551593e+01    0.6078604    0.3243397 -65.90  0.002048927    2.855    0.650
        79 -11.1245     87.8730    143.3917   9.0632776174e+01   3.4596921581e+01    0.3085105    0.2129641 -86.41  0.001302537    1.967    0.492
        80 -10.4975    128.2565    158.4135   8.2543151874e+01   2.3656419602e+01    0.2728958    0.1967384 -73.72  0.001119071    1.789    0.441
        81 -10.6269    165.4909    142.5766   6.9804079588e+01   1.9892978228e+01     0.336255     0.147791 -44.45  0.001216387    2.184    0.542
        82 -12.3469    189.9642    148.3163   6.5822323153e+01   1.3807987077e+01    0.8464582    0.3163748 -40.08  0.002976588    2.547    0.607
        83 -10.8150    181.9921    140.8424   6.5781752051e+01   1.6914127856e+01    0.2832076    0.2107458 -44.26  0.001171665    1.273    0.215
        84 -11.5604    219.6283    136.0057   5.7529325125e+01   1.0595722640e+01    0.4082046    0.1215212 -40.29  0.001384604    2.963    0.663
        85 -10.6092    188.2101    156.5984   6.8015127326e+01   1.2457664673e+01    0.2931616    0.1931564 -42.60  0.001300967    1.428    0.299
        86 -10.5396    157.5433    155.3235   7.4557067845e+01   1.8682665968e+01    0.3026816    0.1490276 -51.03  0.001133882    2.116    0.527
        87 -11.3778    197.9590    135.5946   6.1366518032e+01   1.4795803389e+01    0.6233808    0.2072827 -41.28  0.002111359    2.760    0.638
        88 -10.6724    172.0897    137.1991   6.7065669791e+01   1.9694220921e+01    0.3708546    0.1922498 -52.89  0.001414163    2.136    0.532
        89 -11.1683     23.0041    137.7300   1.0942968686e+02   4.4143385228e+01    0.2967474    0.1506712  79.45  0.001185697    2.779    0.640
        90 -10.1957    138.3987    137.2151   7.5109765465e+01   2.6656473331e+01    0.2300225    0.1489938 -57.63 0.0009487871    1.703    0.413
        91 -10.3514    162.5556    135.3133   6.8765247301e+01   2.2076165707e+01    0.3053617     0.146964 -48.36  0.001134022    2.072    0.517
        92 -10.4504    187.6265    134.7088   6.3200766909e+01   1.7035290008e+01    0.2907093    0.1352569 -39.64  0.001117583    2.037    0.509
        93 -11.1255    119.3334    154.7729   8.4133974962e+01   2.6209482557e+01    0.4477243    0.2746254 -71.28  0.001709936    2.302    0.566
        94 -10.9592    179.2777    132.8918   6.4501245407e+01   1.9114299831e+01    0.3790641    0.1947171 -45.30  0.001396592    1.852    0.460
        95 -11.7705     83.4450    131.3093   8.9375791837e+01   3.8381356843e+01     0.477594    0.3156044 -79.19  0.001981321    2.051    0.512
        96 -11.0042    142.7995    130.7583   7.2424887455e+01   2.7224032008e+01    0.4712756    0.2021647 -51.21  0.001600395    2.472    0.595
        97 -11.3870    131.6297    129.8492   7.5090178337e+01   2.9749178072e+01    0.6246251    0.2603609 -53.41  0.002049232    2.678    0.627
        98 -12.5535    221.1824    128.9891   5.5737408064e+01   1.1604206593e+01    0.4385471    0.1873342 -35.44  0.001743566    2.260    0.557
        99 -11.0135    204.5564    129.5960   5.8768279124e+01   1.4667353881e+01    0.3205025    0.2193121 -59.87  0.001165269    1.702    0.412
       100 -10.9838    193.0029    128.8875   6.0781973800e+01   1.7113160250e+01    0.3338487    0.2032712 -37.00  0.001190547    1.562    0.360
       101 -10.8358    168.6455    128.8464   6.5833234575e+01   2.2183620335e+01     0.385215    0.1772819 -48.62  0.001410021    2.194    0.544
       102 -10.9406    212.0639    128.7267   5.7232037460e+01   1.3375078389e+01    0.2634987    0.1778411 -48.32  0.001308938    1.391    0.281
       103 -10.2102    186.4849    128.9566   6.2087763701e+01   1.8432222593e+01    0.2354745    0.1400093 -42.46 0.0008984675    1.567    0.362
       104 -11.0925    152.6797    127.8376   6.9272140956e+01   2.5791033767e+01    0.5192268    0.2015028 -48.68  0.001709353    2.634    0.620
       105 -11.6081     98.5230    127.0240   8.3779861032e+01   3.6864462418e+01    0.6063834     0.349405 -73.86  0.002083869    2.952    0.661
       106 -10.6362     72.7262    128.7385   9.2171836542e+01   4.0699080403e+01    0.3111326    0.1867042 -81.57  0.001177404    2.548    0.608
       107 -11.0882     12.4057    128.6272   1.1146455454e+02   4.7272098342e+01    0.2696703    0.1094089 -87.71 0.0009585198    3.374    0.704
       108 -10.7809     81.4530    154.3465   9.4675883339e+01   3.2815401174e+01    0.3549152    0.2051889  64.47  0.001334898    2.573    0.611
       109 -11.4171     59.2329    123.8530   9.5492347526e+01   4.3833761788e+01    0.5350059    0.3036591  86.02  0.001804535    3.644    0.726
       110 -11.1157    179.9234    123.5601   6.2140795792e+01   2.0894783230e+01    0.4416824     0.247037 -40.63  0.001858266    1.694    0.410
       111 -11.1008    117.2663    124.4014   7.7664970466e+01   3.3931599975e+01    0.4014729    0.2468482 -65.77  0.001542473    2.171    0.539
       112 -10.7017    188.4851    123.0326   6.0289546984e+01   1.9204345952e+01    0.3376358    0.1329526 -46.58  0.001190594    2.465    0.594
       113 -11.9789     43.2017    121.7861   1.0039055002e+02   4.6286769203e+01    0.6768628    0.3206476 -81.29  0.002298826    3.485    0.713
       114 -11.6767     28.1303    121.7217   1.0538898900e+02   4.7786697208e+01    0.6584648    0.3057986  78.40  0.001869607    5.829    0.828
       115 -11.6099    203.0998    121.6327   5.7212035046e+01   1.6482399285e+01    0.2688222    0.1828293 -49.74  0.001307216    1.407    0.289
       116 -10.6658    194.8490    121.5133   5.8705112273e+01   1.8185322958e+01    0.3169453    0.1758591 -53.83  0.001311719    1.981    0.495
       117 -10.5158    172.5318    120.2447   6.2886302127e+01   2.3149201080e+01    0.3064966    0.1421389 -46.46  0.001143057    2.098    0.523
       118 -10.6532    158.3950    120.2394   6.6029230620e+01   2.6207579015e+01    0.3753659    0.1919363 -42.00  0.001452945    1.898    0.473
       119 -11.4476    141.3624    117.6133   6.9474962910e+01   3.0465026226e+01    0.6811873    0.2687047 -52.70  0.002125789    3.042    0.671
       120 -11.0218    130.4225    117.8535   7.2376111368e+01   3.2744469263e+01    0.4885799    0.2614576 -62.81  0.001644945    2.858    0.650
       121 -10.6333     49.4866    154.9861   1.0406751611e+02   3.7005874204e+01    0.2105365     0.115603  84.89 0.0008105058    2.586    0.613
       122 -10.8914    185.8672    115.0312   5.8884153420e+01   2.1336543287e+01    0.3774096    0.1878845 -48.79  0.001359955    2.001    0.500
       123 -10.5612    144.5031    154.0398   7.7440454391e+01   2.1543376835e+01    0.2456913    0.1521099 -48.57   0.00103325    1.596    0.373
       124 -10.8652    192.9126    114.1345   5.7322316601e+01   2.0017505143e+01    0.3420302     0.199205 -38.14  0.001446724    1.629    0.386
       125 -11.5503    108.5341    112.4560   7.7106609217e+01   3.8452024205e+01    0.7194648    0.3127491 -57.05  0.002332452    2.939    0.660
       126 -11.6381     78.6878    111.6990   8.6260758753e+01   4.4007979324e+01    0.6355903    0.3452156 -73.85  0.002088682    3.483    0.713
       127 -10.9509      2.7814    116.2527   1.1290228049e+02   5.0963322404e+01    0.4763961    0.1651595 -88.62  0.001407123    5.332    0.812
       128 -11.6159     92.1212    110.8321   8.1698535740e+01   4.1923517961e+01    0.7145194    0.2763094 -57.74  0.002210581    3.282    0.695
       129 -10.9592    174.5714    110.4683   6.0028832749e+01   2.4683868660e+01    0.4255731    0.1425217 -41.37  0.001378037    2.845    0.648
       130 -11.0211    121.7714    111.2356   7.2985358421e+01   3.6045755916e+01    0.4013225    0.1862956 -51.28  0.001428229    2.282    0.562
       131 -10.6498    159.1347    110.8786   6.3473653925e+01   2.8008380318e+01    0.3049305    0.1767159 -49.13  0.001251593    1.741    0.426
       132 -11.2349     13.9206    110.0938   1.0828062434e+02   5.1807237372e+01    0.3378575     0.176336 -81.47  0.001544767    2.090    0.522
       133 -10.6774    182.5745    108.2569   5.7870848193e+01   2.3367949616e+01    0.2959845    0.1348579 -44.91  0.001131073    2.081    0.519
       134 -10.7299    189.3473    106.9524   5.6257849262e+01   2.2150791516e+01     0.391453    0.1632059 -42.88  0.001470046    2.221    0.550
       135 -11.1216    133.0040    151.8854   7.9886469473e+01   2.4297261409e+01    0.5052441    0.2667568 -61.11  0.001820612    2.419    0.587
       136 -12.5852     44.9760    101.2916   9.5457574635e+01   5.1187080983e+01    0.7997373    0.4699918  83.37  0.002869552    3.755    0.734
       137 -12.0596     22.2751    101.3185   1.0377295641e+02   5.3354574588e+01    0.7875189     0.405065  84.80  0.002844721    3.898    0.743
       138 -10.7709    139.5108    102.8200   6.6010305306e+01   3.4042379796e+01    0.4863653    0.1525218 -41.31  0.001461928    3.207    0.688
       139 -10.8162     67.6660    153.3625   9.8508445514e+01   3.5090383842e+01    0.2409424    0.1698837  70.45  0.001114248    1.707    0.414
       140 -10.4941    166.5674    102.7150   5.9729465350e+01   2.7995800257e+01    0.3049921    0.1463445 -37.15  0.001151538    2.126    0.530
       141 -11.2631    149.8397    101.3337   6.3101111739e+01   3.2038625570e+01    0.5503067     0.192306 -49.46  0.001668446    3.303    0.697
       142 -10.8864    128.3140    100.6311   6.8300829924e+01   3.6962351355e+01    0.5106881    0.1857705 -43.26  0.001669142    2.725    0.633
       143 -10.3880    175.5043    100.9998   5.7448728085e+01   2.6327169388e+01    0.2379774    0.1429622 -40.48  0.001035822    1.599    0.375
       144 -11.5370     66.1376    109.5999   8.9956430739e+01   4.6437868868e+01     0.425831    0.1988127 -67.05  0.001461912    3.005    0.667
       145 -10.7932     81.4572     99.1914   8.2043057778e+01   4.6499555473e+01     0.357225    0.1477549 -58.71  0.001147237    3.225    0.690
       146 -12.0434    200.2053    147.2692   6.3548884518e+01   1.2059367499e+01    0.6127378    0.2343894 -42.97   0.00225384    2.394    0.582
       147 -12.0041     63.3635     95.3614   8.7289274009e+01   5.0227117860e+01     0.544512    0.3184532 -73.91  0.002070288    2.904    0.656
       148 -11.7953    108.0187     97.5244   7.3144972457e+01   4.1902251487e+01    0.5845084    0.2849231 -56.61  0.002046362    2.681    0.627
       149 -10.5200    176.6951     92.4777   5.5037959658e+01   2.7661999496e+01    0.2758359    0.1302746 -39.41  0.001081036    2.048    0.512
       150 -10.6302    138.3164     90.8665   6.2982043979e+01   3.6732867963e+01    0.3182234    0.1306549 -47.58  0.001087895    2.600    0.615
       151 -11.5747    124.0869     89.0816   6.6135429532e+01   4.0262466292e+01    0.5407221    0.2103878 -44.22  0.001861033    2.591    0.614
       152 -11.2272      4.4401     90.1602   1.0835741561e+02   5.7196936169e+01    0.3596097    0.1099975 -69.04   0.00138246    2.886    0.653
       153 -11.3368     94.5894     95.5542   7.6716480987e+01   4.4962052104e+01    0.4406863    0.1445197 -47.16  0.001404555    2.988    0.665
       154 -11.2727     86.1908     86.2178   7.6704452942e+01   4.8534778217e+01    0.3633806    0.2419186 -77.23  0.001402184    2.884    0.653
       155 -11.8859     48.4330     84.0089   8.9767140273e+01   5.4815069389e+01    0.4318001    0.2830072 -86.80  0.001791134    2.962    0.662
       156 -10.0139    179.6570     85.3290   5.2649050695e+01   2.8281358634e+01    0.1550707    0.1096965 -73.99 0.0007051039    1.746    0.427
       157 -11.6787    104.1599     81.9826   6.9685596353e+01   4.5921663798e+01     0.457933     0.231313 -53.88  0.001710488    2.515    0.602
       158 -11.0420    192.6030    136.9438   6.2718823147e+01   1.5586816333e+01    0.4041977     0.137343 -39.63  0.001338797    2.818    0.645
       159 -10.5402    140.4057     82.2052   5.9998321280e+01   3.7911806999e+01     0.222747    0.1379217 -50.26 0.0009557532    1.731    0.422
       160 -10.5597    151.4980    159.5903   7.6944151278e+01   1.8909608267e+01    0.3282126    0.1503269 -47.80  0.001206955    2.154    0.536
       161 -12.0795    154.8079    240.4899   9.0887047764e+01   1.7063739751e+00    0.2835093    0.1820953 -52.41  0.001520008    1.865    0.464
       162 -11.4829     34.5085     87.8593   9.6205659933e+01   5.5482670311e+01     0.641929    0.2322649 -62.65  0.002364054    2.911    0.657
       163 -10.5929    182.1052    149.9077   6.7817607562e+01   1.5009691236e+01    0.3250005     0.185066 -45.95   0.00123815    1.689    0.408
       164 -10.2534    164.7573     93.0076   5.7566365261e+01   3.0279161849e+01    0.2087694    0.1244052 -40.64 0.0008942882    1.639    0.390
       165 -11.3133    211.5556     75.7515   4.5200275998e+01   2.2846837106e+01    0.2522221    0.1267304 -34.97  0.001000015    1.993    0.498
       166 -10.3128    162.3860    150.1727   7.2264136802e+01   1.8860526485e+01    0.2298683    0.1424971 -55.27 0.0009517907    1.788    0.441
       167 -10.9682    127.5985     73.5924   6.0588840539e+01   4.2412368582e+01    0.4302538    0.1435802 -38.82  0.001415123    3.056    0.673
       168 -11.6934    196.5494    156.5924   6.6311304097e+01   1.0897267433e+01    0.4353673    0.2667844 -47.56  0.001467573    1.611    0.379
       169 -11.8489     82.0019     70.9255   7.3299523474e+01   5.2393898255e+01    0.5798706    0.2294942 -50.90  0.002004176    3.186    0.686
       170 -11.7462     62.3306     72.1770   8.0853175389e+01   5.5441167220e+01    0.3752779    0.1257562 -44.55  0.001347648    2.790    0.642
       171  -9.8994    195.3061     72.3255   4.6763221032e+01   2.6945383057e+01    0.1329407    0.1111266  15.44 0.0004629283    1.648    0.393
       172 -10.8601     94.7468     70.1426   6.8831377668e+01   5.0104314567e+01     0.384461    0.1674756 -53.19  0.001281194    3.455    0.711
       173 -11.7145     50.9525     67.9002   8.3951312373e+01   5.7937891976e+01    0.6169903     0.202305 -56.12  0.001892771    4.527    0.779
       174 -10.8135     74.4167     80.2083   7.8928542097e+01   5.1855655162e+01    0.2073796     0.137083 -56.32 0.0009551532    1.743    0.426
       175 -10.3932    147.0000     66.9866   5.4095173370e+01   3.9041412082e+01    0.2407733   0.08308173 -36.42 0.0008081542    2.982    0.665
       176 -10.8871    203.5041     65.9914   4.4042154462e+01   2.6127713882e+01    0.2118309    0.1248026 -39.67   0.00103824    1.606    0.377
       177 -10.3160    140.0000     74.0049   5.7705835709e+01   3.9486797675e+01    0.2460056   0.08456445 -37.92 0.0008063866    2.970    0.663
       178 -10.8642     38.8414    147.2340   1.0602908175e+02   4.0199152300e+01    0.2492739    0.1270783  65.19 0.0009538591    2.860    0.650
       179 -11.0774    167.8202    156.1940   7.2364672646e+01   1.6473009634e+01    0.5049286    0.2097775 -50.15  0.001758773    2.550    0.608
       180 -11.1286     73.0198     58.2358   7.2132211422e+01   5.6346280052e+01     0.530583    0.1699389 -44.82  0.001835186    3.355    0.702
       181 -12.0366      7.4326     54.7994   9.9215103796e+01   6.4883391337e+01    0.5094621    0.1050613 -57.65  0.001851647    3.614    0.723
       182 -11.1279     45.2171     49.5586   8.0029710985e+01   6.2207781470e+01    0.2377859    0.1445445 -17.05 0.0007320165    1.822    0.451
       183 -11.0459     63.0000     54.0260   7.4375483749e+01   5.8779820815e+01    0.2218459   0.07374572 -42.08 0.0008073996    2.977    0.664
       184 -10.5294     53.0000     50.0065   7.6898765882e+01   6.1031913269e+01    0.3107339   0.07090787 -43.75 0.0009770973    4.284    0.767
       185 -10.2060    150.0000     79.0228   5.6896250417e+01   3.6268566459e+01    0.2483503   0.08438405 -38.38  0.000805923    2.967    0.663
       186 -10.7114     82.0000     46.0256   6.4542362677e+01   5.6691601015e+01    0.2190226   0.07646785 -35.93 0.0008068999    2.973    0.664
       187 -10.4458    175.5717    145.3210   6.8186412678e+01   1.7265209590e+01     0.297371    0.1419452 -47.62  0.001128567    2.068    0.516
       188 -11.7296    148.6149    143.1419   7.3939413113e+01   2.3213268328e+01    0.7450242    0.3386763 -55.44  0.002518839    2.665    0.625
       189 -11.3973    106.9506    144.6437   8.5362556112e+01   3.0981366423e+01    0.5472289    0.3462866  85.21  0.001888995    3.095    0.677
       190 -10.9301     30.4047     49.8468   8.6790167848e+01   6.3938360650e+01    0.3680562    0.1275588 -56.76  0.001269039    4.300    0.767
       191 -11.7611      4.9223     39.8551   9.5948155644e+01   6.7986136241e+01    0.4705329    0.1454506 -60.82  0.001781245    4.057    0.754
       192 -11.5333     55.8295    145.3292   1.0063667167e+02   3.8739163637e+01    0.4007357    0.2387996  80.19  0.001613997    2.453    0.592
       193 -11.2667     27.4193     29.8735   8.0536175738e+01   6.7731904199e+01    0.2921605    0.0861759 -36.40   0.00114611    3.303    0.697
       194 -10.9284    105.4829    157.5166   8.8488501530e+01   2.8040780401e+01    0.3568491    0.2342098  75.80  0.001381943    2.407    0.585
