#   1 NUMBER                 Running object number                                     
#   2 MAG_AUTO               Kron-like elliptical aperture magnitude                    [mag]
#   3 X_IMAGE                Object position along x                                    [pixel]
#   4 Y_IMAGE                Object position along y                                    [pixel]
#   5 X_WORLD                Barycenter position along world x axis                     [deg]
#   6 Y_WORLD                Barycenter position along world y axis                     [deg]
#   7 A_WORLD                Profile RMS along major axis (world units)                 [deg]
#   8 B_WORLD                Profile RMS along minor axis (world units)                 [deg]
#   9 THETA_WORLD            Position angle (CCW/world-x)                               [deg]
#  10 FWHM_WORLD             FWHM assuming a gaussian core                              [deg]
#  11 ELONGATION             A_IMAGE/B_IMAGE                                           
#  12 ELLIPTICITY            1 - B_IMAGE/A_IMAGE                                       
         1 -12.5229    169.7131     47.7146   7.0063374587e+01   3.6632315316e+01     1.517719    0.8755294  27.50  0.004800399    2.456    0.593
         2 -12.7520    183.6857     33.2998   6.3150578827e+01   3.4962598592e+01     1.154475    0.9520625  17.07  0.004340877    1.380    0.276
         3 -11.8153    188.0126     27.0684   6.0597645609e+01   3.4598091955e+01    0.6237689    0.5610309  86.60  0.001285825    1.103    0.094
         4 -11.6477    205.6619      2.8511   5.1416404031e+01   3.2619252175e+01    0.8074778    0.3718201  73.29  0.003520668    2.057    0.514
         5  -9.2869    163.5294    217.4886   1.1056512271e+02   8.2815818397e+00    0.1231977    0.1010026  40.34 0.0001501382    1.015    0.014
         6 -19.4730     29.4333    142.5590   1.2894526851e+02   4.2281404284e+01      18.0851     2.619786 -71.52   0.05090328    6.535    0.847
         7 -10.3554    193.5963    192.7733   1.0108834482e+02   6.6872860283e+00    0.5442393     0.345584 -42.83  0.002972087    1.837    0.456
         8  -9.1207    135.3107    250.0612   1.1949537292e+02   8.1299578676e+00    0.1536429    0.1229435  52.64  0.001162147    1.081    0.075
         9  -8.6251     92.1989    194.8700   1.2129919325e+02   2.3630459912e+01    0.3263538    0.1168338  54.03  0.001335122    2.965    0.663
        10 -10.2677    183.4865    215.1472   1.0659081403e+02   5.2496167255e+00    0.2603294    0.2060775 -82.01  0.001576699    2.035    0.509
        11  -8.7994     97.4677    213.2040   1.2232181317e+02   1.9517298419e+01    0.2355009    0.1396959  45.00  0.001406868    1.440    0.305
        12  -8.6372     90.3818    183.8801   1.2034351469e+02   2.6024150307e+01    0.2541488    0.1330962  61.94  0.001237493    2.078    0.519
        13  -9.7038    205.9461    180.5059   9.6570984745e+01   6.2423783562e+00    0.3432983    0.2083142  45.26   0.00153011    1.554    0.356
        14  -9.5102    209.3086    179.3244   9.5729757060e+01   5.7948223083e+00    0.2411949    0.2126021  18.13  0.001511188    1.028    0.027
        15  -9.0877     99.6109    180.5855   1.1799168362e+02   2.5274386327e+01    0.2149537    0.1908225 -75.51 0.0006439975    1.180    0.153
        16 -10.7047     94.8058    162.4471   1.1645235507e+02   2.9721279914e+01    0.4905898    0.2944693 -51.26 0.0004729955    1.795    0.443
        17  -8.8577     90.2965    175.6988   1.1931043854e+02   2.7673866432e+01    0.2472753    0.1831627  86.72 0.0004704784    1.346    0.257
        18 -10.9070     85.8097    175.8604   1.2028825955e+02   2.8303868268e+01    0.3801764    0.2695148 -45.61  0.002192433    1.799    0.444
        19 -10.9214     88.6130    171.1967   1.1906981617e+02   2.8845025892e+01    0.3312301    0.2456814 -52.46   0.00103293    1.523    0.344
        20  -9.6699    115.5240    209.9980   1.1855954888e+02   1.7337330532e+01    0.1995089    0.1364247  48.09  0.000861734    1.225    0.184
        21  -8.5998    134.6554    172.3211   1.0930583525e+02   2.0987526321e+01    0.1409352    0.1001177  73.84 0.0004318994    1.730    0.422
        22  -8.3631    163.7820    204.8041   1.0866200002e+02   1.0157399015e+01    0.1607029    0.1369679  64.67 0.0003725699    1.287    0.223
        23  -9.5110    195.8334    170.4041   9.6525422166e+01   9.6999425958e+00    0.2972164    0.2364161  35.76    0.0011574    1.142    0.124
        24  -9.3225     95.0475    203.2557   1.2169809347e+02   2.1650907854e+01    0.3560831    0.2306387 -45.31  0.002056211    2.146    0.534
        25  -8.7941    193.6959    164.6897   9.5802270894e+01   1.1035542506e+01    0.2603147    0.1677648 -60.76   0.00116722    2.452    0.592
        26 -11.1706     68.5490    159.2476   1.2192608006e+02   3.4192480965e+01    0.8250376    0.2984011  56.81  0.003021295    3.802    0.737
        27  -8.9418     88.8254    203.5953   1.2293306538e+02   2.2493136269e+01    0.3954816    0.1339341  58.71  0.001370388    4.560    0.781
        28  -7.9745    141.7396    158.3402   1.0528404225e+02   2.2378333223e+01    0.1373439    0.1073178  87.23 0.0004160859    1.587    0.370
        29 -10.4476     98.9472    156.3855   1.1456877863e+02   3.0345492357e+01    0.4248446    0.3082153 -45.78 0.0008101349    1.578    0.366
        30  -9.9747    101.4915    152.9819   1.1342269435e+02   3.0656756457e+01    0.4062931    0.2623707  87.25  0.001930362    2.048    0.512
        31  -9.9624    134.4916    148.5195   1.0500570353e+02   2.5718980615e+01    0.4253617      0.17492 -57.43  0.001514569    3.095    0.677
        32 -10.6653    109.5808    140.6967   1.0931261242e+02   3.1926356086e+01    0.4565053    0.3104536 -35.59  0.002221364    1.857    0.461
        33 -10.7110     98.8909    140.0667   1.1178399942e+02   3.3875045430e+01    0.2600191    0.2528878  80.47 0.0003806905    1.108    0.098
        34  -9.2283    104.0443    201.9501   1.1980343423e+02   2.0538111993e+01    0.2149774    0.1659493  27.51 0.0008636579    1.624    0.384
        35  -9.7780    105.9898    131.0243   1.0829505763e+02   3.4656007293e+01    0.3739077     0.292759  85.61  0.001479805    1.446    0.309
        36  -9.6147    104.5126    126.8535   1.0781303557e+02   3.5829284347e+01    0.2715218    0.2462756 -33.09 0.0006608412    1.243    0.195
        37 -10.1436    116.6125    130.1315   1.0547773376e+02   3.2945421418e+01    0.3854743    0.2588302 -31.98  0.001399699    1.910    0.477
        38  -8.9144    111.5387    119.4986   1.0443313810e+02   3.6188567345e+01    0.2704861    0.1419002  41.93 0.0006482537    1.959    0.490
        39 -10.0356    106.1336    198.9418   1.1903041917e+02   2.0764899497e+01    0.3447443    0.1876385  88.81  0.001525808    3.106    0.678
        40  -8.7202    167.9540    112.8400   8.9345584429e+01   2.5798709522e+01    0.3045751    0.2014781 -65.69  0.001244621    2.186    0.543
        41  -8.6028    205.7717    110.4036   8.1141155209e+01   1.7592490095e+01    0.2097762    0.1347082  39.96 0.0005004599    1.609    0.378
        42  -8.0308    209.7314    199.6787   9.9351934506e+01   2.8600276511e+00    0.1250778   0.08669456  10.93 0.0002909983    1.564    0.361
        43  -8.6139    127.4739     94.4834   9.4037064059e+01   3.8380891692e+01    0.1490583    0.1453443 -51.99 3.167733e-05    1.020    0.020
        44 -10.2930    174.6301     73.2634   7.6977270052e+01   3.1373179371e+01    0.5473066    0.3599173 -83.62  0.002111252    2.525    0.604
        45 -10.3042    126.4426    248.9679   1.2087303337e+02   9.5967174958e+00    0.2846162    0.1833162  34.92  0.001888744    1.528    0.346
        46  -9.4613    177.9820    225.0217   1.0902371790e+02   4.8172117261e+00    0.1484959    0.1191662  36.95 0.0005547061    1.004    0.004
        47 -10.1029    168.1962    221.0095   1.1021143797e+02   6.9930321237e+00    0.1846189     0.117723  28.22 0.0009825137    1.608    0.378
        48  -9.8066    189.3040     15.1078   5.6799173031e+01   3.5601148644e+01    0.2195199    0.1781767  12.62 0.0007926536    1.442    0.307
