#   1 NUMBER                 Running object number                                     
#   2 MAG_AUTO               Kron-like elliptical aperture magnitude                    [mag]
#   3 X_IMAGE                Object position along x                                    [pixel]
#   4 Y_IMAGE                Object position along y                                    [pixel]
#   5 X_WORLD                Barycenter position along world x axis                     [deg]
#   6 Y_WORLD                Barycenter position along world y axis                     [deg]
#   7 A_WORLD                Profile RMS along major axis (world units)                 [deg]
#   8 B_WORLD                Profile RMS along minor axis (world units)                 [deg]
#   9 THETA_WORLD            Position angle (CCW/world-x)                               [deg]
#  10 FWHM_WORLD             FWHM assuming a gaussian core                              [deg]
#  11 ELONGATION             A_IMAGE/B_IMAGE                                           
#  12 ELLIPTICITY            1 - B_IMAGE/A_IMAGE                                       
         1 -14.8093    137.2775      5.0702   6.9661115411e+01   4.9793248816e+01     6.117007          nan  55.94    0.0164045    5.742    0.826
         2 -14.0145    190.7374      9.2550   6.3218910146e+01   3.6588627768e+01     2.682806     1.169791 -79.87  0.009466355    3.888    0.743
         3 -14.6184    207.1382     37.7093   6.8185956384e+01   2.9209666921e+01     1.367455     1.208132  12.75  0.008020718    1.555    0.357
         4 -14.2591    216.8828     29.1882   6.4965495035e+01   2.7983178881e+01     1.342577    0.7473179 -50.77  0.006734383    1.719    0.418
         5 -13.6266    230.2971     53.5952   6.8982878688e+01   2.1421577612e+01      1.74659    0.7603071 -59.78  0.006624834    2.867    0.651
         6 -14.4841    167.0341     53.2717   7.8642909810e+01   3.6937262987e+01     2.124856     1.161909  83.67   0.00288316    2.973    0.664
         7 -10.2797    219.5166     13.0764   6.1023797496e+01   2.9309955847e+01    0.2359246    0.2098855   5.50  0.001510895    1.649    0.394
         8 -13.0532    237.6004     27.9526   6.2480601039e+01   2.3325625071e+01    0.8310223    0.3724577 -78.45  0.003246275    3.177    0.685
         9 -12.5612    227.6612     19.8907   6.1721007272e+01   2.6613524802e+01     0.422025    0.2654093 -57.40 0.0007375001    1.456    0.313
        10 -14.0314    233.1292      4.5680   5.7964386307e+01   2.7139622332e+01      1.46812    0.8232895 -70.45  0.002402179    1.650    0.394
        11 -12.6813    124.9544     25.2519   7.8605026247e+01   5.0635911858e+01      0.48352    0.3089181  83.84  0.002263356    2.319    0.569
        12 -16.0406    241.3335     94.4685   7.6815840175e+01   1.2263620131e+01     8.861776     2.111761 -36.22   0.02510572    4.473    0.776
        13 -12.5414    250.3021     11.2324   5.7914540074e+01   2.2587140405e+01    0.8829854    0.3027282 -32.58  0.003460054    3.280    0.695
        14 -13.7132    183.5515     81.3126   8.3216737756e+01   2.8211483713e+01      5.78173    0.5548097 -41.25   0.01167866    7.717    0.870
        15 -10.3053    214.9833      4.0000   5.9445293943e+01   3.1362469047e+01     0.303851    0.1772058  86.83  0.001650611    1.522    0.343
        16  -9.8949    216.4779      1.4433   5.8744749126e+01   3.1280586483e+01    0.2075263    0.1600716  76.43 5.553505e-05    1.169    0.145
        17 -13.1919    248.2339      3.1847   5.6497541418e+01   2.3963068349e+01    0.6453367     0.416773  85.38  0.002957851    1.312    0.238
        18 -10.5724    209.7885      1.4524   5.9366292970e+01   3.2840406075e+01    0.2330284    0.1232648  78.25  0.001210908    1.622    0.384
        19 -10.8791    134.7158    105.7494   1.0084368745e+02   3.5004006532e+01    0.5782562    0.3672445 -33.11  0.002439828    1.781    0.438
        20 -12.9212    204.6075    110.5309   8.6692722590e+01   1.7651704603e+01    0.5406913    0.4120396  28.40  0.001931769    1.667    0.400
        21 -13.1047    198.0086    100.9795   8.5559690291e+01   2.1046240295e+01    0.8005984    0.3924278 -41.17  0.003126115    1.979    0.495
        22  -9.3207    164.3113    102.6602   9.2924566366e+01   2.8825835057e+01    0.1642195    0.1227675 -78.93 0.0004977941    1.693    0.409
        23 -11.7884    215.7698     99.6535   8.2053338475e+01   1.7097709782e+01    0.3733637    0.2197136 -50.66  0.001276495    1.673    0.402
        24 -10.1947    124.5579    100.0809   1.0194798762e+02   3.8400162631e+01    0.2559388    0.2172314  14.93  0.001030804    1.372    0.271
        25 -14.4401     16.3754    220.5045   1.4739374160e+02   2.6951202706e+01    0.8259413    0.5791313  80.35  0.004183204    1.025    0.024
        26 -11.2313    147.0366     95.1314   9.4887425830e+01   3.4416561409e+01    0.3664923    0.3090185   9.63 0.0008316762    1.454    0.312
        27 -10.7015    133.5369     93.1820   9.7687989021e+01   3.7878010232e+01    0.2971312    0.2458469  83.03 0.0007362241    1.441    0.306
        28 -12.9527    156.4325     86.3193   9.0238661460e+01   3.3916847157e+01     1.170146    0.7654157   3.09  0.004095325    3.075    0.675
        29  -9.8132    246.6402    226.7009   1.0350261471e+02  -1.0995825179e+01    0.1297425   0.08270399   7.38 0.0007035344    1.712    0.416
        30 -11.6858    140.4810     83.7078   9.3245106736e+01   3.8165388897e+01    0.3434401    0.3233408 -66.76 0.0008105785    1.098    0.089
        31  -9.8685    212.5091     84.5017   7.8906259802e+01   2.0592498235e+01    0.1516834    0.1342316 -72.21 0.0008097978    1.064    0.060
        32  -8.9841    205.2991    223.7172   1.1063582098e+02  -3.7772304366e+00    0.1204412    0.1022046  67.25 0.0002357781    1.547    0.353
        33 -12.8974    154.2061     73.8612   8.7195730188e+01   3.6728864872e+01    0.4043122    0.3260943 -41.61 0.0008769624    1.270    0.213
        34 -10.1532     91.5547    217.9282   1.3284396640e+02   1.7535767109e+01     0.243432    0.1507336  59.58 0.0005440184    1.465    0.317
        35 -13.2747    171.3828     71.6822   8.2972683633e+01   3.2905723942e+01    0.9221745    0.7038581  37.57   0.00152506    1.475    0.322
        36  -9.8387    130.9511     66.2895   9.0402662246e+01   4.3480960041e+01    0.2081747    0.1895835  42.37 0.0006805629    1.063    0.059
        37 -12.2091    178.0678     64.9647   7.9839882704e+01   3.2367672423e+01    0.3427744    0.3323973 -37.57 0.0003967816    1.132    0.116
        38 -12.3302    186.8819     56.3441   7.5958171472e+01   3.1533155879e+01    0.3784793    0.2652833  52.62 0.0009860537    1.423    0.297
        39 -12.6361    192.0332     51.9499   7.3960630095e+01   3.0913937393e+01    0.4523308    0.3223999  35.21  0.001701482    1.814    0.449
        40 -10.0476      8.6829    170.3234   1.4498228441e+02   3.8469647889e+01    0.1234961   0.07008089  73.51 0.0003816863    1.668    0.400
        41 -13.4053    123.6324     36.5590   8.2663953105e+01   4.9573856701e+01    0.9320365    0.4512267  56.17  0.001432427    1.953    0.488
        42  -9.7291    190.0691     36.2296   7.0164089501e+01   3.3599193717e+01    0.1896674    0.1642772 -87.46 0.0008460178    1.054    0.051
        43  -9.7850    155.1598     33.8264   7.5212565983e+01   4.2524528204e+01    0.2190257    0.1807013 -89.25 0.0006005779    1.286    0.223
        44 -15.0259     46.2449    193.3031   1.3936521435e+02   2.9384000504e+01     1.692199     1.360465 -35.77  0.001853018    1.910    0.476
        45 -10.9692    227.4676     31.1791   6.4237735360e+01   2.5232331216e+01    0.5248653    0.2341162  79.38  0.002007491    2.422    0.587
        46 -14.7218     56.5209    182.6685   1.3594555381e+02   3.0503137322e+01     1.390755      1.17639 -50.18  0.002618728    1.465    0.317
        47 -10.1355    191.6669    192.9584   1.0768632085e+02   4.1152737395e+00     0.220758    0.1163385 -64.76 0.0007022003    4.187    0.761
        48 -12.6685    248.2917     34.6243   6.2839618024e+01   2.0054167834e+01    0.6709377    0.3365389 -68.07  0.003138635    2.153    0.535
        49  -9.7235    202.3273    248.1386   1.1524340383e+02  -6.9728011130e+00    0.1605694    0.1440479  17.35 0.0003877082    1.107    0.097
        50 -11.2699    249.7835     26.2016   6.0961443794e+01   2.0843352788e+01    0.3877904    0.2007495 -41.62  0.001409443    1.790    0.441
        51  -9.0619    161.2598     28.6085   7.2606902675e+01   4.1669689264e+01     0.140594   0.09734175 -64.58 0.0006970549    1.697    0.411
        52  -9.8400    194.9077     26.6970   6.7058675619e+01   3.3612948622e+01    0.1891515    0.1517863  88.00 0.0004358478    1.112    0.101
        53 -12.1108    132.4002     25.9984   7.7252430819e+01   4.8856139636e+01    0.3720497    0.2151147 -47.92   0.00177889    2.129    0.530
        54 -12.5887    213.4327    128.9324   8.9449798093e+01   1.2064170307e+01    0.6013612    0.2932919  43.93   0.00186042    2.238    0.553
        55 -12.2751    219.4991    131.0206   8.8817548247e+01   1.0327996642e+01    0.3730966    0.2961699  26.32  0.001246567    1.508    0.337
        56 -12.0053    246.6160    163.8327   9.1236710750e+01  -1.1246531368e+00    0.4762782    0.2943127   0.68  0.001985364    2.773    0.639
        57 -10.1905    160.7561    128.0751   1.0024871330e+02   2.4296590869e+01    0.3603117    0.1914252 -49.30  0.001384133    1.905    0.475
        58 -12.4054     67.7333    144.2893   1.2757789111e+02   3.8105173126e+01    0.6540177    0.3997262  65.70  0.002690132    2.039    0.510
        59 -10.3605     11.5059    141.9902   1.4148012604e+02   4.4647546838e+01    0.1645361    0.1447328 -88.55  0.001190905    1.165    0.142
        60  -9.5280    212.2436     10.6002   6.1194549774e+01   3.1296648072e+01    0.1678831    0.1037439  66.27  0.000312415    1.462    0.316
        61 -12.3404    210.6622    133.9404   9.1139733051e+01   1.1699002521e+01    0.5828096    0.3577534  45.33  0.002085928    1.711    0.416
        62 -13.4254    135.6238     38.5886   8.0599947315e+01   4.6577038922e+01     3.533335    0.6971824  58.65   0.00924624    5.354    0.813
        63  -9.3625    135.0000    120.9504   1.0471847455e+02   3.1613753887e+01    0.2624518   0.08799296 -46.60 0.0008019682    2.939    0.660
        64 -10.5847    167.4163    113.0476   9.4946663002e+01   2.5955794501e+01    0.3667887     0.271144 -72.18  0.001003252    1.655    0.396
        65 -10.6336    141.0327    100.9741   9.7961521291e+01   3.4600412332e+01    0.3813624    0.2978421   2.44   0.00170225    1.755    0.430
