#   1 NUMBER                 Running object number                                     
#   2 MAG_AUTO               Kron-like elliptical aperture magnitude                    [mag]
#   3 X_IMAGE                Object position along x                                    [pixel]
#   4 Y_IMAGE                Object position along y                                    [pixel]
#   5 X_WORLD                Barycenter position along world x axis                     [deg]
#   6 Y_WORLD                Barycenter position along world y axis                     [deg]
#   7 A_WORLD                Profile RMS along major axis (world units)                 [deg]
#   8 B_WORLD                Profile RMS along minor axis (world units)                 [deg]
#   9 THETA_WORLD            Position angle (CCW/world-x)                               [deg]
#  10 FWHM_WORLD             FWHM assuming a gaussian core                              [deg]
#  11 ELONGATION             A_IMAGE/B_IMAGE                                           
#  12 ELLIPTICITY            1 - B_IMAGE/A_IMAGE                                       
         1 -12.9852    187.5150     47.8662   3.0428723251e+01   3.1965104855e+01     1.528949     1.055475  36.95  0.004523485    1.611    0.379
         2 -13.1270    212.0370     16.9813   1.8034177063e+01   2.9574421936e+01     1.432677     1.043482 -19.17  0.005579828    1.465    0.317
         3 -10.5164    120.1965      9.1277   2.9106106437e+01   5.3170015746e+01    0.4478689    0.3588532  28.99  0.001375872    1.131    0.116
         4 -10.9895      7.3125      9.9629   6.7877196502e+01   7.1329633897e+01    0.2627968     0.164359 -30.40  0.001815756    1.129    0.114
         5  -9.7786      2.1362      7.2938   6.9150775888e+01   7.2137530031e+01    0.2118241    0.1055613 -48.98  0.001259444    1.899    0.473
         6 -10.2331    190.9971      7.6783   1.7704194440e+01   3.5800648627e+01    0.2460484    0.2014575  -0.37 0.0007015825    1.378    0.274
         7  -9.1641    116.1828     12.6071   3.1360664842e+01   5.3756400086e+01    0.2795926    0.1944359  46.23  0.001392793    1.336    0.251
         8 -10.7603     72.2728    187.7088   8.9305013191e+01   2.6966510058e+01    0.2651232     0.194194 -88.71 0.0005919439    1.207    0.172
         9 -12.4223    248.3527    223.0841   6.2370070949e+01  -7.8909380782e+00    0.8602776    0.6536083  -8.95  0.005953645    1.235    0.190
        10 -12.3929    247.6243    238.4113   6.5085815068e+01  -9.4043404296e+00     1.148316    0.8163668   5.56  0.008085237    1.220    0.180
        11  -8.8126     68.4911    188.4743   9.0124952239e+01   2.7317536617e+01    0.1814844    0.1193031  74.01 0.0001296286    1.443    0.307
        12  -9.8018     55.2664    207.0990   9.4453534133e+01   2.5316881652e+01    0.2092679    0.1294854  71.02 0.0004057782    1.409    0.290
        13  -9.0116     48.7958    209.9015   9.5818547510e+01   2.5566083871e+01    0.3325861    0.2182912  38.76  0.001993233    1.799    0.444
        14  -9.8805     87.3091    207.2813   8.8733999700e+01   2.0999937564e+01    0.2212202    0.1752777 -86.17 0.0003682919    1.161    0.139
        15  -9.3067    180.2713    175.0075   6.5533091332e+01   1.0936081487e+01    0.2976652    0.2240651 -73.82  0.001471653    1.963    0.490
        16 -10.0656    153.4231    171.4289   7.0234165998e+01   1.6811732722e+01    0.2578986    0.2443789 -23.81 0.0002400155    1.126    0.112
        17 -10.5968    145.6032    170.9551   7.1761505945e+01   1.8391893849e+01     0.401384    0.2851881 -57.06  0.001740615    1.495    0.331
        18  -9.0224     89.8777    202.3261   8.7686441516e+01   2.1571704351e+01    0.2308652    0.1989715 -30.69  0.001018143    1.762    0.432
        19  -9.8781    247.4849    168.2290   5.1797494291e+01  -8.1485455522e-01    0.2821399    0.2129248 -83.03  0.001302682    3.107    0.678
        20 -10.1596      6.4149    250.3620   1.0476754091e+02   2.3046950039e+01   0.09483545   0.06411798  79.36 0.0001542137    1.111    0.100
        21  -9.5719    230.8001    166.8292   5.4358957993e+01   2.4614449084e+00    0.1804841    0.1682297 -43.97   0.00108509    1.349    0.259
        22 -10.5889    120.2270    165.6391   7.6152730333e+01   2.4118103633e+01    0.3884633    0.2608177  75.87  0.001852955    1.936    0.483
        23  -9.1195     73.6520    206.0800   9.1083838945e+01   2.3135736703e+01    0.1545426    0.1191846  86.11 0.0003768926    1.101    0.092
        24 -11.1831    247.9017    247.5694   6.6514346404e+01  -1.0350224284e+01     1.050858    0.3476164  36.58  0.005233373    2.429    0.588
        25  -9.2314    152.7857    162.6837   6.8639858454e+01   1.8643817937e+01     0.293678    0.1911174 -57.75  0.001376921    1.728    0.421
        26  -9.2037    126.1378    158.6561   7.3572114430e+01   2.4531064634e+01    0.2455462    0.1827653 -63.94 0.0007246162    1.374    0.272
        27  -9.7653    136.4596    155.7242   7.0732288296e+01   2.3220647812e+01    0.4296779    0.2615264 -64.92  0.001519313    2.022    0.506
        28 -10.7883    133.8195    146.3428   6.9365427777e+01   2.5709864935e+01     1.207033    0.2968794 -53.24  0.003050933    5.383    0.814
        29 -10.2083     63.0583    201.9190   9.2574728019e+01   2.5338731153e+01    0.2031775    0.1427689 -66.10 0.0004003689    1.441    0.306
        30 -10.8761    120.3255    152.2492   7.3615224785e+01   2.6959211530e+01    0.5093552     0.313526 -79.90  0.001142532    2.495    0.599
        31  -8.7494    147.3244    144.4198   6.5930743434e+01   2.3445517261e+01    0.2549632    0.1805421 -67.34  0.000835681    1.736    0.424
        32  -9.3939    146.5306    149.4645   6.7214909916e+01   2.2558119830e+01    0.3130678    0.2153874 -34.17  0.001031338    1.601    0.375
        33  -9.7320    144.1661    146.1637   6.7016073318e+01   2.3716322299e+01    0.2403296    0.2044763 -75.60   0.00118159    1.302    0.232
        34  -8.1194     54.1077    199.5903   9.3964613213e+01   2.6918478948e+01    0.3079417    0.2160371 -52.56  0.001996769    1.851    0.460
        35 -10.1040    116.7266    145.8758   7.3158046258e+01   2.8999520807e+01      0.31427     0.177246  54.82 0.0005791365    2.002    0.500
        36  -8.5479    238.2158    143.1419   4.7722710957e+01   4.6868136092e+00     0.177965    0.1636284 -43.02 0.0004857822    1.286    0.223
        37  -9.7342    125.0467    141.0370   7.0225318286e+01   2.8529932553e+01     0.221803    0.2085059 -65.34 0.0004425739    1.009    0.009
        38 -10.7760    117.7441    133.4340   7.0271352815e+01   3.1570140069e+01    0.4321092    0.3329251 -53.54   0.00115129    1.219    0.180
        39 -14.0503     11.9457    207.3860   1.0175788963e+02   2.9994133336e+01    0.7806844    0.3611118  33.56  0.004745431    2.816    0.645
        40  -9.2889     67.5930    196.2308   9.1154070450e+01   2.5870317660e+01    0.2148532    0.1488023  80.55 0.0005631777    1.288    0.223
        41  -9.5042    163.2963    126.4749   5.8128604030e+01   2.3771275149e+01    0.5054538    0.3445853   5.89  0.001995438    2.325    0.570
        42  -9.2972    115.6479    128.0903   6.9566642763e+01   3.3149194183e+01     0.263524    0.2214635  32.57 0.0006716899    1.346    0.257
        43 -10.8909     91.1522    124.6305   7.4865974337e+01   3.8155199805e+01    0.3999766    0.2764874  72.63  0.001328104    1.898    0.473
        44  -8.3449    235.4620    125.5218   4.3954277672e+01   8.0635529255e+00    0.1471561    0.1311297 -24.58 0.0002385976    1.071    0.067
        45  -8.9526    121.1874    123.4576   6.7128643829e+01   3.3139620673e+01    0.2937966    0.2041419 -49.74   0.00139743    1.347    0.258
        46 -10.4136    103.5912    123.5158   7.1490285868e+01   3.6339263483e+01    0.2920022      0.27171  67.95 0.0009467572    1.148    0.129
        47  -9.2159    248.4795    196.4792   5.7428819855e+01  -4.7708533642e+00    0.1281576     0.102484   7.41 0.0002936918    1.014    0.013
        48  -9.7528    105.5458    117.9356   6.9690939509e+01   3.7261006880e+01    0.3269067    0.2702456  89.70  0.001711046    1.402    0.287
        49  -8.5584    110.8654    117.8524   6.8325666356e+01   3.6322396299e+01    0.2115441    0.1918968 -29.87 0.0003228289    1.166    0.143
        50 -10.2367    118.6142    110.9256   6.4623805859e+01   3.6404713621e+01    0.4637464    0.3401435  86.22  0.001713236    1.987    0.497
        51  -9.1521     81.8808    196.0902   8.8451847179e+01   2.3942138482e+01    0.1918802    0.1340189  75.72 0.0007073661    1.343    0.255
        52  -9.0837    191.8094    193.0373   6.6799096305e+01   5.7277481969e+00     0.396801     0.223328 -60.82  0.001585375    3.498    0.714
        53  -9.1568     75.1645    250.3419   9.4828171924e+01   1.5203174792e+01    0.1281679     0.106653 -87.90  0.001043812    1.308    0.236
        54 -12.0901    170.5746     61.6109   3.7772874180e+01   3.4193010480e+01     1.001492    0.8108715  23.68  0.001617454    1.355    0.262
        55  -8.1038    137.9960     68.0185   4.6906451800e+01   4.0981952527e+01    0.1800548     0.167854 -17.32 0.0009478581    1.001    0.001
        56  -7.8962    211.5247     64.9972   3.1709826901e+01   2.3400132101e+01    0.2195065    0.1412942 -31.28 0.0003112549    1.450    0.311
        57  -8.5667     78.2819    246.7413   9.4058176240e+01   1.5365275494e+01    0.2952355    0.1324336  58.58  0.001372422    1.922    0.480
        58 -11.8174    192.9538     41.6197   2.7664178598e+01   3.1433740455e+01     0.713766    0.5659686  48.25  0.001904987    1.296    0.228
        59  -8.0881    107.8065     57.5736   5.1028335273e+01   4.9360262996e+01    0.1727768    0.1456287  57.27 0.0009103072    1.431    0.301
        60 -11.5208     60.5905    188.0072   9.1587806307e+01   2.8439438332e+01    0.7487127    0.3353969  66.00  0.003417471    2.774    0.640
        61  -8.5293     31.6090     44.1016   7.1287344990e+01   6.3279540673e+01    0.1747964    0.1650723   1.46 0.0006149248    1.350    0.259
        62 -10.8733     57.6742    212.0349   9.4477968823e+01   2.4081248464e+01    0.2986232    0.2304356 -75.66  0.001625228    1.302    0.232
        63  -7.9754    155.2539     31.3121   3.0577051639e+01   4.2347817613e+01    0.1467739    0.1068136  20.87 0.0002451398    1.522    0.343
        64 -10.4076     51.7451    246.0937   9.8072314918e+01   1.8821502851e+01    0.1328644   0.09404898  84.21 0.0003746082    1.174    0.148
        65 -10.5139     68.4082    244.7031   9.5431293246e+01   1.6982337028e+01     0.135015    0.1134802  77.94 0.0004372961    1.235    0.190
        66 -18.2667     24.9353    232.4054   1.0123195195e+02   2.4159990206e+01     6.864667      4.78814 -77.79   0.03180693    1.429    0.300
        67  99.0000     72.5233    231.7722   9.3718644648e+01   1.8613819174e+01      0.24931    0.1768024 -55.05  0.001728736    1.869    0.465
        68 -11.4782    145.3787    184.9981   7.4344198959e+01   1.5732557372e+01     0.526735    0.3887388 -51.45  0.001535097    1.433    0.302
