#   1 NUMBER                 Running object number                                     
#   2 MAG_AUTO               Kron-like elliptical aperture magnitude                    [mag]
#   3 X_IMAGE                Object position along x                                    [pixel]
#   4 Y_IMAGE                Object position along y                                    [pixel]
#   5 X_WORLD                Barycenter position along world x axis                     [deg]
#   6 Y_WORLD                Barycenter position along world y axis                     [deg]
#   7 A_WORLD                Profile RMS along major axis (world units)                 [deg]
#   8 B_WORLD                Profile RMS along minor axis (world units)                 [deg]
#   9 THETA_WORLD            Position angle (CCW/world-x)                               [deg]
#  10 FWHM_WORLD             FWHM assuming a gaussian core                              [deg]
#  11 ELONGATION             A_IMAGE/B_IMAGE                                           
#  12 ELLIPTICITY            1 - B_IMAGE/A_IMAGE                                       
         1 -14.4734    106.2851    104.4953   6.2030737426e+01   4.0395205058e+01     1.341632     1.076712 -46.01  0.005668624    1.200    0.166
         2 -14.9101      6.5282     70.7639   8.6252212118e+01   5.9779733528e+01    0.9716962    0.6315754 -56.44   0.00574541    1.158    0.136
         3 -12.7118      8.0442      2.5805   6.4856322752e+01   7.2385719613e+01    0.4558346    0.3119717  29.08  0.003258953    1.896    0.473
         4 -15.8874     11.2668     23.4150   7.1786212654e+01   6.8799432526e+01     1.873406    0.8378509 -32.12  0.009767031    1.920    0.479
         5 -13.5537     29.4535      8.0888   5.6631783349e+01   6.9596706470e+01    0.3555375    0.3170141   6.79  0.001325138    1.427    0.299
         6 -13.7451     25.1388     13.3244   6.1082181786e+01   6.9288234152e+01    0.6339312    0.2506689  27.63  0.003277703    2.673    0.626
         7 -14.0219    122.2421     36.2177   3.6022690653e+01   4.9680089949e+01      1.00652    0.5758958  29.03  0.004335416    2.059    0.514
         8 -14.6067    166.3255     28.4060   2.4180021355e+01   3.9860912008e+01     1.186941    0.9278858  66.00   0.00504103    1.201    0.167
         9 -14.4267    147.3898     29.7954   2.8131424128e+01   4.4473601528e+01     1.351473    0.6783223  62.03  0.004547738    1.924    0.480
        10 -11.6353    194.7386     23.2456   1.8396761357e+01   3.3219459387e+01    0.4094115    0.3380674  -2.60  0.002284027    1.486    0.327
        11 -13.6035    187.8452     23.6128   1.9435680133e+01   3.4925878321e+01     1.417287    0.5961108 -52.70  0.005193483    3.064    0.674
        12 -13.4788    187.4430     11.1935   1.6016152713e+01   3.6375034729e+01    0.9800494    0.5950031 -48.17  0.004896688    1.732    0.423
        13 -13.4701    219.1504     15.3242   1.3484408579e+01   2.8070500982e+01    0.3640982    0.3235356  57.99  0.001507998    1.229    0.187
        14 -13.7277    214.7740     10.0059   1.2622085498e+01   2.9705854982e+01    0.6193843    0.4519234 -62.51   0.00243569    1.315    0.240
        15 -13.0444    120.4844     25.9229   3.2719885193e+01   5.1406610051e+01     0.759558    0.4968121  26.62  0.003438514    1.634    0.388
        16 -15.1685     99.2354     11.1537   3.2427775002e+01   5.7747291412e+01     1.424327    0.8796301  47.24  0.004339164    1.436    0.304
        17 -12.7376     85.8498     13.9119   3.7429653411e+01   6.0176449029e+01    0.4524239    0.3557816 -44.42   0.00210779    1.667    0.400
        18 -11.5970     70.9875     16.3769   4.3389948621e+01   6.2616345932e+01    0.2621687    0.1770826 -28.15 0.0007773756    1.465    0.317
        19 -12.2642     60.1362     15.3604   4.6914519530e+01   6.4528607942e+01    0.4833854    0.2816186  19.44  0.002588548    1.791    0.442
        20 -11.6887     46.6778     12.7033   5.1100105569e+01   6.6845841174e+01    0.2486689    0.2096853  15.56  0.001735777    1.254    0.203
        21 -10.5149     40.5163     12.5488   5.3675850533e+01   6.7674065625e+01    0.1645946    0.1019797 -39.27 0.0005867759    1.710    0.415
        22 -13.6900     42.0281      3.8959   4.8880420847e+01   6.8598433608e+01    0.5677611    0.4087633  14.63  0.003200192    1.199    0.166
        23 -11.2898    123.7012     11.1701   2.6544977315e+01   5.2260659303e+01    0.2201475     0.175289  65.15 0.0005549013    1.274    0.215
        24 -12.6229    152.3563      8.9181   2.0374396468e+01   4.5482360004e+01    0.3693192    0.2543125  50.46  0.001699415    1.303    0.233
        25 -11.6385     75.6782      9.3109   3.8658442583e+01   6.2604184304e+01    0.3089147    0.2037806 -15.45   0.00178098    1.463    0.316
        26 -11.2427     80.6699      7.5497   3.6273932368e+01   6.1857240448e+01    0.1903333    0.1469486 -39.22 0.0005786814    1.642    0.391
        27 -11.9818    119.2181      2.6461   2.4327091578e+01   5.4079770806e+01     0.421002    0.2511812  88.77  0.001855246    2.693    0.629
        28 -13.3663    216.8048     28.1440   1.6936068520e+01   2.7146614559e+01    0.5405586    0.2612395 -46.75  0.002400918    2.030    0.507
        29 -13.4300    223.3024      8.5444   1.1437028605e+01   2.7810724669e+01    0.7112843    0.3301062 -19.77  0.003093808    2.842    0.648
        30 -11.8101     75.2149      2.6844   3.5811997845e+01   6.3369861672e+01    0.3880649    0.1813267  40.54 0.0006255836    1.856    0.461
        31 -11.1108     61.6637      1.3620   3.9813260800e+01   6.5899369707e+01    0.2635917    0.1102008  50.39  0.001195992    2.643    0.622
        32 -11.5438    212.6190      4.2384   1.1412533828e+01   3.0822015844e+01     0.226119    0.2059115 -38.33 0.0005964387    1.231    0.188
        33 -11.7173     44.2307    132.5884   8.5192345640e+01   4.2856185001e+01    0.1554082    0.1269547   7.19 0.0008386048    1.632    0.387
        34 -12.2217     51.1443    248.7289   9.5245840732e+01   1.8042424825e+01    0.3436552    0.2617597 -70.96  0.002647568    1.567    0.362
        35 -12.3304      3.0246    249.4692   1.0280622418e+02   2.3154378049e+01    0.3430265    0.2089535  70.59  0.002026369    1.117    0.105
        36 -13.7043      9.6555    245.6698   1.0165458622e+02   2.3148633642e+01    0.7366837    0.3035765  59.88  0.003687566    1.789    0.441
        37 -11.9490    135.0145    126.1624   5.9739401872e+01   2.9926191925e+01    0.2910087    0.2287398 -46.07  0.001415304    1.276    0.216
        38 -12.2950    109.4698    249.0261   8.5198735951e+01   1.0016230670e+01    0.2343105    0.1678912  55.85   0.00158272    1.114    0.103
        39 -11.5053    181.0047    120.7598   4.7595021811e+01   2.0863191169e+01    0.2110265    0.1298826  47.96 0.0008857111    1.621    0.383
        40 -12.3764     49.0156     93.3142   7.6711533215e+01   5.1405384190e+01    0.3649555    0.2886012  77.30   0.00187837    1.585    0.369
        41 -12.0166      4.8774    119.3539   9.3786450377e+01   4.9171351412e+01    0.4057911      0.31213 -12.84  0.002817621    1.798    0.444
        42 -12.6980     42.4267     90.5310   7.8221197245e+01   5.2719652846e+01     0.327531    0.2363342 -67.05 0.0004669148    1.310    0.237
        43 -14.6254     24.5497     93.0475   8.4414879469e+01   5.3732630667e+01     1.337875     1.015182 -12.44  0.008577794    1.622    0.383
        44 -12.2965     36.6543     92.8556   8.0554081377e+01   5.2752122103e+01    0.3744076    0.2571191  -3.57  0.001392412    1.926    0.481
        45 -11.6687     19.0414     86.0193   8.4895861654e+01   5.5701262707e+01    0.2278419    0.1738331 -48.32 0.0003740555    1.146    0.128
        46 -13.4900      2.2976     96.9554   9.1776201139e+01   5.4300758869e+01    0.8642908    0.3030629 -76.58  0.003879805    2.635    0.620
        47 -14.3508     18.4110    110.3418   8.8998490979e+01   5.0285286655e+01     0.909122    0.7347215 -39.21  0.006224199    1.364    0.267
        48 -13.8887     11.2725    103.5833   9.0080656424e+01   5.2299480412e+01    0.6028712    0.5504882 -64.04   0.00377513    1.172    0.147
        49 -11.3835     86.7104    114.8322   7.0119788887e+01   4.1427382014e+01    0.3201223     0.257272  11.07  0.001080274    1.532    0.347
        50 -11.5890    121.8734    111.9561   5.9649491506e+01   3.5728925894e+01     0.236373    0.2084644  -9.28 0.0006735592    1.266    0.210
        51 -11.6045     63.4136    110.9857   7.6052726961e+01   4.5654336302e+01    0.3751955    0.2300956  54.05   0.00182292    2.003    0.501
        52 -12.0878     78.5147    110.0148   7.1407252634e+01   4.3793252617e+01    0.3802242    0.2992968  89.10  0.001552775    1.535    0.349
        53 -12.1990     82.0068    115.1703   7.1540073175e+01   4.2079689416e+01    0.4397097    0.3073839  68.54  0.002113652    1.880    0.468
        54 -11.9343     41.0256    106.0367   8.1731503288e+01   4.9333842365e+01    0.3031249    0.2036874  50.59  0.001703501    1.759    0.431
        55 -12.2009    135.7943    103.0409   5.3634133376e+01   3.4720251163e+01    0.7834182    0.2730424  48.97  0.002473141    3.032    0.670
        56 -13.5305    111.5676    116.4981   6.3562814678e+01   3.6728662972e+01    0.5620079     0.413693  33.79  0.001880979    1.450    0.310
        57 -12.2242     61.4941     98.1899   7.3870897014e+01   4.8835184873e+01    0.5568987    0.3655732  76.26  0.002563042    2.455    0.593
        58 -11.8969     47.0114     99.4692   7.8643090768e+01   5.0225034186e+01    0.3869642    0.2925258  77.84  0.002204492    1.642    0.391
        59 -11.7418     52.6223     97.6995   7.6527368438e+01   5.0010875540e+01    0.3221649    0.2131461 -17.63  0.001231322    2.062    0.515
        60 -11.1926    163.2387     96.6498   4.5187695289e+01   2.9720319579e+01    0.3147483    0.2505704 -68.04  0.001014462    1.528    0.346
        61 -12.9233    136.8705     94.9536   5.1116332659e+01   3.6151527932e+01    0.5699188     0.429419  64.86  0.002623667    1.576    0.365
        62 -13.3611    107.2298    123.8075   6.6453244396e+01   3.5876724300e+01     1.127367     0.597412  38.69   0.00472851    1.965    0.491
        63 -10.8570     81.2417     93.1901   6.6512193444e+01   4.7180766056e+01    0.2389466    0.1441164 -18.28 0.0009450446    2.730    0.634
        64 -11.3822     35.1254     86.5685   7.9754815434e+01   5.4298358810e+01    0.2498876    0.1512579 -51.83  0.000717624    1.351    0.260
        65 -12.6507    188.2977     83.9183   3.6364970491e+01   2.5970413231e+01     0.591969    0.3004022  38.42  0.002181394    2.397    0.583
        66 -13.3456    163.7256     71.6147   3.7883735568e+01   3.4186977892e+01     1.189879    0.5349514  46.45  0.004378818    2.209    0.547
        67 -11.6595    158.2017     83.4123   4.2586515613e+01   3.3432759870e+01    0.3288658    0.2606702  81.00 0.0007181437    1.575    0.365
        68 -12.7790    161.5942     79.7415   4.0747812509e+01   3.3280159415e+01    0.6566657    0.4423039  20.36  0.002061513    2.047    0.512
        69 -14.1076    169.2077     77.1263   3.8326516350e+01   3.1874430624e+01      1.19497    0.6432704  42.21  0.003902425    1.962    0.490
        70 -10.9401    126.0346     83.7492   5.0721867011e+01   4.0780106553e+01    0.2531451    0.1753688  15.28 0.0005384792    1.957    0.489
        71 -12.3104    101.7852    118.7039   6.6768873714e+01   3.8014167207e+01    0.8153262    0.5118156  19.87  0.003434416    2.278    0.561
        72 -13.2164     65.8257     49.0494   5.8286190015e+01   5.8435632824e+01    0.8266834     0.566955 -41.39  0.004588196    1.379    0.275
        73 -14.0232     55.4793     65.9525   6.7522779962e+01   5.6570906475e+01     1.679025     1.076841   7.49  0.008660751    1.972    0.493
        74 -12.6758     54.9234     81.4326   7.1963966203e+01   5.3369194935e+01    0.5738673    0.4260316 -54.71   0.00330253    1.220    0.180
        75 -13.9180     61.1791     75.4381   6.8249911465e+01   5.3880532549e+01    0.7982556    0.4972908 -33.20  0.004016432    1.612    0.380
        76 -13.6575     87.3206     65.2163   5.6395046857e+01   5.1995927626e+01     1.035586    0.6307636  13.51  0.004240768    2.395    0.582
        77 -13.1845     71.1165     75.0738   6.4789457588e+01   5.2594804518e+01    0.5568638    0.3872939  -5.59  0.001302336    1.844    0.458
        78 -12.1161     77.2273     73.4960   6.2292734453e+01   5.2005864868e+01    0.5580927    0.2753071 -35.70  0.001994466    2.114    0.527
        79 -13.4925     91.7135     57.8762   5.2531243679e+01   5.2581410979e+01    0.5296168    0.4814802   1.48  0.002713182    1.033    0.032
        80 -10.9879     43.8360     83.8027   7.6256004296e+01   5.4073663387e+01    0.2742213    0.1908604 -74.63  0.001237435    1.629    0.386
        81 -11.8169     42.5886     79.7610   7.5724302131e+01   5.5086478593e+01    0.2880366     0.132172 -44.45  0.001078106    1.912    0.477
        82 -11.9336    114.0828     79.9602   5.2898496438e+01   4.4047919714e+01    0.4424286    0.3450851 -49.09   0.00183145    1.334    0.250
        83 -12.3227    135.5883     79.4149   4.6898026112e+01   3.9498309431e+01    0.6737507    0.3252312  50.41  0.002498291    2.105    0.525
        84 -13.0955     28.6015    245.5239   9.8702421160e+01   2.1199252980e+01    0.3843572    0.2062291  61.58  0.002628593    1.390    0.281
        85 -14.2302      3.9153     63.3451   8.5736069016e+01   6.1479476744e+01    0.7072548    0.5370785 -20.45  0.003143397    1.435    0.303
        86 -12.5101    210.8294     77.1583   3.0501978951e+01   2.1605992059e+01    0.4355785    0.2786568 -59.88  0.001900095    1.893    0.472
        87 -12.7322     28.7178    121.9552   8.7793993139e+01   4.6808320776e+01    0.3068014     0.265552 -67.76   0.00210185    1.086    0.079
        88 -11.4769     26.8547     74.9398   8.0032819252e+01   5.7546557085e+01    0.4821112    0.2435392 -81.21  0.001997171    3.424    0.708
        89 -10.3535     98.1780     75.3436   5.6184366844e+01   4.8067680152e+01    0.1857854    0.1345989  49.49 0.0009071066    1.542    0.352
        90 -13.0317    199.0117     69.9961   3.0590422695e+01   2.5650207313e+01    0.7345755    0.4575418  38.79  0.003156126    1.858    0.462
        91 -11.1766    117.7475     72.3288   4.9496670444e+01   4.4763758235e+01     0.237669    0.2278742 -77.05 0.0004773173    1.196    0.164
        92 -12.8461    133.9322     65.8028   4.3083981306e+01   4.2361798695e+01    0.8345921    0.6693398  11.49  0.003473487    1.408    0.290
        93 -11.7339    214.2196     71.4047   2.8453117067e+01   2.1707515777e+01    0.2046602    0.1412425  75.07 0.0007210736    1.659    0.397
        94 -11.9253    158.6813     64.7705   3.6918232414e+01   3.6591099327e+01    0.6407593    0.2476614 -44.60  0.002141586    2.878    0.652
        95 -11.5769     99.7031     64.8754   5.2380792257e+01   4.9803019637e+01    0.2830333    0.2472233  83.67  0.001517938    1.546    0.353
        96 -13.0621     79.3465     59.1841   5.7039533802e+01   5.4481617802e+01    0.8053367    0.5017333 -33.12  0.004007827    1.529    0.346
        97 -11.3805    200.0007     61.4852   2.8106264412e+01   2.6736472326e+01    0.2297354    0.1425354  58.95  0.001030642    1.590    0.371
        98 -13.4241    177.7336     56.9859   3.0735390069e+01   3.3040229945e+01    0.9363949    0.5830779 -46.74  0.003373225    1.704    0.413
        99 -11.5713     38.8287     60.0000   7.1899587718e+01   5.9626169021e+01    0.2632013    0.1925748  66.40  0.001452254    2.277    0.561
       100 -11.6982     35.0410     59.5690   7.3206608304e+01   6.0076187017e+01    0.4578356    0.1286651 -47.67  0.001850008    2.692    0.629
       101 -12.1942     37.0964     53.1235   7.0535442515e+01   6.1168888177e+01    0.4665222    0.1691094 -41.77  0.002051471    2.347    0.574
       102 -11.7206    111.0818     58.7109   4.6936126806e+01   4.8635773962e+01    0.2698913    0.2151452  22.41 0.0003203988    1.284    0.221
       103 -14.4371    120.1557     54.6130   4.3009205312e+01   4.7377929698e+01    0.9727452    0.6579217  40.97  0.004675085    1.438    0.305
       104 -11.4146     17.6943     55.4561   7.8761325553e+01   6.2304990990e+01    0.3006936    0.1525702 -59.70  0.001651844    1.684    0.406
       105 -13.6039    103.2712     50.3807   4.6338667368e+01   5.1650987864e+01     1.031712    0.5687976 -52.07  0.002493464    2.534    0.605
       106 -13.1278     97.8767     50.1292   4.7885298783e+01   5.2763146650e+01    0.6628513    0.3861934 -47.79   0.00242707    2.019    0.505
       107 -11.6013     24.8075     58.6988   7.6861485727e+01   6.1125915743e+01     0.443639    0.1778805 -53.72   0.00217665    1.927    0.481
       108 -11.9776    135.9140     49.7992   3.7353794153e+01   4.4521906721e+01      0.43624    0.2603772  32.73  0.001857276    1.905    0.475
       109 -11.8883    153.7421     47.3560   3.2540618078e+01   4.0534835183e+01     0.469025    0.2707371  59.46  0.002030115    1.703    0.413
       110 -12.5189    158.9238     42.8009   3.0038712929e+01   3.9881679308e+01     0.516963    0.4468128  65.53  0.002280795    1.140    0.123
       111 -11.1563     38.8519     45.8328   6.7524880359e+01   6.2393063645e+01    0.2184426    0.1522158 -42.37 0.0004813863    1.222    0.181
       112 -12.0503     35.0444     34.7162   6.5225394158e+01   6.4803089219e+01    0.5250919    0.2609969   4.17  0.002375985    3.095    0.677
       113 -12.8635     33.0843     40.4046   6.8058449075e+01   6.3975753208e+01    0.3910477    0.2478442   3.47 0.0007295472    1.766    0.434
       114 -12.4021     41.1256     40.1351   6.4647660935e+01   6.3197522338e+01    0.4385931    0.2983816  -9.43  0.002064402    1.510    0.338
       115 -12.9012     46.0289     33.6313   6.0232128768e+01   6.3762501319e+01    0.6317781    0.5706973  42.65  0.004290316    1.558    0.358
       116 -12.2562     27.4552     32.4013   6.7656375208e+01   6.5941700966e+01    0.4878147      0.26787  15.54  0.002101393    2.028    0.507
       117 -13.1596      6.0740     42.9949   8.0194224646e+01   6.5490898413e+01    0.7484602    0.3835216  15.38  0.004491194    2.313    0.568
       118 -13.4296     97.3701    239.3093   8.6419208916e+01   1.3427118506e+01    0.5827098    0.2935086  44.27  0.003271109    1.613    0.380
       119 -13.3342     91.3067    231.4348   8.6754730743e+01   1.5692243074e+01    0.4500389     0.242488 -84.01  0.002356756    2.411    0.585
       120 -12.4487     23.6331    216.4485   9.7833032259e+01   2.6998799176e+01    0.6342582    0.2665134  59.53  0.003610402    2.024    0.506
       121 -12.9302    204.7628     40.0692   2.1585827841e+01   2.8605105761e+01     1.245017    0.5668698 -89.87  0.003477839    5.310    0.812
       122 -12.5574    213.0223     42.9681   2.1216237931e+01   2.6168710458e+01     0.569916    0.2618096  53.31  0.001865766    2.172    0.540
       123 -13.1881    219.4420     41.5391   2.0006447002e+01   2.4792761629e+01    0.5940932    0.3993189  85.52  0.002084124    1.612    0.380
       124 -13.6107     26.3972    226.2365   9.7958461169e+01   2.4873987909e+01    0.6339157    0.3249648 -57.94   0.00385459    2.486    0.598
       125 -12.1003    109.8539     41.9512   4.1398106652e+01   5.1606579805e+01    0.4212998    0.1929084  51.08 0.0008744748    2.186    0.543
       126 -11.8416    134.6407     39.2802   3.4094001322e+01   4.6355850016e+01    0.5139202    0.3360768  72.25  0.002103728    1.929    0.482
       127 -13.8552     20.4685    223.9656   9.8827496074e+01   2.5913798162e+01    0.5859524    0.4062748  55.66  0.004445266    1.254    0.203
       128 -13.0111    113.7860     37.7155   3.8770497864e+01   5.1370006052e+01    0.4046839    0.3441232  30.93  0.001385208    1.088    0.080
       129 -12.9749    131.7827     33.1316   3.2627755314e+01   4.7860180593e+01    0.5724547    0.4200705  -3.24  0.001814213    1.550    0.355
       130 -12.4081    242.2114     36.1286   1.6045694073e+01   2.0148622071e+01    0.4960429     0.270292  73.29  0.001771792    1.901    0.474
       131 -11.3976    104.5442     36.2844   4.0814502340e+01   5.3555758105e+01    0.2614663    0.1290002 -35.49  0.001135553    2.063    0.515
       132 -12.2436     75.9676     36.9907   5.0172663775e+01   5.8870295232e+01    0.3914388    0.2360562  37.49  0.001134793    1.661    0.398
       133 -11.4632     70.5045     35.9960   5.1721290229e+01   5.9925282151e+01    0.2535884    0.2227982  -0.11 0.0007426336    1.072    0.067
       134 -13.3088     65.7408    223.0588   9.0725985561e+01   2.0784997140e+01    0.7102528    0.5813078  69.93   0.00512949    1.073    0.068
       135 -12.7260     59.3983    212.7837   9.1005850194e+01   2.3578364858e+01    0.3105918    0.2164318 -50.51  0.001222902    1.939    0.484
       136 -13.4761    141.2795     21.5848   2.6593124683e+01   4.6944252352e+01     1.299942     0.377704  63.27   0.00252946    3.540    0.718
       137 -13.7080     64.3630    214.2480   9.0190456652e+01   2.2650400960e+01    0.4871178    0.2859021  63.17  0.002878819    1.523    0.343
       138 -12.1058     72.6031    206.9224   8.7864078453e+01   2.2987419819e+01    0.2769451    0.2023687 -87.07  0.001758105    1.291    0.226
       139 -11.7413     57.5071    202.8655   9.0458851495e+01   2.5791952830e+01    0.4276427    0.1843231  88.51  0.001757658    3.457    0.711
       140 -10.9466     41.3255    205.6780   9.3840563580e+01   2.7172430295e+01    0.1244899   0.06752298  67.85 0.0007047569    1.684    0.406
       141 -12.8343     17.1443    195.5267   9.7646455447e+01   3.1749332559e+01    0.5787376    0.1557268 -64.37  0.002667206    3.192    0.687
       142 -12.2771     62.4833     25.6776   5.0503435407e+01   6.2748976202e+01    0.4317752    0.2559965  19.58   0.00226092    1.818    0.450
       143 -13.2553     30.0172    169.2600   9.2947675121e+01   3.6015764999e+01    0.8003328    0.4770852 -41.50  0.004367013    2.483    0.597
       144 -11.7620     30.5667     25.4968   6.3668304768e+01   6.6826012900e+01    0.3477282    0.1950967   6.10  0.001925795    2.072    0.517
       145 -11.5479     36.2554     23.4731   6.0328024813e+01   6.6555197198e+01     0.319633     0.173037 -34.56  0.001817178    1.552    0.356
       146 -12.8303     22.1629    166.0478   9.4343840396e+01   3.7467220021e+01    0.3316246     0.272447  -0.66  0.001704323    1.887    0.470
       147 -13.0184     22.1331    180.7785   9.5594796990e+01   3.4314382754e+01    0.5114174    0.2996278 -73.86  0.002650001    1.450    0.310
       148 -12.0502    223.3687     20.9024   1.4408383336e+01   2.6422405513e+01    0.2655348    0.1847065  65.42  0.001153455    1.389    0.280
       149 -10.7219     51.2643     20.4115   5.2656950115e+01   6.5147543908e+01     0.226566    0.1478589  36.03 0.0009417303    1.649    0.394
       150 -11.6191     46.3916     20.1633   5.4563102305e+01   6.5838415126e+01    0.3641434    0.1796881  20.88  0.001794985    2.351    0.575
       151 -15.2972      7.6635    181.9831   9.8538539916e+01   3.5370117442e+01     1.573493    0.8909559 -88.08   0.01019072    1.404    0.288
       152 -12.2591     36.8765    194.3347   9.3768214782e+01   2.9971521188e+01    0.3440457    0.2013676  85.33  0.002065038    1.546    0.353
       153 -11.0119    200.7919    191.6019   5.9006745765e+01   3.7929274025e+00    0.1942418    0.1207385  49.17 0.0009447701    1.695    0.410
       154 -11.2751    206.5013    190.5073   5.7678210980e+01   2.9129706386e+00    0.1376662    0.1200837  18.28 0.0002695262    1.007    0.007
       155 -10.9623     49.3842    181.7826   9.0040104433e+01   3.1190981101e+01    0.1728695   0.09721203 -62.42  0.000953068    1.706    0.414
       156 -11.9665    124.4100    166.6899   7.0843229744e+01   2.3138346548e+01    0.4649717    0.3283466 -72.96  0.002267494    1.680    0.405
       157 -10.0414     55.3812     11.2594   4.6886299771e+01   6.5780261629e+01    0.1282887   0.07860779  11.80 0.0006974391    1.672    0.402
       158 -14.3237     15.5329    174.7235   9.6454914251e+01   3.6203570488e+01     1.029851    0.4862685  76.92   0.00549964    2.121    0.528
       159 -11.8271     76.9682    156.7031   8.0541658501e+01   3.3185357977e+01    0.3513529    0.2782063  47.60  0.001142836    1.277    0.217
       160 -12.7792     73.2622    153.2557   8.0919690317e+01   3.4498016987e+01    0.5742667    0.4157966  26.78  0.002626863    1.676    0.403
       161 -11.8310    189.1181    155.8960   5.4108401452e+01   1.2342045192e+01    0.2255851     0.212019  80.04    0.0012416    1.258    0.205
       162 -13.2145     56.0036     26.8608   5.3500767601e+01   6.3531139740e+01    0.7447793    0.3558325  39.97  0.003686878    2.274    0.560
       163 -11.1743    103.3359    149.8507   7.2841628655e+01   3.0613266841e+01    0.2747225    0.2108439 -28.44  0.001105632    1.679    0.404
       164 -12.3755      7.6335    149.7648   9.6094193803e+01   4.2239957382e+01    0.2973286    0.2648275  45.03   0.00229415    1.386    0.278
       165 -11.6473     60.2851    147.4095   8.3262297814e+01   3.7562590519e+01    0.3371397    0.2629572  14.62  0.001748031    1.726    0.421
       166 -12.1534     40.0079    136.7589   8.6879796997e+01   4.2330570125e+01    0.2289616    0.1635569  52.80   0.00123777    1.487    0.327
