#   1 NUMBER                 Running object number                                     
#   2 MAG_AUTO               Kron-like elliptical aperture magnitude                    [mag]
#   3 X_IMAGE                Object position along x                                    [pixel]
#   4 Y_IMAGE                Object position along y                                    [pixel]
#   5 X_WORLD                Barycenter position along world x axis                     [deg]
#   6 Y_WORLD                Barycenter position along world y axis                     [deg]
#   7 A_WORLD                Profile RMS along major axis (world units)                 [deg]
#   8 B_WORLD                Profile RMS along minor axis (world units)                 [deg]
#   9 THETA_WORLD            Position angle (CCW/world-x)                               [deg]
#  10 FWHM_WORLD             FWHM assuming a gaussian core                              [deg]
#  11 ELONGATION             A_IMAGE/B_IMAGE                                           
#  12 ELLIPTICITY            1 - B_IMAGE/A_IMAGE                                       
         1 -11.3787    249.3305      2.0204   1.3950084425e+01   2.4190925817e+01    0.2959387    0.2743373  20.87  0.002353928    1.502    0.334
         2 -12.6736    238.3778     16.8909   1.7687506815e+01   2.4813289816e+01    0.5590271     0.307552  47.61  0.002866311    2.586    0.613
         3 -11.5773    250.1367     13.3022   1.6302631858e+01   2.2996211748e+01    0.3987554     0.156258 -33.08   0.00215532    1.890    0.471
         4 -12.3307    245.5144      9.6359   1.5735329718e+01   2.4183738905e+01    0.3997914    0.3611221 -17.43  0.003089759    1.345    0.256
         5 -10.3944    183.9865     13.1614   2.0451568329e+01   3.6803707394e+01    0.3734446    0.1876407  -4.55  0.001493403    3.326    0.699
         6 -11.2993     62.6419     16.5242   4.6161524211e+01   6.7413257237e+01    0.4925752    0.2191415  40.92 -9.391887e-05    2.301    0.565
         7 -10.0535     15.2400     17.4713   7.8035521961e+01   7.5230508744e+01    0.3511257    0.1225855 -43.71  0.001322752    2.664    0.625
         8 -11.8348      7.4427     16.6832   8.4846920301e+01   7.6030033414e+01    0.5237672    0.3435744  -4.15  0.001981997    1.549    0.354
         9 -12.1212    228.1875     14.0815   1.7622741652e+01   2.7066266212e+01     0.425524    0.2250312 -71.22  0.001484945    1.951    0.487
        10 -12.5227    233.5638     11.2434   1.6677970611e+01   2.6286850096e+01    0.4510024    0.2680951 -13.10  0.002559493    2.053    0.513
        11 -12.1290    231.8104      3.5299   1.5016885080e+01   2.7353220854e+01    0.5455808     0.281304 -16.83  0.001383212    2.233    0.552
        12 -11.9594    237.7228      3.5845   1.4764802431e+01   2.6205136130e+01    0.5038395    0.1944664  55.56  0.002400327    3.503    0.715
        13 -10.9777    175.3272     12.7442   2.1086378007e+01   3.8928969518e+01    0.5053428    0.3329239  10.04  0.002480415    2.246    0.555
        14 -10.9685    125.3687     12.4785   2.7052642136e+01   5.1867453229e+01    0.3578835     0.241156 -61.85 0.0008303858    1.578    0.366
        15 -11.0363     70.0655     11.6604   4.0331396702e+01   6.6342970348e+01    0.2886772    0.2280345 -41.72  0.001553135    1.396    0.284
        16 -10.4113    144.7741     12.6723   2.4346103166e+01   4.6695243498e+01    0.3518713    0.1878736  75.99  0.001099548    1.785    0.440
        17 -11.2667    132.9910     12.6491   2.5945829543e+01   4.9814193258e+01    0.2452876    0.2120707 -46.36 0.0003036511    1.174    0.148
        18  -9.7537     97.3006     12.2375   3.2473609378e+01   5.9378698585e+01    0.2933125    0.1842091  -3.95 0.0008363725    2.088    0.521
        19  -9.8338     90.7652      8.9930   3.2499582347e+01   6.1439812725e+01    0.3313394    0.1914575  18.67  0.001362896    2.497    0.600
        20 -10.3613     31.3989     12.7238   6.1898838434e+01   7.4113677509e+01    0.2725801    0.2013821   1.74            0    1.483    0.326
        21  -9.7935    200.4547     11.9398   1.8854492979e+01   3.3130758162e+01    0.1891937      0.11242 -29.54 0.0006855363    1.568    0.362
        22 -11.1746    195.8727      3.6086   1.6961145255e+01   3.4955542081e+01    0.3710183    0.2097061  74.39  0.001528957    1.768    0.434
        23 -10.5922    191.5036     11.0534   1.9268179967e+01   3.5252243828e+01     0.343449    0.1298883 -37.23  0.001135932    2.152    0.535
        24 -10.6237    190.9550      6.9625   1.8191305039e+01   3.5772520397e+01    0.2741029    0.1753081 -48.56  0.001246035    1.350    0.259
        25  -9.3395     56.1831     10.6290   4.5555221919e+01   6.9681508414e+01    0.3025806    0.2294862 -89.06  0.001507167    1.959    0.489
        26 -10.1640      7.7130      9.2004   8.1008313656e+01   7.7645552892e+01    0.1983113    0.1567769  19.84 0.0005313104    1.307    0.235
        27  -9.9734    107.5136      7.3638   2.8036507282e+01   5.7167399909e+01    0.2601748    0.1996491  62.02 0.0006546681    1.187    0.158
        28 -12.1953    217.8581      4.0961   1.5829511002e+01   3.0120665484e+01    0.5219613    0.3652602  52.60   0.00239179    1.804    0.446
        29 -11.2239    184.8212      4.6841   1.7993993408e+01   3.7420522599e+01    0.2871613    0.1797212 -42.98 0.0003791865    1.403    0.287
        30 -10.1250    179.9159      2.0000   1.7579651563e+01   3.8832995305e+01    0.3002581    0.1500456  67.06  0.001326751    1.963    0.491
        31  -9.4962    138.3584      6.8538   2.3074298896e+01   4.8953131238e+01    0.2472162     0.168579  87.17 0.0005801413    1.393    0.282
        32 -10.1484    135.9216      2.6189   2.1813914419e+01   4.9980902012e+01    0.3375309    0.1754476 -35.06  0.001550511    1.884    0.469
        33  -9.2274    103.4911      7.4940   2.8887088358e+01   5.8230309939e+01    0.1437522    0.1305674  69.48 -4.559092e-05    1.007    0.007
        34 -10.2870     98.1425      6.2380   2.9417328762e+01   5.9776394286e+01    0.2406558    0.2129871  58.20 0.0004628316    1.055    0.052
        35 -10.0470     24.5075      7.1201   6.3566786814e+01   7.6163178906e+01    0.1864236    0.1234154 -41.04 0.0004803671    1.507    0.337
        36  -9.6802     88.3673      6.3981   3.1787038696e+01   6.2332509404e+01    0.2682504    0.1168152  60.04 0.0009424303    1.972    0.493
        37 -11.3804     79.2117      4.2330   3.3099226403e+01   6.4910026787e+01    0.2748392    0.2568353 -52.49 0.0006023388    1.178    0.151
        38 -11.3803     74.4767      1.8761   3.3148403728e+01   6.6342827250e+01    0.5215061    0.2087036  63.75  0.001475221    2.255    0.556
        39 -11.8110    207.4489      2.9659   1.6111123211e+01   3.2439764782e+01    0.5024474    0.2244164 -67.53  0.002403168    2.252    0.556
        40 -12.2104    159.9452      2.2410   1.9230867830e+01   4.3753658496e+01    0.4664255    0.2831526  73.28   0.00238955    1.541    0.351
        41  -9.6259     20.9257      5.4981   6.5556724159e+01   7.6960195462e+01    0.1872103    0.1198803  28.44 0.0004765129    1.508    0.337
        42 -10.4514     12.8080      4.2556   7.2627051060e+01   7.8185304457e+01    0.3673267    0.2063658   4.85  0.001127335    2.109    0.526
        43  -9.7974     46.5246      4.0453   4.6038242941e+01   7.2644300153e+01    0.1937318    0.1317001 -27.32 0.0004927139    1.544    0.352
        44 -10.4922     30.7938      2.8589   5.5294974846e+01   7.5859063037e+01    0.2899508    0.2114234 -52.17 0.0009062532    1.784    0.440
        45 -10.2206    142.0361      2.1777   2.0960912242e+01   4.8400534098e+01    0.2129701     0.191926 -49.99 0.0004031937    1.130    0.115
        46  -9.9968      4.6976      2.3555   8.0433249992e+01   7.9303695372e+01    0.3196588    0.1407293 -27.61  0.001392659    2.587    0.613
        47 -10.1613    115.8538      1.9657   2.4255536405e+01   5.5417259698e+01     0.208096    0.1855495 -88.69 0.0004454711    1.048    0.046
        48  -9.8969     41.6926      1.8080   4.7140195626e+01   7.3938663158e+01    0.2723146    0.1545795  28.45 0.0007889228    1.998    0.499
        49 -10.1152     90.6262      1.3851   2.8665855148e+01   6.2215196108e+01    0.2672595    0.1236764  67.87  0.000527706    1.936    0.483
        50  -9.7710     23.6800      1.4112   5.9949749918e+01   7.7261444593e+01    0.1638534    0.1133911  23.08  0.000297315    1.397    0.284
        51 -10.3421     28.4645    118.3762   9.3997112257e+01   4.8536582096e+01    0.3736215    0.2111642  77.62  0.001157503    1.947    0.486
        52 -11.5071    199.6636    248.4455   6.8002048537e+01   1.4020811813e+00    0.4067967    0.2302532  46.83  0.002155898    3.920    0.745
        53 -11.3761    115.8431    248.7201   8.3915278928e+01   1.0821659030e+01    0.2616421    0.2064979  49.06  0.001918164    1.449    0.310
        54 -11.0556     20.4171    118.0271   9.6991499182e+01   4.9295891002e+01    0.4804482    0.3691128  39.89  0.002673509    1.262    0.208
        55  -9.5105    221.2771    119.6179   4.2452567322e+01   1.5222343558e+01      0.16204    0.1107035  31.58  0.000943355    1.615    0.381
        56  -9.8476     80.2668    115.7014   7.4619420291e+01   4.2553300157e+01    0.2359956    0.2091738 -55.35 0.0003001428    1.164    0.141
        57 -11.7653     37.0230    110.2528   8.9650645871e+01   4.9856836958e+01    0.2602262    0.2386731 -79.66 0.0003566868    1.060    0.057
        58  -9.4284     49.5197    105.9925   8.4014533377e+01   4.9550310227e+01    0.2141462    0.1428619 -68.53 0.0003429666    1.495    0.331
        59  -9.7397     21.1149    109.1522   9.5823600698e+01   5.1581718085e+01    0.2077378    0.1791473 -49.54 0.0005536955    1.219    0.180
        60  -9.7748    161.5373    103.9067   4.9234219205e+01   2.8955903874e+01    0.2052379    0.1871799  42.50 0.0002911897    1.122    0.109
        61 -10.0010    101.2882    103.7930   6.4878324670e+01   4.1575706320e+01    0.3244452    0.2176719  27.57  0.001410514    1.660    0.398
        62 -10.0359     70.7761    102.3594   7.5062709449e+01   4.7430625828e+01    0.3386478      0.22068 -21.76  0.001365727    2.280    0.561
        63 -11.7025    245.2221     98.6572   3.4949694642e+01   1.4150725837e+01     0.438934    0.2735966 -49.30  0.002608794    1.757    0.431
        64  -9.3673     27.8600    102.1643   9.2219912154e+01   5.2882546533e+01    0.1882126    0.1561488 -40.74 0.0004011547    1.288    0.223
        65 -10.0990     57.1314    100.1055   7.9833305996e+01   5.0070157612e+01    0.2295308    0.2005422 -30.88 0.0004930607    1.251    0.200
        66 -10.4929     52.5181     99.0278   8.1465749858e+01   5.0981949167e+01    0.3394912    0.2123693 -24.47 0.0009061316    2.248    0.555
        67  -9.5759    126.3911     97.1752   5.5783899513e+01   3.7798909072e+01    0.2210452    0.1431327 -54.89 0.0009470223    1.734    0.423
        68  -9.3369    117.9093     97.5375   5.8223305205e+01   3.9546701519e+01    0.2221991    0.1490234  42.83 0.0004534901    1.462    0.316
        69 -10.0246      5.4829     96.2269   1.0105895919e+02   5.5985606097e+01    0.4582123    0.1326247  54.35  0.001472019    4.045    0.753
        70  -9.5722    166.0491     95.0235   4.6042183066e+01   2.9561686461e+01    0.2287822     0.173679   4.94   0.00111846    1.673    0.402
        71 -10.1513     42.0263     95.0929   8.5066220096e+01   5.3320184528e+01    0.2156617     0.206183 -68.85 0.0004380394    1.032    0.031
        72  -9.5231     47.3310     91.6516   8.2097587307e+01   5.3580709448e+01    0.1604042    0.1072564  63.81 3.306284e-05    1.766    0.434
        73  -9.7284     18.1048     90.8650   9.4947764073e+01   5.6667517984e+01    0.2036784    0.1727646  63.94 0.0002886624    1.178    0.151
        74 -10.4594     43.1879     89.6578   8.3483480839e+01   5.4613131691e+01    0.3222066    0.1785464 -11.77  0.001159104    3.083    0.676
        75 -10.7424     26.2916     87.6618   9.0746098739e+01   5.6881958816e+01    0.2479137    0.2053188  63.59 0.0006183797    1.240    0.193
        76 -10.5289    143.3421     83.8173   4.7812003469e+01   3.6609828219e+01    0.6343312    0.1718093 -42.41  0.001873087    3.631    0.725
        77 -10.8522      3.0506     84.7296   1.0119330296e+02   5.9128815327e+01    0.3286443    0.2724289 -50.69    0.0019509    1.200    0.167
        78 -11.2544     65.4294     85.1596   7.2890669939e+01   5.2604911015e+01    0.4122818    0.2946306 -19.71   0.00182711    1.856    0.461
        79 -10.5743    155.0990     85.0541   4.5589814653e+01   3.3710510918e+01    0.2255211      0.20758  45.46            0    1.107    0.097
        80 -10.1120     77.2651     83.8643   6.7825049014e+01   5.0857740471e+01    0.3106337    0.2645791 -45.93  0.001570724    1.197    0.165
        81 -10.4808     81.6449     81.8600   6.5577008602e+01   5.0506681489e+01    0.4496254    0.2454942 -51.77  0.001815765    1.869    0.465
        82  -9.9844    117.4069     83.2620   5.4273394324e+01   4.2639850242e+01    0.2584856    0.1884033  70.27 5.168871e-05    1.694    0.410
        83 -10.5328     73.5274     80.2790   6.8240329734e+01   5.2396937093e+01     0.476616    0.2744499 -35.83  0.001448999    2.128    0.530
        84  -9.8164     51.7443     82.4083   7.8031764594e+01   5.5381958476e+01    0.2081942    0.1452234  13.88 0.0009521728    1.652    0.395
        85  -9.8809     91.7966     80.8118   6.1592256375e+01   4.8722502906e+01    0.2202649    0.2084758  -8.01 0.0003689409    1.126    0.112
        86 -10.1331     42.1924     79.8651   8.1781617601e+01   5.7287222476e+01    0.6162449    0.3238336   9.34  0.002364912    2.617    0.618
        87  -9.5924    150.0069     80.0369   4.5249093008e+01   3.5756180760e+01    0.2357747    0.1833651  11.80 0.0009052406    1.653    0.395
        88 -10.6689    166.9804     78.0098   4.1306621968e+01   3.2216729912e+01    0.2115507    0.2001069 -46.32            0    1.024    0.023
        89 -10.0997     51.8379     77.4325   7.6703326447e+01   5.6632624143e+01    0.2553423    0.2093709 -56.49 0.0005385695    1.200    0.167
        90  -9.9743    119.0611     76.4751   5.1724856321e+01   4.3625609475e+01    0.2356544    0.2061239 -43.62 0.0003757145    1.163    0.140
        91  -9.8640    109.7408     77.4280   5.4715823997e+01   4.5564509303e+01     0.230638    0.1441864  36.67 0.0009567377    1.725    0.420
        92 -10.8028     89.3676     73.3862   6.0098489073e+01   5.0875778909e+01    0.4549235    0.3058506 -30.83  0.001963851    1.772    0.436
        93  -9.5374     78.1996     74.8483   6.4739710937e+01   5.2798194000e+01     0.220505    0.2009011  71.90 0.0004812273    1.177    0.150
        94 -10.1819     63.0232     74.8362   7.0984000767e+01   5.5539848388e+01    0.3624456    0.2254133  58.57  0.001494051    2.060    0.515
        95  -9.9311     59.4913     72.8993   7.1958445731e+01   5.6591824502e+01    0.2108923     0.192443 -48.96 0.0003810486    1.093    0.085
        96 -10.5939     28.7193     74.5266   8.7164177882e+01   6.0134306077e+01    0.2740007    0.2349641 -63.91 0.0008985679    1.107    0.097
        97 -10.9393    166.3131     72.7040   3.9950594515e+01   3.3225526292e+01    0.2927672    0.2496351 -59.03 0.0002058557    1.204    0.169
        98 -10.2699    166.8216     68.2050   3.8587480470e+01   3.3819341555e+01    0.2294436    0.1896888 -39.39 0.0004371978    1.158    0.136
        99  -9.3419     69.3443     73.2652   6.7813141723e+01   5.4819818180e+01    0.2073662     0.143555 -62.82 0.0004301413    1.589    0.371
       100  -9.3059    136.5119     71.9768   4.5867723640e+01   4.0360688107e+01    0.2173087    0.1484219 -38.54 0.0005279551    1.469    0.319
       101  -9.4885    108.5973     72.2332   5.3391672279e+01   4.6883339443e+01    0.2216899    0.1487845 -29.69 0.0009473579    1.730    0.422
       102 -10.8502     95.6068     71.6648   5.7360620969e+01   4.9911797494e+01    0.3761446    0.2705525  41.92 0.0008584776    1.370    0.270
       103  -8.8792     39.7080     71.6966   8.0989181521e+01   5.9691288890e+01    0.1492637    0.1056124 -31.28 0.0003155937    1.572    0.364
       104  -9.6792    144.5108     70.1829   4.3517599307e+01   3.8765154123e+01    0.2929622    0.1632207  36.17  0.001143613    2.299    0.565
       105 -11.1650     52.1951     69.0793   7.4174420503e+01   5.8663704141e+01    0.4345754    0.3960514  33.99  0.002269639    1.104    0.094
       106  -9.6277     64.0140     69.5013   6.8902988833e+01   5.6652119944e+01    0.2333212    0.1474651  35.71  0.001027132    1.572    0.364
       107 -10.5573     29.5473     68.1012   8.5327277675e+01   6.1726346216e+01     0.338789    0.2775001  33.32  0.001119787    1.263    0.208
       108 -10.8179     22.0623     67.8461   8.9265417962e+01   6.2460535972e+01    0.3778155    0.2394544 -88.90  0.001789857    1.757    0.431
       109 -10.2156      4.4886     68.9900   9.8894954118e+01   6.3212343074e+01    0.2306752    0.1859804 -13.22 0.0003509527    1.346    0.257
       110 -10.4083      2.3724     65.8563   9.9671570424e+01   6.4110469372e+01     0.389632    0.1363001 -57.48  0.001574098    2.375    0.579
       111 -11.0380     15.7627     64.5747   9.2081332200e+01   6.3773653565e+01    0.5771716    0.2637733 -22.39  0.002225308    2.920    0.658
       112  -9.7994    203.8054     65.6260   3.2391608104e+01   2.6044499906e+01    0.1691446    0.1552368 -69.62  0.000467965    1.135    0.119
       113  -9.1498    147.5314     66.4786   4.1748723913e+01   3.8667687831e+01    0.1459772    0.1438126 -70.91 0.0002728374    1.016    0.016
       114  -9.8131     76.0747     65.4536   6.2466789595e+01   5.5342420566e+01    0.3775197    0.2679024  -3.32  0.001028635    2.135    0.532
       115  -9.9165     77.6594     61.7126   6.0506258183e+01   5.5844849064e+01     0.254094    0.2168972  23.50  0.000536622    1.239    0.193
       116  -9.8239    137.5097     65.4786   4.3602611586e+01   4.1263641718e+01    0.2236151    0.1956396 -25.62 0.0001407128    1.212    0.175
       117 -10.2963    134.6220     63.7977   4.3723664525e+01   4.2257257311e+01    0.2545383     0.226437 -89.28  0.000565898    1.188    0.158
       118 -10.2638     96.6521     62.1383   5.3722772303e+01   5.1643550238e+01    0.3597127    0.2852028 -83.73  0.001512088    1.611    0.379
       119 -12.2133      6.6144     61.8983   9.6795392118e+01   6.4973617100e+01    0.3780172    0.3223281  49.16 0.0005380694    1.263    0.208
       120 -10.6604      5.5789     55.2371   9.6392433406e+01   6.6739884612e+01    0.2620278    0.2263396  22.97 0.0005912742    1.262    0.208
       121  -9.8673    123.5766     62.0405   4.5821498601e+01   4.5265774965e+01    0.2247553    0.1485506 -39.61 0.0006017666    1.534    0.348
       122 -10.4684     65.8352     61.8043   6.5513505272e+01   5.8115918780e+01    0.3821537    0.2360856  44.48  0.001526204    1.630    0.386
       123 -10.2890     64.4698     54.5265   6.3453595725e+01   5.9992237923e+01    0.2644756    0.2314401  73.40 0.0001172632    1.328    0.247
       124 -10.2244     61.5688     52.4637   6.3999231584e+01   6.0981437665e+01    0.2492397    0.2427184  24.08 0.0004764423    1.022    0.022
       125  -8.9753     82.6273     61.7164   5.8570573778e+01   5.4813400706e+01    0.1580624    0.1210189   9.00 0.0007015722    1.707    0.414
       126 -10.4699     61.8502     58.2000   6.6025373561e+01   5.9654296788e+01     0.258858    0.2265554  51.50 0.0006378967    1.193    0.162
       127  -9.0721     43.5236     61.5859   7.6203340108e+01   6.1741969786e+01    0.1439068     0.136972 -21.49 0.0008035512    1.040    0.038
       128  -9.1856    166.6724     59.6886   3.6159592427e+01   3.5156335284e+01    0.1441301     0.110504  23.00 0.0005897252    1.664    0.399
       129 -11.8967     55.9555     56.8466   6.8332778012e+01   6.0984365900e+01    0.3211151    0.2627963  40.56 0.0003443866    1.229    0.186
       130 -11.5628     25.2554     56.5089   8.4854804384e+01   6.5097717426e+01    0.4819525    0.2552664 -76.33  0.002063302    2.131    0.531
       131 -11.0798     20.0973     53.2317   8.7099980385e+01   6.6370968792e+01     0.350862    0.2687356  32.50  0.000670744    1.378    0.274
       132  -9.5610    226.5239     57.0377   2.7783168041e+01   2.2630880210e+01    0.1905059    0.1030114 -33.23 0.0006037012    1.539    0.350
       133 -10.6488    136.3967     56.3581   4.0893340851e+01   4.3067877488e+01    0.2573849     0.228244 -30.52  0.000525424    1.176    0.149
       134  -9.3954    163.5736     55.5265   3.5448030061e+01   3.6513341035e+01    0.1413363    0.1348207 -56.05  5.31179e-05    1.020    0.019
       135  -9.9049     35.7026     53.0250   7.7759491909e+01   6.4840071311e+01    0.4161836    0.1617149 -49.33  0.001579093    2.397    0.583
       136  -9.6489     43.3523     53.9683   7.3804542324e+01   6.3606159934e+01    0.2046208    0.1816369 -54.20 0.0004744117    1.124    0.110
       137  -9.8368    122.6189     52.3658   4.2717503122e+01   4.7173168433e+01    0.2819818    0.1378389 -40.69  0.000623159    2.055    0.513
       138 -10.0120    153.5339     51.9746   3.6091721375e+01   3.9488414808e+01    0.1966708    0.1299449   2.55  0.000652802    2.413    0.586
       139 -10.2474     71.0014     51.3972   5.9340081537e+01   5.9386017961e+01    0.3433453    0.2242553 -44.06   0.00131831    1.565    0.361
       140 -10.1424     29.3939     51.9826   8.1124859705e+01   6.5815855699e+01    0.3976448     0.157622  23.63 0.0009864945    2.589    0.614
       141 -10.8134      8.6191     50.4604   9.3659363805e+01   6.7822270240e+01    0.4093294    0.2177535 -10.43  0.001062991    2.150    0.535
       142  -9.9826    136.6281     49.2358   3.8456435562e+01   4.4139357760e+01    0.1957725     0.144395 -21.86 0.0003099843    1.533    0.348
       143 -10.4302     87.1263     48.5669   5.1852161670e+01   5.6456600488e+01    0.3740577    0.2681845  37.77  0.001750537    1.427    0.299
       144 -10.2261    128.5360     48.3406   3.9899746809e+01   4.6331754338e+01    0.3040207    0.1832051  56.03 0.0009551715    1.597    0.374
       145 -10.3971     46.0977     47.2893   6.9845440809e+01   6.4751845411e+01    0.3893388     0.252937  19.87  0.001674088    1.721    0.419
       146  -9.1159    234.9697     47.0245   2.4715119764e+01   2.2226388255e+01      0.14374    0.1158489 -41.22 0.0003294972    1.011    0.011
       147 -11.2382     79.2199     44.6118   5.3168072362e+01   5.8984754171e+01    0.5247346    0.2417704 -43.07  0.002012061    2.249    0.555
       148  -9.4389     38.1446     47.5073   7.4440888402e+01   6.5844540850e+01    0.2114166    0.1387024  26.99  0.001017306    1.544    0.352
       149  -9.5804     26.6787     46.8497   8.1188219903e+01   6.7354172330e+01    0.1905419    0.1580824 -55.43 0.0005032671    1.153    0.132
       150  -9.9061     17.0583     46.7221   8.7338315690e+01   6.8238045064e+01    0.2330809    0.1826807 -81.46 0.0006161361    1.356    0.262
       151  -9.6660    150.1097     44.7011   3.4376963279e+01   4.1400178235e+01    0.4091224    0.1437138 -46.91  0.001353394    3.135    0.681
       152 -11.1002    244.8865     44.6787   2.3402875232e+01   2.0684766812e+01    0.1633203    0.1465309  34.02  0.001191649    1.432    0.302
       153  -9.5545    122.2049     45.1073   4.0200648770e+01   4.8451590021e+01    0.2186509    0.1762592 -69.47  0.001079658    1.368    0.269
       154 -12.4829     61.9663     44.3944   6.0510849109e+01   6.2618459190e+01    0.3410373    0.2684395  39.71 0.0004223426    1.242    0.195
       155 -10.4636    106.4994     44.0787   4.3868482225e+01   5.2590113539e+01    0.3623345    0.2156004  54.63 0.0008275104    1.601    0.375
       156 -11.1227     22.3131     41.7718   8.2381605977e+01   6.9009453424e+01    0.5314124    0.2202321 -40.00  0.002055306    2.555    0.609
       157  -9.4727     23.1685     36.2046   7.9846034181e+01   7.0247456722e+01    0.1680015    0.1551073  80.01 0.0002827286    1.266    0.210
       158  -9.9679    201.0391     43.1775   2.6977840429e+01   2.9538840967e+01    0.2687455    0.1723074  84.96  0.001219503    1.780    0.438
       159  -9.7152     92.1355     43.2199   4.7923043078e+01   5.6253648717e+01    0.2106528    0.1806944 -85.61  0.001064799    1.347    0.258
       160 -10.0161     11.4385     42.4438   9.0008270607e+01   6.9681148883e+01     0.219871    0.1848124 -25.12 0.0005604642    1.160    0.138
       161 -10.6504     14.1360     39.0538   8.7196854525e+01   7.0338116946e+01    0.3440951    0.2662893 -65.70  0.001248754    1.249    0.199
       162 -10.4076      8.6434     31.2869   8.9011624510e+01   7.2566173538e+01    0.3604164    0.2135329  13.33  0.001855518    1.751    0.429
       163 -11.3861      7.9958     37.9474   9.1323995045e+01   7.0984719293e+01    0.4329908    0.2712175 -88.06  0.001102993    1.809    0.447
       164 -10.8256      4.4138     34.2335   9.3086112995e+01   7.2063777643e+01    0.3940512    0.2094923 -67.18   0.00135404    1.682    0.405
       165 -10.6756    228.8237     39.3714   2.3463424602e+01   2.4266932919e+01    0.2233192    0.1705685 -64.17  0.001450887    1.274    0.215
       166  -9.2754     34.4901     41.4904   7.4373373489e+01   6.7719660674e+01    0.1441234     0.126886 -22.34 0.0008084531    1.104    0.094
       167  -9.9871    125.1223     39.9369   3.7630907625e+01   4.8487963095e+01    0.2755366    0.2057955  63.61   0.00133062    1.289    0.224
       168 -12.2703    238.5562     37.8016   2.2353871072e+01   2.2595931023e+01    0.2749517    0.2171349 -46.66 0.0003624072    1.043    0.041
       169 -11.1406    242.7771     34.1945   2.1252898247e+01   2.2210306553e+01    0.2333304    0.1652228 -26.52  0.001194901    1.310    0.236
       170 -10.3284     86.0474     38.6818   4.8069912793e+01   5.8485998060e+01    0.2568122    0.2156741 -27.94  0.000189621    1.268    0.211
       171  -9.8258     40.4299     39.1657   6.9782358334e+01   6.7420340670e+01     0.203343    0.1307652 -45.46 0.0008905352    1.518    0.341
       172 -10.5654    247.3474     36.4908   2.1443785380e+01   2.1140569916e+01    0.1978035   0.08899079 -29.78 0.0003731023    1.814    0.449
       173  -8.9940    153.7068     37.2906   3.1376927778e+01   4.1505138173e+01    0.1476541    0.1023023 -64.68 0.0003012061    1.550    0.355
       174 -11.0412    114.0671     34.7498   3.8196402998e+01   5.2107597240e+01    0.4609744    0.3474481  86.59  0.002229506    1.484    0.326
       175  -9.6640     78.0117     35.0055   4.9372397700e+01   6.0987887176e+01    0.2684057    0.1947455 -53.89 0.0006616995    1.592    0.372
       176 -11.5072     78.3935     30.0840   4.6903186759e+01   6.1717388178e+01    0.4433356    0.3147182  71.11  0.001409378    1.689    0.408
       177 -10.3051     72.4881     30.5153   4.9422693951e+01   6.3005665634e+01    0.3169547    0.2867685 -25.82  0.001239045    1.152    0.132
       178 -10.2818     60.9146     34.2320   5.6380578479e+01   6.4824257879e+01    0.2293453    0.1998889 -36.40 0.0004440669    1.179    0.152
       179 -10.2579    223.6578     33.6172   2.2522862023e+01   2.5927386681e+01    0.2691153    0.1394934  64.46  0.001437705    2.137    0.532
       180  -9.6021    177.1063     34.1254   2.7186735770e+01   3.6125694604e+01    0.1908084    0.1820305   7.02 0.0003070108    1.222    0.182
       181  -9.6362    178.5244     30.0021   2.5823372405e+01   3.6278142627e+01    0.2609439    0.1359025 -20.61  0.001150568    2.175    0.540
       182 -10.1448     31.1050     33.6882   7.3352435762e+01   6.9915565082e+01    0.2276162    0.1566373  29.82 0.0007425425    1.458    0.314
       183 -11.5280    106.8429     30.8209   3.8391044424e+01   5.4540181334e+01    0.5272266    0.3867968  13.73  0.002462743    1.798    0.444
       184  -9.9478     43.9564     32.1721   6.4473518205e+01   6.8351513836e+01    0.2381466    0.1954653 -75.42 0.0005964965    1.605    0.377
       185 -10.5838     91.2988     31.3197   4.3035296709e+01   5.8408433029e+01    0.3048656     0.224614  27.10  0.000327833    1.584    0.369
       186 -12.3479     89.6867     27.5725   4.1827995453e+01   5.9369519667e+01    0.3057827    0.2747521 -21.97 0.0003857633    1.193    0.162
       187 -10.6272    233.4992     30.6482   2.1099129249e+01   2.4325218960e+01    0.2176432    0.2049504  73.48 0.0006762963    1.286    0.222
       188  -9.5755    141.6218     31.2173   3.1302890960e+01   4.5397036095e+01    0.1926799    0.1413382 -13.41 0.0004438905    1.628    0.386
       189  -9.7057    133.7067     31.1249   3.2664601317e+01   4.7474608389e+01    0.2417694    0.1839922  79.52 0.0006510371    1.307    0.235
       190 -10.7578     98.0320     35.0531   4.2615211352e+01   5.6156076800e+01     0.278042     0.207727  61.14 0.0003576593    1.298    0.229
       191  -9.4426     23.9732     31.5001   7.7416617465e+01   7.1246060488e+01    0.2007308    0.1295751  24.13  0.001019795    1.561    0.359
       192 -10.8522    249.2559     29.6938   1.9853735629e+01   2.1517651562e+01    0.2107505     0.179182  12.33  0.001038218    1.576    0.366
       193  -9.2954     84.8635     30.1139   4.4598490983e+01   6.0170477261e+01    0.1944582    0.1663311  19.67  0.001014536    1.274    0.215
       194 -10.1949    146.3905     28.8203   2.9704934500e+01   4.4460225700e+01    0.2529214    0.1914202  74.39 0.0002758303    1.275    0.216
       195 -10.3404     18.7889     28.2186   7.9954017721e+01   7.2515050581e+01    0.3070374    0.2234417 -84.82 0.0008873555    1.791    0.442
       196  -9.7896     64.8379     28.1891   5.1537405897e+01   6.5087218271e+01    0.2023787    0.1598203  26.34 0.0004581047    1.316    0.240
       197 -11.1344     37.0789     27.1052   6.6237502033e+01   7.0476805880e+01    0.3784794    0.3026841  17.96  0.001385612    1.239    0.193
       198 -12.3690    244.0573     25.6572   1.9294967853e+01   2.2871851564e+01    0.4059998    0.2529818 -89.77  0.002562539    1.818    0.450
       199 -11.7603    244.2262     21.0142   1.8270161756e+01   2.3312331502e+01    0.2581638    0.1960928  58.12  0.000657101    1.663    0.399
       200  -9.0748    207.6738     27.3360   2.2273011516e+01   2.9939995113e+01    0.1403642   0.07734158 -56.19 0.0007051571    1.721    0.419
       201  -9.6829     48.8146     27.1237   5.9083496665e+01   6.8490145101e+01    0.2322094    0.1721359  37.69 0.0004070312    1.306    0.234
       202 -10.2038     45.5828     24.8183   5.9709831913e+01   6.9507027100e+01    0.3272029    0.1990781 -43.70  0.001137307    1.687    0.407
       203 -10.1829    222.7166     26.6053   2.0924475124e+01   2.6879176272e+01    0.1580114    0.1058298 -80.09 0.0004405523    1.572    0.364
       204 -10.4879      1.7860     25.3617   9.2946391686e+01   7.4308304436e+01    0.2729955    0.1741331 -79.47  0.001468568    1.622    0.383
       205  -9.9072     78.8321     24.1596   4.3829715528e+01   6.2527680303e+01     0.211439    0.1963371  86.45   0.00045217    1.173    0.147
       206 -10.8193     62.3590     22.9385   4.9891053583e+01   6.6493536950e+01      0.31496    0.2530887   5.91  0.001298083    1.403    0.287
       207  -9.7131    149.9011     23.2292   2.7290427866e+01   4.4216707419e+01    0.2127894    0.1726868 -61.86  0.000866787    1.189    0.159
       208 -10.5211    133.2300     21.9004   2.9362677449e+01   4.8738902832e+01    0.4551456    0.2656149  66.87   0.00208172    1.600    0.375
       209 -10.3385     86.0881     22.1891   4.0400149227e+01   6.1031065494e+01    0.2226542    0.2138633 -24.23 0.0005153185    1.110    0.099
       210 -10.6814     50.1024     22.4936   5.5830922820e+01   6.9086278114e+01    0.2549151    0.2141205 -19.44 0.0005177825    1.218    0.179
       211 -10.5339     26.2789     22.2039   7.1351371381e+01   7.3000049160e+01    0.3073086     0.197561 -41.21 0.0007583816    1.488    0.328
       212 -11.2364    221.6640     21.0181   1.9663639314e+01   2.7679606669e+01    0.2780795    0.2399393 -49.68 0.0009128678    1.064    0.060
       213  -9.7680    116.5413     22.5628   3.2727258451e+01   5.3087849252e+01    0.3303013    0.1189925  59.26  0.001187088    2.420    0.587
       214 -11.7593    105.0177     20.8353   3.4557153845e+01   5.6343895387e+01     0.257286    0.2439888  86.88 0.0002724984    1.049    0.047
       215  -9.3902     70.5171     22.5254   4.6155100334e+01   6.4730434707e+01    0.1440299    0.1353144  40.44 1.360151e-05    1.018    0.018
       216  -8.9355     11.6475     22.7264   8.3551407204e+01   7.4369986619e+01    0.1399562   0.08537048 -28.00 0.0004752606    1.638    0.390
       217  -9.6574    169.1489     21.1483   2.4233845648e+01   3.9568477116e+01    0.1878455    0.1383684 -60.85            0    1.283    0.221
       218 -10.4458    166.3182     18.2247   2.3644244894e+01   4.0588953717e+01    0.3305623    0.2472169  36.04  0.001139595    1.658    0.397
       219  -9.7252     90.1387     20.8096   3.8491229412e+01   6.0197332006e+01    0.2115574    0.1881235 -83.77 0.0003100528    1.216    0.178
       220  -9.6525    193.3226     20.0425   2.1568336980e+01   3.3917383106e+01    0.1797603     0.143488 -43.54 0.0003044705    1.125    0.111
       221 -10.7595    172.3024    247.6106   7.2760183207e+01   4.4728993076e+00    0.2160082    0.1284075 -36.46  0.001463112    1.989    0.497
       222  -9.8748    144.5001    248.9986   7.8203970535e+01   7.4673278234e+00    0.1461995   0.08091857 -17.78 0.0008103704    2.529    0.605
       223 -10.0602     76.4380    248.0784   9.2082013524e+01   1.5352849862e+01    0.3122111    0.1122566  39.32  0.001615857    1.980    0.495
       224  -9.6894     49.2047    249.6068   9.7908447075e+01   1.7932364618e+01    0.1566049   0.08700139  21.05 0.0009508078    1.649    0.394
       225  -9.5283    199.3606     18.9458   2.0777201784e+01   3.2665242257e+01    0.1775588     0.148099 -42.93 0.0004956324    1.099    0.090
       226 -10.6364    182.3400     18.4789   2.2110659910e+01   3.6648562441e+01    0.2182669     0.212045 -84.79 0.0003453639    1.150    0.130
       227 -10.0008    134.3193    244.3107   7.9715532290e+01   9.2872117630e+00    0.1142946   0.07398277   3.48 0.0003455115    1.644    0.392
       228 -10.6579    152.2304     18.3138   2.5328911424e+01   4.4162581263e+01    0.2770998     0.194836 -57.83            0    1.392    0.281
       229  -9.2486     79.9115     19.5472   4.1107910319e+01   6.2920658941e+01    0.2274105    0.1335059  55.68  0.001020923    1.573    0.364
       230 -10.4840    217.5081     17.3710   1.9061953318e+01   2.8908374682e+01    0.2103018    0.1891738 -43.10 0.0004253447    1.139    0.122
       231  -9.3445    141.0000     17.9484   2.6720960476e+01   4.7132618815e+01    0.2187832   0.08072905 -25.03 0.0004284814    2.847    0.649
       232  -9.8030     57.5067     18.4984   4.9688036935e+01   6.8241302167e+01    0.2815708    0.1243215  43.87  0.001128182    2.145    0.534
       233  -9.6810     45.0409    243.6541   9.8495464665e+01   1.9325436746e+01    0.2720095   0.08044096  27.24  0.001250617    2.547    0.607
       234 -10.4732    202.0400    240.7377   6.6592218842e+01   1.9939825727e+00    0.2401759    0.1086008  22.28  0.001365543    1.789    0.441
       235 -10.6758    249.0258    239.7275   5.8991970863e+01  -2.6013595620e+00    0.1426861   0.09192259   5.34 0.0008376293    1.066    0.062
       236 -10.5768    188.4622    240.4986   6.8934932505e+01   3.5080549482e+00    0.2043904   0.08031975  21.29  0.001039376    2.361    0.576
       237 -11.2746    221.8535    237.2859   6.2831699611e+01   2.8374709516e-01    0.2797331    0.1208766  16.74   0.00160949    2.179    0.541
       238 -10.5455    177.8979    237.8664   7.0511537266e+01   5.0208177926e+00     0.178534    0.1172228   7.50 0.0009881059    1.275    0.216
       239 -10.3546    240.0383    235.5063   5.9744133380e+01  -1.3477099137e+00    0.1434167   0.07633827  23.16 0.0005790608    1.550    0.355
       240 -10.6298    195.0757     15.1700   2.0109452570e+01   3.4021787228e+01    0.2051979    0.1755697 -57.27 0.0003800472    1.010    0.010
       241 -10.1215     46.3635     15.0110   5.3501044905e+01   7.1070824949e+01    0.2681965    0.2148684  22.77 0.0007670156    1.222    0.182
       242  -9.3560     53.9795    239.4639   9.6349818161e+01   1.9137873859e+01    0.1765939   0.05076651  43.33 0.0008083144    2.458    0.593
       243  -9.8076     66.3853    234.6974   9.3327647486e+01   1.8642665636e+01    0.2280278    0.1022634  37.71  0.001004452    1.618    0.382
       244  -9.7153    112.5139     13.9214   2.9933696422e+01   5.5157054341e+01    0.2073234      0.14727 -17.46  0.001020723    1.603    0.376
       245  -9.5022    122.4890    238.5517   8.1528353143e+01   1.1520844068e+01    0.1188097   0.08875664  25.08 9.391264e-05    1.005    0.005
       246 -10.0933     11.3811    231.3254   1.0526606319e+02   2.4527305635e+01    0.1408866    0.1226637 -15.10 0.0005550427    1.607    0.378
       247  -9.1378    218.6240    230.7198   6.2441586934e+01   1.3205080261e+00    0.1127537   0.06119734   4.45  0.000701008    1.707    0.414
       248  -9.7890     61.8830    228.6686   9.3922462321e+01   2.0180964369e+01    0.2766632   0.07225078  44.03  0.001147121    2.904    0.656
       249  -9.6480     89.6432     13.0361   3.4820813242e+01   6.1284720448e+01    0.2626441    0.1668949  36.56  0.001211926    1.711    0.416
       250  -9.5413    223.9923    225.7287   6.0858591161e+01   1.2919083933e+00    0.1500074    0.1071471   4.25  0.001152651    1.040    0.038
       251  -9.3953    125.5933    225.7399   7.9462920422e+01   1.3085036180e+01    0.1357012    0.1197998 -81.33 0.0009452486    1.639    0.390
       252  -9.6514    235.4986    225.0610   5.8949830659e+01   1.6222749105e-01    0.1562509     0.104007  10.35 0.0004975477    1.135    0.119
       253  -9.4514    207.8019    226.4055   6.3636289942e+01   2.9831998375e+00    0.1585924   0.07959335  18.88 0.0009499134    1.710    0.415
       254  -8.9050    109.2823    221.6704   8.2578550053e+01   1.5801122144e+01    0.1196696   0.08124592  51.11 0.0007004435    1.606    0.378
       255 -10.7446    248.1468    218.6237   5.6100643281e+01  -4.5322908042e-01    0.1961567    0.1832451  42.81  0.001570668    2.493    0.599
       256  -9.8959    212.4122    215.1907   6.1214935646e+01   3.7690589708e+00    0.1756132    0.1088666  25.11    0.0011816    1.394    0.283
       257 -10.0181    179.9422    216.5632   6.7225796517e+01   7.5089956551e+00    0.2045781    0.1360195 -14.64  0.000718457    1.489    0.329
       258 -10.0486    233.1463    212.6267   5.7465701694e+01   1.7420633829e+00    0.1506942    0.1125109  -6.72  0.001167652    1.147    0.128
       259  -9.5656     80.9892    198.9933   8.6849056269e+01   2.3519155912e+01    0.1894715    0.1462587  -6.34 0.0004642825    1.600    0.375
       260  -9.4686    157.9351    197.6976   6.8800809095e+01   1.3169065961e+01    0.1747312    0.1369219  24.41 0.0005913791    1.106    0.096
       261  -8.7668    243.3348    197.3316   5.3525420158e+01   2.3212641557e+00    0.1146948   0.06388465  -1.11 0.0007052196    1.732    0.422
       262  -9.4368    249.5049    183.5180   5.0368833554e+01   3.1805723440e+00     0.108514   0.08023337  -7.61 0.0002390507    1.043    0.041
       263  -9.8324    241.0331    181.5467   5.1266438317e+01   4.3918807571e+00    0.1802836   0.09876889  37.02  0.001120995    2.030    0.507
       264  -9.5773     43.6938    164.3546   9.3573784433e+01   3.5483938227e+01    0.2519392    0.1375025  42.64 0.0005425188    1.583    0.368
       265 -11.0085     39.2780    160.1415   9.4513520272e+01   3.6946938342e+01    0.5093552    0.2270809  52.47   0.00219107    2.168    0.539
       266 -10.8102     34.9699    157.9511   9.5628729390e+01   3.7905437177e+01    0.3809721    0.2452797  60.37  0.001215383    1.474    0.322
       267 -10.9671     29.9922    153.7420   9.6814086287e+01   3.9401020014e+01    0.4814126    0.2609029  56.44  0.002314558    1.752    0.429
       268  -9.2758     67.5862    162.4168   8.6329590565e+01   3.3104235025e+01    0.1388992      0.12253  46.75 9.540786e-05    1.019    0.018
       269  -8.9405      2.3219    156.6956   1.0535640033e+02   4.0840517429e+01    0.1393249   0.07225664  52.88 0.0007030642    1.636    0.389
       270  -9.2002     58.4556    150.9662   8.7658372928e+01   3.6985655483e+01    0.1813933    0.1376263 -76.76 7.233569e-05    1.388    0.279
       271  -9.9005    236.8238    146.1550   4.5524458049e+01   9.3022116737e+00    0.1663188    0.1390903 -23.47 0.0004929865    1.206    0.171
       272  -9.0899     14.2789    141.2890   1.0093005661e+02   4.3783992817e+01    0.1251756   0.09555344 -45.12            0    1.521    0.343
       273 -11.4639     35.0707    137.0609   9.3658403753e+01   4.3076886877e+01    0.2088724    0.1904009  59.53            0    1.012    0.011
       274  -9.6617      8.0370    133.2456   1.0253265361e+02   4.6230778300e+01    0.2802209    0.1160662 -53.49  0.001169602    2.636    0.621
       275 -10.1608    248.4537    131.9576   4.1230476281e+01   9.4835599051e+00    0.2915709    0.1536289 -40.81  0.001461969    1.880    0.468
       276  -9.1883    225.4710    133.4928   4.4696571512e+01   1.2637992336e+01    0.1214586     0.101646 -19.74 9.011343e-05    1.072    0.067
       277  -9.1102     41.4783    129.4799   9.0582860981e+01   4.4358548207e+01    0.1421736    0.1305396  63.39 2.837885e-06    1.012    0.012
       278  -9.9970    240.8456    124.6777   4.0789891083e+01   1.1495245172e+01    0.2142597    0.1379089 -20.35  0.001317042    1.350    0.259
       279 -10.5869      3.7393    124.1237   1.0353182193e+02   4.8804276666e+01    0.3321457    0.1574658  66.55  0.001502221    2.032    0.508
       280  -9.2093     51.2174    121.0705   8.5916122097e+01   4.5408041097e+01    0.1864508    0.1155815 -66.73 0.0003179371    1.609    0.379
