#   1 NUMBER                 Running object number                                     
#   2 MAG_AUTO               Kron-like elliptical aperture magnitude                    [mag]
#   3 X_IMAGE                Object position along x                                    [pixel]
#   4 Y_IMAGE                Object position along y                                    [pixel]
#   5 X_WORLD                Barycenter position along world x axis                     [deg]
#   6 Y_WORLD                Barycenter position along world y axis                     [deg]
#   7 A_WORLD                Profile RMS along major axis (world units)                 [deg]
#   8 B_WORLD                Profile RMS along minor axis (world units)                 [deg]
#   9 THETA_WORLD            Position angle (CCW/world-x)                               [deg]
#  10 FWHM_WORLD             FWHM assuming a gaussian core                              [deg]
#  11 ELONGATION             A_IMAGE/B_IMAGE                                           
#  12 ELLIPTICITY            1 - B_IMAGE/A_IMAGE                                       
         1 -11.5930     89.4986     28.1838   4.4249991227e+01   5.7559551616e+01    0.4175226    0.2852408 -16.24  0.001964662    1.803    0.445
         2 -11.8024     78.8625     30.2566   4.8111818497e+01   5.9650759501e+01    0.4640093    0.3365262 -49.30 0.0003654509    1.709    0.415
         3 -10.2686     47.7732     26.2861   5.7985482027e+01   6.6333606108e+01    0.3960478    0.2982875  70.78  0.000921907    2.193    0.544
         4 -11.8291      7.2940     16.3802   7.5986358393e+01   7.3563163568e+01    0.6363034    0.3663484   7.89  0.003110538    1.640    0.390
         5  -9.8396     14.3038     10.5829   6.8178254790e+01   7.3602111076e+01    0.4142908    0.2185828  -7.26  0.002012831    2.603    0.616
         6 -11.0672    133.8225     21.3840   3.2936379471e+01   4.8006860136e+01    0.5216348    0.2588165  71.90   0.00153409    1.826    0.452
         7 -10.7084     26.4523     21.8617   6.6614576162e+01   7.0385006371e+01    0.3326811    0.2180774  -8.70  0.001501983    1.609    0.379
         8 -11.4267     70.3592     12.1995   4.3285656860e+01   6.3448558631e+01    0.4967502    0.2872762 -41.12  0.002651312    2.149    0.535
         9 -11.7017     62.0371     16.9126   4.8063826227e+01   6.4716788440e+01    0.5141928    0.2621443  49.22 0.0003657262    1.635    0.388
        10 -10.8150    238.1243     16.9103   2.1981677075e+01   2.6572356036e+01    0.2170677    0.1793784  75.28 0.0009766584    1.480    0.324
        11 -10.8951    174.7634     12.7319   2.5772307420e+01   3.9581661268e+01    0.4546135    0.3010339 -35.70  0.002611523    1.638    0.389
        12  -9.2846    178.3518      9.2798   2.4651589686e+01   3.9147350556e+01    0.2080953    0.1654079  40.05 0.0007964664    1.774    0.436
        13  -9.0570    117.3813     14.7576   3.3553684990e+01   5.2520201175e+01     0.198273    0.1686548   1.61  0.001263798    1.499    0.333
        14 -10.8036    229.4960     13.9145   2.1945286933e+01   2.8450040015e+01    0.3990595    0.1471155 -88.22  0.001906383    3.186    0.686
        15 -11.3463    133.0138     12.6423   3.0495359542e+01   4.9060217223e+01    0.2326915    0.2012327 -83.02 0.0003119288    1.100    0.091
        16 -10.9811    125.1727     12.2225   3.1509443976e+01   5.0931216577e+01    0.4027292    0.2513497 -84.20 0.0009999647    1.722    0.419
        17  -8.8775     92.6511      8.2901   3.6035638330e+01   5.8838830797e+01    0.1958362    0.1416667  82.84  0.001081293    1.436    0.304
        18  -9.2658     89.7663     13.7308   3.8730866500e+01   5.9012872340e+01    0.2887635    0.1885261  54.93  0.001644281    1.270    0.212
        19  -9.5273     89.3743     10.2904   3.7514108094e+01   5.9413246357e+01    0.2807336    0.1482009  42.71  0.001191676    1.818    0.450
        20  -9.6255    200.4154     12.0801   2.3513762964e+01   3.4250982680e+01    0.2255121    0.1274673 -34.43  0.001029776    1.872    0.466
        21 -10.4705    145.1212     12.7310   2.8934074903e+01   4.6243640281e+01    0.3657389    0.1732881  72.68   0.00123698    1.818    0.450
        22 -10.4415    107.3624      5.5128   3.2223576179e+01   5.5671535643e+01      0.49501    0.3195662 -22.24   0.00288847    1.895    0.472
        23  -9.1495    103.4711      7.4875   3.3594243757e+01   5.6412597503e+01     0.189752    0.1286593  45.61 0.0006717385    1.430    0.301
        24 -11.3606     97.9525      9.4144   3.5343857293e+01   5.7525497322e+01    0.6494643    0.4466086 -44.13  0.002473259    1.696    0.410
        25 -10.1121     90.1639      1.5096   3.4009361940e+01   5.9946216253e+01    0.3134013    0.1425953  66.59  0.001159268    1.828    0.453
        26 -10.3550    246.0363     10.3464   2.0394819371e+01   2.5901923079e+01    0.2069747    0.1702909 -41.66  0.001691482    1.488    0.328
        27 -11.0399    195.8137      3.5781   2.2064099113e+01   3.6037587108e+01    0.3408247    0.1677961  72.01 0.0004632709    1.834    0.455
        28  -9.5522    191.5207     11.0397   2.3966575466e+01   3.6183329978e+01    0.2422468    0.1300782 -60.18  0.001320525    1.638    0.390
        29 -10.3972    191.2340      7.2488   2.3170260905e+01   3.6622500104e+01    0.3695435    0.1894962 -62.93  0.001323018    1.738    0.425
        30  -9.8639     54.7435      9.4737   4.7251264432e+01   6.6945660910e+01    0.3693283    0.2542345 -74.30  0.001247908    2.965    0.663
        31  -9.0214     32.4629     11.2395   5.7912147576e+01   7.0849161961e+01    0.1506208    0.1131613 -37.53  0.000948826    1.677    0.404
        32 -10.6407      7.9539      9.2430   7.1776497615e+01   7.4551632406e+01    0.2255641    0.1551165  22.87 0.0005222628    1.303    0.233
        33 -10.2645      3.3027      9.0067   7.5031871394e+01   7.5083890294e+01    0.3304806    0.1621252 -27.24  0.001800753    2.023    0.506
        34 -10.0677    212.8804      8.2568   2.1890626072e+01   3.2174788219e+01    0.2398313    0.1692849  43.90  0.001562966    2.283    0.562
        35 -11.3583    207.6262      3.1112   2.1203172479e+01   3.3715796673e+01    0.5263974    0.2137465 -75.89  0.002658548    2.524    0.604
        36  -9.9350     45.4114      5.3493   4.8836499529e+01   6.9159800136e+01    0.4305897    0.2062191 -11.84  0.001650087    2.890    0.654
        37  -9.6789     41.5647      1.5952   4.8475617402e+01   7.0232465792e+01     0.319234    0.1407589  32.14 0.0008214353    2.322    0.569
        38 -11.0204    184.7085      5.2756   2.3233669534e+01   3.8180155021e+01    0.2781056    0.2101817 -45.08 0.0008364902    1.365    0.267
        39  -9.8114    180.3723      1.6701   2.2762346277e+01   3.9437469961e+01    0.2890086    0.1437825  79.47  0.001310871    1.718    0.418
        40 -10.2902    138.7952      6.9551   2.8110028397e+01   4.8233839629e+01    0.2261177    0.1487703  76.10            0    1.270    0.212
        41 -10.3017    136.0366      2.6348   2.7224198809e+01   4.9239404113e+01    0.3135674     0.180402 -55.74  0.001367047    1.824    0.452
        42  -9.8093     37.9857      4.7812   5.1761921449e+01   7.0591213557e+01    0.4262552    0.2150202  13.46  0.001905013    3.083    0.676
        43 -10.5188     14.8776      3.5423   6.3774807376e+01   7.4428989714e+01    0.3776641    0.2507167  36.35  0.001654347    1.480    0.324
        44  -9.9273     24.7424      7.0842   5.9821906702e+01   7.2567833304e+01    0.1839375    0.1676787  32.90 0.0004290108    1.411    0.291
        45 -10.0538     20.4654      5.5906   6.1474348643e+01   7.3388519731e+01    0.2234458    0.1623296  25.35 0.0006207521    1.131    0.116
        46  -9.3185    170.5529      6.0908   2.4585913516e+01   4.1146717588e+01    0.2313717    0.1155771  60.97 0.0007808002    1.933    0.483
        47  -9.4178    151.0164      4.5056   2.6065309488e+01   4.5649544988e+01    0.4589836    0.2130869  71.60  0.001902084    1.789    0.441
        48 -12.1487    160.0675      1.9785   2.4533868113e+01   4.3835790263e+01    0.4037905    0.2634321  86.04   0.00252955    1.274    0.215
        49 -10.4172    156.0446      3.4999   2.5297957010e+01   4.4602440889e+01    0.1841865    0.1579937 -63.03   0.00129994    1.190    0.160
        50  -9.3859     88.1111      6.0829   3.6189136198e+01   6.0056225032e+01    0.1935546    0.1359777  46.35 0.0006563734    1.275    0.216
        51 -11.3081     79.2219      4.2330   3.7527533654e+01   6.2202680897e+01    0.2185242    0.2062886  36.58  0.000654795    1.167    0.143
        52 -11.2960     75.9724      2.2381   3.7508779774e+01   6.3078515658e+01    0.4463758    0.2123496  61.04  0.002280727    1.707    0.414
        53 -11.2201    217.8354      3.2615   2.0628078494e+01   3.1727644180e+01    0.2941145    0.2078074 -69.01  0.001226221    1.053    0.050
        54 -10.6624    238.0239      3.6969   1.9638585105e+01   2.7985173929e+01    0.3189009     0.137134  63.74  0.001651406    2.669    0.625
        55 -10.4882    231.9804      2.6088   1.9747423180e+01   2.9173391791e+01    0.1947004    0.1479819 -62.20 0.0005185325    1.127    0.112
        56  -9.3113    174.4011      4.2471   2.3824219254e+01   4.0481099167e+01    0.1497366   0.09231794 -50.58 0.0002110897    1.503    0.335
        57 -10.7925     30.5409      2.6442   5.4183493410e+01   7.2108271460e+01    0.2927574    0.2420614  71.20  0.001746494    1.956    0.489
        58 -10.3224    250.0238      1.5766   1.8716637156e+01   2.6131974564e+01    0.1468325   0.09846334 -71.39  0.001158174    1.110    0.099
        59  -9.6965    142.2441      1.9708   2.6328623466e+01   4.7867138662e+01    0.2640317    0.1428726 -86.77 0.0009201827    1.805    0.446
        60 -10.0193    115.7707      1.9927   2.9722329393e+01   5.3994476855e+01    0.1957975    0.1454151  72.47 0.0003750037    1.102    0.093
        61  -9.5674      5.5529      1.8477   6.9238917771e+01   7.5828806373e+01    0.2343376    0.1266215  16.28  0.001085943    1.689    0.408
        62  -9.4751     23.6707      1.4071   5.7157326223e+01   7.3365235852e+01     0.152453   0.08970648  31.72 0.0003177827    1.386    0.279
        63  -8.2598     75.6397    133.7127   8.0987163510e+01   3.9297224250e+01    0.1622794    0.1188907 -17.12 0.0007023501    1.686    0.407
        64 -10.3552    201.2498    249.7415   7.0594686083e+01  -4.2545160783e+00    0.2489001    0.1941639  24.59  0.001164004    1.434    0.303
        65  -9.5540    197.4864    246.5102   7.0821887653e+01  -3.3569385939e+00    0.2097138    0.1374826  28.15 0.0008298047    1.538    0.350
        66  -9.5050     41.5258    129.6104   9.2120276017e+01   4.5040656333e+01    0.2484194    0.2275363   0.35 0.0006566964    1.145    0.126
        67  -8.5938     18.6472    127.7137   1.0019242578e+02   4.7741123636e+01    0.1511942   0.09514552 -35.99 0.0004884358    1.666    0.400
        68 -10.6069      3.0267    123.7533   1.0541068977e+02   4.9839371567e+01    0.3777764    0.1752392 -69.29  0.001674417    1.836    0.455
        69 -10.3546    241.5193    124.3912   4.1833355611e+01   1.1059772331e+01    0.1996224    0.1578076  60.40  0.001083372    1.619    0.382
        70  -8.1418     77.6874    124.7258   7.8303386660e+01   4.1258400699e+01    0.1558923    0.1192263 -16.07 0.0001767463    1.557    0.358
        71  -8.6486     51.2138    121.0577   8.6907059953e+01   4.6119783893e+01    0.1985228    0.1166909 -58.60 0.0003738487    1.624    0.384
        72 -10.8730     28.6275    117.9674   9.4885522600e+01   4.9462966725e+01    0.5047562    0.3012482  79.92  0.002096685    2.374    0.579
        73 -11.5027     21.4640    118.2761   9.7703912588e+01   5.0015487319e+01     0.628616    0.4308256 -78.62  0.001462292    1.492    0.330
        74 -10.3139     20.8996    109.6019   9.6465344637e+01   5.2329062499e+01    0.2823885    0.2291951 -51.89 0.0003650136    1.109    0.099
        75  -9.6265      6.8001    120.8706   1.0366228247e+02   5.0378917975e+01    0.3942284    0.1415353  43.96    0.0014288    3.334    0.700
        76  -9.5461    221.4048    119.7495   4.3629778582e+01   1.4990959089e+01    0.2006653    0.1768903  58.42 0.0006749869    1.354    0.261
        77  -8.9411     93.8308    119.1511   7.1657999226e+01   3.9802114735e+01    0.2133225      0.18282  -1.88 0.0007273001    1.300    0.231
        78  -8.4386     74.3465    119.2940   7.8180992662e+01   4.3171321136e+01    0.1610285    0.1184628 -15.94  0.000703095    1.668    0.401
        79  -8.9041    239.3122    118.3134   4.0962305611e+01   1.2368622724e+01     0.115297   0.08778398 -16.57 0.0004998193    1.634    0.388
        80  -9.0232     36.6971    115.9378   9.1383932281e+01   4.9179968827e+01    0.2038386    0.1695074 -62.84 0.0002921249    1.161    0.139
        81  -8.9059     80.5141    115.5381   7.5148269956e+01   4.3063671572e+01    0.1527601    0.1501472  -6.73 0.0005679816    1.015    0.015
        82  -9.5208      8.4558    113.4912   1.0203544832e+02   5.2211026364e+01    0.1376072    0.1232213 -61.63   9.3931e-05    1.024    0.023
        83 -11.3990     37.0115    110.2453   9.0120664379e+01   5.0620434401e+01    0.2657494    0.2417506 -56.23 0.0003654964    1.068    0.064
        84  -8.9630      5.1120    110.6767   1.0295694710e+02   5.3140684555e+01    0.1877216    0.1188318 -10.44 0.0004945171    1.784    0.439
        85  -9.8821     89.9711    108.2508   7.0116702142e+01   4.3100046225e+01    0.2645477    0.2265075 -64.18 0.0003793201    1.270    0.213
        86  -8.8861     81.9715    107.9594   7.2721747906e+01   4.4632176999e+01    0.1844308    0.1789436  -2.93 0.0008088569    1.005    0.005
        87  -9.6349     50.3652    105.6415   8.3807593191e+01   5.0166978423e+01     0.338109    0.2254403   0.11  0.001504517    1.843    0.457
        88 -10.9666     33.0148    104.7040   9.0581952054e+01   5.2463450624e+01    0.5456071    0.1954816 -46.95  0.001972728    2.566    0.610
        89  -9.7245     27.6149    103.2557   9.2513827403e+01   5.3366988189e+01    0.3821649      0.20835 -34.65  0.001264516    1.937    0.484
        90  -9.2055    161.6584    103.8613   5.0190775162e+01   2.9177067754e+01    0.1946422    0.1699821 -53.79  0.000320959    1.091    0.083
        91  -8.4025    142.3085    103.6644   5.4310911217e+01   3.3327857815e+01    0.1529334    0.1164865 -81.11 0.0004266213    1.676    0.403
        92 -10.0231    103.3027    101.7897   6.4168075307e+01   4.1956118147e+01    0.5241882    0.3348342  12.53  0.001956241    2.596    0.615
        93  -9.9910     71.5310    102.1183   7.4869654072e+01   4.7825879444e+01    0.3485676    0.2427095 -36.75  0.001607752    1.491    0.329
        94 -10.6928     56.3019    101.0400   8.0346859242e+01   5.0473391862e+01    0.4206403    0.2574452 -23.50  0.001735905    2.117    0.528
        95 -10.6476    247.3957    100.7989   3.6716042088e+01   1.3856485070e+01    0.2180991    0.1427406 -50.04 0.0009274588    1.220    0.181
        96 -10.5210     50.8461     99.7807   8.2188675510e+01   5.1548799641e+01    0.3239807    0.2029124 -48.91 0.0007864951    1.517    0.341
        97  -9.9240     53.4188     95.7879   8.0131601623e+01   5.2153518658e+01    0.2324387    0.1437774 -54.02  0.001046737    1.593    0.372
        98  -9.4866    126.1099     97.2660   5.6564115533e+01   3.8106660853e+01    0.2777442      0.22887 -64.73  0.001400249    1.322    0.244
        99  -9.9103    117.8886     97.8151   5.8884400637e+01   3.9761415542e+01    0.2347585     0.213143 -32.82 0.0004503074    1.140    0.123
       100  -9.1354    111.7002     97.8889   6.0627120087e+01   4.1057276124e+01    0.2083565    0.1874227 -43.24 0.0008787473    1.126    0.112
       101  -9.9525      7.6230     97.6740   9.9941963660e+01   5.6324787537e+01    0.7763022    0.3402877  55.87  0.002770632    3.833    0.739
       102  -9.7721    165.5231     96.0019   4.7519424881e+01   2.9824235204e+01      0.36223    0.2572484  -6.62  0.001624929    2.339    0.573
       103  -8.7150    141.5913     95.7968   5.2437104700e+01   3.5027033703e+01    0.2017072    0.1350618 -54.25 0.0004322764    1.563    0.360
       104  -9.5978     86.8416     96.1934   6.7860943001e+01   4.6434466313e+01    0.2084244    0.1776725  -5.99 0.0003538622    1.298    0.230
       105  -9.6039     38.5031     91.4427   8.5220935116e+01   5.5142987721e+01    0.2329992    0.1574626 -26.79 0.0007030919    1.563    0.360
       106 -10.9526     47.3427     91.6687   8.1533101007e+01   5.3975013270e+01    0.4622356    0.2460584 -65.28  0.001874006    2.277    0.561
       107 -11.4155     42.6129     90.1006   8.3116259599e+01   5.4962529437e+01      0.49999    0.4314506  43.43  0.001318645    1.296    0.228
       108  -9.5102     31.5065     93.6411   8.8774220119e+01   5.5384834909e+01    0.2413336     0.160473  44.81 0.0008705764    1.758    0.431
       109 -10.9990     17.8861     90.7271   9.4136377864e+01   5.7349014107e+01    0.3905956    0.2122363  24.96 0.0003161296    1.912    0.477
       110  -9.0725     89.4882     91.4833   6.5625491714e+01   4.6950520966e+01    0.1506259    0.1448463  12.76 0.0008102979    1.014    0.014
       111  -9.9897     87.6326     88.2063   6.5280017826e+01   4.8012045076e+01    0.4595746    0.2775246  29.36   0.00155284    1.840    0.456
       112 -11.1141     65.0367     90.7803   7.4178277851e+01   5.1535878284e+01    0.6513216    0.3889734 -12.87  0.002414092    2.838    0.648
       113  -9.9010     59.3950     72.7001   7.0921300538e+01   5.6387749777e+01     0.256456    0.2332164  10.82 0.0002203919    1.027    0.027
       114 -10.5437     65.2546     85.8669   7.2665826534e+01   5.2600568078e+01     0.507186    0.2928183  22.32  0.002128261    1.994    0.498
       115 -10.1351     66.0825     80.1132   7.0601859942e+01   5.3707428593e+01    0.4115467    0.2533045 -39.38 0.0009667853    1.664    0.399
       116 -10.2740     68.3264     74.6308   6.8001856584e+01   5.4454775867e+01    0.3088281    0.2403202   5.43 0.0002130078    1.431    0.301
       117  -9.7197     64.1704     75.1403   6.9785774281e+01   5.5078588159e+01    0.3267175    0.2093675  45.97  0.001097076    1.669    0.401
       118  -9.6824     97.1401     87.7718   6.2074940852e+01   4.6193843708e+01    0.3730622    0.2261478 -62.92  0.001494195    2.304    0.566
       119  -9.7578    143.5859     84.7917   4.9082048260e+01   3.6642163876e+01    0.3958198    0.1941576 -52.87  0.001463409    2.314    0.568
       120  -9.1932     56.8545     86.7952   7.6269096233e+01   5.3739680778e+01    0.3090878    0.1577296  50.36  0.001162207    2.682    0.627
       121 -10.3493     25.9170     87.1859   8.9734271583e+01   5.7512196179e+01    0.2934164     0.228912  41.94 0.0009216453    1.472    0.321
       122  -9.5150     28.6279     84.7877   8.7923820972e+01   5.7819281432e+01    0.3016098    0.1953391 -66.33  0.001471823    1.666    0.400
       123 -10.9187      3.2360     85.1401   9.9712303175e+01   5.9683025436e+01    0.3582392    0.2183754 -37.91 0.0004739704    1.474    0.321
       124 -10.8955    118.7032     84.1514   5.4823258834e+01   4.2299946296e+01    0.5624772    0.3485831  77.70  0.001891516    2.807    0.644
       125  -9.1406    155.0477     84.9529   4.6770054706e+01   3.4072207654e+01    0.2004198    0.1712607  14.26 0.0002959743    1.516    0.340
       126 -10.8071     73.2928     80.6174   6.8023288467e+01   5.2323738717e+01    0.5400444    0.3613791 -48.51  0.002560209    1.558    0.358
       127 -10.0933     81.6360     82.5073   6.5608891542e+01   5.0368021417e+01    0.3376171     0.272986 -11.06 0.0007233475    1.410    0.291
       128  -9.8315     77.4803     82.9949   6.7229579352e+01   5.1053144252e+01    0.3945725    0.2597103 -60.64  0.001290722    1.895    0.472
       129 -10.1487     51.7333     82.3597   7.7095208745e+01   5.5506466653e+01    0.3749568    0.2850606 -16.73  0.001470256    1.404    0.288
       130  -9.7341     52.3175     77.3321   7.5338999065e+01   5.6527437172e+01     0.335019    0.2338515  28.88  0.001378187    1.402    0.287
       131  -8.9610     59.9966     82.7594   7.3814773270e+01   5.4147618826e+01     0.189599    0.1198414  31.82 0.0004252532    1.555    0.357
       132 -10.1110     42.5198     80.3760   8.0494214180e+01   5.7230910462e+01    0.4354099    0.2648081 -27.44  0.001975428    1.847    0.458
       133  -9.6214     20.5419     81.2735   9.0804640620e+01   5.9414714883e+01    0.3573356    0.1733476  43.73  0.001487532    2.661    0.624
       134  -9.3832     91.8571     80.7823   6.1646035259e+01   4.8691048686e+01    0.2200328    0.1945743  11.61  0.000397513    1.194    0.162
       135  -9.6892    150.1947     79.7018   4.6361497321e+01   3.6065885649e+01    0.2697987    0.2506072 -75.48  0.001380657    1.028    0.027
       136  -8.8409    106.3879     79.7651   5.6910238625e+01   4.5827552582e+01    0.2071052    0.1409867 -29.80 0.0007296103    1.692    0.409
       137 -10.7599    166.9691     77.9348   4.2799512966e+01   3.2656437987e+01    0.2345177    0.1986059 -51.22            0    1.129    0.114
       138  -9.8140    169.8932     74.5075   4.1457483859e+01   3.2579783128e+01    0.2402885    0.2089236 -55.07 0.0004552994    1.092    0.084
       139 -10.2147    166.0672     72.7561   4.1659792851e+01   3.3698937367e+01    0.2465303    0.2034591 -54.49 0.0002757271    1.148    0.129
       140  -9.5111    118.9808     76.2912   5.2461374271e+01   4.3695154063e+01    0.2342816    0.1967345 -59.08 0.0003313803    1.270    0.213
       141  -9.3466    109.9527     77.3191   5.5169000701e+01   4.5510208473e+01    0.2189668    0.1906062  48.15  0.001171681    1.104    0.094
       142 -10.0451    108.1771     73.3035   5.4439893307e+01   4.6635898650e+01    0.2419628    0.2282913 -18.14 0.0005066179    1.133    0.117
       143  -8.6503    100.0208     76.9552   5.7921858566e+01   4.7729474018e+01    0.1678502    0.1632401 -30.94 0.0009406616    1.070    0.065
       144 -10.3251     29.1778     74.8008   8.5036979468e+01   6.0079346270e+01    0.3403634    0.2535741 -34.73 0.0009902212    1.234    0.190
       145  -9.6006     18.5988     73.1191   8.9713172249e+01   6.1482230260e+01    0.3511944    0.1856838 -66.99  0.001596477    2.107    0.525
       146 -10.9240     88.9966     73.5769   6.0314021361e+01   5.0679520031e+01    0.5652075    0.4062001  -3.75  0.002587217    1.942    0.485
       147 -10.4093     95.3348     71.8983   5.7762680645e+01   4.9671811274e+01    0.3831043    0.2652901  42.56 0.0009020689    1.377    0.274
       148  -8.9124    151.8917     73.3434   4.4350821502e+01   3.6760008946e+01    0.1891647     0.121681  48.03   0.00012681    1.631    0.387
       149  -8.4278    177.2318     71.9815   3.9675884674e+01   3.1396989000e+01    0.1599441    0.1042363 -42.89 0.0002442919    1.457    0.314
       150 -10.4058    143.4105     70.1491   4.5150259070e+01   3.9207562267e+01    0.4589023    0.4266786  88.69  0.001922239    1.013    0.013
       151 -11.0465     52.2886     69.0691   7.2722479964e+01   5.8274855213e+01    0.4221704    0.3922196 -76.20  0.002456266    1.352    0.261
       152  -9.3816    102.8808     69.0662   5.4614655766e+01   4.8556971290e+01    0.3140135    0.1954452 -21.47  0.001334723    2.241    0.554
       153  -8.9215     81.8221     70.1867   6.1623515656e+01   5.2772890749e+01    0.2072576    0.1928997  65.29 0.0004827007    1.199    0.166
       154  -9.5761     64.1422     69.3569   6.7905685573e+01   5.6253562439e+01    0.2271467    0.2121339 -14.40  0.001311469    1.067    0.063
       155  -9.5963     26.9885     63.0088   8.2628511716e+01   6.2901387906e+01    0.2182327    0.2019701 -53.12 0.0007375609    1.255    0.203
       156 -10.2805     29.4833     67.8985   8.2888691930e+01   6.1576821241e+01    0.3791121    0.3041236  16.60  0.001461079    1.225    0.183
       157 -10.0294     22.7021     68.0666   8.6299463257e+01   6.2245506644e+01     0.328263    0.2749176  34.39  0.001316128    1.360    0.265
       158  -9.9282     22.2255     62.6398   8.4946736182e+01   6.3474514429e+01    0.4432734    0.1749758 -41.88  0.001841579    2.345    0.574
       159 -11.3174      8.1339     50.9608   8.9059012694e+01   6.7157417229e+01    0.7375951    0.4012556 -20.72  0.003724595    1.851    0.460
       160 -11.0974      2.3438     66.0567   9.6259939605e+01   6.4233682754e+01    0.3887638     0.175312 -49.94  0.001584409    1.783    0.439
       161 -11.4919      6.0280     61.7348   9.3254103347e+01   6.4987132876e+01    0.5415509    0.4186963 -32.80  0.001555666    1.093    0.085
       162  -9.1524    173.1721     68.5173   3.9461761880e+01   3.2813976744e+01    0.1859459    0.1273422  66.90 0.0009877048    1.466    0.318
       163  -8.8162    166.3051     68.3275   4.0508669964e+01   3.4348665652e+01    0.1291892    0.1081681  19.97 0.0006705886    1.650    0.394
       164  -8.2916    157.2947     68.3249   4.2041579143e+01   3.6357106808e+01    0.1313438    0.1096084  19.55 0.0007020637    1.622    0.383
       165  -9.1181     11.3317     66.3371   9.1636983138e+01   6.3597847449e+01    0.2383937    0.1447351 -38.17 0.0009467638    1.447    0.309
       166 -10.3205     16.2833     64.2986   8.8511534678e+01   6.3659568943e+01    0.4541603    0.2234176 -17.69   0.00091094    2.511    0.602
       167  -9.9908     82.9465     62.3905   5.8622585275e+01   5.3968865576e+01    0.3888367     0.306787 -57.06  0.001715525    1.517    0.341
       168 -10.6510     76.0534     65.5282   6.2098614639e+01   5.4779387482e+01    0.4046456    0.3406482  -2.96  0.001287516    1.278    0.217
       169 -10.0652     77.6400     61.7104   6.0220614721e+01   5.5159509685e+01    0.2534024    0.2056764  19.93 0.0006775439    1.263    0.208
       170  -9.3991    147.6322     66.1061   4.3221608257e+01   3.8896832818e+01    0.1911748    0.1651437 -46.73 0.0005147505    1.182    0.154
       171 -10.8186    135.1416     64.3436   4.5224832871e+01   4.2041276306e+01     0.398078     0.326265  85.19   0.00161021    1.271    0.213
       172 -10.7843     96.9078     63.2063   5.4470647317e+01   5.0878223692e+01    0.4621582    0.3217525  64.33   0.00201384    1.640    0.390
       173 -12.0221     55.9593     56.8251   6.6895170003e+01   6.0054886122e+01    0.3590586    0.2822482  33.16 0.0003466618    1.203    0.169
       174  -9.2717    123.6503     61.5510   4.6932327860e+01   4.5132500291e+01    0.2417762    0.1338538 -38.01  0.001081882    1.911    0.477
       175  -8.6290    193.5058     62.5028   3.5201899364e+01   2.9406011668e+01    0.1279561     0.110144 -68.40 4.726418e-05    1.014    0.013
       176 -10.5220     65.8750     61.5038   6.4527852082e+01   5.7444813214e+01    0.3824016    0.2722174  43.83  0.001566022    1.393    0.282
       177  -9.4788     70.7948     60.2942   6.2216353412e+01   5.6745739159e+01    0.2458854    0.2395621  45.21  0.001057514    1.151    0.131
       178  -8.9337     43.5270     61.8631   7.4218169209e+01   6.1044270389e+01    0.1929832    0.1299841 -42.76 0.0009891762    1.474    0.321
       179  -8.7126    166.6818     59.6954   3.8277100491e+01   3.5576440643e+01    0.1266191    0.1043197  29.90 0.0004356683    1.628    0.386
       180 -10.1526    135.2473     57.0827   4.3117867064e+01   4.3139871935e+01     0.420998    0.2656469  35.05  0.001301026    2.081    0.519
       181  -8.5312    143.6144     58.6942   4.1945891888e+01   4.0962667619e+01    0.1419067    0.1037068  31.50 0.0001022269    1.799    0.444
       182 -10.1118     35.7218     53.0349   7.4848520679e+01   6.3855816879e+01     0.315013     0.223227 -19.99  0.001235689    1.419    0.295
       183  -9.9937     30.0999     51.9862   7.7327975976e+01   6.4781650058e+01    0.4835449    0.1712535  29.81  0.001938449    2.675    0.626
       184 -10.9210     25.0563     55.5473   8.1205540097e+01   6.4661289980e+01    0.3595889    0.2440217 -55.97  0.001371514    1.619    0.382
       185 -11.0600     20.5147     53.1571   8.2832472406e+01   6.5623864185e+01    0.4092543    0.2669843  12.84 0.0009980734    1.480    0.324
       186 -10.5078     54.8020     62.8820   6.9546575952e+01   5.9106961949e+01    0.2893445    0.2575045  35.21 0.0005912105    1.177    0.150
       187  -9.3857    116.8516     56.2382   4.6898423211e+01   4.7526089626e+01    0.2152728    0.1833243  85.55  0.000759911    1.248    0.199
       188  -9.7373     82.7772     55.2689   5.6202708187e+01   5.5216509692e+01    0.4039687     0.259705  11.75  0.001635553    2.416    0.586
       189  -8.6683    163.5929     55.5507   3.7702481760e+01   3.6869982693e+01    0.1311008    0.1183608 -80.92 6.690867e-05    1.025    0.025
       190  -9.9876     64.4584     54.5360   6.2573432172e+01   5.8952657215e+01    0.2320894    0.2192458 -21.22 0.0005086318    1.142    0.124
       191  -9.6000     61.6821     52.3140   6.2853771082e+01   5.9846088944e+01    0.2552136    0.2435585 -87.99 0.0006145253    1.336    0.252
       192  -9.4321    146.2293     52.7951   3.9835182863e+01   4.1223853954e+01    0.3640301    0.1640461 -64.28    0.0011335    4.636    0.784
       193 -10.1728    122.7088     51.7836   4.4178043582e+01   4.6836094249e+01    0.3088742    0.2733599  89.29  0.001087736    1.140    0.123
       194 -10.3694     70.4750     52.1941   5.9406648542e+01   5.8206170728e+01    0.3773681    0.3256658  -9.50  0.001117909    1.203    0.169
       195  -9.5860     42.8690     52.5996   7.1212504769e+01   6.2924608748e+01    0.3127921    0.1864841 -49.82  0.001538247    1.875    0.467
       196  -8.6222    183.6542     52.2557   3.4093003198e+01   3.2929769974e+01    0.1313729   0.08586956 -74.91  0.000511295    1.590    0.371
       197  -8.7269    155.6281     51.8110   3.7984186515e+01   3.9204602890e+01    0.1791393     0.113851 -50.17 0.0004524654    1.561    0.359
       198  -9.3654    111.0142     51.8861   4.6934754327e+01   4.9523349669e+01    0.2028496     0.182981  57.15  0.001183312    1.019    0.019
       199  -9.2217     95.8320     52.6092   5.1231443267e+01   5.2836803833e+01    0.2032164    0.1272456  61.84 0.0009442183    1.711    0.416
       200  -8.8389    167.5451     51.0141   3.5965283587e+01   3.6624800483e+01    0.1836119    0.1215387 -42.39  0.000363237    1.489    0.329
       201  -9.0886    200.5680     50.2846   3.1665251157e+01   2.9671327785e+01    0.2191763    0.1325371  86.05  0.001208324    1.743    0.426
       202  -9.9162    175.1695     49.0673   3.4431859711e+01   3.5204629784e+01    0.3946339     0.290443  22.11  0.002087596    2.283    0.562
       203  -9.9350    140.9165     48.8344   3.9676850534e+01   4.3012608656e+01     0.501136    0.1724968 -32.81  0.001853121    3.274    0.695
       204  -9.7977    136.9461     49.3012   4.0542124206e+01   4.3871957104e+01    0.3050338    0.2437623 -25.77  0.001719608    1.477    0.323
       205  -8.6604    133.5024     48.5337   4.0976111739e+01   4.4782177925e+01    0.1370656    0.1231149  81.39 0.0008095574    1.028    0.027
       206 -10.2267     87.3205     48.9950   5.2513622879e+01   5.5246939100e+01    0.3635922     0.250003  42.69  0.001088345    1.336    0.251
       207  -9.9368    128.3352     48.5385   4.2003052461e+01   4.5988015140e+01    0.2914339    0.2239291  86.33 0.0009299386    1.380    0.275
       208  -9.4135    151.4563     47.3858   3.7474520767e+01   4.0772052699e+01    0.3748685    0.0558071 -44.18 0.0009676466    6.362    0.843
       209  -8.7283    149.4908     43.4849   3.6732511311e+01   4.1746329062e+01    0.1346384    0.1160564 -86.12 7.325243e-05    1.060    0.057
       210 -10.5734     79.5153     44.4010   5.3331408442e+01   5.7594809720e+01    0.4882492    0.2557083 -35.11  0.001565471    2.099    0.524
       211  -9.1843     83.2223     41.3248   5.0991778345e+01   5.7251033315e+01    0.2807227    0.2063315  34.49 0.0008739007    1.321    0.243
       212  -9.0957    226.5141     57.0898   3.0454992666e+01   2.3743663920e+01     0.173942   0.09614984 -43.82 0.0006855294    1.515    0.340
       213  -8.8538    235.0825     47.1565   2.7782959413e+01   2.3512409801e+01    0.1559764    0.1008448 -63.77 0.0003930936    1.285    0.222
       214  -9.9291     46.6341     46.9290   6.7278460726e+01   6.3357119568e+01    0.3791425    0.1832987  35.73  0.001154479    1.926    0.481
       215  -9.6469     38.8199     47.1279   7.1085929627e+01   6.4517644239e+01    0.2132534    0.1704548  21.53 0.0006262783    1.149    0.130
       216  -9.7888     16.9804     46.5736   8.2534209664e+01   6.7285674986e+01    0.2455843    0.1762967 -26.15 0.0006593693    1.238    0.192
       217 -10.1393    115.4151     45.0386   4.3692339795e+01   4.9484794450e+01    0.2876461    0.1974051  57.41 0.0004858937    1.316    0.240
       218 -12.7797     61.4409     44.5764   5.9975619915e+01   6.1166156256e+01    0.5395888    0.2628657  40.98  0.002436494    1.869    0.465
       219  -9.4160    122.7085     45.0944   4.2117966914e+01   4.7777646436e+01    0.2350134    0.1789021  76.08 0.0007823007    1.309    0.236
       220 -10.4708    105.5270     43.4642   4.5522742497e+01   5.1983610543e+01    0.4863239    0.3180569  80.96  0.001751031    2.007    0.502
       221  -9.4302     10.3866     44.8064   8.5753400792e+01   6.8229770574e+01    0.3306809    0.1344524 -40.82  0.001512512    2.168    0.539
       222 -11.1637     13.7782     37.5007   8.1054223026e+01   6.9322150762e+01    0.4728385    0.2394197 -50.79 0.0007542027    1.996    0.499
       223  -9.9670      3.2701     43.1780   8.9500326038e+01   6.9089863717e+01    0.4077289    0.2048389 -39.33  0.001380687    1.685    0.406
       224 -11.4254      6.4362     36.1973   8.5111224594e+01   7.0217434484e+01    0.5463309    0.4360511 -82.56  0.003332685    1.994    0.498
       225 -10.5776      9.5920     31.6627   8.1338197996e+01   7.0779809419e+01    0.3214456    0.2171038  26.24  0.001232832    1.513    0.339
       226  -9.7785    245.4924     44.6250   2.6506232026e+01   2.2024273934e+01    0.1763845   0.09816068  82.39 0.0006566866    1.927    0.481
       227  -9.8818     91.9025     43.5781   4.9209200632e+01   5.5040308434e+01    0.2393254    0.2010028 -48.77 0.0007685392    1.353    0.261
       228  -9.5974    200.7288     43.2724   3.0125318832e+01   3.0562130560e+01    0.2456843    0.1524059  83.68  0.001186594    1.597    0.374
       229  -8.3719    189.3045     43.6633   3.1435160756e+01   3.2878785384e+01    0.1336357   0.07954156 -66.35 0.0007039376    1.670    0.401
       230  -8.2953    157.2979     43.3164   3.5485476050e+01   3.9975487261e+01    0.1242656   0.09966393  35.44 0.0002546088    1.610    0.379
       231  -8.7619     87.0203     43.0673   5.0465795293e+01   5.6183587685e+01    0.1592516    0.1456257  39.18 0.0003363677    1.025    0.025
       232  -9.9812     29.6260     41.8067   7.3709611950e+01   6.6734339931e+01    0.3820671    0.2174733   1.42  0.001061334    2.285    0.562
       233 -10.4418     73.2057     41.0962   5.4214383260e+01   5.9385926796e+01    0.3086966    0.2546262 -28.08  0.001807312    1.321    0.243
       234  -9.6199     46.3694     42.1113   6.5470872973e+01   6.4212338192e+01    0.2824835    0.1529387   7.46  0.001043432    3.517    0.716
       235 -10.1365     22.4626     41.4509   7.7511434161e+01   6.7675699495e+01    0.2306001    0.1775491 -12.74 0.0007840294    1.151    0.131
       236  -9.7508    145.1762     40.6212   3.6639572902e+01   4.3117391370e+01    0.2377496    0.1967219  28.25  0.001387846    1.565    0.361
       237  -9.0532    148.5283     38.4638   3.5512590885e+01   4.2613761972e+01    0.2084799    0.1691301  54.63 0.0002721006    1.282    0.220
       238 -10.3521    228.5418     39.4535   2.6838028346e+01   2.5666716795e+01    0.2389206    0.1921311  88.56 0.0009463614    1.247    0.198
       239 -12.0878    238.7278     37.5580   2.5707056730e+01   2.4071360053e+01    0.2770062    0.2524554 -85.97 0.0003641351    1.353    0.261
       240  -8.9812    203.7696     39.1664   2.8942873316e+01   3.0468771782e+01    0.1861649    0.1304065 -65.97 0.0005998408    1.220    0.180
       241  -9.2383    125.3098     39.5756   3.9888684605e+01   4.7897445295e+01    0.2581675    0.1231768  65.73  0.001123765    2.013    0.503
       242  -9.7861     56.5543     36.0236   5.8484602983e+01   6.3375280849e+01    0.2677551    0.1947686 -13.70  0.001383892    1.522    0.343
       243 -10.7682     60.7589     34.4176   5.6124026068e+01   6.2810295630e+01      0.22793    0.2104483  24.97 0.0002639372    1.102    0.092
       244  -9.7655    247.3932     36.4778   2.4904695219e+01   2.2706136213e+01    0.1684023   0.08380408 -41.61 0.0005383315    1.666    0.400
       245  -9.5540    153.9420     37.0840   3.4328946974e+01   4.1537565544e+01    0.1968881    0.1671114 -87.13 0.0003942876    1.045    0.043
       246  -9.3823     86.0911     36.8763   4.8460170345e+01   5.7235237898e+01    0.2407589    0.1972267 -16.87 0.0006070641    1.386    0.278
       247  -9.3330    151.3157    249.3199   8.0667830208e+01   1.6706645502e+00    0.1321298   0.08605098  -7.72 0.0002813046    1.657    0.396
       248  -8.7785    176.9731     37.0000   3.1298624596e+01   3.6375662484e+01    0.2045266   0.06515767  67.76 0.0001539022    2.974    0.664
       249  -8.8580    167.0322     36.0226   3.2275468992e+01   3.8697400833e+01    0.1525068    0.1271775  88.91 0.0003814241    1.051    0.048
       250 -10.4881    146.3954     28.8448   3.3189673919e+01   4.4260460140e+01    0.2850147    0.1895219  67.84 0.0002867975    1.334    0.250
       251  -9.8739    140.0034     33.9598   3.5602031436e+01   4.5149629742e+01    0.2863944    0.1694279 -41.88            0    1.753    0.430
       252  -9.3907    141.6931     30.6942   3.4408093421e+01   4.5141003823e+01    0.2300568    0.1728884  46.30 0.0007127838    1.473    0.321
       253 -10.7642    113.4406     34.5088   4.0720995768e+01   5.1310302201e+01    0.5210449    0.2748918  51.85  0.002496069    1.699    0.411
       254 -10.6355     97.9836     35.0038   4.4508382242e+01   5.4817460534e+01    0.2613595    0.2274004  51.51 0.0003234389    1.026    0.025
       255 -10.7523     72.2903     30.2829   5.0237489863e+01   6.1041715511e+01    0.5267176    0.3437759  -9.23  0.002705839    1.990    0.497
       256 -10.6768     78.6695     35.1284   5.0074670790e+01   5.9070172900e+01    0.3153716    0.2469777  68.51 0.0008567743    1.450    0.311
       257  -8.9471     49.2196    249.6000   1.0399098766e+02   1.4304593891e+01    0.1767207    0.1118643  17.71 0.0009539848    1.691    0.409
       258  -8.3297     23.2519     36.3262   7.4996969184e+01   6.8498493686e+01    0.1286778   0.08399569 -15.94 0.0002424801    1.546    0.353
       259  -9.3395    130.3972     35.2846   3.7629459815e+01   4.7239799252e+01    0.2364769    0.1514329  88.27  0.001177041    1.782    0.439
       260  -9.5089     51.7058     32.9970   5.9242094558e+01   6.4698442748e+01     0.459947    0.1495745  42.92  0.001781487    2.745    0.636
       261  -9.1330     46.9636     34.2584   6.1893940063e+01   6.5345826728e+01    0.2907587    0.1148921  41.28  0.001234288    2.302    0.566
       262  -9.5066     43.6369     32.2173   6.2545144046e+01   6.6211509327e+01    0.2045042    0.1778022 -37.32 0.0006455469    1.378    0.274
       263  -9.9723     31.0863     33.8656   6.9602983342e+01   6.7887851817e+01    0.2407127    0.1537851  25.06 0.0002577936    1.415    0.293
       264 -11.7628    107.2650     30.5046   4.0736303436e+01   5.3226946811e+01    0.5224857    0.3591767  35.97  0.002808433    1.611    0.379
       265 -10.0784    233.9515     30.7390   2.4781895833e+01   2.5741287148e+01    0.2461698    0.1850345  70.96 0.0008389969    1.520    0.342
       266 -10.2590     65.0930     30.8159   5.2977992115e+01   6.2446440699e+01    0.3929614    0.2089165 -29.66  0.001525809    2.123    0.529
       267  -9.5034     24.4798     31.7632   7.2342441432e+01   6.9119059840e+01    0.2356615     0.153697  25.38  0.001125347    1.393    0.282
       268  -8.5701    203.6588     31.7517   2.7380074909e+01   3.1399102256e+01    0.1045874   0.08564079  54.78  0.000214071    1.569    0.362
       269  -9.3175    178.7026     30.8261   2.9636378759e+01   3.6745029093e+01    0.1980964    0.1463621 -37.21 0.0009882393    1.464    0.317
       270  -8.8538    157.7978     31.5990   3.2346980062e+01   4.1317666056e+01    0.1762862    0.1087803  83.72  0.000930522    1.580    0.367
       271 -10.4538    119.5671     30.9413   3.8319624990e+01   5.0301415251e+01    0.2449887    0.1792251  60.67 6.063633e-05    1.203    0.169
       272 -10.1416    248.8489     29.8024   2.3626775883e+01   2.3253847150e+01    0.1902084    0.1544677 -40.25 0.0007515611    1.454    0.312
       273 -10.5414     18.9354     28.2223   7.4029476068e+01   7.0384879117e+01    0.3448736    0.2234774 -49.04 0.0008205097    1.836    0.455
       274  -9.4453    190.5376     28.9942   2.8000375236e+01   3.4427800958e+01    0.1722599    0.1059024 -42.27  0.001013193    1.547    0.354
       275 -10.9085     37.8182     26.8047   6.2919375311e+01   6.7952159729e+01    0.3864864    0.2570431  46.84  0.002162256    1.689    0.408
       276 -10.2938    222.1355     26.5374   2.4828185165e+01   2.8408903283e+01    0.2102074    0.1397367 -59.41 0.0004780042    1.186    0.156
       277 -11.0118    115.9152    248.4040   8.8440677996e+01   6.3593132230e+00    0.2876221    0.2655661  62.01   0.00187944    1.314    0.239
       278  -8.9135    119.8267     25.8306   3.6649427227e+01   5.0817921067e+01    0.1734277    0.1388415 -86.06  0.000442026    1.271    0.213
       279  -8.6937    100.8840     26.3413   4.0744245855e+01   5.5178606069e+01    0.2020213   0.09818093  51.83 0.0009390304    1.766    0.434
       280  -8.6864     82.6929     26.2619   4.5406353339e+01   5.9293477029e+01    0.1224359   0.09901501  87.51 0.0002410953    1.526    0.345
       281 -10.6472      1.8911     25.0725   8.3743079079e+01   7.2607902003e+01    0.3315106    0.1913654 -39.77  0.001488738    1.523    0.344
       282  -9.5278     61.4025    132.6150   8.5612714212e+01   4.1716156290e+01    0.3407189    0.2090865 -43.05 0.0009849344    1.663    0.399
       283  -9.0897    172.3225    246.3464   7.5803031253e+01  -4.1377880370e-01    0.1336966   0.08193716  -9.50  0.000704976    1.738    0.425
       284 -10.6040     62.2061     23.2371   5.0796826781e+01   6.3970381185e+01    0.3382073    0.2389581  15.78   0.00191084    1.562    0.360
       285  -9.8738    153.9876     23.6963   3.0769270577e+01   4.3084374484e+01    0.2521653    0.1653617 -43.97 0.0008794675    1.549    0.354
       286  -8.8015    150.2087     23.0522   3.1086242993e+01   4.4021780771e+01    0.2365106   0.09690307 -37.82  0.001012084    2.429    0.588
       287 -10.5905    152.0648     18.2406   2.9565563378e+01   4.4101824509e+01    0.2617486     0.206433  78.42            0    1.095    0.087
       288  -9.0097    152.7926     13.6073   2.8256321158e+01   4.4399984444e+01    0.1733567    0.1229367 -71.04 0.0005352713    1.327    0.246
       289  -9.1721    109.4370     23.7364   3.7988241735e+01   5.3477916396e+01    0.1703789    0.1574048  52.23 0.0002926105    1.115    0.103
       290 -12.1654    105.0163     20.8548   3.7921568201e+01   5.4809273528e+01    0.2608807     0.234032  64.15 0.0003595149    1.047    0.045
       291  -8.6827     95.3670     24.2820   4.1312536169e+01   5.6671114936e+01    0.1393591   0.08629775  37.95 0.0004177984    1.689    0.408
       292 -10.3164    174.1325     21.8145   2.7984086130e+01   3.8767456164e+01     0.451566    0.1539262  62.80  0.002020284    2.596    0.615
       293 -10.3997    158.1316    244.1399   7.8463684315e+01   1.7062517491e+00    0.2013089     0.148887  -5.93 0.0005180435    1.266    0.210
       294  -8.7737    144.3534     21.2313   3.1373081852e+01   4.5568524045e+01    0.3096118    0.1698608  89.00  0.000976358    1.968    0.492
       295  -9.8807    140.0778     20.1567   3.1665398334e+01   4.6673840279e+01    0.2337122    0.1865051  43.69  0.001018199    1.448    0.309
       296 -10.2710     86.1346     22.1000   4.2842591795e+01   5.8993198449e+01    0.2214829    0.1927416  63.65 0.0004817365    1.113    0.101
       297  -9.2484     90.0475     20.7367   4.1311689321e+01   5.8257770065e+01     0.236413    0.1543707  61.76 0.0002717232    1.355    0.262
       298  -8.9600     44.3814    244.1673   1.0468800120e+02   1.5973862457e+01    0.2455786    0.0880529  24.57 0.0009925446    2.733    0.634
       299 -10.3083    221.7649     21.5261   2.3883605374e+01   2.9050125293e+01    0.2709603    0.1644148 -76.57  0.001228008    1.432    0.302
       300 -10.3107    217.3272     17.6124   2.3429341398e+01   3.0327479914e+01    0.1986688    0.1618164 -70.70 0.0003248621    1.112    0.101
       301  -9.4220    188.4873     22.0109   2.6634988659e+01   3.5654452663e+01    0.1743331     0.106374 -40.31  0.001037611    1.606    0.378
       302  -9.5636    116.9404     22.3392   3.6068532048e+01   5.1869232811e+01    0.2182173    0.1430082  53.28 0.0002822877    1.385    0.278
       303  -8.4429    118.6867     19.2803   3.4773077234e+01   5.1773258700e+01      0.12787   0.09024146 -78.06 0.0003728757    1.569    0.363
       304  -9.1854     12.2652     22.3812   7.5535681042e+01   7.2090275895e+01    0.2021917      0.11789  -7.27  0.001020662    1.834    0.455
       305  -8.8888    207.3523     21.1479   2.4864630124e+01   3.1883584582e+01    0.1695417   0.07703387 -48.60 0.0005308934    1.828    0.453
       306  -8.9872     36.4045     20.5136   6.0628703876e+01   6.9046509586e+01    0.2269502    0.1801073  19.64 0.0005923711    1.040    0.039
       307  -9.7592    244.5123     20.5531   2.2258376872e+01   2.5052995097e+01    0.1589341    0.0839739  65.84 0.0005843357    2.147    0.534
       308  -9.8131    193.3378     20.0992   2.5784416601e+01   3.4848760995e+01    0.1716857    0.1383663  85.34 0.0002799197    1.166    0.142
       309 -10.5382    166.1045     18.3227   2.7980611081e+01   4.0917567048e+01    0.2794269    0.1991871  53.33  0.000739728    1.581    0.367
       310  -9.4143    110.6594     19.6667   3.6381583355e+01   5.3614910400e+01    0.3280125    0.1388941  64.80  0.001460819    2.040    0.510
       311  -9.4192     79.9342     19.5893   4.3558384345e+01   6.0633353113e+01    0.2025277    0.1666958  27.12  0.001256732    1.236    0.191
       312  -9.4171      1.5130    244.0015   1.1424816268e+02   2.0223064139e+01    0.1662144    0.1043406 -89.68 0.0005304842    1.529    0.346
       313 -10.0373    145.4442    242.7433   8.1025494612e+01   3.5715368576e+00    0.1806667    0.1116822 -33.17 0.0008859301    1.707    0.414
       314 -10.5042     65.7074     15.6993   4.6275698702e+01   6.4086583021e+01    0.2779865    0.2041784  54.80 0.0006864375    1.238    0.192
       315 -10.6222     50.4052     22.1683   5.4953658480e+01   6.6384370494e+01    0.2619104    0.2062232  11.60 0.0007063446    1.231    0.188
       316  -9.4008    199.0363     18.8952   2.5051895145e+01   3.3806564826e+01    0.2248432    0.1358756  79.81 0.0009026201    1.501    0.334
       317 -10.8109    182.2394     18.4762   2.6411231336e+01   3.7368766514e+01    0.2254498    0.1849773  75.45 0.0005156696    1.229    0.186
       318  -8.8992     83.0122    244.0000   9.5607182174e+01   1.1438432111e+01    0.2244488     0.065867  28.63 0.0006752187    2.951    0.661
       319  -9.8568     15.6138     17.7005   7.1080278892e+01   7.2427618969e+01    0.2653234    0.1574746   5.09  0.001469222    1.749    0.428
       320  -8.6660    244.4923    242.4703   6.1887254002e+01  -7.5502854050e+00    0.1132976   0.07812174 -13.47 -1.259868e-06    1.047    0.045
       321  -9.4966      3.4973    131.0507   1.0606159369e+02   4.7887120045e+01    0.2093774    0.1227423 -76.12 0.0006117546    1.536    0.349
       322  -9.0518    143.5419     16.4844   3.0166870223e+01   4.6242226940e+01    0.2273985    0.1070172  83.86  0.001025945    2.274    0.560
       323  -9.5871    194.9962     15.0783   2.4562291543e+01   3.5044969100e+01     0.178413    0.1327543 -73.63  0.000393376    1.076    0.071
       324 -10.1026    248.3937    239.5197   6.0805877178e+01  -7.5090028633e+00     0.166324     0.155194  42.60  0.001195397    2.122    0.529
       325  -8.3196     84.2901     15.3553   4.0705613643e+01   6.0093120975e+01    0.1329759   0.08499485  32.58 0.0004408558    1.680    0.405
       326  -9.6651     45.8467     14.9447   5.3468322751e+01   6.8082976475e+01    0.2746303    0.1548031  47.73  0.001482096    1.596    0.373
       327  -9.4291    201.9430    240.5059   6.9050779387e+01  -2.9350720124e+00     0.178506    0.1034499  22.18   0.00103519    1.597    0.374
       328 -10.4106    189.4621    240.4639   7.1455054147e+01  -1.5000863878e+00    0.2486712    0.1067691  27.69  0.001208152    2.166    0.538
       329 -10.7355    221.8214    236.5341   6.4794707656e+01  -4.4897958895e+00    0.3140017    0.1631603 -34.46  0.001831715    1.652    0.395
       330  -9.1458    112.4687     13.7922   3.4095385740e+01   5.3760550492e+01    0.1553053    0.1203151  12.67 0.0009224373    1.687    0.407
       331  -8.8213     66.2858    234.2485   9.8621015560e+01   1.5567388382e+01    0.2238202   0.07732656  38.45 0.0007719175    2.365    0.577
       332 -10.0035    188.4986    235.5075   7.0873740436e+01  -5.8612973381e-01    0.1259601    0.1012081  -4.25 -1.708547e-05    1.014    0.014
       333  -9.0971     32.0048    232.0121   1.0669351547e+02   1.9935325916e+01    0.1526653    0.1317813  59.38 0.0003623366    1.026    0.026
       334  -9.6876    178.5268    231.4918   7.2252873082e+01   1.3087027012e+00    0.2229445    0.1096641  16.95 0.0008300705    2.217    0.549
       335  -9.9599     12.0984    231.1586   1.1128941218e+02   2.2058954085e+01    0.1861059     0.117485  52.41  0.001068896    1.347    0.257
       336  -8.5516    163.2730    226.9892   7.4754196354e+01   4.0784203636e+00    0.1568595    0.1100216 -40.11 0.0008725016    1.449    0.310
       337  -9.1017    223.9038    225.3257   6.2633776166e+01  -3.0361235246e+00    0.1955891    0.1393327 -35.83   0.00115189    1.371    0.271
       338  -9.1530    207.6874    226.5421   6.5749160510e+01  -1.4046362024e+00    0.2093649    0.1073223  21.36 0.0008851588    1.963    0.491
       339  -9.1505    235.3435    225.0825   6.0648130914e+01  -4.2111227024e+00    0.1646539    0.1156711 -23.47 0.0005259731    1.107    0.096
       340  -8.3407    132.3092    225.2681   8.1477058093e+01   8.6514943674e+00    0.1364819   0.09771553  -6.08 0.0002062972    1.540    0.351
       341  -8.6177    125.5200    225.5392   8.3120879387e+01   9.5458854906e+00    0.1377546     0.121901  15.45 0.0004939454    1.013    0.013
       342  -8.7243    109.4867    221.9606   8.6493079958e+01   1.2537985004e+01    0.1730894      0.12069  77.57 0.0004178226    2.216    0.549
       343  -9.2018     89.0698    220.9483   9.1458921177e+01   1.5573655189e+01    0.2214091    0.1620009 -17.89  0.001122318    1.691    0.409
       344  -9.1293    174.9030    217.8441   7.0790079227e+01   4.1819043902e+00    0.2043462    0.1530389 -11.98 0.0004889033    1.244    0.196
       345  -8.3104    179.6658    215.7126   6.9441970983e+01   3.9277158805e+00    0.1366331   0.08981153  -7.88 0.0007016525    1.627    0.385
       346  -8.3240    242.6411    214.6977   5.7765794656e+01  -3.4357213090e+00    0.1214068   0.07062497 -12.24 0.0007037953    1.718    0.418
       347  -8.6219    117.7121    211.7052   8.2956250996e+01   1.3570482956e+01    0.1415881    0.1048599 -13.41 0.0002613786    1.548    0.354
       348  -8.2976    123.7611    205.7655   8.0520023431e+01   1.3967893423e+01     0.131175    0.1028686 -10.19            0    1.378    0.274
       349  -9.1323     12.6809    203.3255   1.0946523468e+02   2.8492158692e+01     0.143714   0.08103622  58.53 0.0002089224    1.677    0.404
       350  -8.3773    132.9413    199.0000   7.7130179234e+01   1.4043448967e+01    0.2201691   0.07846636  32.40            0    2.692    0.629
       351  -8.6816     81.0190    198.7799   9.0629067937e+01   2.1840524852e+01     0.190111    0.1132666  29.87 0.0003914235    1.590    0.371
       352 -10.0211      5.8095    195.5097   1.1072746682e+02   3.0979040834e+01    0.3053996    0.1280831 -35.90  0.001082328    4.238    0.764
       353  -8.5871    240.7591    181.7578   5.2445859667e+01   1.8587428119e+00    0.1576302   0.09673844  48.16 0.0008898589    2.450    0.592
       354 -11.3806     39.5101    160.0011   9.7524067593e+01   3.7101238390e+01    0.5706016    0.3440338  63.32  0.002342691    1.965    0.491
       355 -12.3097     33.0569    156.7749   9.9168436855e+01   3.8639775623e+01     1.378195    0.4819977  51.98  0.004204545    4.056    0.753
       356  -9.2680     24.1276    163.2025   1.0276170327e+02   3.7769793043e+01    0.2061059    0.1822057 -45.97 0.0004770012    1.185    0.156
       357 -10.0310      9.3671    156.8055   1.0671299788e+02   4.0668671382e+01    0.2048475    0.1083105 -64.21 0.0006872414    1.674    0.403
       358  -9.9508      2.0648    156.1649   1.0892375746e+02   4.1332792787e+01    0.3675061    0.1542677 -72.12  0.001569861    2.043    0.510
       359  -9.6978     58.3241    150.9272   9.0044789864e+01   3.7277526475e+01    0.2280174    0.1968022  46.52 0.0003053213    1.186    0.157
       360 -10.3208     14.9079    150.8164   1.0434423947e+02   4.1849731906e+01    0.2361694    0.1953316  46.62 0.0004610897    1.254    0.203
       361 -10.1277     13.3673    142.0198   1.0387859226e+02   4.4318227016e+01    0.4063413    0.2278272 -42.05 0.0009899068    1.858    0.462
       362 -10.7070     10.8203    147.1499   1.0529008319e+02   4.3132239985e+01     0.331629    0.2240293 -29.16  0.001677686    1.699    0.411
       363  -8.9597     15.2857    165.3756   1.0570001837e+02   3.7948901523e+01    0.1481334   0.09149282 -45.94 0.0007016541    1.719    0.418
       364  -9.3822    236.6828    146.0003   4.6545120028e+01   8.2355554231e+00    0.1774464    0.1292736 -39.31 0.0004780671    1.099    0.090
       365  -9.8243      1.4695    144.9512   1.0813440742e+02   4.4327111614e+01    0.2159881    0.1207636 -77.66 0.0006684078    1.594    0.373
       366  -9.0951     36.4741    144.0450   9.6264807459e+01   4.1717820870e+01    0.2138108    0.1375211 -67.20 9.849858e-06    1.468    0.319
       367  -9.3951     29.4707    143.8658   9.8630976320e+01   4.2465501617e+01    0.2354978    0.1850684 -34.53 0.0005398529    1.349    0.259
       368  -9.4926    239.6313    140.2331   4.5055493851e+01   8.7648320243e+00    0.1861174    0.0938033 -34.47 0.0009561153    1.756    0.430
       369 -10.2391     35.0265    137.0030   9.5688165811e+01   4.3763231884e+01    0.2115801    0.1996432 -55.68   0.00119487    1.019    0.018
       370 -10.1596     25.5524    134.7868   9.8710775435e+01   4.5268834749e+01    0.2656615    0.2131131  55.37 5.754078e-05    1.344    0.256
       371  -9.8202     15.7082    133.8027   1.0207259905e+02   4.6342048244e+01     0.525636   0.07416639 -67.15  0.001434627    4.538    0.780
       372  -9.4705     38.6018    133.9247   9.3919897987e+01   4.4211899047e+01    0.2430134    0.2001548  -5.76 0.0006038533    1.338    0.253
       373  -9.4109      8.2254    133.1584   1.0463472018e+02   4.7037734912e+01    0.3315572    0.1892812 -30.12  0.001531059    2.003    0.501
       374  -9.8296    248.8699    132.2477   4.2364704229e+01   8.7428827063e+00    0.3170474    0.1288539 -45.24  0.001566885    1.974    0.493
       375  -8.8381    225.5112    133.5150   4.5763370807e+01   1.1995526897e+01    0.1280332    0.1049337 -45.42  0.000809364    1.072    0.067
