#   1 NUMBER                 Running object number                                     
#   2 MAG_AUTO               Kron-like elliptical aperture magnitude                    [mag]
#   3 X_IMAGE                Object position along x                                    [pixel]
#   4 Y_IMAGE                Object position along y                                    [pixel]
#   5 X_WORLD                Barycenter position along world x axis                     [deg]
#   6 Y_WORLD                Barycenter position along world y axis                     [deg]
#   7 A_WORLD                Profile RMS along major axis (world units)                 [deg]
#   8 B_WORLD                Profile RMS along minor axis (world units)                 [deg]
#   9 THETA_WORLD            Position angle (CCW/world-x)                               [deg]
#  10 FWHM_WORLD             FWHM assuming a gaussian core                              [deg]
#  11 ELONGATION             A_IMAGE/B_IMAGE                                           
#  12 ELLIPTICITY            1 - B_IMAGE/A_IMAGE                                       
         1 -15.0715    236.2375     57.6880   7.9277360746e+00   1.9778673353e+01    0.7013585    0.3303818 -35.53  0.003481022    1.810    0.447
         2 -11.8540    160.8435      9.5510   3.4738654251e+00   4.2914400595e+01    0.2183009    0.1546054 -40.70  0.001204361    1.428    0.300
         3 -12.4266    133.4076     10.2063   7.2547064131e+00   4.9895251464e+01    0.1908991    0.1181787 -41.73 0.0009469119    1.695    0.410
         4 -11.2033    167.3762      9.1377   2.6486656377e+00   4.1310718328e+01    0.1932128    0.1047413 -42.63 0.0009441056    1.769    0.435
         5 -12.5270    148.6931      8.5203   4.5871727263e+00   4.6111443314e+01    0.2856771    0.1724019 -57.73  0.001240257    1.722    0.419
         6 -12.8482    138.8507      8.1211   5.7484180797e+00   4.8683664254e+01    0.2210501    0.1700945 -71.75   0.00103414    1.298    0.229
         7 -11.8438    110.5200      7.4945   1.0145401144e+01   5.6031831070e+01    0.1374956    0.1217742  69.46 0.0008101612    1.028    0.028
         8 -12.4429    117.1827      2.4130   6.9537313620e+00   5.4767248904e+01    0.1998997    0.1179043  85.02 0.0009491582    1.736    0.424
         9 -11.9658     98.0006      2.4907   1.0579439020e+01   5.9615028595e+01    0.1926461    0.1082573 -83.34 0.0008103205    2.545    0.607
        10 -11.1069    138.3172      1.6751   3.6364119546e+00   4.9388252499e+01    0.1423635   0.08990328 -65.21 0.0007044442    1.672    0.402
        11 -11.3635    159.2353      2.4263   1.5031896969e+00   4.3982499258e+01    0.1928005     0.111042 -88.04 0.0009447425    1.660    0.398
        12 -11.7897    169.4780    241.9874   5.5935158308e+01   1.9938060296e+00    0.1602694    0.1158079 -36.03  0.001038692    1.610    0.379
        13 -11.0400    214.3109    240.3105   4.7300063779e+01  -3.5195192619e+00    0.1176338   0.06981461   1.71  0.000619055    1.625    0.385
        14 -12.1125    183.6006    238.7178   5.2729870835e+01   5.6944357429e-01    0.2661482    0.2055127 -42.12  0.001791641    1.680    0.405
        15 -11.6323    187.1726    246.5126   5.3149003112e+01  -9.4254830367e-01    0.1973921    0.1508388 -21.60  0.001153272    1.385    0.278
        16 -11.4290    232.5577    245.6225   4.4956074774e+01  -6.2470051055e+00    0.1899473   0.08780436 -27.43  0.001130425    2.066    0.516
        17 -10.9141    248.4721    238.5176   4.1300974038e+01  -7.1738246909e+00     0.108071   0.07662943   0.02 0.0001041885    1.024    0.024
        18 -11.6119    229.7034    235.3392   4.3889884291e+01  -4.7326492334e+00    0.1845096    0.1220861 -34.26   0.00124998    1.725    0.420
        19 -12.1228    206.4177    234.6936   4.7872725539e+01  -1.8396820031e+00    0.2706829    0.1760144  -7.58  0.001722072    1.458    0.314
        20 -13.0216    190.6691    233.7306   5.0653659661e+01   3.2216404417e-01    0.3570995    0.2289864 -38.03  0.002214294    1.775    0.436
        21 -11.9434    177.3587    232.7471   5.3082244446e+01   2.2528076368e+00    0.2073249    0.1445994 -21.49   0.00129015    1.510    0.338
        22 -12.0258    215.9758    231.5148   4.5675235035e+01  -2.6226003340e+00    0.2300075     0.136523 -14.57  0.001400173    1.645    0.392
        23 -11.3025    201.9990    231.2639   4.8161767401e+01  -8.2471321283e-01     0.169919    0.1285453  11.79 0.0009591309    1.034    0.033
        24 -11.8378    235.3006    227.8629   4.1790877923e+01  -4.4842955309e+00    0.2577339    0.1082524 -28.72  0.001393795    2.247    0.555
        25 -11.2498    212.0000    225.9900   4.5524338057e+01  -1.4084178795e+00    0.1747812   0.06115215 -37.94  0.000802587    2.943    0.660
        26 -11.6922    199.3658    225.7774   4.7806757672e+01   2.6623292520e-01    0.1649719   0.09831815 -23.98 0.0009530753    1.704    0.413
        27 -12.2546    246.8024    224.5310   3.9390089954e+01  -5.3982060285e+00    0.2279857    0.1336918  -5.33  0.001466922    1.530    0.347
        28 -11.0540    223.4597    225.5009   4.3425898498e+01  -2.7788938180e+00    0.1179415   0.08701631   1.98 9.216952e-05    1.041    0.039
        29 -10.4813    240.2907    230.3592   4.1360570753e+01  -5.3519756102e+00    0.1168234   0.06597086  -3.63 0.0006516856    1.691    0.409
        30 -11.2248    216.6169    221.8101   4.4036942293e+01  -1.4452105262e+00    0.1523014    0.1032458 -38.03 0.0009596474    1.721    0.419
        31 -11.7517    239.8404    219.4944   3.9705022694e+01  -3.9951225109e+00    0.2347088    0.1173133 -18.48  0.001317369    1.972    0.493
        32 -12.8004    247.5459    215.4460   3.7803988841e+01  -4.3964862305e+00    0.4138127    0.1743664 -29.84  0.002280081    2.103    0.524
        33 -11.4539    206.3704    223.8115   4.6202638435e+01  -3.8877854176e-01    0.1677572   0.09566677 -23.21 0.0009520623    1.767    0.434
        34 -11.5577    232.8839    211.4728   3.9537508645e+01  -2.1412995885e+00    0.2435404    0.1252016 -18.80  0.001327031    1.967    0.492
        35 -11.5618    240.1539    207.2193   3.7623361539e+01  -2.4899999383e+00     0.280822    0.1420234 -44.07  0.001479566    2.635    0.620
        36 -11.8714    250.1970    199.9586   3.4790197798e+01  -2.7824876705e+00    0.2725795    0.1306019 -31.32  0.001556721    1.800    0.445
        37 -11.9186    243.0445    200.0688   3.5937419104e+01  -1.9214057809e+00    0.2916128    0.1311041 -25.32  0.001516869    2.100    0.524
        38 -11.6911    237.0000    197.4767   3.6467372749e+01  -8.1326572009e-01    0.2421982   0.05810621 -36.73 0.0009192849    3.811    0.738
        39 -12.3539    246.2347    192.6549   3.4141582506e+01  -1.3481381787e+00    0.2567448    0.1675477 -38.90  0.001613979    1.684    0.406
        40 -12.0490    241.3535    180.5423   3.2741170578e+01   9.2961379234e-01    0.2266122   0.09012412 -45.27 0.0009531046    3.340    0.701
        41 -10.9152    235.3147    180.6673   3.3733199037e+01   1.7365594656e+00    0.1074934   0.09542293 -52.08 0.0006805683    1.684    0.406
        42 -11.8994    247.5061    177.4825   3.1223864368e+01   5.2972552530e-01    0.2484334   0.09828202 -35.25  0.001212387    2.177    0.541
        43 -11.8036    245.5959    168.2858   2.9811838932e+01   2.0673929914e+00    0.2346753   0.09747626 -38.24  0.001137137    2.149    0.535
        44 -11.4053    240.4589    163.9486   2.9779395106e+01   3.4125115788e+00    0.1640581   0.09548171 -51.12 0.0008085527    2.494    0.599
        45 -12.5578    245.9249    157.2779   2.7669458082e+01   3.5893617610e+00    0.3913857    0.1456243 -40.56  0.001759133    2.477    0.596
        46 -11.8468    237.8764    158.5698   2.9143046227e+01   4.5774971763e+00      0.24748    0.1439397 -45.11   0.00131834    1.882    0.469
        47 -11.9960    241.9519    153.4880   2.7528500570e+01   4.7207518889e+00    0.2373749    0.1518272 -43.90  0.001149235    1.636    0.389
        48 -12.5428    250.1964    151.1561   2.5863751579e+01   3.8524799137e+00    0.5096155    0.1418651 -39.41  0.002022606    3.109    0.678
        49 -12.2265    247.5014    144.0134   2.4852789266e+01   5.2790421122e+00     0.262084     0.164037 -48.40   0.00146253    1.831    0.454
        50 -12.8518    244.2178    149.0235   2.6315764406e+01   5.0380462530e+00    0.3483902    0.1786169 -43.44  0.001786165    1.944    0.486
        51 -12.8226    235.1068    147.1082   2.7305745064e+01   6.7177400871e+00    0.3230329    0.2166239 -50.40   0.00179299    1.796    0.443
        52 -12.1822    248.9638    135.7706   2.3010360790e+01   6.2596483718e+00    0.3843958    0.1586436 -46.50  0.001679788    2.720    0.632
        53 -13.1999    248.2138    130.0014   2.1953868640e+01   7.2197148503e+00    0.3809386    0.2015865 -44.68  0.001470027    1.823    0.451
        54 -11.6469    238.5246    140.0837   2.5372138853e+01   7.2429678688e+00     0.198459    0.1066366 -35.05  0.001028029    1.581    0.367
        55 -12.5177    234.4777    135.1721   2.4970298222e+01   8.6424738856e+00    0.3014472    0.1834473 -51.50  0.001548182    1.972    0.493
        56 -12.1458    242.3811    133.8307   2.3541973619e+01   7.5713046889e+00    0.2868103    0.1634773 -41.75   0.00115674    1.597    0.374
        57 -12.6780    240.8063    126.1785   2.2194234159e+01   8.9739482396e+00    0.3362697    0.1508739 -40.09  0.001601474    1.913    0.477
        58 -13.3760    248.0020    118.8188   1.9702480132e+01   8.8960687266e+00    0.3761587    0.1833213 -48.13  0.001668789    2.164    0.538
        59 -12.5704    243.0045    119.0323   2.0409003218e+01   9.6838463314e+00    0.2005743    0.1385761 -56.32  0.001131008    1.727    0.421
        60 -11.5432    231.3163    116.6620   2.1530264797e+01   1.2044588794e+01    0.1309619   0.09399991 -59.54  0.000704822    1.701    0.412
        61 -12.2913    247.9538    112.9315   1.8493866080e+01   9.7681434103e+00    0.1953126    0.1348978 -56.76 0.0008587692    1.688    0.408
        62 -11.3783    228.3173    125.6641   2.3900020266e+01   1.1161352404e+01    0.1294927   0.09662247 -60.27 0.0004689251    1.698    0.411
        63 -12.1232    248.2377    107.0311   1.7232462817e+01   1.0584014570e+01    0.2070107    0.1155663 -52.08   0.00105877    1.957    0.489
        64 -10.8949    222.6841    105.3566   2.0289186406e+01   1.5395116057e+01    0.1385461   0.09539687 -60.86 0.0007044865    1.747    0.428
        65 -13.1565    241.7359     98.3309   1.6198946279e+01   1.2980017776e+01    0.2552673     0.163945 -66.09  0.001328096    2.119    0.528
        66 -11.6258    230.4950    103.5227   1.8785450386e+01   1.4225181389e+01    0.1318164    0.1122202 -40.80 0.0002023574    1.047    0.045
        67 -12.4388    235.8658     96.1057   1.6452796997e+01   1.4365962662e+01    0.2054869    0.1532995 -54.31   0.00105525    1.339    0.253
        68 -12.4876    242.1489     93.4535   1.5102718252e+01   1.3622431503e+01    0.2451525    0.1693582 -54.51 0.0008815479    1.458    0.314
        69 -12.5822    248.1600     92.5960   1.4214136769e+01   1.2686700930e+01     0.268573    0.1552714 -52.99 0.0009768227    1.773    0.436
        70 -11.2437    225.6409     93.3305   1.7169470387e+01   1.6705470545e+01    0.1392125   0.09311025 -63.33 0.0007042094    1.795    0.443
        71 -12.1044    237.0316     90.4846   1.5079136543e+01   1.4986947866e+01    0.2496429    0.1496636 -48.15 0.0008057841    1.527    0.345
        72 -11.5309    231.4258     91.2184   1.5940346988e+01   1.5923184357e+01    0.1921174    0.1018938 -44.56 0.0009339271    1.659    0.397
        73 -12.0635    249.3866     88.1375   1.3135453871e+01   1.3108383084e+01    0.3011543    0.1413157 -48.01  0.001031112    1.970    0.492
        74 -12.6413    246.5932     84.8115   1.2740941234e+01   1.4073431805e+01    0.3063545    0.1800929  75.30  0.001609725    2.385    0.581
        75 -12.5972    240.1219     86.3464   1.3807824733e+01   1.5023971153e+01    0.4077402    0.2123526 -80.06  0.001325573    5.962    0.832
        76 -10.9185    226.3463     88.6671   1.6021456143e+01   1.7280324027e+01    0.1391656   0.09156881 -62.29 0.0007049471    1.766    0.434
        77 -11.0379    206.3578     85.2001   1.7971557187e+01   2.1877795902e+01    0.2067598    0.1112663 -44.60  0.000837061    1.701    0.412
        78 -12.6157    231.1509     83.2171   1.4188343964e+01   1.7166844729e+01    0.2606535    0.1324812 -52.49   0.00106001    2.044    0.511
        79 -12.9474    193.5855    246.6905   5.1976202177e+01  -1.7755429170e+00    0.3901895     0.215354 -37.36  0.002370725    2.051    0.512
        80 -13.3360    249.7020     53.8192   5.8505607006e+00   1.7716322887e+01    0.6691166    0.1061255 -40.62  0.002357969    3.758    0.734
        81 -14.2502    246.2076     46.1438   4.5198545903e+00   1.9351599933e+01    0.5248981    0.2376806 -38.93  0.002726495    1.751    0.429
        82 -12.6649    248.1300     73.8975   1.0254307967e+01   1.5323885667e+01    0.4068565    0.1719691 -45.31  0.001685876    1.980    0.495
        83 -14.6774    248.4125     65.5619   8.4544779973e+00   1.6407189822e+01    0.8604047    0.3752709 -40.36  0.004315253    1.802    0.445
        84 -12.5650    239.3856     81.2173   1.2775683554e+01   1.5899941699e+01    0.2201064    0.1152032 -53.01 0.0007747899    1.947    0.487
        85 -12.3420    234.3451     75.6941   1.2131534409e+01   1.7646172825e+01    0.1924747    0.1054002 -47.35 0.0006122739    1.609    0.378
        86 -11.1169    201.3676     78.2294   1.6993420604e+01   2.4055324087e+01    0.2106681    0.1123285 -45.03 0.0008701672    1.729    0.422
        87 -13.3242    239.2340     72.2414   1.0828502106e+01   1.7201943084e+01    0.2598874    0.1641236 -52.19 0.0008738807    1.442    0.307
        88 -10.7554    206.6424     74.3295   1.5281074316e+01   2.3513484697e+01    0.1482402   0.09621544 -65.45   0.00070436    1.788    0.441
        89 -10.6594    218.6353     68.3305   1.2287772447e+01   2.1859547073e+01    0.1446874   0.08931068 -63.53 0.0007036984    1.811    0.448
        90 -14.3477    241.5646     55.4841   6.9354969409e+00   1.9036423616e+01    0.5121533    0.2411523 -54.56  0.002505772    2.067    0.516
        91 -11.3536    203.7715     67.0014   1.3860837361e+01   2.5249124633e+01    0.2385566    0.1304694 -56.60   0.00106265    1.989    0.497
        92 -10.9443    212.4961     66.4725   1.2600210310e+01   2.3427963418e+01    0.1364455    0.1170759 -56.10 0.0001958194    1.041    0.040
        93 -13.6734    243.8226     70.7962   1.0031755389e+01   1.6541907522e+01    0.6237126    0.1376731 -42.64  0.002238049    3.432    0.709
        94 -10.9182    221.3378     59.6780   9.9397008266e+00   2.2526180127e+01    0.1409736   0.08608393 -62.04 0.0007050553    1.714    0.417
        95 -11.1842    206.6277     59.2196   1.1559047718e+01   2.5754985767e+01     0.187777    0.1238079 -25.85 0.0009478685    1.651    0.394
        96 -14.1195    245.1944     53.3752   6.1508878192e+00   1.8619174946e+01    0.9650258   0.03316113 -41.53  0.002761483    5.612    0.822
        97 -14.2267    246.1717     78.5872   1.1458797985e+01   1.5027013020e+01    0.7572709    0.3969219 -70.09  0.003273744    3.298    0.697
        98 -13.3680    242.0482     61.2782   8.1483026011e+00   1.8172778906e+01    0.2844168    0.1912712 -50.72  0.001268808    1.263    0.208
        99 -10.8967    228.6462     37.3296   4.0670340825e+00   2.3942921790e+01    0.1392211   0.07564063 -60.85 0.0007046242    1.777    0.437
       100 -11.3482    134.3131     36.6449   1.6301095229e+01   4.6629376866e+01    0.1551406    0.1062075 -67.75 0.0007044719    1.736    0.424
       101 -11.9561    130.9912     27.4942   1.3759815609e+01   4.8654579563e+01    0.2086413    0.1177555 -85.26 0.0008103664    2.533    0.605
       102 -11.2310    145.6569     25.3239   1.0474817873e+01   4.5123695317e+01    0.1524601   0.09888741 -68.19 0.0007050672    1.733    0.423
       103 -11.4999    127.3412     19.6698   1.1639906202e+01   5.0498705986e+01    0.1500363    0.1005089 -68.73 0.0007051449    1.744    0.427
       104 -11.6010    156.0013     16.7889   6.2668834037e+00   4.3412444917e+01    0.2586128    0.1562593 -48.08  0.001277233    1.651    0.394
       105 -11.7297    141.0094     17.4966   8.6002772883e+00   4.7196030125e+01     0.204316    0.1081487 -80.59 0.0008099048    2.494    0.599
       106 -11.6820    114.3235     16.6543   1.3023206719e+01   5.4165562164e+01    0.1465465    0.1014332 -67.58 0.0007050062    1.739    0.425
       107 -12.3059    148.2577     15.1286   6.7714313678e+00   4.5572120121e+01    0.2763967    0.1579753 -74.34   0.00123695    2.030    0.507
       108 -12.2887    126.2061     12.4304   9.2044553631e+00   5.1542560324e+01    0.2010211    0.1231588  84.05 0.0009164787    1.689    0.408
       109 -12.7203    176.3329    245.9171   5.5133061183e+01   5.3681875777e-01    0.3105383    0.2191327 -34.96  0.001942191    1.641    0.391
       110 -11.8794    156.5620    247.2850   5.9197818596e+01   2.9684488757e+00    0.1888259    0.1207811 -50.84  0.001140866    2.090    0.522
       111 -11.6722    118.3303     10.6693   9.9289508482e+00   5.3741175909e+01    0.1447708   0.09810533 -67.75 0.0005998389    1.718    0.418
       112 -11.3163    242.3748    246.8166   4.3521153970e+01  -7.4381901298e+00    0.1462979   0.07732237 -18.40 0.0009429431    1.696    0.410
       113 -11.7960    218.3933    245.8001   4.7392824285e+01  -4.6635978624e+00    0.2404183   0.09387191 -33.52  0.001282305    2.620    0.618
       114 -12.1154    163.4964    246.5004   5.7718500063e+01   2.1524709143e+00    0.1745095    0.1198291 -60.02  0.001037124    2.372    0.578
       115 -12.3429    209.3832    245.1430   4.8882959739e+01  -3.5201892075e+00    0.2613696    0.1816042 -11.37  0.001824651    1.302    0.232
       116 -10.7828    250.5300    244.4812   4.1873384352e+01  -8.0358524084e+00    0.1081138   0.07310738   0.36 0.0005108499    1.041    0.039
       117 -11.8641    224.7769    241.8961   4.5717236250e+01  -4.9412065930e+00    0.2286001    0.1127425 -28.48  0.001373072    1.967    0.492
       118 -11.7384    202.0158    241.2052   4.9639911900e+01  -2.1265124378e+00     0.197543    0.1494149 -13.31  0.001395799    1.254    0.203
