#   1 NUMBER                 Running object number                                     
#   2 MAG_AUTO               Kron-like elliptical aperture magnitude                    [mag]
#   3 X_IMAGE                Object position along x                                    [pixel]
#   4 Y_IMAGE                Object position along y                                    [pixel]
#   5 X_WORLD                Barycenter position along world x axis                     [deg]
#   6 Y_WORLD                Barycenter position along world y axis                     [deg]
#   7 A_WORLD                Profile RMS along major axis (world units)                 [deg]
#   8 B_WORLD                Profile RMS along minor axis (world units)                 [deg]
#   9 THETA_WORLD            Position angle (CCW/world-x)                               [deg]
#  10 FWHM_WORLD             FWHM assuming a gaussian core                              [deg]
#  11 ELONGATION             A_IMAGE/B_IMAGE                                           
#  12 ELLIPTICITY            1 - B_IMAGE/A_IMAGE                                       
         1 -18.4251     93.6531    139.3557   9.9782970840e+01   3.4732650607e+01     7.158333       6.1045  38.62   0.03886686    1.255    0.203
         2 -14.6474    239.5688     24.9555   4.0278698218e+01   2.2642904466e+01    0.8413182    0.5887586 -89.12  0.001979869    1.389    0.280
         3 -13.4753    230.1945      1.9787   3.5775743905e+01   2.7350765313e+01     0.546518    0.2931913  73.80  0.002447348    1.737    0.424
         4 -13.7474    249.7419     10.9752   3.6339505115e+01   2.2043771753e+01     1.914986    0.2039281 -29.86  0.004838908    8.189    0.878
         5 -15.1713    241.4354      9.6201   3.6654457949e+01   2.4009020262e+01     1.441152    0.8693054 -59.14   0.00814535    1.454    0.312
         6 -13.5118    146.5239     12.1841   4.7985970968e+01   4.6942034593e+01    0.3548879    0.2152931  65.27 0.0006029442    1.492    0.330
         7 -15.6038    174.9674      6.7352   4.2259953684e+01   4.0272893695e+01     1.848654     1.136985  87.93  0.009218878    1.654    0.395
         8 -14.2144    161.6439     10.0470   4.4996125259e+01   4.3330080786e+01    0.8065479    0.4505819 -53.26  0.003264948    2.050    0.512
         9 -14.4541    155.8296      2.5453   4.3441531747e+01   4.5477760637e+01     1.193468    0.3049445  68.08  0.004050473    3.313    0.698
        10 -12.4173     33.9494     14.0125   8.2368860460e+01   6.9420732140e+01    0.2655278    0.1911299 -44.36 0.0004840374    1.728    0.421
        11 -13.4043     64.8704     10.6557   6.7668890243e+01   6.5195941019e+01    0.3360019    0.2452081  -9.82  0.001074195    1.260    0.206
        12 -12.0579     45.1396     11.8974   7.6178923714e+01   6.8217281779e+01    0.1767409    0.1551643 -10.18  0.001119146    1.252    0.201
        13 -14.5713     86.2104      5.9994   5.8612318181e+01   6.1565477249e+01    0.7894681    0.5269815  27.65  0.003678763    1.387    0.279
        14 -14.5395    101.0089      6.4303   5.4920945641e+01   5.8346218834e+01     0.841823    0.4576064  36.82  0.004159407    1.737    0.424
        15 -14.3812    124.5160      5.8210   4.9622926443e+01   5.2942795661e+01    0.6256885    0.4629631 -83.91  0.002863007    1.665    0.399
        16 -13.4199    113.7251      2.1282   5.0335526101e+01   5.5809188159e+01    0.5977679    0.2341772  62.57  0.001704423    2.276    0.561
        17 -13.0933    115.2609      8.4711   5.2500692089e+01   5.4906752847e+01     0.247609    0.2188197 -43.96 0.0007508173    1.313    0.238
        18 -11.1750      3.0565      8.5049   9.6131680865e+01   7.3217804861e+01    0.1494167   0.09661335  10.19  0.001034472    1.597    0.374
        19 -12.7372     60.0068      6.0583   6.7185018028e+01   6.6550030708e+01    0.1953483    0.1626878   9.56 0.0008625082    1.055    0.053
        20 -13.6857    213.2821      3.6863   3.7532379698e+01   3.1121039644e+01    0.4199644    0.2738529  73.68  0.002357408    1.411    0.291
        21 -14.1275    139.7735      3.5335   4.6140423014e+01   4.9406785753e+01    0.5828739    0.4300418 -73.59  0.003185772    1.580    0.367
        22 -12.8925     51.2417      4.8747   6.9994455213e+01   6.8135345526e+01    0.2883851    0.1292028  34.22  0.001436269    2.124    0.529
        23 -13.7916    170.4608    204.4153   9.3819206346e+01   6.8922927859e+00    0.9756113    0.5511016  33.20 0.0004964488    1.701    0.412
        24 -12.9455    160.2956    230.2921   9.9909456074e+01   4.3190467372e+00    0.7156971    0.4137477  25.42  0.002114139    1.957    0.489
        25 -13.9385    167.2636    214.5668   9.6143822988e+01   5.7165248317e+00     2.165664     1.736577 -21.35  0.006639824    1.450    0.310
        26 -14.2460    168.5982    243.4241   1.0016971046e+02   9.7164683965e-01    0.7607453    0.5687413  82.99  0.003468953    2.249    0.555
        27 -14.3191    200.0728    247.1396   9.4902161310e+01  -4.4349369996e+00     0.601614    0.4810252   3.81  0.001379376    1.224    0.183
        28 -17.0418    185.2432    245.7021   9.7397174912e+01  -1.9685286615e+00     4.305474      2.90404 -20.17   0.02631413    1.844    0.458
        29 -10.1241    141.2708    251.0000   1.0624101581e+02   4.1465573600e+00    0.1941153   0.05528294  40.21 0.0005074849    2.788    0.641
        30 -10.2062    136.8475    249.3538   1.0686760317e+02   5.0844649785e+00    0.2394016    0.1317625 -36.39 0.0006917752    2.836    0.647
        31 -11.9987    148.1552    198.9699   9.7560170801e+01   1.1889902851e+01    0.3089309    0.1983495  45.13  0.000542095    1.418    0.295
        32 -11.3541    149.6307    195.1637   9.6608540354e+01   1.2350077831e+01    0.2272265    0.1913733  47.65 0.0003557158    1.104    0.094
        33 -13.7774    147.2468    188.2298   9.5930677794e+01   1.4140192261e+01    0.5503526    0.3556543 -37.46  0.002296427    1.808    0.447
        34 -12.2493      2.8482    193.2616   1.2759354109e+02   3.3272000704e+01    0.3201613    0.1856479 -55.97  0.001989365    2.124    0.529
        35 -14.7796    105.4086    178.6385   1.0379855558e+02   2.3615667163e+01      1.05288    0.7400903  25.66  0.005270818    1.753    0.430
        36 -12.3535    165.7030    190.8893   9.2432118081e+01   1.0198656830e+01    0.2649512    0.1803413  30.61  0.001327281    1.465    0.317
        37 -12.7721    183.1662    189.6922   8.8574739181e+01   7.1669440481e+00    0.2317719    0.1958565 -51.14 0.0008450436    1.373    0.272
        38 -12.1487    129.6379    184.9910   9.9283999851e+01   1.8018685290e+01    0.5619546    0.2502352  47.58  0.002274686    2.168    0.539
        39 -10.8732    124.3402    187.0693   1.0081917904e+02   1.8528883914e+01    0.1760498    0.1626889 -84.00 0.0001602999    1.109    0.099
        40 -11.9073    136.9125    184.4512   9.7559098691e+01   1.6808114666e+01    0.2649925    0.2187553 -55.36 0.0007507231    1.292    0.226
        41 -12.7570    175.9526    183.9205   8.8973020036e+01   9.5662719940e+00    0.2173639    0.2020921  27.60 0.0005090707    1.026    0.025
        42 -11.7896    164.3197    182.9732   9.1264975412e+01   1.1958625821e+01    0.1919644    0.1811447 -28.80 0.0002109636    1.119    0.106
        43  -8.5291      2.0764    183.4222   1.2717131950e+02   3.5417097390e+01    0.1472144   0.09948982  43.48  0.001010032    1.564    0.360
        44 -10.9978    154.9608    181.4979   9.3023448494e+01   1.4029063214e+01    0.1997317    0.1918421 -41.68 -2.523788e-05    1.109    0.098
        45 -11.8594     29.2318    182.1756   1.2148132807e+02   3.3171503484e+01    0.2275111    0.1492894  45.84 0.0007952734    1.508    0.337
        46 -11.8695    201.0701    181.4704   8.3374944672e+01   5.2730412423e+00    0.2129679     0.129105  38.49  0.001023791    1.576    0.365
        47 -11.5283     13.4508    181.4257   1.2473616928e+02   3.4864692971e+01    0.1622813    0.1217864  38.91 0.0005769868    1.544    0.352
        48  -6.9019      4.9411    177.9113   1.2624734981e+02   3.6368890145e+01    0.2839779     0.232386   4.41  0.002022071    1.943    0.485
        49 -12.5342      2.9483    174.1517   1.2641229072e+02   3.7351904450e+01    0.2375773    0.2203238  55.95  0.001870574    1.393    0.282
        50 -12.4717    155.8310    176.0733   9.1806307884e+01   1.4947010482e+01    0.3046364    0.2366035  55.25 0.0005417958    1.337    0.252
        51 -11.3663    140.0202    173.9696   9.4969786594e+01   1.8413150617e+01    0.2104082    0.2003148  57.23  0.001200669    1.013    0.013
        52  99.0000     96.0888    217.4151   1.1107194770e+02   1.7003662152e+01     2.113173     1.396179  15.89   0.01044357    2.627    0.619
        53 -13.2240    139.1030    166.9829   9.3851590386e+01   2.0076952760e+01    0.5363678    0.3728503  -7.62  0.001586807    2.447    0.591
        54 -10.2650      4.9774    169.7888   1.2569049115e+02   3.8149130063e+01    0.1130831   0.08819034  45.46   0.00029037    1.441    0.306
        55 -15.0725     26.0102    176.8459   1.2171801654e+02   3.4685219246e+01     1.162656    0.9430465 -15.71  0.007527323    2.008    0.502
        56  -9.6789     20.0607    167.3837   1.2221134102e+02   3.7389328550e+01    0.2768712    0.1259936  64.20 0.0009344281    2.284    0.562
        57 -15.8614     77.9401    170.8765   1.0911933469e+02   2.9704154277e+01     1.491784    0.7321937  38.24  0.006795148    2.050    0.512
        58 -11.1139     18.8004    162.5270   1.2206940311e+02   3.8611016928e+01    0.1324148    0.1165261  50.21 0.0002962103    1.331    0.249
        59 -10.5380     11.3664    161.4973   1.2366493917e+02   3.9487040896e+01    0.1201017   0.08957008 -87.13  0.000140745    1.041    0.039
        60 -10.5532     15.6470    159.1368   1.2249115560e+02   3.9664404564e+01    0.1842021   0.08088683 -64.59 0.0009373363    1.913    0.477
        61 -10.5696      1.5104    158.1193   1.2560879971e+02   4.1022332002e+01    0.1527274   0.08957983 -79.86 -4.564195e-05    1.315    0.239
        62 -15.9878     62.3548    203.8154   1.1652695456e+02   2.4570112793e+01     4.902517     1.866636  46.31   0.02278539    2.263    0.558
        63 -11.6732      7.5792    155.5353   1.2403723726e+02   4.1148198539e+01    0.1763248    0.1418674 -86.78 0.0004513055    1.079    0.073
        64 -16.4378     38.7362    187.9014   1.1996196752e+02   3.0883852726e+01     3.507706     1.715207 -47.59   0.01546189    3.011    0.668
        65 -11.3238     22.9415    151.3846   1.2002885626e+02   4.0819439856e+01    0.1539868    0.1353857  69.49 0.0002050233    1.196    0.164
        66 -15.6192     94.5863    195.9361   1.0874563157e+02   2.1607742939e+01     1.679448     1.137078 -36.35  0.008512173    2.190    0.543
        67 -16.2949     85.8810    187.6158   1.0957784083e+02   2.4741792826e+01     1.481759     1.039034  14.18  0.007394283    2.267    0.559
        68 -16.9718     69.2833    182.5432   1.1267897659e+02   2.8268420589e+01     1.775759     1.124971  48.54  0.009684517    1.482    0.325
        69 -10.5685     25.3098    147.0898   1.1898999956e+02   4.1614468608e+01    0.2735362    0.1250104  51.54  0.001325991    2.314    0.568
        70 -10.8020    119.6829    233.5981   1.0827370459e+02   1.0358265660e+01    0.1183549   0.09544889  -2.77 0.0006988679    1.884    0.469
        71  99.0000    105.7356    232.5954   1.1086741478e+02   1.2694910123e+01    0.2886736     0.198742  19.80   0.00159176    2.122    0.529
        72  99.0000    102.3162    229.0066   1.1113711233e+02   1.3866011395e+01    0.2367584    0.1760596  83.83  0.001475671    1.419    0.295
        73 -11.8478    135.3935    230.8757   1.0486426482e+02   8.3151880050e+00    0.3076645    0.1884932  58.95  0.001645831    1.761    0.432
        74 -10.6937    140.8821    229.2139   1.0356489982e+02   7.7009806160e+00    0.1407135    0.1315545   3.93 0.0004065539    1.257    0.205
        75 -10.8656    146.5470    228.2526   1.0231686652e+02   6.9291124143e+00    0.1393239    0.1180364  83.93 0.0004671321    1.426    0.299
        76 -10.4909    118.2339    226.5946   1.0771404922e+02   1.1828546053e+01     0.264542    0.2327577   5.87   0.00171123    1.505    0.336
        77 -10.4978    149.7110    225.7390   1.0133896060e+02   6.8249677199e+00    0.1297986    0.1080001  46.10 0.0002320072    1.065    0.061
        78  -9.7588    147.1950    224.2903   1.0163366035e+02   7.4908017932e+00    0.1513998    0.1281213  65.45            0    1.273    0.214
        79 -11.2689    138.9500    222.8705   1.0308452899e+02   9.1132980768e+00    0.1938846    0.1543769 -27.17  0.001154835    1.638    0.390
        80 -11.5039    134.7101    221.6118   1.0376480805e+02   1.0041109611e+01    0.1511522    0.1273299  69.21 0.0005300416    1.239    0.193
        81 -11.3892      1.7093    104.9891   1.2049356110e+02   5.3272591153e+01    0.1949288    0.1197829 -57.90  0.001190722    1.342    0.255
        82  99.0000    126.0055    217.9001   1.0502850444e+02   1.2156843774e+01     0.372461    0.2787162  33.59  0.002183258    1.330    0.248
        83 -10.7559     19.2694     95.2188   1.1358632491e+02   5.4443068230e+01    0.1663612    0.1310006  86.00 0.0009272835    1.353    0.261
        84 -11.6948    156.9122    212.4590   9.7905300268e+01   7.8770119470e+00    0.2427852    0.1864363 -44.15 0.0009358056    1.482    0.325
        85 -11.9297    131.4451    211.5354   1.0302118265e+02   1.2432842979e+01    0.1914159     0.155349 -64.52 0.0007188996    1.387    0.279
        86 -13.3284    132.6041     91.9951   7.7331028508e+01   3.7950872921e+01    0.3656938    0.3003826 -27.15  0.001468562    1.272    0.214
        87 -12.7065    123.3548    210.0806   1.0450422446e+02   1.4071260059e+01    0.3939195    0.2335515 -50.19  0.001830322    1.919    0.479
        88 -10.3988    153.0007    211.3117   9.8526571450e+01   8.7610200977e+00    0.1725592    0.1429218  40.11 0.0002752994    1.060    0.057
        89 -13.5033     89.4828     86.2309   8.8094907673e+01   4.7907282441e+01    0.5406709    0.2903958 -47.53  0.001316111    1.741    0.426
        90 -11.5214     15.1956     88.4853   1.1376423550e+02   5.6293075251e+01    0.2497528    0.1440689 -63.86    0.0014065    1.353    0.261
        91 -10.4552      3.1053    208.7361   1.2837062465e+02   3.0087086462e+01    0.1713948    0.1058068 -74.42  0.001176815    1.513    0.339
        92 -11.0745    141.0314    205.0345   1.0004090186e+02   1.2005275239e+01     0.159957    0.1460244  26.33 0.0003472588    1.143    0.125
        93 -13.2367     30.3019     84.9846   1.0787156534e+02   5.5948354128e+01    0.3173515    0.1809491 -60.93  0.001418931    1.445    0.308
        94 -11.3713    243.5325     84.9819   5.3999687919e+01   1.3258845381e+01    0.2172055    0.1239331 -35.21 0.0005338826    1.558    0.358
        95 -14.7133     44.6515     82.5226   1.0223549630e+02   5.5118459313e+01    0.6895567    0.3569094  36.16  0.002963705    2.216    0.549
        96 -12.9920     35.5158     82.7665   1.0553622197e+02   5.5986353701e+01    0.2818434    0.2201033 -41.08  0.001367838    1.170    0.145
        97 -14.3634     34.4694     78.3779   1.0487714141e+02   5.7082218625e+01    0.6636274    0.2557352  28.27  0.002925265    2.949    0.661
        98 -11.1654    148.3906    207.7633   9.8924778266e+01   1.0207841820e+01    0.1845355    0.1585466  42.51 0.0002458517    1.031    0.030
        99 -10.9504    144.8748    205.6833   9.9333491569e+01   1.1209363334e+01    0.3618371    0.1742175  48.22 0.0006133332    1.971    0.493
       100 -12.1658     56.2214     74.1178   9.5820424963e+01   5.5630310347e+01    0.2156624    0.1642915 -33.19 0.0006796352    1.228    0.185
       101 -13.9225     37.1426     72.1693   1.0232580575e+02   5.8213786912e+01    0.3731107    0.2945977 -37.65  0.001084126    1.129    0.115
       102 -10.6180    128.4862    207.0373   1.0299066335e+02   1.3791183730e+01    0.1634254    0.1321465 -53.72 0.0003926182    1.386    0.278
       103 -15.0862     23.4589     65.8835   1.0595158688e+02   6.0794845765e+01    0.8878398    0.6157687  -5.00  0.005359645    1.702    0.412
       104 -13.6878    249.4644     56.3776   4.6560446915e+01   1.6296918937e+01    0.8122547    0.2816763 -36.44  0.003262102    2.414    0.586
       105 -13.7287    249.3838     46.3204   4.4254542391e+01   1.7716026088e+01    0.7103422     0.247027 -38.11  0.002937333    2.351    0.575
       106 -10.0225    204.6857     65.7000   5.4733318758e+01   2.5207970669e+01    0.1448681    0.1150404  22.65 0.0005340808    1.610    0.379
       107 -11.6888     98.9194     61.3844   7.7102857543e+01   5.1183390903e+01    0.3057897    0.2276263 -64.67  0.001453153    1.844    0.458
       108 -11.4621     80.2923     61.4665   8.3210546909e+01   5.4632013971e+01    0.3217172    0.1986258  49.31  0.001275271    1.938    0.484
       109 -12.6446      3.5808     58.7212   1.1216233443e+02   6.3605450179e+01    0.3563507    0.1736448 -80.72  0.001697468    2.695    0.629
       110 -12.4079     55.8579     45.7709   8.6521372164e+01   6.1384918450e+01     0.352492    0.2119597  21.81   0.00091919    1.864    0.464
       111 -10.3129    105.3261     42.6496   6.8336982939e+01   5.3013983725e+01     0.142291    0.1137155 -69.75 0.0007048527    1.758    0.431
       112 -11.5008     64.5052     41.9339   8.1666589205e+01   6.0784614782e+01    0.1983498    0.1197488 -37.53 0.0006271593    1.529    0.346
       113 -12.7411    125.8113     40.1253   6.2000369213e+01   4.8734038987e+01    0.5536391    0.2887236  45.68  0.002029923    1.841    0.457
       114 -13.0418    243.0903     35.2082   4.2317825230e+01   2.0569386764e+01    0.3793981    0.1852918 -65.91  0.001649512    2.432    0.589
       115 -11.0559    217.8273     37.1415   4.5452706581e+01   2.6147663063e+01    0.2258594    0.1684349 -63.24  0.001224185    1.279    0.218
       116 -11.6734     40.3699     36.5659   8.9403265740e+01   6.5027537947e+01    0.2478794      0.18725 -18.68 0.0009852372    1.154    0.133
       117 -11.3135    151.2572    247.6749   1.0397696376e+02   3.0879727983e+00    0.1663496    0.1352679  63.67 0.0004857637    1.372    0.271
       118 -11.9346    147.9351    246.8923   1.0449993490e+02   3.7286561814e+00    0.2202308    0.1384888  52.75 0.0009857304    1.519    0.342
       119 -11.2075    143.6372    246.9922   1.0531715748e+02   4.3888909935e+00    0.1442996    0.1292462  46.72 0.0004029974    1.120    0.107
       120 -11.3148    132.3634    246.7147   1.0739572760e+02   6.1938041386e+00    0.1676039    0.1148493 -68.61 0.0009036753    1.885    0.470
       121 -11.3587    102.7504    205.0868   1.0818115103e+02   1.8422767563e+01    0.1935567   0.09684248 -84.70 0.0006932783    3.847    0.740
       122 -13.7625     36.6289    160.6001   1.1771669300e+02   3.7319828665e+01     1.728542    0.7169123  24.85    0.0075099    3.296    0.697
       123 -11.6530      3.2859    201.7955   1.2797840547e+02   3.1472163817e+01    0.3016354     0.289957  44.29  0.002508826    1.558    0.358
       124 -11.8621    161.8082    201.5227   9.5112197619e+01   8.9579196419e+00    0.2598421    0.2199834 -21.47  0.001084663    1.337    0.252
       125 -12.5938    144.9644     16.4673   4.9695207551e+01   4.6905842058e+01    0.2518303    0.2140061 -23.18 0.0005383469    1.280    0.219
       126 -10.4446    137.6798    243.5453   1.0601723741e+02   5.8646791945e+00    0.1363347   0.09672324  48.36 0.0001539734    1.178    0.151
       127 -11.0234    140.5139    242.3341   1.0533122311e+02   5.6090827197e+00    0.1579109    0.1426017  36.43  0.000976541    1.139    0.122
       128 -11.0395    159.9630    241.3448   1.0151308779e+02   2.6580334573e+00    0.2068727     0.127143  34.50 0.0001979914    1.390    0.280
       129 -12.0558    155.2261    240.4552   1.0229258546e+02   3.5535035456e+00    0.2358921    0.1868829  52.07 0.0007700034    1.225    0.183
       130 -11.4646     10.4870     15.0511   9.4925039540e+01   7.1609426056e+01    0.1713461   0.09067073 -44.89  0.000728515    1.578    0.366
       131 -12.1930     50.2997     13.8785   7.4951900787e+01   6.7197967020e+01    0.1983878    0.1610245  32.61 0.0007510374    1.360    0.265
       132  -9.6345    127.2774    242.7328   1.0788944135e+02   7.6268542105e+00    0.1844083    0.0830191  55.78 0.0008296948    2.503    0.600
       133 -11.1704    124.5821    242.7351   1.0839986040e+02   8.0457321956e+00      0.18124   0.08353218  39.64 0.0004351242    1.809    0.447
       134 -10.8656    144.5177    239.4076   1.0419834302e+02   5.4363325517e+00     0.226035    0.1598983  56.13  0.001371894    1.399    0.285
       135  99.0000    129.8844    234.4322   1.0639180340e+02   8.5982585352e+00    0.6086618    0.3416111 -88.22   0.00247393    4.126    0.758
       136 -12.3535    134.1515    239.8439   1.0623617408e+02   7.0186928223e+00    0.3676578   0.09525952  38.21  0.001330991    3.446    0.710
       137 -10.4212    129.5326    239.4769   1.0707513088e+02   7.8091518910e+00    0.1812273    0.1454754  50.62 0.0005866191    1.046    0.044
       138 -11.2265    116.5395    237.0752   1.0928520671e+02   1.0246670484e+01      0.15465     0.118466 -75.11 0.0009763116    1.511    0.338
       139 -12.6659    148.4527    232.7191   1.0255517662e+02   5.8773168531e+00    0.3650458    0.2262021  46.67  0.002054964    1.394    0.283
       140 -13.3780    125.5284    196.2388   1.0200751743e+02   1.6432557555e+01     1.315555    0.6912091  48.39  0.006061408    1.777    0.437
       141  99.0000    110.2654    199.1768   1.0576693287e+02   1.8415654240e+01     1.462274    0.6471847 -55.05  0.006436092    2.402    0.584
       142 -11.2287    110.8922    217.8005   1.0810379304e+02   1.4627145766e+01    0.7191278    0.5247597 -64.82  0.004299103    1.514    0.340
       143 -11.2473    156.9212    248.9688   1.0308625258e+02   2.0067927916e+00    0.1839567    0.1427803  41.29 0.0004134474    1.052    0.050
