#   1 NUMBER                 Running object number                                     
#   2 MAG_AUTO               Kron-like elliptical aperture magnitude                    [mag]
#   3 X_IMAGE                Object position along x                                    [pixel]
#   4 Y_IMAGE                Object position along y                                    [pixel]
#   5 X_WORLD                Barycenter position along world x axis                     [deg]
#   6 Y_WORLD                Barycenter position along world y axis                     [deg]
#   7 A_WORLD                Profile RMS along major axis (world units)                 [deg]
#   8 B_WORLD                Profile RMS along minor axis (world units)                 [deg]
#   9 THETA_WORLD            Position angle (CCW/world-x)                               [deg]
#  10 FWHM_WORLD             FWHM assuming a gaussian core                              [deg]
#  11 ELONGATION             A_IMAGE/B_IMAGE                                           
#  12 ELLIPTICITY            1 - B_IMAGE/A_IMAGE                                       
         1 -13.2056    180.5759     37.2059   6.5602991949e+01   3.5864809511e+01     1.165892    0.9486895  29.00  0.004589344    1.657    0.396
         2 -12.5446    201.1549      5.4657   5.5872772221e+01   3.4762117850e+01    0.8493598    0.5455769  74.43   0.00430107    1.296    0.228
         3  -8.9006     77.4732     10.4331   7.8478613839e+01   6.1362309415e+01    0.1183068   0.09664644  32.62 -3.471733e-05    1.037    0.035
         4  -8.0190    114.3318      3.7033   6.7334500861e+01   5.4491873381e+01    0.1154517   0.08815707 -82.59 0.0003852977    1.641    0.391
         5  99.0000     59.3242    217.6828   1.3377834442e+02   2.1412893824e+01    0.4073634    0.1870161  70.52  0.001580019    3.070    0.674
         6 -19.4440     37.4931    146.0307   1.2987723594e+02   4.1459836279e+01     21.42312     3.840195 -66.64   0.05569163    5.621    0.822
         7  -8.2762     57.9176    201.2588   1.3221779963e+02   2.5432886663e+01    0.1654855    0.1426102  65.76 0.0002776092    1.110    0.099
         8  -9.2051     82.0033    194.8097   1.2571543476e+02   2.3507644059e+01    0.3069887     0.258095 -75.81  0.001383946    1.122    0.109
         9 -11.8755     80.0608    185.3889   1.2478407489e+02   2.6105139540e+01    0.9125451    0.6162783 -53.79  0.002573273    1.493    0.330
        10  -9.2247    192.0049    193.0064   9.9837324710e+01   3.9378346090e+00    0.5133442    0.2712502 -68.66  0.001312478    6.780    0.853
        11  -8.6631    153.3672    193.6696   1.0849633872e+02   1.1118473182e+01    0.2389505    0.1816072  76.68   0.00111368    1.710    0.415
        12 -10.6558     99.6414    192.1968   1.2104958292e+02   2.1286331826e+01    0.3379779    0.2569073 -82.69 0.0005809197    1.379    0.275
        13  -9.3640     61.2657    208.0174   1.3226162238e+02   2.3381985558e+01    0.4003057    0.3283906 -50.68  0.001566828    1.458    0.314
        14  -9.6461     90.1412    183.8059   1.2202946013e+02   2.4902995921e+01    0.3225208    0.1958001  59.69 0.0008812486    1.845    0.458
        15 -10.9474     99.4830    180.5158   1.1913539275e+02   2.4155821397e+01    0.3773639    0.2693651 -55.60  0.001372353    1.381    0.276
        16  -8.9773    167.3640    175.5260   1.0168178296e+02   1.2399731248e+01    0.4725028    0.2876663 -74.05  0.001685605    2.964    0.663
        17 -11.6970     88.0000    173.0601   1.2077420877e+02   2.7912063852e+01    0.7506878     0.495457 -76.84  0.001740115    1.648    0.393
        18  -8.1750     65.3661    208.3044   1.3137591094e+02   2.2745047201e+01    0.2597762    0.1896095 -40.41   0.00132694    1.854    0.461
        19 -10.5284    104.3082    171.8749   1.1635755445e+02   2.5448220260e+01     0.322113    0.2222447 -64.99   0.00149006    1.457    0.314
        20  -9.9810    125.3630    171.9598   1.1102095408e+02   2.1548453038e+01    0.2713617    0.2120112  56.66 0.0008901578    1.319    0.242
        21 -10.2870     11.2938    205.9919   1.4275594080e+02   2.9684038018e+01    0.4053023    0.1496914  39.92  0.001987036    2.554    0.608
        22  -9.6683    204.4452    165.7141   9.1670115085e+01   7.1215351517e+00    0.5084231    0.2533334 -51.58  0.002020587    2.145    0.534
        23  -9.8615    194.0396    167.0357   9.4072544689e+01   8.8921019184e+00    0.3228036    0.3142005 -39.12 0.0008185564    1.032    0.031
        24  -8.9557    190.0641    160.9943   9.3603457251e+01   1.0964300022e+01     0.231172    0.2183025 -48.39 0.0005671363    1.037    0.036
        25 -10.3282     96.7590    159.7040   1.1602561315e+02   2.9788025942e+01    0.3158687     0.244896 -52.33  0.001561558    1.258    0.205
        26  -7.8834    113.3007    160.2998   1.1176665606e+02   2.6673241494e+01      0.15167    0.1230357 -18.13 0.0004676605    1.582    0.368
        27  -9.7376    189.2406    155.3492   9.2540479769e+01   1.2334219060e+01    0.4130951    0.3035317 -62.01  0.001477987    1.530    0.347
        28 -11.1468    101.4993    152.9081   1.1339276096e+02   3.0651349702e+01    0.6210056    0.3987297 -35.33  0.002314305    1.904    0.475
        29  -8.8823     62.1632    216.2250   1.3300328677e+02   2.1356426177e+01    0.3390783    0.1641776 -69.61  0.001558755    1.981    0.495
        30  -9.7387    133.8007    145.3428   1.0319995287e+02   2.6269657720e+01    0.7157893     0.173007 -54.57  0.001559317    6.053    0.835
        31 -11.4997     91.0263    168.0155   1.1909850946e+02   2.8677071665e+01     0.540082    0.4747778  -1.22  0.001710473    1.434    0.302
        32 -10.4827    110.9899    138.8353   1.0775568685e+02   3.2359934438e+01     0.521174    0.3278934 -34.05  0.002146662    1.924    0.480
        33 -10.6532    100.1739    138.3995   1.1065450134e+02   3.4463038267e+01    0.2949097    0.2763267  17.51 0.0004571613    1.168    0.144
        34 -10.0769    105.9405    130.8210   1.0730108434e+02   3.5239185918e+01    0.3885896    0.3277635 -70.77  0.001072223    1.249    0.199
        35  -9.3337    105.3369    125.4295   1.0618592667e+02   3.6631790386e+01    0.2938673    0.2496821 -19.23 0.0007112392    1.341    0.255
        36  -8.9709    117.0262    129.6693   1.0395666188e+02   3.3377389860e+01     0.280661    0.2153817 -24.92 0.0008826564    1.567    0.362
        37  -8.4810    112.1280    118.8155   1.0263663671e+02   3.6865645022e+01    0.2087464    0.1839386  -6.70 0.0006668534    1.291    0.225
        38  -9.3973    167.5414    112.3898   8.7103424846e+01   2.6241144550e+01    0.3551894    0.2446212 -78.51  0.001470876    2.034    0.508
        39 -10.2980     93.8879    205.2191   1.2441678676e+02   1.9143244751e+01    0.3075636    0.2660634 -24.48  0.001059308    1.534    0.348
        40  -9.3547     88.9862    203.3916   1.2529897122e+02   2.0360918243e+01     0.345926    0.2439823  67.20  0.001368287    1.455    0.313
        41  -9.3352     81.6435     76.1522   1.0002234212e+02   5.1446097103e+01    0.2292462    0.1810744  43.18  0.000601286    1.355    0.262
        42  -9.9916    175.0286     73.7181   7.5729028776e+01   3.1776262854e+01    0.3064306    0.2323486  87.77 0.0008115681    1.434    0.303
        43 -10.9258     70.7242    199.1761   1.2899474521e+02   2.4144478770e+01    0.4815555    0.3047023 -42.81  0.001457235    2.044    0.511
        44 -12.1373    166.9645     52.5900   7.1700058315e+01   3.6996643655e+01    0.7395305    0.5403976 -64.41  0.001305676    1.484    0.326
        45 -10.5479    247.4980    244.5182   9.8557670592e+01  -1.3564744187e+01    0.4563733    0.2109839 -14.71  0.001844131    3.698    0.730
        46 -11.7087    185.0130     30.5095   6.3363076746e+01   3.5661503155e+01    0.5198179    0.3997335  59.83  0.001484218    1.279    0.218
        47  -9.2489    158.7628    235.4200   1.1453510212e+02   1.5528042825e+00    0.2028417    0.1208948  28.66 0.0009595819    1.729    0.421
        48 -10.6217     71.7590    229.5858   1.3243089712e+02   1.7000558025e+01    0.2432292      0.18994  76.55 0.0003797188    1.131    0.116
