#   1 NUMBER                 Running object number                                     
#   2 MAG_AUTO               Kron-like elliptical aperture magnitude                    [mag]
#   3 X_IMAGE                Object position along x                                    [pixel]
#   4 Y_IMAGE                Object position along y                                    [pixel]
#   5 X_WORLD                Barycenter position along world x axis                     [deg]
#   6 Y_WORLD                Barycenter position along world y axis                     [deg]
#   7 A_WORLD                Profile RMS along major axis (world units)                 [deg]
#   8 B_WORLD                Profile RMS along minor axis (world units)                 [deg]
#   9 THETA_WORLD            Position angle (CCW/world-x)                               [deg]
#  10 FWHM_WORLD             FWHM assuming a gaussian core                              [deg]
#  11 ELONGATION             A_IMAGE/B_IMAGE                                           
#  12 ELLIPTICITY            1 - B_IMAGE/A_IMAGE                                       
         1 -14.8864    157.5897     49.2100   8.1592222101e+01   3.9695740198e+01     1.284713     1.160201 -12.44  0.003568984    1.063    0.060
         2 -14.9214    167.7889     17.9470   6.8608250449e+01   4.1101052518e+01     1.741246     1.202915 -81.58  0.006168038    1.893    0.472
         3 -14.3500    190.2762     14.9629   6.4325243633e+01   3.5463024036e+01    0.9040005    0.6883376  73.45  0.003380394    1.365    0.267
         4 -14.4264    176.7675      5.4098   6.2872049834e+01   3.9944287459e+01     1.808915    0.8147727 -89.31   0.00592385    3.639    0.725
         5 -13.4946    197.2869      6.8407   6.0853314692e+01   3.4395200523e+01     0.832076    0.3941488 -38.16   0.00346646    2.061    0.515
         6 -10.5940     20.6705    210.8694   1.4231344886e+02   2.9982144345e+01    0.1172878   0.07256258 -85.75 0.0003955029    1.473    0.321
         7 -20.0918     89.5947    219.8687   1.3120298193e+02   2.1022318006e+01     6.985624     5.151562  58.08   0.04458719    1.075    0.070
         8 -13.8799     11.6112    205.6879   1.4358803680e+02   3.1633850543e+01    0.3334355    0.3064724 -70.19  0.002314016    1.610    0.379
         9 -11.1508     23.7446    191.1919   1.4083991477e+02   3.3038296979e+01    0.1637264     0.135418 -63.29  0.001146799    1.589    0.371
        10 -11.0759     15.3670    187.6725   1.4215863853e+02   3.4401343058e+01    0.1181889    0.1066563 -81.08 0.0005056034    1.435    0.303
        11 -12.8333    204.0431    174.7673   1.0416460031e+02   9.8506147354e+00    0.4488603    0.3439226 -55.27  0.002021601    2.018    0.504
        12 -11.5334    207.6830    171.5542   1.0292008299e+02   9.6316460605e+00    0.3256412    0.2117729 -49.16  0.001535527    2.275    0.560
        13 -12.8012    195.8742    173.8220   1.0547634346e+02   1.1412741824e+01    0.6829984    0.3680545 -48.18  0.003296752    2.644    0.622
        14 -13.0579    189.8994    155.6238   1.0315077135e+02   1.5097414218e+01    0.5099671     0.442351  35.92  0.001666837    1.127    0.113
        15 -12.7140    192.4605    164.7308   1.0442878588e+02   1.3294568582e+01    0.3317763    0.2570375  -5.25 0.0007044553    1.358    0.263
        16 -12.8728    189.9469    160.9843   1.0418868924e+02   1.4297093953e+01     0.360867    0.3143119  65.52  0.001474352    1.501    0.334
        17 -12.8391    230.4979    167.4839   9.8177486759e+01   6.1504959952e+00    0.3936893    0.2099386 -42.22  0.001927717    2.582    0.613
        18 -10.7160      9.6535    237.1790   1.4498718648e+02   2.6892063597e+01   0.09183734   0.06109926  73.87 0.0003287558    1.157    0.136
        19 -12.6734    142.9723    156.2844   1.1276486091e+02   2.3612678962e+01    0.3838224    0.2138972  50.87  0.001534785    1.801    0.445
        20 -11.3367     22.7537    155.8026   1.3887396853e+02   3.9753793571e+01    0.2139619    0.1544662  85.30 0.0009585614    1.102    0.093
        21 -10.5895     17.6780    154.5137   1.3984494566e+02   4.0435608301e+01    0.1877451    0.1271043 -41.36  0.001247595    2.221    0.550
        22 -13.0293    161.0426    152.8539   1.0835354364e+02   2.0937243678e+01    0.4845549      0.26068  37.36  0.001960981    1.763    0.433
        23 -11.9293    174.0337    148.2412   1.0479305470e+02   1.9254234313e+01    0.3778601    0.3127954 -61.21  0.001490688    1.572    0.364
        24 -10.9062      8.5943    149.1881   1.4140884477e+02   4.2203833776e+01    0.1617012    0.1222567 -67.78 0.0006736746    1.399    0.285
        25 -12.5028     10.9568    144.1400   1.4059086172e+02   4.3041380442e+01    0.2729852    0.2184529 -29.95  0.001189282    1.901    0.474
        26 -10.5502    170.9708    137.4770   1.0317923119e+02   2.1629706848e+01     0.211162    0.1299853  44.67 0.0005557358    1.539    0.350
        27 -11.5647     27.9015    231.1868   1.4203259076e+02   2.6122392856e+01    0.1395414   0.09606037  76.72    0.0010218    1.195    0.163
        28 -12.9399    160.6447    128.0123   1.0329432345e+02   2.5325259183e+01    0.4423073    0.3772897 -57.62  0.001548659    1.367    0.268
        29 -13.4104    207.7755    224.4758   1.1149712319e+02   3.4189056889e+00    0.3465707    0.2309617 -30.08  0.001458769    1.843    0.457
        30 -10.2198     13.2531    121.5491   1.3838324589e+02   4.7582293742e+01    0.1250132    0.1090457 -12.59 0.0009381994    1.642    0.391
        31 -11.1244    167.6317    112.9477   9.8228713843e+01   2.6554332843e+01    0.3539273    0.2730258 -78.94  0.001227126    1.985    0.496
        32  -9.9564      6.6817    227.7431   1.4513624503e+02   2.8554869442e+01   0.07044869   0.06447645  74.34 0.0004665527    1.538    0.350
        33 -10.9075    205.3808    110.2353   8.9997845385e+01   1.8845965344e+01     0.296461    0.1922086  41.33 0.0008467383    1.498    0.333
        34 -10.7069     31.4943    104.5130   1.3178960542e+02   4.9897902381e+01    0.1956016    0.1644702 -83.65 0.0005195449    1.039    0.038
        35 -11.4676     35.0440    103.4468   1.3065194343e+02   4.9827037876e+01    0.2271805    0.1950763  15.86 0.0009311792    1.501    0.334
        36 -11.4469     32.2840    222.2887   1.4094813496e+02   2.7064838572e+01    0.1450316    0.1265882 -79.65 0.0007324792    1.505    0.335
        37 -11.6356    124.8254     95.8620   1.0396958443e+02   3.8651609542e+01     0.227485    0.1998034  -5.38  0.000747553    1.250    0.200
        38 -11.1220     26.2666    221.0591   1.4185442461e+02   2.7833524046e+01    0.1236142   0.09278905  85.16 0.0005339965    1.258    0.205
        39 -13.0356     53.4603     91.6086   1.2330813343e+02   5.0669383393e+01     0.384407    0.3406165  33.48  0.001206614    1.314    0.239
        40 -11.4809    142.4347     82.2004   9.5710264520e+01   3.7649122662e+01    0.3646319    0.2273344 -23.68  0.001543612    1.849    0.459
        41 -10.7531     23.5671     83.1209   1.3109227039e+02   5.5353713231e+01     0.275405     0.162862 -12.56  0.001461918    2.715    0.632
        42 -10.5589    104.9745     82.0679   1.0561255562e+02   4.5246715232e+01    0.2099893    0.1990162 -35.87 0.0003139809    1.009    0.009
        43 -14.7104    147.2605     63.9637   8.8869759195e+01   3.9824164397e+01     1.372812     1.189916  20.41  0.001274319    1.167    0.143
        44  -9.9170     32.1880    249.5740   1.4213614760e+02   2.3048383183e+01   0.08923068   0.04397755  69.58 0.0006052605    1.655    0.396
        45 -13.5382    161.8087     40.1082   7.7567996889e+01   3.9942737453e+01    0.5448645    0.5361371  25.05 0.0008038229    1.077    0.071
        46 -11.3532     13.4318     59.8634   1.3065139952e+02   6.1279309987e+01    0.1994025    0.1742921 -76.99 0.0004209919    1.150    0.130
        47 -10.6559     24.4214     59.2834   1.2647660061e+02   6.0680373170e+01     0.199304    0.1412211  -7.94  0.001224123    1.839    0.456
        48 -19.1650     77.5465     98.9257   1.1768835874e+02   4.5996116654e+01     17.04649    0.8573815 -56.56   0.02503334   18.180    0.945
        49 -10.7658    149.0723    247.6895   1.2386084462e+02   9.3326938720e+00     0.245979    0.1306917  27.68  0.001510013    2.097    0.523
        50 -11.1525     24.8512    214.5323   1.4179199461e+02   2.9003489708e+01    0.1230866   0.08838773  62.80 0.0003284981    1.054    0.051
