#   1 NUMBER                 Running object number                                     
#   2 MAG_AUTO               Kron-like elliptical aperture magnitude                    [mag]
#   3 X_IMAGE                Object position along x                                    [pixel]
#   4 Y_IMAGE                Object position along y                                    [pixel]
#   5 X_WORLD                Barycenter position along world x axis                     [deg]
#   6 Y_WORLD                Barycenter position along world y axis                     [deg]
#   7 A_WORLD                Profile RMS along major axis (world units)                 [deg]
#   8 B_WORLD                Profile RMS along minor axis (world units)                 [deg]
#   9 THETA_WORLD            Position angle (CCW/world-x)                               [deg]
#  10 FWHM_WORLD             FWHM assuming a gaussian core                              [deg]
#  11 ELONGATION             A_IMAGE/B_IMAGE                                           
#  12 ELLIPTICITY            1 - B_IMAGE/A_IMAGE                                       
         1 -11.1191    207.0341     14.9435   2.9225954625e+01   3.2404528067e+01    0.4947603    0.4469866  26.26   0.00117656    1.659    0.397
         2 -11.4486    229.2717     29.3315   3.0251582945e+01   2.6202684466e+01     1.114733    0.6463746 -76.56  0.006584967    1.640    0.390
         3 -10.7175    213.0409     22.9380   3.0364248779e+01   3.0254348035e+01    0.9012586    0.6661701  -4.51  0.005330561    2.410    0.585
         4 -13.1137    186.0323     99.3153   5.1480454796e+01   2.4701495647e+01     4.961521     1.105628 -39.89   0.01390003    4.315    0.768
         5 -14.3783    178.1281     72.4133   4.6242940978e+01   3.1139075669e+01     12.73731     5.574833 -64.64   0.03011415    7.727    0.871
         6 -11.1297    189.8073     43.5636   3.7435386470e+01   3.2738968940e+01     2.641597    0.5363855 -45.25  0.008434446    4.508    0.778
         7 -13.9183    243.3981     53.5080   3.3701818727e+01   2.0345243159e+01     1.852844     1.064806  62.06  0.008876407    1.933    0.483
         8 -12.3539    220.3163     35.8434   3.2357829923e+01   2.7196029120e+01     2.013244    0.4648816 -48.10  0.007559331    3.687    0.729
         9 -14.0520    226.9306     88.9367   4.2730343618e+01   1.8130740669e+01     7.128727     1.977601 -53.06   0.01888078    6.279    0.841
        10  -9.7440    232.3065     16.8332   2.7609618178e+01   2.7068240286e+01    0.4024139    0.1738253 -30.89  0.002047218    2.809    0.644
        11  -8.6420    189.1193     17.2825   3.1409239710e+01   3.6027228731e+01    0.2001969    0.1659479 -17.28 0.0008346057    1.648    0.393
        12  -9.2478    165.0314     15.9126   3.3776345956e+01   4.1625654182e+01    0.2266376    0.1724635 -36.30 0.0006823794    1.485    0.327
        13  -9.8435    134.7271     14.8499   3.7782971564e+01   4.8808089127e+01    0.2784334    0.2046412 -40.51  0.001171406    1.540    0.351
        14  -9.7490     92.5779     13.1510   4.5789412273e+01   5.8602177453e+01    0.2918714    0.2164834 -12.23  0.001108499    1.562    0.360
        15 -10.4320    247.3484      8.9487   2.5184529839e+01   2.5095537247e+01    0.3388382    0.2066805 -21.61  0.001156793    2.796    0.642
        16 -10.2098    250.3935      2.0586   2.3821411108e+01   2.5274442883e+01    0.2204467    0.1347149 -37.48  0.001526187    1.755    0.430
        17  -7.8438    223.7100     12.1458   2.7339716627e+01   2.9280962366e+01     0.134669   0.09667509 -34.53 0.0003408235    1.635    0.388
        18  -7.8148    242.0471     11.2140   2.5913211383e+01   2.5831621387e+01    0.1509953    0.1044973 -86.68  0.001078557    1.222    0.182
        19 -10.0495    120.2356      9.2905   3.8543498320e+01   5.2683410748e+01    0.3078102    0.2890042 -52.80  0.001049018    1.248    0.199
        20  -8.4769    184.0002      9.0574   3.0040161687e+01   3.8004390220e+01    0.1771698    0.1461165 -80.13 0.0008483264    1.056    0.053
        21 -14.2143    224.0637     72.3317   3.9581104845e+01   2.1325735123e+01     3.882267     2.058329 -78.06   0.01642488    3.028    0.670
        22  -7.5593    224.9412      8.6929   2.6587246013e+01   2.9404701050e+01    0.2216823   0.07750697  68.10  0.001017356    2.583    0.613
        23  -8.8290    142.8897      6.4678   3.4136760140e+01   4.7649184513e+01    0.1699911    0.1616684 -62.23 0.0005727303    1.218    0.179
        24 -12.2955    249.8956     28.3191   2.8461648399e+01   2.2404906227e+01    0.8693068    0.3351054 -34.81 0.0009373054    2.733    0.634
        25  -8.7032    182.4743      2.9409   2.8787848774e+01   3.8923974012e+01    0.2249611    0.1277667 -67.45  0.001261163    1.713    0.416
        26  -8.1955    171.5081      2.1631   2.9656720202e+01   4.1444140407e+01    0.2023682    0.1342637 -79.53   0.00086081    1.382    0.277
        27 -10.4956    235.7491      5.9595   2.5361551917e+01   2.7587665764e+01    0.3146333    0.1667176 -38.92 0.0007860516    1.844    0.458
        28  -8.1325     79.4609      3.9042   4.5611647499e+01   6.2189642370e+01    0.1592935    0.1190853 -10.99 0.0005568487    1.531    0.347
        29  -7.8132    188.1605      4.8346   2.8699071042e+01   3.7494549498e+01     0.152706    0.1198708  68.41 0.0006388322    1.275    0.216
        30 -10.6240    242.0432    164.6723   5.5985649225e+01   2.3898958074e+00    0.3133605    0.2424845 -26.82  0.001923317    1.092    0.084
        31  -9.1527    136.1885    249.8583   9.2944575319e+01   2.5493928646e+00    0.3697507    0.1747926  41.63  0.001444231    1.995    0.499
        32  -9.3050    179.5549    245.9272   8.2921117413e+01  -2.8929499161e+00    0.2679485    0.2433938 -73.67  0.001059903    1.737    0.424
        33  -9.8174    112.6545    242.0680   9.7231255920e+01   7.4437901859e+00    0.4254722    0.2280138  57.70  0.001816053    2.613    0.617
        34 -10.2358    200.5689    240.0838   7.7631554496e+01  -4.7548159090e+00    0.2259073    0.1878747  -1.09 0.0003926505    1.087    0.080
        35  -9.3315    167.4106    239.4230   8.4501655159e+01  -7.2907591554e-02    0.2614305    0.1999164  31.61   0.00122791    1.257    0.204
        36  -9.1196    168.9900    235.0818   8.3463573766e+01   4.7366746994e-01    0.2061709    0.1786516 -13.62 0.0003062969    1.126    0.112
        37  -8.3355    219.1604    159.3314   5.8822200876e+01   6.9086516764e+00    0.1748815    0.1660933 -13.65 0.0005212408    1.141    0.123
        38 -10.2372    193.7718    157.5388   6.3314823011e+01   1.1654843171e+01    0.3501332    0.2953772 -63.90 0.0008209287    1.422    0.297
        39  -9.6381    192.4955    153.4921   6.2701351776e+01   1.2708784508e+01    0.3237672    0.2139837  53.19  0.001123067    1.859    0.462
        40  -9.7213    168.6818    157.0977   6.8662810740e+01   1.6433826096e+01    0.2582559    0.2344608  32.80 0.0002992846    1.146    0.127
        41  -8.9733    173.8546    153.8517   6.6770638573e+01   1.6145019119e+01    0.2040723    0.1836422 -74.41 0.0005260445    1.326    0.246
        42  -8.1518    203.4184    152.1966   6.0255533669e+01   1.0983643993e+01    0.2073889    0.1262259 -50.04  0.000948692    1.661    0.398
        43  -8.4336    112.1053    152.0193   8.2198262053e+01   2.8452716607e+01    0.2238482    0.2133511 -23.62            0    1.039    0.038
        44 -10.7481     54.8578    146.7213   9.8641647398e+01   3.8721233678e+01    0.5867043    0.3082013 -26.12   0.00210158    3.028    0.670
        45 -12.3844     40.5659    150.4300   1.0371672518e+02   3.9359860823e+01     1.027889    0.8676764 -51.56  0.002788327    1.136    0.119
        46  -9.8370    173.8235    147.8308   6.5430294856e+01   1.7442541382e+01    0.3398165    0.2519546 -27.61  0.001034458    1.398    0.285
        47  -9.1821    134.0000    146.5187   7.4890479045e+01   2.5635422752e+01    0.6707631    0.1699688 -53.42  0.001565791    5.227    0.809
        48  -8.7875    162.8652    146.8421   6.7712994546e+01   1.9820050529e+01    0.2322047    0.2176563 -45.97 0.0002421594    1.081    0.075
        49  -9.1492    160.7334    143.5759   6.7464123879e+01   2.0968260480e+01    0.2914862    0.2690453  80.24  0.000780933    1.258    0.205
        50 -10.7696     68.0427    144.2428   9.3998447933e+01   3.7647875133e+01    0.7989388    0.4739842  55.11  0.003264392    2.129    0.530
        51  -9.3749    223.8540    145.5626   5.5155226596e+01   8.6880230395e+00    0.2945491    0.2327119  79.26  0.001266524    1.875    0.467
        52  -9.6515    217.0571    144.9959   5.6211028110e+01   9.9605925636e+00    0.3972863    0.3210111 -34.14  0.001119152    1.086    0.079
        53  -9.0797    214.5269    140.4736   5.5696712429e+01   1.1260972747e+01    0.2420149    0.2177649 -44.97 0.0005667772    1.089    0.082
        54 -10.2504    210.4213    138.0621   5.5908374798e+01   1.2460764331e+01    0.3301015    0.2815236 -53.55 0.0008551988    1.188    0.158
        55  -9.6517    191.9108    144.0782   6.0751881330e+01   1.4730137408e+01    0.2887585    0.2544037 -60.91 0.0006774241    1.247    0.198
        56 -10.4701    192.0171    138.6537   5.9519102482e+01   1.5806703422e+01    0.6088454    0.3642477 -65.36  0.002366047    2.677    0.626
        57  -9.3464    145.9865    141.9658   7.0706622905e+01   2.4308221397e+01    0.2458135    0.1982373  88.72 0.0006539649    1.675    0.403
        58  -9.9228     53.3081    139.3403   9.7841887004e+01   4.0861365200e+01    0.3400919    0.2226801 -31.42  0.001335646    1.746    0.427
        59 -11.0356    178.3851    135.2905   6.1563222755e+01   1.9189457088e+01    0.7814707    0.4530703 -67.31  0.002737913    3.150    0.683
        60  -9.3385    174.0238    138.8833   6.3340676131e+01   1.9311199189e+01    0.2297429    0.2024404 -69.94 0.0004989495    1.293    0.226
        61  -9.7306    141.8198    134.5355   7.0004185946e+01   2.6863003995e+01    0.5372392    0.2745436 -67.05  0.001437519    4.646    0.785
        62  -8.5471    203.1427    131.1688   5.5717626676e+01   1.5146480876e+01    0.2017079    0.1602431 -59.62 0.0005640466    1.346    0.257
        63  -9.7348    223.5153    129.0953   5.1758366412e+01   1.1773774803e+01    0.2536874     0.209201  57.29 0.0003621524    1.438    0.304
        64  -8.9402    160.3870    128.1946   6.3895492426e+01   2.4406173745e+01    0.3134172    0.2474306 -81.51  0.001443152    1.678    0.404
        65  -9.2071    201.8505    125.8968   5.4776880194e+01   1.6412929000e+01    0.2285315    0.2093436 -81.04 0.0004428214    1.216    0.178
        66  -9.8850    169.6185    118.5755   5.9468371146e+01   2.4476121477e+01    0.4921433    0.2921382 -70.05  0.001724228    3.081    0.675
        67  -8.3815    205.6532    122.0553   5.3237121782e+01   1.6406591042e+01    0.2052933     0.163018 -44.58 0.0004563077    1.131    0.116
        68 -10.3880    228.9098    117.6206   4.8500830321e+01   1.2868879297e+01    0.5125673     0.324606 -84.69  0.002237651    2.953    0.661
        69  -7.9459     62.4383    118.0927   9.0425015694e+01   4.5199410508e+01    0.2115136    0.1399846 -55.25 0.0002809373    1.422    0.297
        70 -12.4717    202.7366     79.5266   4.4039575072e+01   2.4563796153e+01     1.403774     0.982708 -65.23  0.003691972    1.474    0.322
        71  -9.3722    200.5302    116.0154   5.2780024526e+01   1.8558000367e+01    0.2664311    0.2049048  77.07  0.001223641    1.626    0.385
        72  -8.8411    169.8775    230.3706   8.2499675687e+01   1.1983101988e+00     0.232688    0.1776871 -27.05 0.0002339076    1.298    0.230
        73  -9.0621    176.3988    111.3753   5.6279474113e+01   2.4473917892e+01    0.4617205    0.2728157 -24.50  0.001830821    2.326    0.570
        74  -9.9930    134.8811    111.7785   6.6060259332e+01   3.3428489782e+01     1.016367     0.149223 -44.15  0.002088922    6.795    0.853
        75 -10.4163    205.7626    110.0993   5.0534563744e+01   1.8612817343e+01    0.4385583    0.3315916  34.60  0.002316754    1.618    0.382
        76  -8.1040    144.4096    105.8370   6.2051360215e+01   3.2610761362e+01    0.2173435    0.1464261 -31.11 0.0005445789    1.638    0.390
        77  -9.1321    151.3193    102.8324   5.9593959976e+01   3.1691215055e+01    0.2934582    0.2639552 -14.34 0.0006724307    1.214    0.176
        78 -10.1463    122.1904    102.7222   6.7066521846e+01   3.8110390192e+01    0.3900186    0.3015153 -66.28 0.0009550804    1.576    0.366
        79 -10.0612    120.3357     96.9143   6.5960479269e+01   3.9736832160e+01    0.5089154    0.2417012 -53.53   0.00162577    2.593    0.614
        80  -9.9665    119.4657     91.4854   6.4648370120e+01   4.1041211911e+01    0.3929828    0.3590547  42.68  0.001749153    1.082    0.076
        81 -10.2762     81.2247    100.9840   7.9498627058e+01   4.6468915760e+01    0.2518363    0.2300977   3.00 0.0002622878    1.069    0.065
        82  -9.4674    204.1930     98.0194   4.8051672469e+01   2.1107761000e+01    0.3624425    0.1971406 -55.65 0.0007947088    1.976    0.494
        83 -10.7337    164.2039     98.0144   5.5461860900e+01   2.9755871218e+01    0.8106692     0.366783  46.23  0.003093048    2.290    0.563
        84  -9.9700    171.6568     96.6614   5.3580366259e+01   2.8348191836e+01      0.36463    0.2677955  83.19  0.001109528    1.732    0.423
        85 -10.0856    137.0405     98.5869   6.1940398694e+01   3.5735018356e+01    0.4117608    0.3449933 -17.71  0.002039672    1.339    0.253
        86  -9.4185    208.6928     95.7842   4.6834528911e+01   2.0580307118e+01    0.3415414    0.2171822 -58.51  0.001075447    1.627    0.385
        87  -7.5596    153.3147     98.2515   5.7920317878e+01   3.2155833532e+01    0.1466539    0.1187325  16.59            0    1.523    0.344
        88  -9.8935    145.3659     93.4877   5.8490566630e+01   3.4881234316e+01    0.3388326    0.2967552 -59.67 0.0006074519    1.194    0.162
        89  -9.0037    114.0809     93.1325   6.6674448532e+01   4.1856336059e+01    0.3062359    0.2506184  46.51 0.0007171787    1.227    0.185
        90 -13.1534    239.5176     66.1728   3.6566786839e+01   1.9269752774e+01    0.9700053    0.6300796  75.51  0.004917173    1.666    0.400
        91  -8.7438    170.9930     91.3388   5.2360551471e+01   2.9483416891e+01    0.2106683    0.1903171  65.07 0.0008606419    1.119    0.106
        92 -10.9200    161.9683     89.1084   5.3612561400e+01   3.1934186030e+01    0.3410511    0.2737086 -31.71 0.0007470081    1.324    0.244
        93  -7.8823     19.6705     84.3144   9.9225540660e+01   5.7964695523e+01     0.125728    0.1015976  63.85 0.0007044712    1.676    0.403
        94  -9.7471    131.4515     82.1555   5.8717240659e+01   4.0195012903e+01     0.327669    0.1924875  44.69 0.0009420782    1.668    0.401
        95 -10.9222    140.1456     78.7692   5.5612772341e+01   3.8824734477e+01    0.5307399    0.3686916  -8.27   0.00182854    2.159    0.537
        96 -11.3430    233.3175     43.3865   3.2661321197e+01   2.3629943157e+01    0.4192857    0.3123399 -76.90 0.0009713802    1.165    0.141
        97 -11.5016    249.1183     60.6718   3.4537717780e+01   1.8295208043e+01     0.305682    0.2001604 -49.40 0.0003475691    1.239    0.193
        98 -10.7587    153.8030     59.5551   4.7256429391e+01   3.8803916382e+01    0.5428833    0.2640564 -33.80   0.00229692    2.235    0.553
        99 -10.3060    144.3138     59.5000   4.9143367244e+01   4.1046951570e+01    0.3763236    0.2681092 -45.00  0.001186947    1.473    0.321
       100 -10.7463    146.0717     54.2060   4.7261584626e+01   4.1421521600e+01    0.4523387    0.3166015 -71.69  0.001445601    1.787    0.440
       101 -10.2053    141.4866     53.0966   4.7868957137e+01   4.2664798364e+01    0.3650851    0.2532849 -72.93  0.001754283    1.874    0.467
       102  -7.7527    115.8060     58.6133   5.5582877637e+01   4.7790963835e+01    0.2008705    0.1317678  61.12  0.000525578    1.627    0.385
       103  -7.8032     72.5937     58.5046   6.9287200568e+01   5.6668378734e+01    0.1395729    0.1246708   4.81 8.226372e-05    1.026    0.025
       104  -9.3928    177.8458     52.6306   4.1312282713e+01   3.4211490713e+01    0.4550443    0.2406666  50.65  0.002121113    1.987    0.497
       105 -10.4006    134.3027     52.4299   4.9194836509e+01   4.4452464409e+01    0.4037686    0.3149486  64.10  0.002181865    1.227    0.185
       106  -9.2150      2.6015     53.2047   9.9451752071e+01   6.5846649833e+01    0.1868823    0.0830816 -48.16 0.0009542247    1.698    0.411
       107  -8.4946    105.8354     46.5855   5.4287368830e+01   5.1815310846e+01    0.2066598    0.1644981 -38.36  0.000573118    1.394    0.282
       108  -9.2992    115.9951     46.0114   5.1443058295e+01   4.9607174099e+01      0.20226    0.1875156  46.90            0    1.028    0.028
       109 -11.8449    133.6215     41.0440   4.5888462869e+01   4.6166362377e+01    0.6437364    0.4629226 -71.99  0.003323794    1.742    0.426
       110  -7.6762    102.2016    229.9862   9.8109113513e+01   1.1462140966e+01    0.1682051    0.1105091 -60.55  0.000396554    1.688    0.408
       111  -7.7311    197.9663    228.2456   7.6161930807e+01  -2.4466455142e+00    0.1601817    0.1006451  27.08 0.0003453348    1.493    0.330
       112  -9.7025    204.1523     39.0329   3.4692513993e+01   3.0179809419e+01    0.3075466    0.1631387 -41.56 0.0007609994    1.780    0.438
       113  -8.9232    200.3277     31.9738   3.3543803751e+01   3.1888750818e+01    0.2077955    0.1576499  70.26 0.0005204778    1.279    0.218
       114  -8.2257     86.6413     32.1331   5.4654527550e+01   5.7856216955e+01    0.1770819    0.1206268  -8.64 0.0004291129    1.726    0.421
       115  -8.7722    110.9789     31.0502   4.7671971101e+01   5.2648579081e+01    0.2103485    0.1423299  30.84 0.0004258866    1.601    0.375
       116  -8.4150    101.9976     26.0215   4.8121918086e+01   5.5239620389e+01    0.1558957    0.1441076  25.76 0.0009928546    1.115    0.103
       117  -9.5094    178.9653     23.7637   3.4041016511e+01   3.7599214625e+01    0.3494003    0.2769884  80.03  0.001626548    1.096    0.088
       118 -10.0310    136.9932    223.2333   8.8853844454e+01   7.5986410100e+00    0.2432413    0.1993505 -44.38 0.0004151246    1.314    0.239
       119 -12.6390     28.7382    155.2596   1.0797143067e+02   3.9242139450e+01    0.8618246    0.7329873  -5.50  0.001455219    1.395    0.283
       120  -8.7904    224.5978    218.6608   6.9230856439e+01  -4.4096263372e+00    0.2573939    0.2020634  54.62  0.001288026    2.242    0.554
       121  -8.1677    224.2959     19.6104   2.8750183839e+01   2.8335999900e+01    0.1533209    0.1383485 -13.79 0.0005207395    1.669    0.401
       122  -8.7237    171.3895     19.1591   3.3817267729e+01   3.9827871145e+01    0.1888391    0.1649944  65.91 0.0004365981    1.190    0.159
       123  -9.3900    130.3276     18.9623   3.9771161647e+01   4.9444875380e+01     0.166905    0.1630384  20.91 0.0006797022    1.192    0.161
       124  -8.4988     88.7710    216.9101   9.9657757679e+01   1.6314195950e+01    0.1941341    0.1836985 -26.38 0.0003671009    1.179    0.152
       125  -9.3496    188.0476    209.4420   7.4894311728e+01   2.3569291351e+00     0.341259    0.2760814  81.09  0.001205694    2.280    0.561
       126  -8.0848    161.5072     16.5389   3.4380458570e+01   4.2378380894e+01    0.1734521    0.1015838  60.56 6.314963e-05    1.512    0.339
       127  -8.6598    160.0239    209.8938   8.1214867657e+01   6.6745903073e+00    0.2086112    0.1860215   2.18 0.0003540569    1.011    0.011
       128  -8.8209    238.5127    203.7782   6.3998980682e+01  -3.7666591517e+00    0.3279892    0.2191783 -66.48  0.001395013    4.106    0.756
       129  -9.1981     21.0681    200.6580   1.1460949376e+02   2.8424164515e+01    0.2170518    0.1776849 -67.64 0.0004160726    1.232    0.189
       130  -9.4997    192.4470    194.2388   7.1094261860e+01   4.5697290129e+00    0.8093679    0.3853201 -60.56   0.00227967    5.957    0.832
       131  -7.7638     68.4534    193.4510   1.0176621013e+02   2.4798123822e+01    0.1417559    0.1339286  74.12 0.0002571152    1.003    0.003
       132  -8.8476     23.9234    185.0765   1.1254844736e+02   3.1999160004e+01    0.1913004    0.1691659 -87.27            0    1.038    0.036
       133  -8.5074    242.1314    183.5733   5.9606455100e+01  -8.7372929147e-01    0.1983804    0.1503563 -37.93  0.000415887    1.225    0.184
       134  -7.9094    180.4007    182.2596   7.1325437606e+01   8.9553422961e+00    0.1882617    0.1361876 -50.73 0.0003274595    1.495    0.331
       135  -9.4440    222.6610    177.8782   6.1921892893e+01   2.9275508218e+00    0.2306167    0.1515458 -25.50  0.001183895    1.421    0.296
       136  -9.7579    238.5994    175.9766   5.8749002905e+01   9.2097269947e-01    0.3348126    0.2400851  64.63  0.001500089    2.607    0.616
       137  -9.2393    212.5089    176.8918   6.3625120155e+01   4.6861406972e+00    0.3933922    0.1864388  26.37    0.0015842    2.788    0.641
       138  -9.7585    228.5006    171.4977   5.9613667052e+01   3.1964090797e+00    0.2185913    0.2046692  -5.41   0.00110142    1.187    0.158
       139 -10.4858    231.0714    168.2030   5.8513593465e+01   3.3988094094e+00    0.5172578    0.2131964 -46.06  0.002178155    2.296    0.565
       140  -8.9003    187.3213    169.0308   6.7101389340e+01   1.0467628324e+01    0.2479838    0.2172392  44.96 0.0004878618    1.306    0.234
       141  -8.2797    184.7346    166.3456   6.7089380760e+01   1.1482986299e+01    0.2199174    0.1995772 -36.84 0.0002735166    1.101    0.091
       142 -11.7568     11.2676    164.7678   1.1400999456e+02   3.8221267810e+01    0.7812282    0.3928236 -76.63  0.003734751    1.723    0.420
