#   1 NUMBER                 Running object number                                     
#   2 MAG_AUTO               Kron-like elliptical aperture magnitude                    [mag]
#   3 X_IMAGE                Object position along x                                    [pixel]
#   4 Y_IMAGE                Object position along y                                    [pixel]
#   5 X_WORLD                Barycenter position along world x axis                     [deg]
#   6 Y_WORLD                Barycenter position along world y axis                     [deg]
#   7 A_WORLD                Profile RMS along major axis (world units)                 [deg]
#   8 B_WORLD                Profile RMS along minor axis (world units)                 [deg]
#   9 THETA_WORLD            Position angle (CCW/world-x)                               [deg]
#  10 FWHM_WORLD             FWHM assuming a gaussian core                              [deg]
#  11 ELONGATION             A_IMAGE/B_IMAGE                                           
#  12 ELLIPTICITY            1 - B_IMAGE/A_IMAGE                                       
         1 -14.0971    180.2330     54.6214   4.9035551740e+01   3.3133935518e+01     1.851042     1.108804  28.01  0.005698021    2.869    0.651
         2 -13.8200    200.9934     35.8995   4.1280906050e+01   3.0747065244e+01    0.7121867    0.6043507  80.20  0.001565481    1.120    0.107
         3 -14.2662    223.4032     10.3613   3.3155677185e+01   2.8671111492e+01    0.8649458    0.7136499 -69.28  0.003953635    1.053    0.050
         4 -13.4920     58.7681      2.7436   5.8690894614e+01   6.6719273622e+01    0.8868591    0.1451112  50.04  0.002979848    4.565    0.781
         5 -11.1584     55.4133    206.0452   1.1253403006e+02   2.4529430450e+01     0.303759    0.2138726  89.06  0.001045636    1.338    0.252
         6 -19.4669     15.0809    147.6047   1.1624038482e+02   4.2671359470e+01     19.40125     6.444676 -79.74   0.07360142    3.043    0.671
         7 -11.6813     41.5031    207.2665   1.1569637703e+02   2.5954082441e+01    0.3767961     0.191419  79.03  0.001392925    2.164    0.538
         8 -11.7100     93.8036    205.3837   1.0376778929e+02   1.9261333331e+01    0.2854351    0.1926216  25.71  0.001214661    1.721    0.419
         9 -11.9501     96.4935    202.0201   1.0269076126e+02   1.9582223988e+01    0.3290639    0.1624524 -57.86  0.001061666    2.091    0.522
        10 -11.3068     48.8745    217.3242   1.1501249133e+02   2.2880639065e+01    0.3380582    0.2760022  72.53  0.001259404    1.011    0.011
        11 -12.1190     62.6320    200.1183   1.1027561985e+02   2.4924152401e+01    0.3911961    0.2110112 -62.10  0.001242501    1.825    0.452
        12 -11.3778     66.1713    194.9045   1.0885246650e+02   2.5641059699e+01     0.465544    0.2612047  38.84  0.002288167    1.716    0.417
        13 -11.8290    191.9775    192.9691   7.9856346070e+01   4.9089001863e+00    0.9180604    0.4917428 -65.30  0.002494258    7.129    0.860
        14 -10.1775     74.8255    250.6543   1.1271181622e+02   1.2847581317e+01   0.09825494   0.08295406 -56.12 0.0001480261    1.517    0.341
        15 -16.6022     69.5167    144.5566   1.0058579311e+02   3.7419475456e+01     9.087541     4.518444  78.20   0.02261036    6.858    0.854
        16 -13.0650     53.0834    194.0895   1.1181250975e+02   2.7537367617e+01    0.5050389     0.294317 -44.72  0.001385751    2.279    0.561
        17 -11.6334     31.5462    195.4931   1.1684632476e+02   2.9717476077e+01    0.2381347    0.1483936  62.59 0.0006135389    1.461    0.316
        18 -10.5790     82.1476    194.7297   1.0506134390e+02   2.3409964877e+01    0.2685409    0.2170687  76.48  0.001183698    1.198    0.165
        19 -12.4597    148.9236    191.4837   8.8857566920e+01   1.2901833735e+01    0.4871902    0.3102226 -72.82  0.002048916    2.512    0.602
        20 -11.8003    146.4964    186.0080   8.8409038851e+01   1.4484882439e+01    0.2675082    0.2426722  25.06 0.0006996631    1.083    0.076
        21 -10.4851     81.4602    185.1746   1.0390947763e+02   2.5729170519e+01    0.3526013    0.1696731  63.20  0.001284051    3.082    0.676
        22 -12.2520     91.0192    182.7723   1.0119931467e+02   2.4827719373e+01    0.3326446    0.2556315 -81.55  0.001014334    1.353    0.261
        23  -9.9241     75.7642    246.4298   1.1215221614e+02   1.3507538814e+01    0.4099025   0.08840704 -62.14  0.001518531    4.652    0.785
        24 -12.7586     99.1450    181.0001   9.8907206556e+01   2.3937235956e+01    0.3145087    0.2956724  60.06  0.000737853    1.041    0.039
        25 -11.2021    185.9202    173.6714   7.7273368439e+01   9.6191240076e+00    0.3305411    0.3014759 -52.09   0.00103673    1.224    0.183
        26 -12.0212     52.5669    167.5066   1.0876189769e+02   3.3948139831e+01    0.6673167    0.2771073 -46.38  0.002556896    3.019    0.669
        27 -11.7587     51.7142    171.6901   1.0952160859e+02   3.3030450705e+01    0.3076983    0.2849354  52.46 0.0004329483    1.178    0.151
        28 -11.5470     47.7190    172.3308   1.1061149320e+02   3.3356820176e+01    0.3916055    0.2208308 -59.05   0.00128677    1.676    0.403
        29 -10.7523    147.7369    174.0449   8.5829299586e+01   1.6808186454e+01    0.2029833    0.1928345 -46.75 0.0003860642    1.082    0.076
        30 -11.3715     88.9910    210.6318   1.0553820615e+02   1.8852958703e+01     0.311729    0.2174763 -84.45 0.0006703874    1.572    0.364
        31 -10.8957    231.3094    169.6448   6.7723345306e+01   2.2549032998e+00    0.1286707    0.1050989 -64.04 0.0007043135    1.727    0.421
        32 -12.4315     63.0987    248.8379   1.1481724151e+02   1.4735021708e+01    0.3108613    0.1677257  63.77  0.001364805    1.767    0.434
        33 -12.3428    133.8437    145.6876   8.3237304684e+01   2.5888269878e+01     1.257708    0.3240865 -54.63  0.002857615    5.943    0.832
        34 -13.1861     93.7562    150.5172   9.4906075866e+01   3.2174517126e+01    0.6679018     0.528441  -9.54  0.002217287    1.701    0.412
        35 -11.3403    112.1212    150.4421   8.9923850500e+01   2.8957812249e+01    0.4398596     0.273177  75.41  0.001610542    2.788    0.641
        36 -10.3889    174.8915    149.1539   7.4334750411e+01   1.6711967493e+01     0.229215    0.2105555 -77.62 0.0005873783    1.246    0.197
        37 -12.1001    105.7859    137.0182   8.8757496640e+01   3.3358934204e+01    0.5499377    0.3388524 -27.15  0.002129173    2.394    0.582
        38 -11.7173    106.0577    130.8724   8.7284455169e+01   3.4789629231e+01    0.4208322    0.3443592 -62.71  0.001193066    1.237    0.192
        39 -12.4900     93.7098    136.5709   9.2068074627e+01   3.5612850607e+01    0.3031956    0.2783711 -42.73  0.000412073    1.107    0.097
        40 -11.1751    135.8545    128.8035   7.8754046798e+01   2.9336746677e+01    0.4054419    0.1085079 -48.78  0.001094165    3.841    0.740
        41 -11.7422    113.6385    128.6045   8.4630676842e+01   3.3888162106e+01    0.3312926    0.2897699  14.99 0.0007038704    1.286    0.222
        42 -11.1412    101.0771    124.4149   8.7188475568e+01   3.7259492359e+01    0.2941465    0.2515073 -20.34 0.0006116328    1.322    0.243
        43 -11.7385    119.8086    123.0249   8.1567784300e+01   3.3971960806e+01    0.3385379    0.2660167  11.35  0.001558238    1.604    0.376
        44 -10.9386    135.0000    120.3993   7.6866728949e+01   3.1407357705e+01     0.348827   0.08848304 -45.73 0.0009271011    3.873    0.742
        45 -10.1361    109.2743    117.9967   8.3248271596e+01   3.7229963348e+01    0.2124077    0.1938911 -49.19 0.0002856395    1.064    0.060
        46 -10.7940    231.2462    113.8415   5.5686085071e+01   1.1939320285e+01    0.2311072    0.2251826  -4.47 0.0007678161    1.139    0.122
        47  -9.7327    167.9760    112.9760   6.7096346243e+01   2.5683952869e+01     0.318248    0.1921735 -80.53 0.0009572654    4.119    0.757
        48 -12.5571    117.7671    108.9482   7.8482651055e+01   3.7597825158e+01    0.5495558    0.4369156 -86.99  0.002548938    1.636    0.389
        49 -10.1826    205.3694    110.1904   5.9071425620e+01   1.7915472344e+01    0.2350682    0.2018798  37.76 0.0007955477    1.293    0.227
        50  -9.0582     65.3602    206.8867   1.1040544153e+02   2.3040422648e+01    0.3552754    0.1815705 -51.66  0.001461166    2.276    0.561
        51 -10.4423     63.9367     99.4798   9.2722817249e+01   4.9282373033e+01    0.2059965    0.1424853  31.78 0.0007668498    1.565    0.361
        52  -9.8453     60.1887    218.6544   1.1274086510e+02   2.1165911780e+01    0.1223672    0.0797451  78.70  0.000614694    1.517    0.341
        53 -10.3830     58.3575    248.2510   1.1567700739e+02   1.5453475293e+01    0.1668732    0.1184206 -74.70 0.0006996873    1.491    0.329
        54 -14.1753    195.4744     42.0061   4.3503304889e+01   3.1248102269e+01    0.8598949    0.8006248  -8.82  0.003815939    1.326    0.246
        55 -10.4798     71.9393    244.1859   1.1270296296e+02   1.4449185926e+01    0.1996441    0.1441766  85.74  0.001042387    1.388    0.280
        56 -11.3008    198.1456     23.5960   3.8559308632e+01   3.2913229300e+01    0.2344702    0.1915573 -26.31 0.0007442735    1.441    0.306
        57 -10.9757     58.3257    224.6425   1.1369335742e+02   2.0145795440e+01    0.3164118    0.1861954  66.91 0.0009602961    1.644    0.392
        58 -11.0940     57.1685    211.4507   1.1268838842e+02   2.3111757937e+01    0.3168562    0.2339934  46.87 0.0006866325    1.257    0.204
        59 -12.0169     74.0862     13.1103   5.8383879897e+01   6.2836669665e+01    0.3399212    0.1815587  63.14  0.001591829    2.488    0.598
