#   1 NUMBER                 Running object number                                     
#   2 MAG_AUTO               Kron-like elliptical aperture magnitude                    [mag]
#   3 X_IMAGE                Object position along x                                    [pixel]
#   4 Y_IMAGE                Object position along y                                    [pixel]
#   5 X_WORLD                Barycenter position along world x axis                     [deg]
#   6 Y_WORLD                Barycenter position along world y axis                     [deg]
#   7 A_WORLD                Profile RMS along major axis (world units)                 [deg]
#   8 B_WORLD                Profile RMS along minor axis (world units)                 [deg]
#   9 THETA_WORLD            Position angle (CCW/world-x)                               [deg]
#  10 FWHM_WORLD             FWHM assuming a gaussian core                              [deg]
#  11 ELONGATION             A_IMAGE/B_IMAGE                                           
#  12 ELLIPTICITY            1 - B_IMAGE/A_IMAGE                                       
         1 -15.2107    213.1441    130.6048   1.2149241591e+01   1.5773898026e+01     3.407787     1.434947 -27.96   0.01375171    3.081    0.675
         2 -16.3214    245.1290     77.7961   3.5783372416e+02   1.8783117819e+01     2.894944    0.9437799 -32.40   0.01269302    2.911    0.656
         3 -14.0652    235.6576     32.7528   3.4952062333e+02   2.6013460887e+01      1.77135      0.89501 -39.15   0.01089667    1.505    0.335
         4 -15.2792    214.7910     44.4509   3.5348922897e+02   2.8312658086e+01     2.354938     1.257592 -43.85   0.01364937    1.444    0.308
         5 -15.1799    201.3179     68.1013   1.6670265601e-01   2.7622148782e+01     1.658702     0.931186 -39.98  0.008653389    1.475    0.322
         6 -14.6736    139.9858      7.6992   3.5067840830e+02   4.8547735189e+01     1.535129     1.036801 -66.91  0.008878897    1.351    0.260
         7 -15.8365    126.1290     14.7310   3.5461552061e+02   5.1185560602e+01     2.013446     1.769577 -76.09   0.01276595    1.035    0.033
         8 -12.9766    103.3941     21.2346   7.4185731345e-01   5.6044964504e+01    0.3801674    0.2599323 -37.90  0.001588046    1.515    0.340
         9 -15.1742    133.8966     27.0793   3.5765245306e+02   4.7936211605e+01     1.422159     1.075312  20.21  0.007652301    1.910    0.476
        10 -12.1270     81.1095      7.4338   3.5953510160e+02   6.2904586948e+01    0.2711601    0.1543255 -45.70  0.001348316    1.936    0.483
        11 -12.1578    104.4690      6.2487   3.5462410443e+02   5.7298054653e+01    0.2797325    0.1706559 -37.45  0.001341173    1.689    0.408
        12 -10.1645    210.5152      3.9719   3.4480440433e+02   3.3683272470e+01    0.1286113   0.09567086   6.12 0.0007762224    2.332    0.571
        13 -11.3299    163.5523    246.7890   4.0673659222e+01   3.1285877556e+00    0.2440806    0.1090031 -48.35  0.001296072    2.578    0.612
        14 -11.7628    193.1923    247.8904   3.5366478197e+01   4.3819793552e-02    0.4187625    0.2022628 -49.01  0.002327744    2.841    0.648
        15 -11.9829     21.2931    248.9709   7.1732732876e+01   1.7487250272e+01    0.3312338    0.1698128  50.73  0.001368797    1.618    0.382
        16 -12.5511     12.1359    248.0722   7.3717936058e+01   1.8442438919e+01    0.5139166      0.16866  51.26  0.002439603    2.424    0.588
        17 -11.8564      5.0279    249.7924   7.5321569630e+01   1.8689847574e+01    0.3233145    0.1590424  33.87  0.001884827    1.539    0.350
        18 -10.5652     27.2298    248.1954   7.0378151374e+01   1.7111920379e+01    0.1771157    0.1065335  47.94  0.001070733    1.364    0.267
        19 -11.4892    208.9874    246.3326   3.2455292065e+01  -1.2065950605e+00    0.3110898    0.2176296   1.82  0.002024698    1.118    0.105
        20 -10.6306    175.5090    247.0325   3.8444414897e+01   1.8797163899e+00    0.1570845    0.0993441 -36.45  0.001030741    1.584    0.369
        21 -10.2299    250.5327    244.8341   2.5837338090e+01  -4.4757891571e+00    0.1361055   0.07166866 -29.69 0.0007959471    1.473    0.321
        22 -11.1369    202.1498    242.4917   3.3075873176e+01  -7.7569550478e-02    0.2406061     0.158857 -48.54  0.001213998    2.169    0.539
        23 -12.5234      3.2345    242.3826   7.5498328122e+01   2.0286365509e+01    0.4243671     0.170722  51.38  0.002216516    1.945    0.486
        24 -10.2256    224.0327    236.5151   2.8636632477e+01  -1.2955093873e+00    0.1502085    0.1235219 -33.65 0.0007314426    1.641    0.391
        25 -10.5905    226.0403    243.5000   2.9310063802e+01  -2.3428820358e+00    0.1719604    0.1059488 -12.70  0.001052789    1.246    0.198
        26 -10.4072    224.7014    240.6543   2.9120142908e+01  -1.8752938045e+00    0.1864491    0.1091057 -20.78 0.0009717388    1.335    0.251
        27 -11.5070    168.4975    242.0635   3.9103765607e+01   3.3157776974e+00    0.1635814    0.1030663 -38.15  0.001038673    1.607    0.378
        28 -11.3705    224.0470    227.7412   2.7357838658e+01  -1.6461331473e-01    0.9138895    0.2508319 -45.59  0.003584718    5.110    0.804
        29 -11.2375    228.5610    220.7428   2.5608538324e+01   3.3780346172e-01    0.2882935    0.1769521  21.80   0.00152647    1.656    0.396
        30 -13.5173    199.9962    199.2615   2.6894216894e+01   6.4011810475e+00    0.8744426    0.6070468 -10.70  0.005618464    1.312    0.238
        31 -11.8251    215.9798    233.9288   2.9554010024e+01  -2.3222835563e-01    0.7247407    0.3359935 -37.97  0.004404341    1.942    0.485
        32 -12.3308    212.3177    207.6121   2.6162490379e+01   3.7784396805e+00     1.585666    0.1792397 -41.04  0.004591405    7.067    0.859
        33 -12.5800    216.3174    222.9507   2.7880238598e+01   1.2081091610e+00    0.4185275    0.3846832 -18.02  0.002436696    1.566    0.361
        34 -12.4166    218.3820    217.1375   2.6663284869e+01   1.8048510954e+00    0.4033882    0.2533273  21.78  0.002619379    1.598    0.374
        35 -11.1823    183.7563    239.8912   3.5960439144e+01   2.0690259000e+00    0.2645906    0.2119369 -64.08  0.001591596    2.328    0.570
        36 -12.0007     17.3521    240.2759   7.2255369205e+01   1.9545432122e+01    0.3291924    0.1056193  39.36  0.001540545    2.178    0.541
        37 -11.0898    248.2314    239.3747   2.5402499080e+01  -3.6684845540e+00    0.1852668    0.1070552 -32.30 0.0009893456    1.487    0.327
        38 -12.6047    216.4782    210.3651   2.5918640639e+01   2.9473251040e+00      0.37687    0.3648441   0.43  0.002030793    1.642    0.391
        39 -11.6677    176.4153    234.6549   3.6589322655e+01   3.5892619524e+00    0.2627615    0.1329025 -43.33  0.001020625    2.030    0.507
        40 -11.5007    230.6836    236.2227   2.7559605640e+01  -1.8400681699e+00    0.2763402    0.1940254 -47.11  0.001945753    2.235    0.553
        41 -11.7678    191.2156    235.6277   3.4018552017e+01   1.9251987164e+00    0.3192505    0.2730937 -78.52  0.002034449    2.553    0.608
        42 -11.2239    206.5032    235.8143   3.1394728266e+01   4.0560429024e-01    0.3009692     0.205192 -35.32  0.001891473    1.486    0.327
        43 -11.7407    170.8121    235.4842   3.7766197185e+01   4.0583210973e+00    0.1993608    0.1599876 -59.38  0.001323859    1.940    0.485
        44 -11.6719      6.7959    235.5809   7.4485010021e+01   2.1380459887e+01    0.1787843   0.08174113  36.30 0.0009498863    1.663    0.399
        45 -10.4576    202.1174    231.9005   3.1576469349e+01   1.3645183931e+00    0.1544092     0.130277  -9.17 0.0006622111    1.265    0.209
        46 -11.6697     12.1579    231.9585   7.3116503601e+01   2.1693383217e+01    0.2011911    0.1301306  52.17 0.0009649522    1.279    0.218
        47 -11.2978    229.2125    227.5934   2.6530845248e+01  -6.1657248911e-01    0.2326733    0.1504393 -36.81  0.001512588    1.560    0.359
        48 -11.5639    173.7064    229.1457   3.6321059001e+01   4.7143479096e+00     0.163267    0.1501926 -39.17  0.001187603    1.487    0.327
        49 -10.8352    184.1945    227.4771   3.4116216513e+01   3.8377770907e+00    0.2204118    0.2091736   7.72 0.0009281703    1.485    0.326
        50 -11.8676    180.3857    223.9549   3.4304874149e+01   4.7830937465e+00    0.4241169    0.1737546 -46.31  0.002091398    2.582    0.613
        51 -11.9449    178.8238    217.3866   3.3614285984e+01   5.9811484426e+00    0.2867562    0.2624582 -15.30  0.001440388    1.302    0.232
        52 -10.8482    199.1346    226.3987   3.1285181940e+01   2.4377455496e+00     0.199613    0.1420204 -34.42 0.0008068465    1.391    0.281
        53 -10.6839    190.7654    225.8819   3.2687808264e+01   3.3792577050e+00    0.1884416    0.1361517 -34.22 0.0007597291    1.367    0.268
        54 -11.1933     12.3851    226.1623   7.2830079643e+01   2.2902951718e+01    0.1719926   0.09899783  74.39 0.0009462424    1.706    0.414
        55 -11.1032    206.1744    224.7558   2.9832980605e+01   1.9590554621e+00    0.2056922    0.1451822 -21.43 0.0008345555    1.145    0.127
        56 -11.2747    185.7143    221.4043   3.2937987671e+01   4.5907471157e+00    0.3122737    0.1647127 -46.23  0.001237386    2.071    0.517
        57 -10.9018    174.5813    222.7923   3.5230155138e+01   5.6064591453e+00    0.1513719     0.109895 -49.40 0.0009474889    1.717    0.418
        58 -10.2583    201.9729    221.0073   2.9986523185e+01   2.9205855750e+00     0.144402    0.1366555 -24.42 0.0007254572    1.576    0.365
        59 -11.5550      1.9922    220.2444   7.5097742954e+01   2.5018341801e+01     0.233757    0.1278484  70.15  0.001274567    1.688    0.408
        60 -11.2205    193.8477    218.0661   3.0961748179e+01   4.2123364785e+00    0.2420769    0.2041786 -47.59  0.001197945    1.651    0.394
        61 -10.7623    205.4393    217.0903   2.8795910745e+01   3.1265090134e+00    0.2182908    0.1421991 -25.31 0.0009189309    1.263    0.208
        62 -10.0985    201.2196    214.9510   2.9188675820e+01   3.8841558904e+00    0.1425868   0.08043368 -37.52 0.0005459026    1.599    0.375
        63 -11.8671    185.4647    211.4219   3.1453573722e+01   6.1667507130e+00    0.4341597    0.2458365 -37.55  0.002519138    1.612    0.380
        64 -10.3633    182.7798    206.9937   3.1252872243e+01   7.1861713821e+00    0.1817152    0.1608832   0.42 0.0008852602    1.195    0.163
        65 -11.4012    233.3365    212.5250   2.3624829132e+01   9.7956427043e-01    0.2827276    0.1678744 -20.30  0.001272281    1.347    0.257
        66 -11.9342    229.1123    205.0184   2.3088255589e+01   2.4126529635e+00    0.5214249    0.1894715 -43.42  0.002591547    2.712    0.631
        67 -11.4439    170.5823    216.5952   3.5076159830e+01   7.0560132656e+00    0.2218632    0.1926669 -24.25   0.00106122    1.215    0.177
        68 -11.7780    177.0899    210.2051   3.2835899326e+01   7.3358461150e+00    0.3613722    0.2229073 -58.56    0.0018776    2.572    0.611
        69 -12.6782    164.1491    204.5847   3.4491020829e+01   9.8578341944e+00    0.5062314    0.2749641 -13.77  0.002300722    2.585    0.613
        70 -10.8128    224.9094    207.1776   2.4077749438e+01   2.5358370717e+00    0.1983218    0.1239648 -31.06  0.001069045    1.293    0.226
        71 -11.9735    170.9783    206.9784   3.3511230768e+01   8.6040049633e+00    0.2584289    0.2262457 -81.42  0.001545826    1.892    0.471
        72 -11.4305    172.7308    203.3643   3.2591403391e+01   8.9998816393e+00    0.2315245    0.1592424 -37.88 0.0008616376    1.377    0.274
        73 -10.9224    217.4095    203.6220   2.4696329444e+01   3.8172668944e+00    0.2353119    0.1310852 -23.67  0.001013458    1.569    0.363
        74 -10.7337    187.1849    202.6672   2.9739986475e+01   7.3636153429e+00    0.2647615    0.1582013 -54.88  0.001386619    2.398    0.583
        75 -11.0248    192.6899    172.9038   2.3610066783e+01   1.1612782068e+01    0.4326197   0.09439504 -39.11  0.001389871    4.319    0.768
        76 -11.8577    183.6094    181.9340   2.6885315270e+01   1.1279387956e+01    0.4026138    0.1764172 -33.76    0.0018253    2.235    0.553
        77 -11.4289    178.5191    203.4874   3.1494647627e+01   8.2704551057e+00    0.2347231    0.1818367 -40.95 0.0009598033    1.367    0.268
        78 -11.1105    185.4467    189.2972   2.7827175859e+01   9.7837564701e+00    0.3387221    0.1622555 -30.21  0.001621714    2.111    0.526
        79 -11.9920    189.3745    185.1070   2.6381765436e+01   9.9861264816e+00    0.4200522     0.206083 -42.16   0.00214077    1.846    0.458
        80 -12.1308    190.0961    178.8459   2.5146173969e+01   1.0949081910e+01    0.3844067    0.3239142  30.22  0.002099631    1.370    0.270
        81 -12.5658    176.0104    197.4669   3.0991244878e+01   9.5937864275e+00    0.5016069    0.2077285 -47.91  0.002079682    2.521    0.603
        82 -11.5097    183.8407    194.9086   2.9078123680e+01   9.0444921859e+00    0.3432935    0.2292636 -43.32  0.001446454    1.497    0.332
        83 -12.3713    179.0320    191.9639   2.9488349276e+01   1.0150682109e+01    0.3781922    0.2538925 -47.80  0.002178872    1.609    0.379
        84 -10.8322    235.2630    202.8714   2.1823631869e+01   2.0955977491e+00    0.1597211    0.1173734 -26.74 0.0008752557    1.167    0.143
        85 -12.8709    203.3359    187.4502   2.4335004590e+01   7.8630842224e+00    0.5411711    0.3876396 -11.75  0.003479919    1.280    0.219
        86 -10.8380    223.7766    200.7401   2.3224762485e+01   3.5604504914e+00    0.2004593    0.1129391 -28.55 0.0008199346    1.425    0.298
        87 -10.9626    237.5478    197.5147   2.0631178556e+01   2.6009934838e+00    0.2373263    0.1319404 -28.46  0.001138325    1.385    0.278
        88 -11.1192    231.1216    198.1455   2.1682359596e+01   3.1654037832e+00    0.2478912    0.1260919 -32.92  0.001154326    1.547    0.353
        89 -10.9427    231.2030    193.4362   2.0902483849e+01   3.8199574003e+00    0.3033859    0.1286095 -32.68  0.001374742    1.911    0.477
        90 -12.7271    220.8212    192.8122   2.2387217579e+01   5.0258197165e+00    0.8052195    0.5156851  -9.55    0.0051436    1.524    0.344
        91 -14.0194    217.8645    172.5858   1.9373974549e+01   8.4265451937e+00     1.334991    0.8811574 -42.67  0.008383765    1.439    0.305
        92 -11.5742    172.0295    190.0307   3.0516301846e+01   1.1398165188e+01    0.2279116    0.1781186  21.80  0.000995806    1.277    0.217
        93 -11.1215    215.5711    188.5324   2.2501228783e+01   6.2540702718e+00    0.3644074    0.1145733 -41.11  0.001623147    2.704    0.630
        94 -11.1813    250.1674    185.1882   1.6862074751e+01   3.0159110072e+00    0.3628678    0.1189901 -42.41  0.001774165    2.734    0.634
        95 -10.5305    244.1002    187.6271   1.8090573796e+01   3.2962662614e+00    0.1432808    0.1087999 -10.50 0.0006849606    1.153    0.133
        96 -10.5928    237.5048    186.4862   1.8832643123e+01   4.1381476891e+00    0.2468957    0.1345556 -31.35  0.001555664    1.408    0.290
        97 -13.0031    248.2643    171.0974   1.4764593054e+01   5.1489213721e+00     1.230989    0.2731965 -41.59  0.004904678    3.752    0.733
        98 -10.4514    193.5146    187.4572   2.6044854473e+01   9.0707200295e+00    0.2524571      0.10502 -41.29  0.001198848    2.127    0.530
        99 -10.7096    230.4745    186.4836   1.9857463253e+01   4.8914105298e+00    0.2231226   0.08853971 -38.09  0.001080802    2.016    0.504
       100 -14.1024    220.3093    157.9542   1.6354486119e+01   1.0399995856e+01     1.428117     1.080018  69.62  0.008547618    2.488    0.598
       101 -11.0323    241.3253    179.5713   1.7136882242e+01   4.7058888277e+00    0.3450741    0.1430063 -38.97  0.001901686    1.906    0.475
       102 -13.3654    181.9117    174.2957   2.5829831947e+01   1.2843899033e+01     0.938408    0.4589801 -19.58  0.003559367    3.578    0.720
       103 -12.8664    177.3653    167.5910   2.5448712053e+01   1.4689404383e+01    0.4544049    0.2985062 -41.26  0.002055016    1.382    0.277
       104 -14.0666    186.5147    161.2225   2.2535211756e+01   1.4504532060e+01     1.461646    0.7658993 -29.27  0.006971761    1.979    0.495
       105 -12.7135    241.1709    233.0525   2.5525990185e+01  -2.3407587272e+00     1.220507    0.4557287 -48.02  0.004761179    6.501    0.846
       106 -15.3493    240.1244    147.4281   1.1668550010e+01   9.4869033044e+00     2.009511    0.9398739 -29.77   0.01083604    1.899    0.473
       107 -10.9366    233.0321    174.0557   1.7367224411e+01   6.4132959318e+00    0.2653179    0.1301533 -37.46  0.001292835    1.606    0.377
       108 -10.1175    161.5793    175.2294   3.0015996853e+01   1.5562077711e+01    0.1914532    0.1132673 -34.61 0.0009456401    1.623    0.384
       109 -11.3090    196.7985    156.5954   1.9842355178e+01   1.3827505694e+01    0.3070689    0.2375153 -29.78   0.00119009    1.085    0.078
       110 -11.0393    205.8433    169.7889   2.0793815861e+01   1.0388796788e+01    0.2567993     0.146991 -41.12 0.0007921018    1.524    0.344
       111 -13.4206    242.4264    129.7972   8.1303484961e+00   1.1783457232e+01    0.4777752    0.2837331 -30.65  0.002447255    1.387    0.279
       112 -10.8472    205.8058    161.7182   1.9313604175e+01   1.1714763072e+01    0.2368334    0.1726004 -21.26 0.0008176823    1.239    0.193
       113 -11.5982    191.3401    164.9702   2.2381231424e+01   1.3159466158e+01    0.3622781    0.1946012 -44.83  0.001534948    1.724    0.420
       114 -10.4177    251.0000    157.5653   1.2085649810e+01   6.7430719257e+00    0.2354313   0.04777281 -38.76  0.000900436    3.663    0.727
       115 -10.6403    205.9943    153.9001   1.7807257235e+01   1.2980474570e+01    0.1924461    0.1568627 -25.30 0.0007961037    1.036    0.035
       116 -15.4228    243.8314    118.9448   5.9245658460e+00   1.3177610846e+01     1.110681    0.9189379 -26.36  0.006837557    1.176    0.150
       117 -10.5858    196.7328    149.6640   1.8507065165e+01   1.5027127306e+01     0.242572    0.1300673 -32.57 0.0009254745    1.711    0.416
       118 -11.4280    224.1284    146.4366   1.3651977347e+01   1.1697422317e+01    0.2495646    0.1674787 -29.54 0.0009303716    1.229    0.186
       119 -10.6211    235.5546    179.8798   1.8002907058e+01   5.2870120919e+00    0.2067411   0.08523205 -35.39  0.001102331    1.896    0.473
       120 -13.3159    239.6458    239.7564   2.6709434495e+01  -3.0241023043e+00    0.9970074    0.4945824 -30.06  0.006865148    1.575    0.365
       121 -10.2552    218.9408    144.0227   1.3937689652e+01   1.2782943471e+01    0.1864351    0.1242258 -18.47 0.0007552338    1.581    0.367
       122 -10.1248    194.4984    142.9594   1.7548964180e+01   1.6523974577e+01    0.2027501    0.1104322 -40.27  0.001022802    1.560    0.359
       123 -10.0438    181.6061    141.2085   1.9441455216e+01   1.8864601679e+01    0.1883743    0.1123423 -34.50 0.0009376439    1.539    0.350
       124 -10.8738    224.5676    139.2700   1.2229490771e+01   1.2755000127e+01    0.3243736    0.1628065 -40.10  0.001481927    1.579    0.367
       125 -11.4472    225.9680    133.5430   1.0937010099e+01   1.3451466628e+01    0.3356664    0.1677249 -31.89  0.001000852    1.751    0.429
       126 -10.7887    197.4331     99.2153   7.7590813373e+00   2.3500982157e+01    0.2032489    0.1807209  55.79 0.0005913448    1.339    0.253
       127 -12.1361    184.8349    112.4697   1.2667809032e+01   2.3496063339e+01    0.4588244    0.3334652 -51.69  0.002567972    1.298    0.230
       128 -14.0209    169.9363    123.7396   1.7835290707e+01   2.4108311562e+01     1.956596    0.6669337 -38.30  0.006963924    2.886    0.653
       129 -13.0366    189.4634    116.9669   1.2911312113e+01   2.1893069230e+01       1.0804    0.5456654 -27.18  0.004593191    2.496    0.599
       130 -12.9068    196.5976    106.6459   9.5322102674e+00   2.2417126726e+01    0.7857711    0.6067285  -1.53  0.004190093    1.764    0.433
       131 -13.6897    177.9535    121.9943   1.5976309749e+01   2.3006164363e+01     1.040434    0.7437774 -14.12  0.005362387    1.784    0.439
       132 -10.5497    193.3053    209.3759   2.9706739992e+01   5.5954513173e+00    0.1784527    0.1357555 -50.28  0.001035145    1.737    0.424
       133 -10.1481    192.5819    136.0025   1.6451871598e+01   1.8038550840e+01    0.2048739    0.1104039 -39.94  0.001014409    1.579    0.367
       134 -10.5702    187.6533    134.5113   1.6978368157e+01   1.9094745990e+01    0.2328248    0.1090111 -41.55 0.0008862562    1.837    0.456
       135  -9.7258    182.2979    133.3413   1.7668136203e+01   2.0186863521e+01    0.1362006   0.09815193 -13.93 0.0007034091    1.665    0.399
       136 -12.1122    178.5403    114.2524   1.4133677804e+01   2.4311105192e+01    0.4225905    0.3220336 -59.36  0.001662987    1.384    0.277
       137 -10.2136    192.6684    128.2105   1.4810250515e+01   1.9388364689e+01    0.1945739    0.1049951 -33.95 0.0009369725    1.712    0.416
       138 -10.1341    199.7575    125.9074   1.3194408437e+01   1.8633283321e+01     0.171893   0.09342344 -38.12 0.0008629611    1.549    0.354
       139  -9.5348    157.6772    119.6885   1.9310763771e+01   2.7142192525e+01    0.1421503     0.110309  -7.40 0.0007038678    1.654    0.395
       140 -12.4990    206.7901    208.1324   2.7166533227e+01   4.2941317925e+00    0.8390107    0.3636335 -49.66  0.003925685    3.172    0.685
       141 -10.3712    249.3013    107.0042   3.0692399042e+00   1.4136758722e+01    0.1734051    0.1066834 -37.71  0.001126438    1.200    0.166
       142 -14.6279    232.6629     87.3774   9.4158607132e-01   1.9386143705e+01     1.363578    0.6915495 -24.26  0.006653247    2.558    0.609
       143 -10.7591    205.4667    105.0798   7.9229359231e+00   2.1149533468e+01    0.2533695    0.1333558 -39.49 0.0008938246    1.559    0.358
       144 -10.2230    213.5521    104.6840   6.7554555543e+00   1.9865872152e+01    0.2289623    0.1034729 -35.86 0.0007747061    1.883    0.469
       145 -10.4172    226.7865    214.6650   2.4955528103e+01   1.3202960131e+00    0.4228063    0.3929473 -24.17  0.003423267    1.640    0.390
       146 -11.0809    216.2522     98.8654   5.1839936049e+00   2.0329016310e+01    0.2874449    0.1938393 -72.23   0.00162228    1.977    0.494
       147 -10.0569    160.6249    101.2424   1.4293635236e+01   3.0117671834e+01    0.1958196    0.1252786 -34.36 0.0005684904    1.561    0.359
       148 -10.1134    184.5697     97.2574   9.2219209203e+00   2.6183279795e+01    0.1774394    0.1170258 -32.42 0.0005777809    1.476    0.322
       149 -11.6766    235.1264    229.0053   2.5837155654e+01  -1.3220991350e+00    0.3520182    0.1574781 -36.67   0.00187347    1.890    0.471
       150 -13.6601    183.1917     65.1674   1.6654024132e+00   3.1621013309e+01     1.556164     1.068948  49.51  0.008659841    1.774    0.436
       151 -10.0505    198.0958     92.5157   6.1598129257e+00   2.4470222274e+01    0.1662996    0.1293914  56.77 0.0007088684    1.522    0.343
       152 -13.3478    244.6927    226.4875   2.4055413435e+01  -1.8329607480e+00    0.6733384    0.5085006 -49.60  0.004893821    2.374    0.579
       153 -10.3691    158.1287     90.6199   1.2079123164e+01   3.2582829191e+01    0.2317055    0.1566793 -37.47 0.0005879237    1.414    0.293
       154 -10.3766    218.4702     90.1305   3.0676569626e+00   2.1290113453e+01    0.1892026    0.1392808 -61.35 0.0006749519    1.370    0.270
       155  -9.9380    214.6389     88.2868   3.1219785227e+00   2.2215626955e+01    0.1262162   0.08215101 -63.20 0.0007022729    1.686    0.407
       156 -10.1673    150.6527     88.1667   1.2861537934e+01   3.4596664592e+01    0.2016551    0.1278622 -34.21 0.0005844046    1.621    0.383
       157 -10.6047    164.0645     87.0267   1.0090036971e+01   3.1998198404e+01    0.2125679    0.1854154 -47.25 0.0005311785    1.048    0.046
       158 -10.7830    225.8188     81.9857   5.4150980284e-01   2.1264590023e+01    0.2061239    0.1237666 -45.44 0.0007035115    1.297    0.229
       159 -10.0758    222.2266     85.1515   1.5904362321e+00   2.1401211090e+01    0.2739897    0.1950566  -2.53  0.001535164    2.313    0.568
       160 -10.7312    218.3614     85.2123   2.0329040869e+00   2.2041805790e+01    0.3040163    0.1575644  54.41  0.001643605    2.375    0.579
       161 -10.5315    206.7930     85.2394   3.4003698425e+00   2.4049010399e+01    0.3164561     0.208491 -75.27  0.001730748    1.954    0.488
       162 -10.8256    189.7568     94.0135   7.6843897201e+00   2.5757697179e+01    0.1994002    0.1919286  67.11 0.0006023608    1.214    0.177
       163 -10.7990    159.2086     82.1752   9.6846003561e+00   3.3860792235e+01      0.27007    0.1821347 -30.30 0.0006994544    1.599    0.375
       164 -10.1072    220.4792     79.9165   6.7001435033e-01   2.2458222431e+01    0.3223813   0.08806956 -39.56  0.001308995    2.714    0.631
       165 -11.0042    215.0999     80.1409   1.3068453331e+00   2.3351110482e+01    0.2146872    0.1455045 -48.51 0.0006314917    1.199    0.166
       166 -10.7042    211.7571     76.6352   9.1347627655e-01   2.4455065456e+01    0.2529796    0.1739009 -61.31 0.0007048508    1.417    0.294
       167 -10.3004    210.4434     81.5388   2.1444097062e+00   2.3961119853e+01    0.1286116   0.09861801 -51.57 0.0008048115    1.098    0.089
       168  -9.8412    142.6724     81.3178   1.2590988672e+01   3.7570920529e+01    0.1510368    0.1079432 -73.87  0.000549487    1.679    0.405
       169 -11.2916    167.0440     78.0253   7.2756435074e+00   3.2922315360e+01     0.292912    0.1908309 -30.78 0.0007712691    1.623    0.384
       170 -10.5024    150.4712     78.9614   1.0415905605e+01   3.6295868630e+01    0.2179529    0.1312781 -41.08 0.0005484347    1.545    0.353
       171 -10.7940    223.7326     76.1149   3.5952292577e+02   2.2451886131e+01    0.1832506      0.12476 -49.34 0.0006780053    1.176    0.150
       172 -10.4931    157.1875     75.4364   8.2454282647e+00   3.5452529582e+01     0.231221    0.1800222 -32.65 0.0006127289    1.333    0.250
       173 -10.2776    219.7276     74.8028   3.5965544170e+02   2.3322852939e+01    0.1617479    0.1115925 -56.33 0.0006699286    1.289    0.224
       174  -9.4921    228.4085     74.4136   3.5870063124e+02   2.1907812297e+01    0.1198819    0.0897183 -48.47 0.0002153805    1.041    0.040
       175 -11.1709    175.4811     72.1078   4.4659004691e+00   3.2132268874e+01    0.3360947    0.2496446  15.51   0.00117661    2.212    0.548
       176 -11.4589    170.5057     70.8432   4.8771955251e+00   3.3370220502e+01    0.4495677    0.2659282 -45.89  0.002253609    1.487    0.328
       177 -11.2250    163.4816     71.3519   6.1013795356e+00   3.4778995195e+01     0.275733    0.2124004 -33.45 0.0008384652    1.326    0.246
       178 -10.7123    222.4736     70.9449   3.5855173173e+02   2.3395273042e+01    0.2314452    0.1098772 -51.05 0.0005658067    1.821    0.451
       179 -10.7056    218.6354     68.4902   3.5840593623e+02   2.4405921836e+01    0.2928939    0.1464749 -38.48  0.001578479    1.597    0.374
       180 -10.1928    149.7764     71.5839   8.5049950116e+00   3.7724983074e+01    0.1809188    0.1335392  77.51 0.0004716295    1.490    0.329
       181 -10.3742    156.8059     69.1620   6.6065752259e+00   3.6582956680e+01    0.1777003    0.1637863 -14.67 0.0005613343    1.299    0.230
       182 -11.6719    145.6087     65.7741   7.6146694660e+00   3.9629196577e+01    0.3935641    0.2313239 -35.62  0.001616458    1.700    0.412
       183 -11.5494    162.6877     52.5645   1.1385585867e+00   3.7854553422e+01    0.4006024    0.2169746 -36.32  0.001169634    1.738    0.425
       184 -11.3255    157.5161     60.6315   4.1385814322e+00   3.7789025875e+01    0.3119414    0.2269669 -32.18 0.0008375052    1.435    0.303
       185 -13.5958    145.8676     56.1387   4.7613613804e+00   4.1112845110e+01    0.9463482    0.6695164  24.42  0.004501562    2.245    0.555
       186 -12.7250    152.9971     57.0657   3.8529910502e+00   3.9349773956e+01    0.8941655    0.3297158 -31.19  0.003231752    3.092    0.677
       187 -11.5458    157.1860     54.8013   2.5615795526e+00   3.8750724134e+01    0.3845638    0.2713237 -14.13  0.001493266    1.997    0.499
       188 -10.4204    152.4687     65.9946   6.4647129429e+00   3.8057348276e+01    0.2098805    0.1302662 -37.52  0.000638707    1.549    0.355
       189 -10.3075    215.8441     94.2295   4.2507659578e+00   2.1108661186e+01    0.1837391    0.1329942 -51.42  0.000498272    1.211    0.174
       190 -10.2997    164.8524     58.8278   2.5358691057e+00   3.6450384338e+01    0.1875913    0.1765458 -37.15 0.0005825591    1.201    0.167
       191 -10.2278    237.4006     56.2340   3.5417250907e+02   2.2851259807e+01    0.1695971   0.07633484 -44.06  0.000945484    1.610    0.379
       192 -10.3834    120.4948     56.4769   9.8009184634e+00   4.6963197741e+01    0.1444337    0.1337211 -79.62 0.0001892676    1.016    0.016
       193 -11.4560    233.1014     52.4778   3.5373894820e+02   2.4048686826e+01    0.2923037    0.2589039  54.95  0.001470129    1.558    0.358
       194 -10.3172    175.6831     55.1754   9.5536012902e-02   3.4656129390e+01    0.1797267    0.1141598 -28.95 0.0008961654    1.695    0.410
       195 -10.3425    169.3689     54.9859   8.7380226090e-01   3.6038139608e+01    0.1884959    0.1511424 -42.09 0.0009222766    1.181    0.153
       196 -10.5338    185.5392     52.9606   3.5834112077e+02   3.2908458241e+01    0.1920432    0.1131047 -36.30 0.0007888501    1.546    0.353
       197 -10.7801    178.7442     49.9796   3.5837859928e+02   3.4741888752e+01    0.1868834    0.1610979 -34.26 0.0006617902    1.259    0.206
       198 -10.0363    185.3400     39.3056   3.5494852630e+02   3.4776045076e+01    0.1148215   0.09765112  30.41 0.0006034399    1.680    0.405
       199  -9.9493    181.6946     46.6747   3.5719485679e+02   3.4571813295e+01      0.17959    0.1501004 -22.92  0.000498927    1.431    0.301
       200 -10.6296    183.4030     42.9689   3.5606997865e+02   3.4706720481e+01    0.2824998    0.1707342 -32.30 0.0007742812    1.631    0.387
       201  -9.9186    172.7538     49.9969   3.5911197296e+02   3.6019549816e+01    0.1650626    0.1007613 -38.40 0.0005307553    1.491    0.329
       202 -11.0938    157.5329     47.4859   4.4805385939e-01   3.9735727179e+01    0.2697625    0.1238757 -34.87 0.0007773808    2.080    0.519
       203 -11.5129    124.8316     47.3634   5.8882714342e+00   4.7374572385e+01    0.2402081    0.1829046 -53.21 0.0006876317    1.278    0.217
       204 -10.0648    188.5046     43.9693   3.5578921917e+02   3.3515522295e+01    0.1810109    0.1124647 -34.01 0.0008586353    1.533    0.348
       205 -10.4131    168.8539     43.6224   3.5789372507e+02   3.7745276763e+01    0.2154719    0.1616622 -30.84 0.0006518532    1.418    0.295
       206  -9.9887    162.5499     44.4753   3.5892263607e+02   3.9026925947e+01    0.1311467    0.1175416 -64.95 0.0001609085    1.062    0.058
       207 -12.0797    134.4771     43.9560   2.9951789234e+00   4.5582316622e+01    0.2742133    0.2043294  68.12 0.0009345494    1.313    0.238
       208 -10.1459    178.5702     42.8835   3.5657083912e+02   3.5740033541e+01     0.183907    0.1123519 -37.53  0.000696097    1.491    0.329
       209  -9.8120    174.2740     43.7019   3.5727046337e+02   3.6553416559e+01    0.1339913   0.08302712 -61.26 0.0003544054    1.529    0.346
       210 -12.4309    106.6609     40.6465   7.4380269510e+00   5.2721118756e+01    0.2750831    0.2369691 -81.32 0.0008127231    1.163    0.140
       211 -10.0531    173.2856     39.3193   3.5622599178e+02   3.7345089094e+01    0.1156128    0.1014168  22.27 0.0003681224    1.592    0.372
       212  -9.7256    160.2782     38.3561   3.5750226903e+02   4.0356453350e+01    0.1222513    0.1034596  20.94 0.0004548958    1.656    0.396
       213 -11.4902    246.4863    193.0007   1.8634337964e+01   2.3274724838e+00    0.2798274     0.177582 -24.75   0.00153432    1.162    0.139
       214 -10.6713    179.1501     36.4539   3.5484939586e+02   3.6446564722e+01    0.1949856    0.1579443 -35.97 0.0006130752    1.280    0.219
       215 -13.0295    249.8410    199.3944   1.9192433431e+01   1.1563136701e+00    0.5988308    0.1674415 -36.92  0.002916448    2.724    0.633
       216 -14.2214    246.4705    209.9892   2.1316490111e+01   9.0903471828e-02     1.555481    0.3625598 -43.02  0.006112646    4.801    0.792
       217 -10.0937    181.2391     31.4265   3.5335243329e+02   3.6622286651e+01    0.1137672   0.09575658   4.98 0.0005596486    1.733    0.423
       218 -10.4377    210.7001     91.8342   4.3663818165e+00   2.2349985124e+01    0.3627218    0.2134814 -66.20  0.001417248    2.256    0.557
       219 -10.3509    174.3450     27.4877   3.5298551680e+02   3.8578585234e+01    0.1238441    0.1033396 -57.32 0.0002216445    1.064    0.060
       220 -12.7156    110.4031     33.0069   3.8029784444e+00   5.2882331719e+01    0.3099141    0.2649951 -29.88  0.001087714    1.288    0.223
       221 -12.5639    102.6068     29.6116   4.1825033109e+00   5.5219447498e+01    0.3041042    0.2342781 -61.47  0.001096774    1.357    0.263
       222 -13.2541    241.1175    210.3670   2.2141684590e+01   5.3350848864e-01     0.771425    0.2487489 -38.85  0.003987879    2.530    0.605
       223 -14.7134    180.3686     86.9396   7.4134407250e+00   2.8730557988e+01     2.080065     1.575147   3.71   0.01087726    2.044    0.511
       224  -9.9878    224.4460    247.9498   3.0177438950e+01  -2.7520152206e+00    0.1111416   0.08704608 -49.25 0.0008047684    2.336    0.572
       225 -13.5277    206.7828     61.4827   3.5805625793e+02   2.7537878498e+01    0.9080346    0.2564883 -48.34  0.003501143    3.128    0.680
       226 -10.5112    218.4487    247.1163   3.1016150655e+01  -2.1388698308e+00    0.2266319    0.1441055 -39.39  0.001620935    1.783    0.439
       227 -10.9599    186.9135    247.4688   3.6422438355e+01   6.9950836651e-01    0.2275074    0.1412548 -39.75  0.001231951    1.706    0.414
       228 -10.1283    186.3713     32.3149   3.5310040738e+02   3.5431868142e+01    0.1161061   0.09424639  35.00 0.0007034415    1.785    0.440
