#   1 NUMBER                 Running object number                                     
#   2 MAG_AUTO               Kron-like elliptical aperture magnitude                    [mag]
#   3 X_IMAGE                Object position along x                                    [pixel]
#   4 Y_IMAGE                Object position along y                                    [pixel]
#   5 X_WORLD                Barycenter position along world x axis                     [deg]
#   6 Y_WORLD                Barycenter position along world y axis                     [deg]
#   7 A_WORLD                Profile RMS along major axis (world units)                 [deg]
#   8 B_WORLD                Profile RMS along minor axis (world units)                 [deg]
#   9 THETA_WORLD            Position angle (CCW/world-x)                               [deg]
#  10 FWHM_WORLD             FWHM assuming a gaussian core                              [deg]
#  11 ELONGATION             A_IMAGE/B_IMAGE                                           
#  12 ELLIPTICITY            1 - B_IMAGE/A_IMAGE                                       
         1 -15.0021    134.8389      8.5068   7.5185661392e+01   4.9843616777e+01     3.778172     2.403405  60.24   0.01912697    1.469    0.319
         2 -15.6408    158.4970     52.6789   8.5656958504e+01   3.8599258176e+01      6.48668     4.044863 -75.59   0.01127742    3.025    0.669
         3 -14.2192    222.7988     31.0143   6.9075413952e+01   2.5397867179e+01     1.054096    0.6867238 -66.68  0.004458415    1.744    0.427
         4 -16.8861    210.2681      9.4985   6.4768104419e+01   3.0817127806e+01     2.290878     1.131801 -62.96  0.009577746    2.544    0.607
         5 -14.0658    238.3888     44.8478   7.0799383083e+01   2.0007020915e+01     1.708286     1.204757 -85.71  0.006439501    1.660    0.397
         6 -13.8012    203.7683     33.5729   7.2167457253e+01   2.9773436169e+01     1.328409     1.007748  72.63    0.0054276    1.329    0.247
         7 -14.6185    172.2984     18.8062   7.2303080929e+01   3.9450464039e+01     7.102382          nan -29.10   0.01520153    8.422    0.881
         8 -13.4258    186.1270      8.9791   6.7391695113e+01   3.6918946478e+01     1.661406    0.7596074 -41.40  0.007121618    2.257    0.557
         9 -13.5517    112.7802     51.4560   9.6250456622e+01   4.9332175738e+01      1.89589    0.7259842 -28.74  0.006501751    3.039    0.671
        10 -11.8335    233.9012      3.1884   6.0952889287e+01   2.5768248377e+01    0.8402829    0.3057417  71.90  0.003537859    2.618    0.618
        11 -13.9082    245.6491     12.3244   6.2141593460e+01   2.2144375298e+01    0.9804983    0.3431501 -39.10  0.001712862    2.401    0.583
        12 -11.9955    250.6019     10.2758   6.1257436901e+01   2.1251312290e+01     0.329692    0.1674709 -34.57 0.0008610574    1.770    0.435
        13 -15.6031    241.6440     99.6153   8.4004868936e+01   1.1556150716e+01     6.217995     2.927375 -24.15   0.02510098    2.255    0.557
        14 -12.6692    250.1242      3.9664   5.9851790515e+01   2.2004310376e+01    0.5465369    0.3943112 -68.03    0.0022744    1.289    0.224
        15  -9.6710      4.7225    170.3291   1.4861798481e+02   3.8214306684e+01     0.111235   0.06066315  72.40 0.0002238464    1.596    0.373
        16 -10.5980     90.3009    167.6652   1.3036687866e+02   2.9142933708e+01    0.2946748    0.2469374  63.10  0.001265654    1.114    0.103
        17 -14.1822    178.4392    160.0384   1.0975885327e+02   1.4839722076e+01     1.624096    0.8085234  31.91  0.005149675    2.343    0.573
        18 -15.2524    161.7980    146.1104   1.1033800650e+02   2.0769258255e+01     1.847024    0.9381247  43.00  0.005258568    1.902    0.474
        19 -11.0910    249.0265    152.0384   9.4887005580e+01   2.3755888214e+00    0.2113391    0.1797931  -3.54 0.0005667489    1.019    0.019
        20  -9.2914    202.1454    248.1411   1.2028983549e+02  -2.1904188570e+00    0.1424334    0.1144509  41.92 0.0003725791    1.278    0.218
        21  -9.2005    147.9751    241.0192   1.2871547939e+02   7.1364378974e+00      0.13729    0.1101953  44.72 0.0003147516    1.019    0.019
        22 -10.2283     94.7782    234.1797   1.3731006693e+02   1.6086157253e+01    0.1354655    0.1213808  45.74 0.0004042603    1.299    0.230
        23 -13.3589     23.3267    223.7178   1.4859070606e+02   2.6481939156e+01    0.7263654    0.3554476 -68.28  0.004859544    2.041    0.510
        24 -12.3689    183.8533    134.8781   1.0309480092e+02   1.8249686566e+01    0.4978265    0.3088007  52.16  0.001357103    1.704    0.413
        25 -13.3964    238.5877     60.9574   7.4828694703e+01   1.7824966975e+01     1.291896     1.220335  -1.61  0.002743662    1.117    0.105
        26 -11.6736    160.9448    127.2086   1.0621383178e+02   2.4608042982e+01    0.4665966    0.3169095 -20.03   0.00151389    1.851    0.460
        27 -13.1878     17.3681    222.7022   1.4949449837e+02   2.7246249645e+01     0.623131    0.2923534 -70.51  0.004160757    2.033    0.508
        28 -11.4465    198.7703    119.8465   9.6467181414e+01   1.7667632834e+01    0.2639005    0.2403806 -66.28 0.0004341497    1.306    0.234
        29 -10.5902    167.2508    112.9492   1.0126535550e+02   2.5978249158e+01    0.3062506    0.2025012  77.90  0.001170491    2.640    0.621
        30 -12.3434    205.0424    110.2175   9.2857041937e+01   1.7916494280e+01    0.5094995    0.2955607  35.14  0.002149865    1.927    0.481
        31 -10.9958    134.6293    106.0952   1.0713990284e+02   3.4414189671e+01    0.4514436    0.1769024 -43.12  0.001586989    2.510    0.602
        32 -11.5401     26.1224    106.8903   1.3716854166e+02   5.0125358037e+01    0.4562408    0.3076675  48.76  0.002570231    1.715    0.417
        33  -9.5479    164.1819    102.1695   9.9105343299e+01   2.8712404104e+01    0.2071596     0.182721 -69.07 0.0004239705    1.322    0.243
        34 -10.8533    146.2676     94.2788   1.0107510609e+02   3.4262011998e+01    0.3438131    0.2661875  -2.30  0.000876447    1.580    0.367
        35 -10.1533    238.7012    225.0171   1.1058573647e+02  -5.1823263378e+00    0.1592057    0.1266469   8.24 0.0003960542    1.104    0.094
        36 -10.1569    133.1872     92.3317   1.0375272711e+02   3.7491142965e+01    0.2743373    0.2237237 -89.09 0.0005903103    1.640    0.390
        37 -12.1924    155.3747     84.7608   9.6210148262e+01   3.3979107712e+01    0.7547858    0.4688885  11.11  0.002735012    2.817    0.645
        38 -11.5476    139.6903     82.0204   9.9126631959e+01   3.8063742875e+01    0.4750205     0.298859 -32.90 0.0008995574    1.602    0.376
        39 -12.2523    153.0018     72.3202   9.3030176711e+01   3.6750316156e+01    0.3709064    0.2781486 -25.27 0.0006272473    1.362    0.266
        40 -12.1051    142.4163     70.0176   9.4788227068e+01   3.9624483857e+01    0.4841454    0.2735363 -28.70  0.001404215    1.867    0.464
        41  -9.1708     76.6382     71.8681   1.1391718258e+02   5.2064779636e+01    0.1863987    0.1200436 -55.72 0.0003982625    1.623    0.384
        42 -11.0002    130.8704     66.1479   9.6408308841e+01   4.2918085543e+01    0.2318855    0.2133452 -63.29  0.001243973    1.252    0.202
        43 -12.1408     63.0852     59.6637   1.1467194287e+02   5.6454289928e+01    0.6266921    0.4506451 -31.69  0.002358259    1.266    0.210
        44 -12.4528     62.8257     44.8143   1.0974065009e+02   5.9297757949e+01     1.070762    0.4896039 -36.84  0.004901723    1.980    0.495
        45 -11.6559     56.7703     56.4348   1.1585494394e+02   5.7915487677e+01    0.3470059    0.2545865  -4.97  0.001474797    1.545    0.353
        46 -12.9063     52.6305     51.4898   1.1574665884e+02   5.9392029345e+01    0.7450379    0.5256864 -53.32  0.002681887    1.441    0.306
        47 -12.9284    141.0912     57.4614   9.1066407924e+01   4.2048647264e+01    0.6693882    0.4561354  49.73  0.003146574    1.456    0.313
        48 -14.4144     48.8399    196.5654   1.4221572555e+02   2.8727138838e+01    0.8180561    0.6772023 -41.64  0.001934958    1.793    0.442
        49 -11.7374    184.8933     53.6954   8.0937651901e+01   3.1853825990e+01    0.3639877    0.2702178  21.21  0.001728057    1.594    0.373
        50 -11.9934    189.8773     48.9995   7.8700923294e+01   3.1262784972e+01    0.4687964    0.3036784  24.19  0.002029876    2.021    0.505
        51 -10.9560     74.3374     52.7618   1.0854131027e+02   5.6143229629e+01    0.3493409    0.2197783   0.89  0.001598355    2.304    0.566
        52  -9.2677     68.7184    207.3183   1.3946193929e+02   2.4272159097e+01    0.1179884   0.07161793  70.19  0.000253847    1.582    0.368
        53 -13.8651     59.0524    185.6077   1.3919259470e+02   2.9673815331e+01    0.8334942    0.6777335  69.42  0.002625239    1.064    0.060
        54 -10.9096    249.5859     25.7810   6.4966190422e+01   1.9776088905e+01    0.3573994    0.2375025 -40.69  0.001988054    1.353    0.261
        55 -11.9586     67.6301    144.3140   1.3213235841e+02   3.7337776272e+01    0.6084978    0.3613754  59.33  0.002915978    1.886    0.470
        56 -11.9284    160.6862    190.3318   1.1906575765e+02   1.2919801454e+01    0.5351549    0.4732575 -62.76  0.002362015    1.330    0.248
        57  -9.4049     41.4953    181.9572   1.4233958650e+02   3.2427984316e+01    0.1600554   0.09604444 -75.49 0.0003535499    1.472    0.320
        58  -9.4303     38.5553     19.4781   1.0923805323e+02   6.6700383905e+01    0.1219938   0.09522806 -19.60 9.456152e-05    1.013    0.012
        59 -11.5592    162.4427    177.1818   1.1639948183e+02   1.4885792142e+01    0.6712046    0.4563219  81.91  0.002958256    2.706    0.631
        60 -10.8262     24.0272    177.0363   1.4535990721e+02   3.5190042300e+01    0.1724241    0.1332454  85.92 0.0005960278    1.022    0.021
