#   1 NUMBER                 Running object number                                     
#   2 MAG_AUTO               Kron-like elliptical aperture magnitude                    [mag]
#   3 X_IMAGE                Object position along x                                    [pixel]
#   4 Y_IMAGE                Object position along y                                    [pixel]
#   5 X_WORLD                Barycenter position along world x axis                     [deg]
#   6 Y_WORLD                Barycenter position along world y axis                     [deg]
#   7 A_WORLD                Profile RMS along major axis (world units)                 [deg]
#   8 B_WORLD                Profile RMS along minor axis (world units)                 [deg]
#   9 THETA_WORLD            Position angle (CCW/world-x)                               [deg]
#  10 FWHM_WORLD             FWHM assuming a gaussian core                              [deg]
#  11 ELONGATION             A_IMAGE/B_IMAGE                                           
#  12 ELLIPTICITY            1 - B_IMAGE/A_IMAGE                                       
         1 -16.4184    175.2404      8.0988   2.4514904483e+00   4.0632508624e+01     4.927215    0.9867728  77.36   0.01700677    5.394    0.815
         2 -11.3557     39.8822    224.1741   7.7410838082e+01   2.0711543483e+01    0.2242076    0.1668053  46.02  0.001241582    1.240    0.194
         3 -14.1360     16.4749    179.9383   8.0612091384e+01   3.3948196039e+01     3.015866    0.6679416  12.43  0.007136415    6.843    0.854
         4 -12.7860     47.9926    176.5493   7.0254878085e+01   3.1760843606e+01     1.088763    0.5906714 -12.26  0.003985848    2.877    0.652
         5 -12.3313    101.7466    171.3654   5.3290117281e+01   2.5824058060e+01     2.599854    0.5632356  28.87  0.006421878    5.437    0.816
         6 -15.3121    162.7423    183.1766   4.0647267767e+01   1.4275060300e+01     2.910597     1.674719  43.60   0.01449514    2.029    0.507
         7 -14.8623     39.2728    200.5798   7.5520985220e+01   2.6501484305e+01     2.903929     1.174268   7.70   0.00957327    3.594    0.722
         8 -15.5402     17.8063    190.6459   8.1048666679e+01   3.1039361196e+01     3.583058      2.10726  -6.83   0.01599511    2.149    0.535
         9 -14.2469     38.0535    192.0185   7.5053170803e+01   2.8802899494e+01     2.434213     0.953914   2.43  0.006659234    5.276    0.810
        10 -14.6067    136.8723    184.5597   4.6580336060e+01   1.7633019151e+01       2.7137    0.8667563  44.10  0.008716293    4.078    0.755
        11 -14.5053    118.0517    180.1096   5.0436826183e+01   2.1352619699e+01     3.243518     1.103778  22.44  0.008936343    4.970    0.799
        12 -15.8444    112.4272    192.3375   5.3879972790e+01   1.9393999562e+01     6.339788     1.184944  40.21    0.0160507    5.711    0.825
        13 -16.7713     77.3505    192.9728   6.3542955115e+01   2.3986677326e+01     9.460713     3.115067  29.61   0.03295013    2.670    0.625
        14 -12.6602      5.8271    219.0578   8.6216023333e+01   2.4932660313e+01    0.3218062    0.2801988  88.36  0.001750194    1.177    0.150
        15 -12.9252      7.3686    211.4791   8.5404622066e+01   2.6638542155e+01    0.3519322    0.2978227 -56.93  0.002122777    1.308    0.235
        16 -13.3913     82.8049    218.3183   6.5283345208e+01   1.7337452231e+01    0.6323262    0.2985019  24.28  0.002713264    1.932    0.483
        17 -12.8355     28.1781    217.4369   8.0072214460e+01   2.3427733895e+01    0.3981534    0.2917973  85.37  0.001918578    1.455    0.313
        18 -11.0900     17.3283    216.2977   8.2962998683e+01   2.4662976519e+01    0.1330761   0.09795329 -30.57 0.0003678703    1.636    0.389
        19 -13.8403     98.4071    180.2314   5.5693658896e+01   2.4196786104e+01     1.067658    0.6748133  23.26  0.003897593    1.590    0.371
        20 -12.1455      2.2370    212.5254   8.6856542934e+01   2.6770985108e+01    0.2942257    0.2117378 -70.73  0.001662774    1.453    0.312
        21 -13.2677    180.5063    207.2208   4.1058976797e+01   7.5532929163e+00    0.3998392    0.2154812  40.19  0.002087899    2.251    0.556
        22 -13.1809     62.6026    173.0206   6.5174845344e+01   3.0920294132e+01     1.018106      0.46094  17.35  0.003608219    2.545    0.607
        23 -13.7348     72.0714    180.2154   6.3303060122e+01   2.7849274076e+01     2.232995    0.6956937  22.77  0.006728429    3.581    0.721
        24 -12.6132    193.5865    184.3846   3.4977018396e+01   1.0026564663e+01    0.3823958    0.2222213  42.43  0.002113844    2.119    0.528
        25 -13.1323     80.7304    171.5604   5.9392435133e+01   2.8852591393e+01     1.002483    0.4223679  23.61  0.003566893    2.544    0.607
        26 -11.8566    194.4733    173.5356   3.2999465695e+01   1.1829671466e+01    0.3984876    0.2771751   7.88  0.002336374    1.790    0.441
        27 -11.3978     76.1569    164.7820   5.9690576251e+01   3.1215885527e+01    0.3777962    0.2716364  13.58  0.001183013    1.499    0.333
        28 -11.7772     69.9246    167.5870   6.2074624868e+01   3.1361376351e+01    0.5781454    0.3264327  46.31  0.002413343    1.855    0.461
        29 -13.0715     15.4519    171.8725   8.0264114362e+01   3.6173901450e+01    0.7182338    0.3909062   6.38  0.002744797    2.079    0.519
        30 -13.2181     26.5972    169.1378   7.6348491658e+01   3.5945935598e+01    0.9008025    0.4392234 -19.34  0.003087861    3.223    0.690
        31 -12.5011     36.4589    169.5078   7.3135707607e+01   3.4881279030e+01    0.5912223    0.3115486  11.40  0.001823377    2.132    0.531
        32 -12.4432     46.0209    167.8878   6.9793767700e+01   3.4275719211e+01    0.5651667    0.3373823  23.20  0.001601193    1.635    0.389
        33 -13.3840     12.8991    153.1672   7.9423511833e+01   4.1418071907e+01     1.173817    0.3607757  13.43  0.003778821    3.574    0.720
        34 -12.1622      2.5179    153.0919   8.3063057683e+01   4.2151140129e+01    0.4114479    0.2613101  54.14  0.001520105    1.611    0.379
        35 -13.3892     56.7933    164.5616   6.5811962261e+01   3.3867897980e+01     1.024963    0.5244719  17.72   0.00401533    2.128    0.530
        36 -14.1205     43.8414    159.4263   6.9396835201e+01   3.6784224507e+01     1.415424     0.568411  25.45  0.005193231    2.349    0.574
        37 -12.7701     32.9372    155.5071   7.2637633941e+01   3.9011880680e+01    0.5963783    0.3427914   7.11  0.001851001    1.999    0.500
        38 -12.5943     24.8443    155.1182   7.5423269316e+01   3.9894512368e+01    0.5738333    0.2885219  21.98  0.001843229    1.942    0.485
        39 -11.8268    185.7193    171.9591   3.4269632656e+01   1.3267660756e+01    0.3948308    0.2366909  18.60  0.002038008    2.194    0.544
        40 -11.9577    145.1021    170.0693   4.2146550768e+01   1.9480724297e+01    0.4435742    0.2027488  35.98  0.001883415    2.245    0.554
        41 -11.9177    178.7863    167.5089   3.4760699009e+01   1.5044798389e+01    0.3977372     0.255271  14.96  0.002063854    2.067    0.516
        42 -12.0730    136.7107    168.4153   4.3781263263e+01   2.1116993269e+01    0.4304602    0.2602785  34.72  0.001797435    1.681    0.405
        43 -13.1930      5.2433    168.2133   8.3301798182e+01   3.7908807480e+01    0.6873444    0.3681409  16.09  0.002848188    1.905    0.475
        44 -12.0749    152.2478    166.1108   3.9847362155e+01   1.9215742706e+01    0.4979231    0.2335557  30.45  0.002107232    2.419    0.587
        45 -12.0465    169.9024    165.3757   3.6076414242e+01   1.6724788059e+01    0.5310079    0.2383395  32.07  0.002321572    2.597    0.615
        46 -13.0264    125.1865    163.6547   4.5708507934e+01   2.3970948555e+01    0.7478964    0.3961803  33.97  0.002831457    1.901    0.474
        47 -12.2489    114.2164    164.2281   4.8640448617e+01   2.5579400151e+01    0.5127489    0.2344404  38.48   0.00196515    2.147    0.534
        48 -12.2864     90.6126    164.6997   5.5318519268e+01   2.9121727141e+01    0.4791865    0.2762449  32.27   0.00147036    1.668    0.400
        49 -11.8859     14.4141    164.4942   7.9958964711e+01   3.8236427933e+01    0.4072741    0.2434712   9.44    0.0013828    1.801    0.445
        50 -11.9525     20.6856    162.8864   7.7689755226e+01   3.8156607520e+01     0.539267      0.28219  14.05   0.00197677    2.008    0.502
        51 -11.0527    186.6962    163.5771   3.2627118792e+01   1.4664708712e+01    0.2246272    0.1225931  31.48  0.001143059    2.165    0.538
        52 -12.2069    102.8101    162.3009   5.1394751022e+01   2.7829895766e+01    0.6815118    0.3221821  29.88  0.002659082    2.144    0.534
        53 -11.0957    193.5597    161.9955   3.1159555018e+01   1.4003246048e+01    0.2593362    0.1579154  29.56  0.001434418    1.972    0.493
        54 -11.3669    134.4782    161.4842   4.3031066892e+01   2.2969737941e+01    0.3502879    0.1707182  30.27  0.001436816    2.256    0.557
        55 -12.5725    142.5297    159.1904   4.0720899889e+01   2.2176160774e+01    0.6674595    0.3396488  36.29  0.002942203    2.040    0.510
        56 -11.6921      4.5519    161.1677   8.2999492602e+01   3.9844041943e+01    0.3815813    0.2051599  14.30  0.001424205    1.926    0.481
        57 -11.4956    161.8867    160.1774   3.6728038238e+01   1.8942125227e+01    0.3406478    0.1970684  32.59  0.001668503    1.909    0.476
        58 -12.9349     81.8186    159.0197   5.6974212636e+01   3.1856257194e+01    0.7614161    0.3015901  38.59  0.002725109    2.391    0.582
        59 -12.3220     71.4380    158.8008   6.0186597943e+01   3.3417476573e+01    0.4942384    0.3180506  19.20  0.001507583    1.640    0.390
        60 -11.4440    153.8143    157.1874   3.7852993117e+01   2.0799185693e+01    0.3506014    0.2001586  34.21   0.00166823    1.891    0.471
        61 -12.2261     63.1943    156.4947   6.2478279687e+01   3.5155112680e+01    0.5802199    0.3104031  19.76  0.002308953    2.011    0.503
        62 -11.4104    179.8985    155.8941   3.2465883296e+01   1.7058700370e+01    0.3011235    0.1804111  27.17  0.001538116    2.093    0.522
        63 -11.3493    130.6844    155.9650   4.2899312211e+01   2.4791945157e+01    0.3791083    0.2001097  39.09  0.001646936    1.921    0.480
        64 -12.5165     96.0520    155.5504   5.2086573175e+01   3.0527280920e+01      0.68823      0.28675  30.53  0.002485412    2.431    0.589
        65 -12.8447    109.9800    152.9422   4.7661366457e+01   2.8894432371e+01    0.7543221    0.3545922  37.09   0.00262624    2.084    0.520
        66 -11.0898    169.7959    152.4160   3.3712977610e+01   1.9246047839e+01    0.2864468    0.1262224  30.48  0.001141389    3.134    0.681
        67 -10.7402    159.7079    152.5988   3.5751270083e+01   2.0792169159e+01    0.2508675    0.1314139  34.12   0.00114052    2.149    0.535
        68 -11.1874    147.2260    151.5375   3.8202914893e+01   2.3024238996e+01    0.3262841     0.138287  35.62  0.001290978    2.584    0.613
        69 -12.3812     51.5355    149.6789   6.5329154070e+01   3.8474390801e+01    0.5634127    0.3546222  16.95   0.00186976    1.676    0.403
        70 -11.0397     38.3758    151.5006   7.0202694526e+01   3.9525071334e+01    0.2947926    0.1470352  20.34  0.001002403    2.026    0.506
        71 -12.2948    122.4965    149.9069   4.3762941496e+01   2.7502937880e+01    0.5363851    0.2442011  33.07  0.002083392    2.338    0.572
        72 -12.5583     84.4897    149.6148   5.4456203249e+01   3.3815052193e+01    0.6126288    0.3026326  26.27  0.002062706    2.148    0.535
        73 -11.8385    136.2472    148.0632   4.0025479019e+01   2.5587122826e+01    0.5130002     0.210087  40.38  0.001987851    2.499    0.600
        74 -11.2472     92.6542    147.8584   5.1635600489e+01   3.2952281004e+01    0.3405546    0.2129084  31.95  0.001166326    1.579    0.367
        75 -11.2567     73.9268    147.5857   5.7435382468e+01   3.5940909699e+01    0.2988173    0.2344462 -74.90   0.00144889    1.408    0.290
        76 -10.5124     67.9480    148.7658   5.9608093821e+01   3.6509715822e+01    0.2049097    0.1257869  26.77 0.0008732085    1.610    0.379
        77 -10.6242     11.6658    148.3089   7.9387335126e+01   4.2829434872e+01    0.1556952   0.09764037  53.57 0.0004792684    1.674    0.403
        78 -11.5586     23.4393    147.1048   7.4988002365e+01   4.2199255308e+01    0.4063402    0.2120165  20.05     0.001442    1.908    0.476
        79 -11.7106    100.8830    145.8982   4.8835682885e+01   3.2073438167e+01      0.41381    0.2183354  33.88  0.001485605    1.881    0.468
        80 -11.9133      4.9203    145.6737   8.1579539247e+01   4.4007365600e+01    0.4835892    0.2174622   7.77  0.001700274    2.464    0.594
        81 -10.0684    120.9083    145.0000   4.3192184246e+01   2.8878781849e+01     0.230334   0.08258148  37.29 0.0007177346    2.818    0.645
        82 -11.7998     29.9180    144.0267   7.2229796827e+01   4.2426220304e+01    0.4872868    0.2229759  19.16  0.001886737    2.216    0.549
        83 -11.3933     79.9488    142.8662   5.4609645342e+01   3.6219126143e+01    0.3559388    0.2197998  22.20  0.001270658    1.757    0.431
        84 -12.3154     41.7376    140.5568   6.7389567734e+01   4.2095849707e+01    0.6240289    0.3412282   8.67  0.002334674    2.204    0.546
        85 -11.7800    116.4969    140.5073   4.3428742988e+01   3.0659722105e+01    0.4294387    0.2518386  53.60  0.001814088    2.026    0.506
        86 -10.6138    111.0518    136.9835   4.4161852671e+01   3.2419718698e+01    0.9076219    0.3334564  48.14  0.002938644    3.264    0.694
        87 -12.0523     15.2559    139.4050   7.7114075230e+01   4.4978495054e+01    0.5521376    0.2901186 -18.34  0.002127512    2.449    0.592
        88 -11.5193     91.1647    137.1160   4.9951633498e+01   3.5820796068e+01    0.5278134    0.2337665  37.13  0.001829644    2.170    0.539
        89 -12.2280     58.4369    136.5940   6.0689954017e+01   4.1020252867e+01    0.5806239    0.3658668  11.04  0.002456816    1.872    0.466
        90 -10.9977    128.4636    135.8901   3.9418575634e+01   2.9573504968e+01    0.4072793    0.1708653  48.19  0.001504253    2.666    0.625
        91 -10.7616     82.9539    135.4375   5.2178825509e+01   3.7593163009e+01    0.2387221    0.1441399  35.75   0.00102187    1.603    0.376
        92 -10.6993     50.0109    135.4653   6.3521524093e+01   4.2442345157e+01    0.2335979    0.1476909  23.54 0.0008073761    1.578    0.366
        93 -11.8835     72.0915    133.5315   5.5370317455e+01   3.9801214971e+01    0.5438471    0.2564931  37.26  0.002095004    2.013    0.503
        94 -11.7669      4.8055    134.1641   8.0530896044e+01   4.7131323240e+01    0.3931272    0.1938866  -6.80  0.001578079    2.461    0.594
        95 -11.7223     24.7662    129.6249   7.2189333125e+01   4.6814907890e+01    0.5007808    0.2536073 -15.09  0.001826056    2.823    0.646
        96 -11.5750     41.8205    129.2721   6.5508580143e+01   4.5096966272e+01    0.4414022    0.2477606  -3.58  0.001664563    2.534    0.605
        97 -10.9899     75.5437    123.5109   5.2121420331e+01   4.1752223711e+01    0.3221715    0.1483241  32.15  0.001203868    2.147    0.534
        98 -11.5110      3.2832    122.7460   7.9939206673e+01   5.0295297887e+01    0.3482373    0.1448251  31.91  0.001393395    2.343    0.573
        99 -10.5260     74.0044    114.2293   5.0585349899e+01   4.4266262993e+01    0.2092126    0.1224348  34.13 0.0008818263    1.660    0.398
       100 -12.5595    232.2010     57.3440   7.4439572865e+00   2.4604310372e+01    0.5829095    0.1706636 -52.76  0.002759211    2.900    0.655
       101 -11.6920     28.6608     60.4960   5.5603784465e+01   6.3331814191e+01    0.4736253    0.1299417  27.06  0.001547895    3.571    0.720
       102 -11.3296     12.9213     47.9851   6.0644243279e+01   6.7699314934e+01    0.1910465    0.1659035  -0.11 0.0003090191    1.013    0.013
