#   1 NUMBER                 Running object number                                     
#   2 MAG_AUTO               Kron-like elliptical aperture magnitude                    [mag]
#   3 X_IMAGE                Object position along x                                    [pixel]
#   4 Y_IMAGE                Object position along y                                    [pixel]
#   5 X_WORLD                Barycenter position along world x axis                     [deg]
#   6 Y_WORLD                Barycenter position along world y axis                     [deg]
#   7 A_WORLD                Profile RMS along major axis (world units)                 [deg]
#   8 B_WORLD                Profile RMS along minor axis (world units)                 [deg]
#   9 THETA_WORLD            Position angle (CCW/world-x)                               [deg]
#  10 FWHM_WORLD             FWHM assuming a gaussian core                              [deg]
#  11 ELONGATION             A_IMAGE/B_IMAGE                                           
#  12 ELLIPTICITY            1 - B_IMAGE/A_IMAGE                                       
         1 -11.5622    179.8560     35.9455   1.4480943745e+01   3.5549689379e+01    0.4717425    0.4312548  10.42 0.0005558775    1.259    0.206
         2 -10.6139    149.4112     39.7349   2.0588897840e+01   4.2841993981e+01     1.026692    0.3306379 -44.87  0.003194391    3.503    0.715
         3 -11.6433    213.0932     31.8605   9.4379801768e+00   2.8016209219e+01    0.6510851    0.4017445  52.22 0.0007236476    1.839    0.456
         4 -11.2709    206.9184     25.4593   8.3523361777e+00   3.0205748013e+01    0.3961395    0.3260111  27.29 0.0006604983    1.548    0.354
         5 -10.6270    144.1424     28.7515   1.7717583965e+01   4.5642560180e+01     0.994283    0.2074362 -41.74  0.002648589    4.969    0.799
         6 -14.0226    239.2085      5.7774   1.0083386991e+00   2.5106654646e+01     1.638969     1.392025 -73.88   0.01140511    1.126    0.112
         7 -12.4160    227.9569     18.6435   4.7974784507e+00   2.6179325007e+01    0.9905664    0.5887561 -65.25  0.004288517    1.641    0.391
         8 -12.3083    219.8578     11.2715   3.5832364617e+00   2.8760095437e+01     1.164222    0.4797202 -55.41  0.004343369    2.346    0.574
         9  -8.9019    116.1613     11.8541   1.6535653957e+01   5.4755244208e+01    0.2363244    0.2138026   0.60  0.001060557    1.170    0.145
        10 -10.2676    120.1782      8.6543   1.4425073020e+01   5.4035503813e+01    0.4128878    0.3748063  25.56  0.001299781    1.134    0.118
        11 -10.1490    174.6470      4.5218   5.5481980395e+00   4.0304668540e+01    0.7077404     0.291935 -69.59  0.002522542    3.379    0.704
        12  -9.5635     92.5038      7.0169   1.9787012554e+01   6.1084644451e+01    0.2013629    0.1345681 -16.33   0.00102927    1.583    0.368
        13  -9.2669    196.2813      2.8084   3.1576601587e+00   3.5101527940e+01    0.2840842    0.2292738  -2.08   0.00110883    1.544    0.353
        14 -10.2177    157.7325      5.9297   7.8188840736e+00   4.4518461382e+01    0.4797028     0.308279 -52.27  0.002198121    1.589    0.371
        15  -8.5221    164.9956      7.4636   7.4807012907e+00   4.2500888967e+01    0.2088114    0.1263144  74.53 0.0004969983    1.547    0.354
        16  -8.1764    153.0284    190.0008   5.8449446113e+01   1.3764169740e+01    0.1545348    0.1331314  26.32            0    1.027    0.026
        17 -13.5456    237.0000    241.4398   5.0838351934e+01  -5.4559633659e+00     2.263983     1.151505  21.01   0.01427993    1.621    0.383
        18  -9.9167    135.7551    126.8125   4.9882771344e+01   2.9678813157e+01    0.6608253     0.130834 -49.07   0.00151703    5.840    0.829
        19  -8.7269    205.0061    125.5363   3.4564686615e+01   1.5675120532e+01    0.2299516    0.1812017 -28.66 0.0009094401    1.163    0.140
        20  -9.0869     41.0406    125.0431   7.7611957175e+01   4.5421413198e+01    0.2036703    0.1837642 -83.82 0.0003608722    1.021    0.021
        21 -10.6902    197.9998    111.9935   3.2574075412e+01   1.9400966928e+01     0.806525    0.2443351 -44.11  0.002520077    3.517    0.716
        22 -10.6121    141.1923    100.4270   4.1661715895e+01   3.4131880543e+01    0.6631758    0.4532439  11.90  0.002182645    2.233    0.552
        23  -9.4287    145.3770     95.7138   3.9297975811e+01   3.4143328887e+01    0.2814789    0.2733824 -40.05 0.0009489544    1.025    0.025
        24 -10.3974    135.0000    112.4432   4.6489930077e+01   3.2949144164e+01    0.6940685     0.194036 -43.95  0.001990864    3.556    0.719
        25 -10.1066    134.8405    105.8455   4.4776099251e+01   3.4398959343e+01    0.5998766     0.230689 -39.67  0.001699407    2.712    0.631
        26  -9.7776    227.6980    112.7421   2.7810051411e+01   1.3354313559e+01    0.4858085    0.3189713 -58.67  0.002350896    2.115    0.527
        27 -11.7536    188.1511    100.5285   3.1476637946e+01   2.3509860714e+01     1.351341    0.2345082 -37.66  0.003368858    5.062    0.802
        28 -10.8192    183.4991     99.6845   3.2136431518e+01   2.4692190741e+01    0.4526388    0.3108409  -7.32  0.001981067    1.945    0.486
        29  -9.9324    231.5236     98.5083   2.3915543268e+01   1.4789277289e+01    0.3290464    0.2574707 -24.85  0.001342607    1.145    0.127
        30  -9.8961    228.7512     94.9938   2.3471079886e+01   1.5861099891e+01    0.3738951    0.2112685 -33.44  0.001445872    1.533    0.348
        31  -9.7939    197.6988     97.5214   2.8973562764e+01   2.1930719162e+01    0.4228683    0.2467746   1.94  0.001418868    3.738    0.732
        32  -8.8106    124.6629     99.2878   4.5686128798e+01   3.8020883586e+01    0.1573087    0.1258041  86.63 0.0002970929    1.634    0.388
        33 -10.2809    152.0987     89.3922   3.5883419641e+01   3.3828069153e+01    0.5259342    0.3872865 -57.28  0.001435393    1.530    0.346
        34  -9.9029    154.1120     86.2204   3.4496482430e+01   3.3957638880e+01    0.4925284    0.3409767 -62.70  0.001562932    1.827    0.453
        35  -8.4695    204.6806     89.9865   2.5859433941e+01   2.1651563262e+01    0.2055545    0.1706557 -32.91  0.000385701    1.101    0.092
        36  -9.0340    137.0462     88.6062   3.9294922335e+01   3.7487992415e+01    0.3006991    0.2127351 -57.83 0.0009743212    1.624    0.384
        37  -9.3614    242.6099     87.8113   1.9939739305e+01   1.4225849268e+01    0.3282283    0.1145532  64.15  0.001153339    4.530    0.779
        38  -9.8748    194.7138     86.1647   2.6507686615e+01   2.4487715550e+01    0.2422847    0.1703672 -47.03 0.0008785777    1.404    0.288
        39  -9.4143     12.9688     83.7206   8.1474406171e+01   5.8272095295e+01    0.1773293    0.1633189 -59.07 0.0006625199    1.113    0.101
        40 -10.0161    243.9422     81.5191   1.8315732855e+01   1.4861143942e+01    0.2502029    0.1790532  29.20  0.001197935    1.799    0.444
        41 -10.0246    244.4373     77.2896   1.7273578350e+01   1.5355578620e+01    0.3559383     0.116369 -29.75  0.001345174    2.785    0.641
        42 -12.4179    191.3410     52.5116   1.7723329645e+01   3.0478191172e+01     1.687029    0.8968266  81.17   0.00473694    2.575    0.612
        43 -13.0247    168.3540     72.9177   2.7562316507e+01   3.2913497322e+01     2.377848     1.426738  59.19   0.01028974    1.754    0.430
        44 -10.7116    160.7523     60.7853   2.5331608904e+01   3.6796401508e+01    0.4498047    0.3261261 -22.91 0.0008999322    1.482    0.325
        45 -12.0554    184.2444     59.5128   2.0810166430e+01   3.1178634439e+01    0.8241842    0.6731756  43.32  0.001686602    1.334    0.250
        46 -12.5254    179.9219     55.7070   2.0386423852e+01   3.2806437233e+01    0.9847981     0.961175  59.68  0.002868156    1.078    0.073
        47 -10.8009    185.4627     41.4740   1.5355899980e+01   3.3432007151e+01    0.2987028    0.2649177  87.99 0.0005914003    1.124    0.110
        48 -12.1194    187.0680     37.0417   1.3842597819e+01   3.3610241350e+01    0.7954193    0.4839499  86.33 0.0005350047    1.901    0.474
        49 -10.8435    159.5710    249.2494   6.5579056357e+01   3.5542635694e+00    0.4424202    0.1429915  31.72  0.001978214    2.630    0.620
        50 -11.5756    181.4912     31.8420   1.3029780113e+01   3.5651429476e+01    0.3336349    0.2860286  63.58 0.0005312104    1.187    0.158
        51 -12.7922    186.3455     47.4668   1.6985823969e+01   3.2403165523e+01     2.007535    0.8146654  62.13   0.00657279    2.463    0.594
        52  -9.3376    247.4958     73.9779   1.6159217801e+01   1.5223663241e+01      0.23621    0.1168148 -59.50 0.0009829937    2.932    0.659
        53 -10.6813    146.8016     76.1482   3.3120260580e+01   3.7585607241e+01    0.5683217    0.3658598 -58.96  0.002345507    1.941    0.485
        54 -10.5283    200.5583     66.8119   2.0359885726e+01   2.6204045302e+01    0.4959704    0.3405422 -74.96  0.002339792    1.866    0.464
        55 -10.2851    207.1231     60.1017   1.7630037065e+01   2.5676225792e+01    0.4248459    0.2105659 -62.16  0.001569507    3.041    0.671
        56  -9.9727    232.6619     59.1477   1.4279362778e+01   2.0207561341e+01    0.2816046    0.2516523 -55.20  0.001424999    1.080    0.074
        57 -10.2147    234.6783     55.7785   1.3241824091e+01   2.0236642055e+01    0.3386786    0.2416475 -57.98  0.001277633    1.382    0.276
        58 -10.2468    227.6442     48.8422   1.2280719862e+01   2.2638010990e+01    0.5519785    0.2927654 -51.13   0.00264531    1.811    0.448
        59  -9.8691    235.7987     50.7127   1.1900398461e+01   2.0665314414e+01    0.2770842    0.1783371  59.58  0.001514877    1.754    0.430
        60 -10.0615    167.3036     45.9457   1.9470728059e+01   3.7384971000e+01    0.4629639    0.3717595  75.96  0.002394468    1.280    0.219
        61 -11.9385     96.5256    148.5886   6.4992546386e+01   3.1975804319e+01    0.7590652      0.37039 -51.22  0.003140352    2.078    0.519
        62 -10.9735    164.3498     63.9942   2.5635282195e+01   3.5380656007e+01    0.4465896    0.3841386  -2.34  0.001401341    1.317    0.241
        63 -10.8673    223.6736     40.8277   1.0682263440e+01   2.4528058403e+01    0.8645104    0.3430769  84.24  0.002940871    4.390    0.772
        64  -9.8242    227.3291     36.5049   9.2462642269e+00   2.4258898003e+01     0.309016    0.2305492  11.90  0.001686807    1.901    0.474
        65 -11.1839    205.0692     39.5851   1.2357150692e+01   2.8933131811e+01    0.3116035    0.2750834 -59.03 0.0004857334    1.036    0.035
        66 -11.3261    199.0725     33.9584   1.1499840326e+01   3.1065069686e+01    0.3596971    0.3109762 -79.78  0.000453089    1.123    0.109
        67  -9.1490    249.0532     37.5069   7.5950132207e+00   1.9598327122e+01    0.2997341    0.1601126  62.47  0.001600954    2.122    0.529
        68  -9.9077     98.8995     35.3106   3.0924254583e+01   5.6067348361e+01    0.2584528    0.2027907 -40.90  0.001326801    1.344    0.256
        69 -10.0995    220.0125     33.4943   9.1832523709e+00   2.6244771284e+01    0.2818548    0.1740939 -54.44  0.001467333    1.516    0.340
        70  -8.0820    102.3159    249.3250   7.6540286459e+01   1.1212185391e+01    0.1059495   0.08254758   6.24 0.0003585694    1.669    0.401
        71 -10.0577     33.3163    235.6682   8.8955820526e+01   2.1714860946e+01    0.2494936    0.2129127  37.60  0.001512448    1.337    0.252
        72 -10.9314    118.3103     32.6671   2.4585299002e+01   5.1755166708e+01    0.6607102    0.4292267  26.68  0.002935162    1.880    0.468
        73  -9.9543    126.4402     29.6651   2.1546155056e+01   5.0098167400e+01    0.5449857    0.2716163  47.74  0.002239829    1.953    0.488
        74 -10.0172    244.2722     33.3084   7.0120019263e+00   2.1059939021e+01    0.2358218    0.1888686 -64.68   0.00130576    1.164    0.141
        75 -10.7660     31.0064    233.0000   8.9268535413e+01   2.2434754507e+01    0.4104358    0.1846039  29.67   0.00229941    2.169    0.539
        76 -11.8182     91.7987    146.6485   6.5948983849e+01   3.3201498731e+01      0.46377    0.4364408  81.45  0.002660877    1.032    0.031
        77 -10.9689     15.4210    227.1521   9.2007881670e+01   2.5037600791e+01    0.4473274    0.3626449 -21.02  0.003235833    2.094    0.522
        78 -11.3549     23.4454    227.9933   9.0495870496e+01   2.4112607142e+01    0.3606443    0.3184103  24.97  0.002832189    1.487    0.328
        79 -10.3291    192.0486     26.0292   1.0059006042e+01   3.3719671253e+01    0.6442292    0.2952004 -57.96  0.002569627    2.538    0.606
        80  -9.2752    100.4426     26.4731   2.6646051139e+01   5.6957534036e+01    0.4083537    0.2549699 -80.99  0.001545119    3.161    0.684
        81  -8.2622    189.8509     15.1235   7.1727904920e+00   3.5460925970e+01    0.1801741    0.1580977  42.62 0.0006783056    1.318    0.242
        82 -12.8586     36.7057    215.1669   8.7157693140e+01   2.5210060811e+01     1.092147    0.6889845  66.52  0.002272795    1.357    0.263
        83 -12.1654     29.2357    209.2641   8.8378272483e+01   2.7153594312e+01    0.6050684    0.4391755 -60.84  0.001936174    1.668    0.401
        84  -9.1710    133.7518    145.5849   5.4605413075e+01   2.6006869349e+01    0.3946875    0.1299005 -53.42  0.001201962    3.671    0.728
        85  -7.6506     98.3158    215.3047   7.3974166456e+01   1.7547000027e+01    0.1165235    0.0948267  -1.37 0.0004298525    1.623    0.384
        86 -13.0025     52.3096    193.0347   8.2106619230e+01   2.8015947715e+01     1.473812      1.24335  82.35  0.006413929    1.117    0.105
        87  -9.4023    194.5757    197.3330   5.1226919877e+01   5.8533074152e+00    0.4053665    0.2270834 -58.35  0.001616377    4.270    0.766
