#   1 NUMBER                 Running object number                                     
#   2 MAG_AUTO               Kron-like elliptical aperture magnitude                    [mag]
#   3 X_IMAGE                Object position along x                                    [pixel]
#   4 Y_IMAGE                Object position along y                                    [pixel]
#   5 X_WORLD                Barycenter position along world x axis                     [deg]
#   6 Y_WORLD                Barycenter position along world y axis                     [deg]
#   7 A_WORLD                Profile RMS along major axis (world units)                 [deg]
#   8 B_WORLD                Profile RMS along minor axis (world units)                 [deg]
#   9 THETA_WORLD            Position angle (CCW/world-x)                               [deg]
#  10 FWHM_WORLD             FWHM assuming a gaussian core                              [deg]
#  11 ELONGATION             A_IMAGE/B_IMAGE                                           
#  12 ELLIPTICITY            1 - B_IMAGE/A_IMAGE                                       
         1 -15.3639    192.1931    153.9268   5.4102263461e+01   1.3054336229e+01     10.31472     7.005516 -79.94   0.04399459    2.978    0.664
         2 -14.6713    171.4401     93.7678   4.4378186071e+01   2.8553947970e+01     3.432883     1.784159 -32.77  0.007791543    2.174    0.540
         3 -16.0491    245.4989     46.7515   2.4422339327e+01   2.0837149042e+01     4.208666     2.296232 -72.93   0.02398908    1.939    0.484
         4 -17.0729    242.9717     90.2297   3.3315016724e+01   1.5118543785e+01     5.387987     4.938788  38.46    0.0221042    1.444    0.308
         5 -15.0030    226.4290     83.5004   3.3820313629e+01   1.9096145752e+01      2.36364    0.7630305 -33.70  0.008685021    3.410    0.707
         6 -10.7905    237.8886     18.9092   1.9494716879e+01   2.5661776472e+01    0.2674754    0.2197914 -53.57  0.001157076    1.214    0.176
         7  -9.7339    189.2604     15.1818   2.2278800327e+01   3.6071054519e+01    0.3057157    0.2285023  69.06  0.001942108    1.369    0.270
         8  -9.8785    234.4752      4.8045   1.6939271026e+01   2.7857787739e+01    0.4641541    0.1526951 -68.27   0.00202463    3.356    0.702
         9 -10.8632    182.4268      3.4092   2.0017320672e+01   3.8805256883e+01    0.5214577    0.2887957 -73.61  0.002191677    1.663    0.398
        10  -9.2309    239.4713      3.2778   1.6387820550e+01   2.7076756721e+01    0.1941146    0.1333629  56.52  0.001072855    2.040    0.510
        11  -8.5737    215.0565      7.4558   1.8609182249e+01   3.1406221877e+01    0.1588458   0.09815051  80.82 0.0004221835    1.507    0.337
        12  -9.1392    237.3099    190.4752   5.3245687995e+01   1.4742608548e-01    0.1845651    0.1104119  27.80  0.001090734    1.829    0.453
        13  -8.5119    141.7947    250.6404   8.0753192372e+01   3.0756014682e+00    0.1670635   0.09454576  37.05 0.0009143034    1.547    0.353
        14 -11.6665    209.9831    187.2765   5.7260581830e+01   4.3142526433e+00    0.6366807    0.3051719 -54.09  0.002638196    3.228    0.690
        15  -9.9960    108.7258    241.4946   8.6711028633e+01   9.1053633866e+00     0.206245    0.1952067  21.00 0.0002854163    1.120    0.107
        16  -8.6220     59.9709    230.9638   9.6630677084e+01   1.7577959546e+01    0.1730388    0.1492354 -22.34 0.0004029035    1.528    0.346
        17  -9.1257    133.0954    229.6913   7.9855168471e+01   7.9137026716e+00      0.18369    0.1759809 -67.69 0.0003348683    1.255    0.203
        18  -9.4462     37.5108    213.5057   1.0044373045e+02   2.4039927567e+01    0.2518437   0.08177209  39.97  0.001038471    2.424    0.587
        19 -10.2145    166.9626    152.9628   5.8956613674e+01   1.7743850090e+01    0.2176734    0.2053843 -19.98 0.0003207295    1.023    0.022
        20 -11.7296    176.9488    169.3094   6.0180233134e+01   1.2716763772e+01    0.4788822    0.2976072 -35.56  0.002335782    1.575    0.365
        21 -11.2923    133.8043    144.7923   6.4883823346e+01   2.5779924139e+01     1.561922    0.4462607 -56.64   0.00357828    6.233    0.840
        22  -9.5200    144.9435    178.0201   6.8863571099e+01   1.6414176781e+01    0.2073852    0.1977105  -9.43 0.0002972901    1.022    0.021
        23 -10.6047     62.5794    113.9734   7.9288714114e+01   4.6045386886e+01    0.3907961    0.3265184 -18.75 0.0002404315    1.369    0.269
        24 -11.9568     67.0459    143.1663   8.3622962496e+01   3.7839115632e+01     2.000173    0.9984673  58.65   0.00712653    2.822    0.646
        25 -12.9547     68.6288    128.4698   8.0310175442e+01   4.1418388140e+01     1.754218     1.358397 -71.13  0.008367446    1.311    0.237
        26 -12.6747     40.3240    130.1682   9.0183481274e+01   4.4737175775e+01    0.7001237    0.5225895  35.36  0.001279065    1.393    0.282
        27 -13.4930     48.7830    128.4976   8.7001547748e+01   4.4168396224e+01     1.339833      1.04003 -42.33   0.00476541    1.346    0.257
        28 -12.4087     56.5467    128.7274   8.4400350853e+01   4.3093307605e+01    0.7396337    0.5263095 -56.64  0.001814313    1.336    0.251
        29 -11.3566     35.6434    142.1799   9.3541331254e+01   4.2075600083e+01    0.5947249    0.3299234 -84.67   0.00233448    1.951    0.488
        30 -12.5871     23.4746    130.8853   9.6054575837e+01   4.6257130881e+01     1.016345    0.5229148 -88.55  0.004283939    2.184    0.542
        31 -13.6135      9.8094    136.1535   1.0123509437e+02   4.5982442028e+01     1.101362    0.9036177 -86.27  0.003690494    1.080    0.074
        32  -8.8789    219.1355    204.1296   5.8619605061e+01   3.5956347119e-01    0.1965491    0.1558288  56.32  0.001203481    2.077    0.518
        33  -8.5318    110.9550    167.9978   7.5453407988e+01   2.4526477439e+01    0.1736436    0.1681954  43.98 0.0003520876    1.010    0.010
        34 -10.7041    122.0307    121.0000   6.2453000681e+01   3.3552380316e+01    0.4028515    0.2140797  30.42  0.001475933    2.451    0.592
        35  -8.3346     88.3226    168.2186   8.1644065127e+01   2.8200622842e+01    0.1390956    0.1145893  -3.41 0.0002042194    1.496    0.332
        36  -8.6058     93.5119    119.5097   7.0324775047e+01   3.9474015717e+01    0.1530565    0.1503723 -71.61 0.0008104924    1.006    0.006
        37 -10.9184    113.1148    103.6457   6.0461394089e+01   3.9309349258e+01     0.645459     0.359599 -38.91  0.002586236    1.950    0.487
        38  -9.8831    209.9518    164.2598   5.2950960485e+01   8.2664865404e+00    0.2616822    0.2206724  79.32 0.0006405176    1.776    0.437
        39  -9.7487    126.9738     84.1898   5.1342727449e+01   4.0352362238e+01    0.3267391    0.2116837 -47.12 0.0006751018    1.546    0.353
        40  -9.8999    171.0040     78.5826   4.0614558121e+01   3.1344236025e+01    0.2816854    0.2002474 -41.90 0.0007943832    1.351    0.260
        41  -8.3687    139.1774     77.8644   4.6661212927e+01   3.8755520136e+01    0.1888564    0.1740897  -2.54 0.0002351943    1.288    0.224
        42  -8.9675    132.6308     74.3107   4.7116392021e+01   4.0917393182e+01    0.1934223    0.1410546 -32.23 0.0004223869    1.510    0.338
        43 -10.6223    150.5569     68.9926   4.1791022911e+01   3.7666712126e+01    0.7222813    0.2579129 -40.90  0.002609337    2.691    0.628
        44  -8.7002    139.6570     69.2763   4.4089321980e+01   4.0170330224e+01    0.1947284    0.1373238 -31.01 0.0005880476    1.587    0.370
        45  -8.8028    105.7195     68.4905   5.2217584483e+01   4.8120827531e+01    0.2557467    0.1309446 -41.18 0.0009939033    2.009    0.502
        46  -8.9374    131.3197     65.3148   4.4742001061e+01   4.2806504236e+01    0.1450762    0.1151442  21.17 0.0003267317    1.654    0.395
        47  -9.6102    103.0251     62.7521   5.1111764231e+01   4.9761454377e+01    0.2400279    0.2058531 -39.15 0.0003143954    1.212    0.175
        48 -10.6702    137.8087     60.8782   4.2009947334e+01   4.2014971714e+01    0.5053264    0.2002413  48.74  0.001870454    2.595    0.615
        49  -9.4577    155.4448     58.2719   3.7890421151e+01   3.8255777039e+01    0.2031396    0.1211311 -50.40 0.0009434489    1.667    0.400
        50 -10.9979    185.4525     54.3596   3.2279575137e+01   3.1939532955e+01    0.4785041     0.234665  46.59   0.00123083    2.693    0.629
        51 -11.4484    180.6828     40.8226   2.9497891407e+01   3.4901841834e+01     0.685519    0.4318951  83.53  0.003319843    1.595    0.373
        52 -11.4919    178.0763     51.3173   3.2508434942e+01   3.4041371713e+01    0.6992381    0.4007181 -28.90  0.003332723    2.027    0.507
        53 -11.9513    186.1293     47.3966   3.0467390408e+01   3.2779200241e+01    0.6466129    0.5564196  -3.79  0.003270356    1.630    0.386
        54 -10.4302    197.4193     37.4195   2.6771188931e+01   3.1627828763e+01    0.2460542    0.2294166 -61.26 0.0005023957    1.216    0.177
        55 -10.5578    191.9699     37.6711   2.7411029855e+01   3.2787796130e+01    0.5545142     0.330413 -80.28  0.002727651    1.769    0.435
        56 -10.7831    140.9974     51.0234   3.8434776703e+01   4.2794095230e+01    0.2614146    0.2169144  70.32 0.0005513671    1.139    0.122
        57 -12.4434    137.3355     44.4033   3.7125743780e+01   4.4635054258e+01    0.6436014    0.5439832  53.42  0.003313131    1.206    0.171
        58 -10.7114    151.5138     38.3244   3.2879237232e+01   4.2059433183e+01    0.2855524    0.2019199 -88.09  0.001025935    1.446    0.309
        59 -10.9446    148.0462     34.2437   3.2235490254e+01   4.3419783272e+01    0.2898984    0.1964332 -34.07 0.0008998608    1.582    0.368
        60 -10.5987    169.7093     41.7911   3.1174276666e+01   3.7296449985e+01    0.3276032    0.2355632  52.76  0.001745777    1.533    0.347
        61 -10.5934    122.4427     34.8345   3.6988774527e+01   4.9516904911e+01    0.4313781    0.2656002 -19.04  0.001292531    2.127    0.530
        62  -9.2769    182.9884     31.8999   2.6985298584e+01   3.5527988266e+01    0.3321014    0.1745403 -36.18  0.001672529    1.867    0.464
        63  -8.8895    193.1517     31.8584   2.5893095024e+01   3.3265490681e+01     0.213605    0.1411467 -64.80  0.001219525    1.362    0.266
        64 -10.9525    149.9171     29.6963   3.0623237853e+01   4.3535828202e+01    0.4344504    0.2633123   0.32  0.001564168    3.304    0.697
        65  -9.2827    196.5284     26.9879   2.4410406613e+01   3.3121407419e+01    0.2600126    0.2110344  -9.93  0.001145737    1.787    0.440
        66 -10.4536    179.5719     24.0403   2.5384812982e+01   3.7250363176e+01    0.4495255    0.3342953 -82.11  0.002577101    1.188    0.158
        67  -9.1338    186.6950     24.3801   2.4739222144e+01   3.5602288071e+01    0.2155094     0.164073  35.82 0.0007587377    1.918    0.479
        68 -11.4265    192.7240    194.4109   6.1736656420e+01   5.5903461562e+00    0.9430722    0.4909677 -61.39  0.003356245    4.616    0.783
        69 -10.2278    204.5157    199.9804   6.0505469462e+01   2.9682657507e+00    0.2406643    0.1618505  10.01 0.0009852694    1.583    0.368
        70  -9.2647    154.0233     13.0571   2.5304272135e+01   4.4410714325e+01    0.1971879    0.1425452  41.23 0.0008051242    1.729    0.422
        71 -11.3383    247.8443    194.5798   5.2327082387e+01  -1.7390324446e+00    0.7047966     0.240337 -32.00  0.003152355    2.757    0.637
        72 -10.4985    249.6721    185.6820   5.0517021097e+01  -6.5690392255e-01    0.4483307    0.1652866 -33.94  0.002138362    2.318    0.569
        73 -10.2623    246.6650    185.3284   5.0903690088e+01  -2.3911458770e-01    0.2562612    0.1981243 -38.45  0.001459853    1.305    0.234
