#   1 NUMBER                 Running object number                                     
#   2 MAG_AUTO               Kron-like elliptical aperture magnitude                    [mag]
#   3 X_IMAGE                Object position along x                                    [pixel]
#   4 Y_IMAGE                Object position along y                                    [pixel]
#   5 X_WORLD                Barycenter position along world x axis                     [deg]
#   6 Y_WORLD                Barycenter position along world y axis                     [deg]
#   7 A_WORLD                Profile RMS along major axis (world units)                 [deg]
#   8 B_WORLD                Profile RMS along minor axis (world units)                 [deg]
#   9 THETA_WORLD            Position angle (CCW/world-x)                               [deg]
#  10 FWHM_WORLD             FWHM assuming a gaussian core                              [deg]
#  11 ELONGATION             A_IMAGE/B_IMAGE                                           
#  12 ELLIPTICITY            1 - B_IMAGE/A_IMAGE                                       
         1 -14.2533    174.9213     33.9705   7.3345657898e+01   3.7417641378e+01     1.128344    0.7933182  -8.43  0.004636403    1.928    0.481
         2 -11.8996    190.1884      2.3789   6.2859473021e+01   3.7140795487e+01    0.3871788    0.2209839 -83.14  0.001920649    1.895    0.472
         3 -11.6661    111.6356      2.3360   7.5238344263e+01   5.5555186197e+01    0.4757446   0.02146322  55.21  0.001368918    5.227    0.809
         4  -9.9933     17.3608    238.5930   1.4935351050e+02   2.3359888288e+01    0.1034344   0.07634368  83.77 0.0001589119    1.139    0.122
         5 -14.1442    198.1389    182.9686   1.0616246650e+02   4.7341038071e+00     3.633031     2.241871  39.12   0.01697108    1.576    0.366
         6 -15.8943    140.9524    163.4446   1.1464451559e+02   2.0574056603e+01     2.421206     1.924549 -76.67  0.009938669    1.400    0.286
         7 -18.2426    189.9239    227.8601   1.1607752601e+02  -1.5418166911e+00     6.023819     3.335756  57.38   0.02735229    2.371    0.578
         8 -10.2773     81.2206    209.2619   1.3525423692e+02   2.1035996612e+01     0.183636    0.1269242  74.20  0.000602229    1.343    0.256
         9 -13.0234     77.3398    203.5984   1.3536301196e+02   2.2827851909e+01    0.6402857    0.2953982 -51.44  0.002468486    2.583    0.613
        10 -12.7365     84.7325    190.1667   1.3206928309e+02   2.4656960412e+01    0.9046237    0.5847859 -46.56  0.004615056    1.916    0.478
        11 -11.5079     85.9129    203.8042   1.3362463133e+02   2.1481912413e+01    0.2588432    0.1852954  32.01  0.001422131    1.745    0.427
        12 -11.8504    126.1639    198.3006   1.2430193767e+02   1.5822517721e+01    0.4189633    0.3266325  54.53  0.001449389    1.172    0.147
        13 -10.5471     69.0807    197.8122   1.3636833178e+02   2.5285249053e+01    0.2018242    0.1447317  70.40 0.0005972713    1.251    0.200
        14 -16.3267    148.0944    202.0721   1.2023473355e+02   1.0933320364e+01       1.7471     1.547352 -77.04  0.008992726    1.206    0.171
        15 -10.4743     95.9959    189.7947   1.2955903403e+02   2.2940577286e+01    0.2368998    0.1348192  65.20  0.000856587    2.011    0.503
        16 -11.2035     32.3685    184.4259   1.4244864710e+02   3.2845102294e+01    0.2000185    0.1560494 -88.92 0.0002727233    1.027    0.026
        17  99.0000     12.0287    205.1400   1.4806614688e+02   3.0518814190e+01    0.3237303    0.2377049 -65.81  0.002330516    1.519    0.341
        18 -11.6842    116.7927    248.8631   1.3303836711e+02   7.6815902930e+00    0.2213924    0.1901295 -65.07 0.0007103345    1.396    0.284
        19 -11.5522     93.5122    174.5168   1.2777086980e+02   2.6814815438e+01    0.5266001    0.2169835 -46.92   0.00121092    2.913    0.657
        20 -11.4358     95.6512    170.6684   1.2664478009e+02   2.7351829453e+01    0.3151934    0.2202065 -52.86  0.001609409    1.463    0.317
        21 -11.2349    248.8735    167.3239   9.3305321498e+01  -2.2840744891e+00    0.4538585    0.1906242 -39.55  0.001890593    2.222    0.550
        22 -10.5075    221.3394    166.5105   9.8137053803e+01   3.1155416659e+00    0.2825657    0.1682451 -33.99 0.0008744211    1.681    0.405
        23  99.0000    230.8609    145.0707   9.1659998219e+01   5.1020743155e+00     1.716448    0.9087757 -49.12  0.007209439    2.025    0.506
        24 -13.9413    233.7317    158.8795   9.4184836760e+01   2.0325272984e+00    0.9443989    0.5794908 -34.70  0.002964918    1.560    0.359
        25 -11.5038    225.9356    156.3542   9.5065000272e+01   4.0432031828e+00    0.7201194    0.6501048  70.06  0.002966418    1.302    0.232
        26 -10.4244    100.7487    161.8430   1.2390349025e+02   2.8546758590e+01    0.2025051    0.1836844 -58.94 0.0004179399    1.149    0.130
        27 -10.4273     95.5082    225.9999   1.3440774253e+02   1.5385542508e+01    0.1772511    0.1184212 -70.42 0.0005501283    1.536    0.349
        28 -11.1454    184.4014    157.2047   1.0355974582e+02   1.2672648360e+01    0.4217937    0.2597507  49.97   0.00142569    1.639    0.390
        29 -12.6609     90.1422    156.3807   1.2550529850e+02   3.1602004279e+01    0.3543112    0.2734821 -33.90  0.001153994    1.652    0.395
        30 -12.0440     87.6150    224.5508   1.3576474967e+02   1.6909587128e+01    0.3071393    0.2078734  48.75 0.0009887688    1.342    0.255
        31 -10.3167    104.0488    156.1811   1.2205311819e+02   2.9299656947e+01    0.2154099    0.1954656 -35.45 0.0005561983    1.286    0.222
        32 -10.3228     21.7214    223.0640   1.4763631247e+02   2.5887646202e+01    0.1279059   0.09848285 -82.52 0.0004338808    1.279    0.218
        33 -11.8901     81.9756    220.2450   1.3637184922e+02   1.8639710558e+01    0.3156846    0.1989315  37.71  0.001371672    1.758    0.431
        34 -19.5632     46.5813    148.3148   1.3491103239e+02   3.9512861659e+01     20.69904     2.683414 -65.33   0.04773536    7.819    0.872
        35 -12.6592     11.2129    142.6964   1.4264430013e+02   4.4169995894e+01    0.2177354    0.1873803 -61.63 0.0006432984    1.252    0.202
        36 -11.2190    100.3287    231.3530   1.3410420223e+02   1.3570592086e+01    0.2327741    0.1754241  75.54 0.0007147649    1.202    0.168
        37 -11.1622    102.8244    139.9252   1.1911932073e+02   3.3341185133e+01    0.2283521    0.2111909  48.63  0.000473611    1.144    0.126
        38 -12.5210     23.1005    135.6946   1.3892814840e+02   4.4779674347e+01    0.2297806    0.2091345 -81.04 0.0004467469    1.169    0.145
        39 -10.4688    106.0752    130.7055   1.1627272419e+02   3.4916264952e+01    0.2726204    0.2008085 -65.46  0.001317679    1.391    0.281
        40 -13.4368      2.9964    128.4237   1.4296462764e+02   4.7939485466e+01    0.6669407    0.1981578 -76.80  0.002667198    3.268    0.694
        41 -12.6199     72.2176    126.0503   1.2438552403e+02   4.1493620098e+01    0.3421718    0.2769112  79.06  0.001297047    1.384    0.278
        42 -10.1062    106.9716    126.4892   1.1507616836e+02   3.5730629120e+01    0.2078527    0.1493917  38.06  0.000515865    1.491    0.329
        43 -13.0809     12.1095    114.1309   1.3875917078e+02   5.0493930455e+01    0.4735223    0.2138789 -68.00  0.002288656    1.722    0.419
        44 -10.7868     87.9895    230.0222   1.3629888102e+02   1.5769279646e+01     0.155252     0.120498  63.11 0.0005678496    1.065    0.061
        45 -13.3520    245.3497    104.9380   8.0127822852e+01   9.2742115789e+00     1.089214    0.8028852  73.07  0.005644355    1.581    0.368
        46 -11.9862    212.1099     89.8074   8.1863210629e+01   1.9493297029e+01    0.4743359    0.3450056   6.30  0.002066158    2.210    0.548
        47 -13.6239    171.2807     85.9725   8.8610882947e+01   3.0163314647e+01     1.242332    0.6498452 -41.73   0.00495375    1.909    0.476
        48 -12.3536    155.8108     69.2069   8.7179564920e+01   3.6922368491e+01    0.4248801    0.3092445 -89.53   0.00191487    1.841    0.457
        49 -12.6167    161.8047     48.9039   7.9974535842e+01   3.8651341345e+01    0.3709465    0.3133254  68.40 0.0009491303    1.142    0.124
        50 -10.5634     11.6279    248.6889   1.5081346100e+02   2.2111796618e+01    0.1119809   0.07524626 -73.73 0.0008341236    1.581    0.367
        51 -12.5646    178.6733     26.9774   7.0823171601e+01   3.7343525492e+01    0.5093464     0.384943  20.73  0.001266123    1.754    0.430
        52  -9.7187      1.6129    248.7997   1.5231126358e+02   2.3131085530e+01   0.07961734   0.07042669  69.86 0.0006779316    1.595    0.373
