#   1 NUMBER                 Running object number                                     
#   2 MAG_AUTO               Kron-like elliptical aperture magnitude                    [mag]
#   3 X_IMAGE                Object position along x                                    [pixel]
#   4 Y_IMAGE                Object position along y                                    [pixel]
#   5 X_WORLD                Barycenter position along world x axis                     [deg]
#   6 Y_WORLD                Barycenter position along world y axis                     [deg]
#   7 A_WORLD                Profile RMS along major axis (world units)                 [deg]
#   8 B_WORLD                Profile RMS along minor axis (world units)                 [deg]
#   9 THETA_WORLD            Position angle (CCW/world-x)                               [deg]
#  10 FWHM_WORLD             FWHM assuming a gaussian core                              [deg]
#  11 ELONGATION             A_IMAGE/B_IMAGE                                           
#  12 ELLIPTICITY            1 - B_IMAGE/A_IMAGE                                       
         1 -14.4043    156.5448     53.9319   8.2149882939e+01   3.9450289221e+01     1.406715     1.272209  37.22  0.001074159    1.133    0.117
         2 -14.6453    168.6398     38.9295   7.5092515145e+01   3.8480955030e+01     1.211955      1.07374   8.70  0.004349925    1.296    0.228
         3 -14.5053    185.1578      6.7658   6.3036679118e+01   3.7852762653e+01     1.279866    0.9051359  69.26  0.005479746    1.269    0.212
         4 -12.6669    209.4510      2.6239   5.9468099192e+01   3.2091147410e+01    0.4932554      0.22278  72.80  0.002240365    1.983    0.496
         5 -10.5407    219.7508    226.3502   1.0986262432e+02  -3.8041564820e+00    0.1958648    0.1404358 -40.46 0.0009199578    1.767    0.434
         6 -19.9728     64.1585    172.0024   1.3403411737e+02   3.2292830248e+01      17.6889     6.203919 -68.65   0.07161351    2.804    0.643
         7 -10.3066    125.0000    249.9149   1.3044921488e+02   8.1951689057e+00    0.1412039   0.06782682 -57.72 0.0003612101    2.634    0.620
         8 -12.0597    153.5936    185.3462   1.1581953531e+02   1.4429689706e+01    0.3173868    0.2505186 -64.52  0.001657563    1.481    0.325
         9 -13.3541    210.1551    188.2358   1.0490928958e+02   3.1992359606e+00     1.060411    0.3773006 -49.18  0.003421669    4.881    0.795
        10 -12.2059    205.5009    179.5227   1.0411171794e+02   5.4510110543e+00    0.3391096     0.270709  39.23    0.0013115    1.190    0.160
        11 -11.5991    210.1478    176.1789   1.0256005329e+02   5.1105695518e+00    0.4035278    0.3002892   6.98  0.001527045    1.483    0.326
        12 -10.3836     17.5576    249.9934   1.4891577389e+02   2.2393973269e+01     0.131322   0.07957335 -83.11 0.0009818372    1.558    0.358
        13 -12.9493    121.9500    223.1670   1.2798088349e+02   1.3082635480e+01    0.4355717    0.2847546  24.46  0.002313383    2.047    0.511
        14 -10.3772    110.2355    222.9057   1.3025566658e+02   1.5016446835e+01    0.1695978     0.136545  66.77 0.0003511505    1.118    0.105
        15 -12.0753    116.1024    211.8801   1.2774091582e+02   1.6089269942e+01    0.2660284    0.1912827  73.94 0.0008568878    1.479    0.324
        16 -10.9586    144.7372    179.1117   1.1664595575e+02   1.7330386743e+01    0.2716511    0.1844759  18.30   0.00102699    2.101    0.524
        17 -11.0822    171.0204    177.2854   1.1063427486e+02   1.2555295815e+01    0.2449018    0.2023863 -85.27 0.0007516964    1.584    0.369
        18 -11.4036    193.9872    165.4780   1.0353844853e+02   1.0093304654e+01    0.3277675    0.2863626  86.22  0.001000973    1.488    0.328
        19 -11.6140    195.6863    174.3191   1.0499901694e+02   8.2152320947e+00    0.3625561    0.2740212  87.39 0.0007619414    2.237    0.553
        20 -12.5524    195.7724    170.5185   1.0421628813e+02   8.8533561321e+00    0.4671185    0.4118395  70.38  0.001861486    1.390    0.281
        21 -13.8170    137.7783    171.5188   1.1683997797e+02   2.0199686062e+01    0.8686607     0.525571  53.81  0.003898956    1.656    0.396
        22 -12.0828    142.0616    166.2917   1.1489350147e+02   2.0446750562e+01    0.3196343    0.2164692 -51.46  0.001068224    1.573    0.364
        23 -12.4263    126.2968    172.6147   1.1965628203e+02   2.2138318067e+01    0.5128818    0.3330056  67.86  0.002366777    1.873    0.466
        24 -12.2257    177.3092    170.8738   1.0806244525e+02   1.2485835209e+01    0.4469173    0.2524219 -52.73  0.001945321    2.139    0.532
        25 -11.0845    203.0364    172.0337   1.0309352912e+02   7.1642896166e+00    0.2160337    0.2006837  22.26 0.0007850203    1.053    0.050
        26 -10.2357    164.8016    171.5825   1.1086233399e+02   1.4865236018e+01    0.2134964    0.1285088  53.28 0.0009506588    1.718    0.418
        27 -10.6647    201.0245    165.0337   1.0204768989e+02   8.7548887551e+00    0.3101692    0.1941961 -61.54  0.001299668    2.606    0.616
        28  -9.5792    110.0017    211.4228   1.2892931657e+02   1.7172964910e+01    0.3809387    0.2201902  77.86  0.001785871    2.453    0.592
        29 -10.4219    222.8631    162.2171   9.7320190396e+01   4.9292440166e+00    0.3307605    0.1631608 -50.82  0.001147904    2.939    0.660
        30 -12.4248    121.3106    157.1161   1.1802789277e+02   2.6411966754e+01    0.2920771     0.284536 -35.58 0.0008662713    1.168    0.144
        31 -14.7215    132.8303    145.2797   1.1286049626e+02   2.6771270932e+01     1.433224    0.7592456 -60.61  0.004649514    2.276    0.561
        32 -13.9551    143.9430    143.6335   1.0982769914e+02   2.4844883120e+01     1.024001    0.5892113 -66.04  0.003912882    2.505    0.601
        33 -11.8849    134.6247    109.0871   1.0382474944e+02   3.4319672133e+01     1.182368    0.1650898 -45.11  0.002403496    7.150    0.860
        34 -13.7077    135.9117    127.8569   1.0819588853e+02   2.9959032153e+01     2.057099    0.3615418 -50.37    0.0042187    7.409    0.865
        35 -12.2859    162.0334    153.7991   1.0785146070e+02   1.8930269548e+01    0.3707627    0.3216792  76.45  0.001442622    1.297    0.229
        36 -12.0115    131.9983    129.2138   1.0949782616e+02   3.0482859393e+01    0.3133193    0.2342103 -49.08 0.0006231389    1.349    0.259
        37 -10.4295    107.5342    206.9552   1.2887846368e+02   1.8427339265e+01    0.1928127    0.1576101  45.64  0.000407292    1.171    0.146
        38 -11.2563    174.3964    148.6526   1.0401497267e+02   1.7321119564e+01    0.3443177    0.2901821 -82.28  0.001436201    1.473    0.321
        39 -12.9700    163.4478    203.4872   1.1682487692e+02   9.3110937074e+00     0.640992    0.3105024 -44.23  0.002943439    2.387    0.581
        40 -10.9001      7.1291    139.8365   1.4423812729e+02   4.5512902568e+01    0.1755736    0.1286922  78.47 0.0003859443    1.179    0.152
        41 -10.0871    171.4706    137.5475   1.0213079073e+02   2.0151912091e+01    0.1508861    0.1470992  52.03 0.0001528373    1.027    0.026
        42 -11.9787    160.4046    127.8820   1.0231951003e+02   2.4583983966e+01    0.4154055    0.3326725 -52.84  0.002021466    1.301    0.231
        43 -11.2556     20.2139    127.5107   1.3964251015e+02   4.7320871201e+01    0.3824789    0.1856245 -70.31  0.002020738    1.648    0.393
        44 -12.7233    161.2917    198.4812   1.1644321747e+02   1.0578739181e+01    0.3971462     0.308777 -62.41  0.001917441    1.571    0.364
        45 -11.2901     29.9708    205.6373   1.4435910080e+02   2.9254848326e+01    0.2257512    0.2046614 -25.96  0.001095059    1.857    0.461
        46 -11.6184    168.8575    202.6496   1.1559357320e+02   8.4663926774e+00    0.2498962    0.1861625  63.93  0.000671082    1.599    0.375
        47 -10.8729    167.7784    112.8786   9.6871349327e+01   2.5932500009e+01    0.4154577    0.2840865 -86.40  0.001610213    2.407    0.585
        48  -9.4897    150.6851    250.7574   1.2588357185e+02   4.0386650553e+00    0.1119373   0.07834847  26.63 0.0002774489    1.511    0.338
        49 -11.0157      3.7296    112.1256   1.4243077850e+02   5.2018734741e+01    0.2572101    0.1656635  22.47  0.001643296    1.981    0.495
        50 -11.0288     10.9065    110.8790   1.4024352582e+02   5.1847656394e+01    0.2654866    0.1661559  -5.33  0.000908047    2.423    0.587
        51 -10.8580    205.4641    110.1818   8.8513655627e+01   1.7571286640e+01    0.3310855    0.2135833  43.07 0.0009743312    1.623    0.384
        52 -10.6017    156.8568    202.1648   1.1795556239e+02   1.0742688355e+01    0.2104481    0.1693506  63.66 0.0009701463    1.335    0.251
        53 -13.5360    118.9298    109.6408   1.0812004185e+02   3.7535206963e+01    0.6393176    0.5019411  86.50  0.003025162    1.594    0.373
        54  -9.8273    139.3902    201.1664   1.2141950653e+02   1.4080726393e+01    0.1768858    0.1264766 -73.18 0.0006931298    1.753    0.429
        55 -10.1055    139.8049    249.7705   1.2774427946e+02   5.9032886574e+00    0.1616022    0.1135512  57.83 0.0008933365    1.337    0.252
        56 -11.2671    154.3949    196.2131   1.1749691430e+02   1.2260411507e+01    0.3072851     0.244191 -86.60  0.001452225    1.623    0.384
        57 -10.1975    113.4239    195.5153   1.2611011328e+02   1.9703922246e+01     0.425451    0.2798961 -11.27  0.001596709    4.397    0.773
        58  -9.9689      7.9533    246.5679   1.5027944375e+02   2.3958094869e+01    0.2095972   0.07584769  73.56  0.001188427    2.386    0.581
        59 -13.4320    167.0338    189.3998   1.1369715869e+02   1.1119815745e+01     0.585501    0.4734613  23.83    0.0029879    1.278    0.218
        60 -12.9167    172.5948     31.2721   7.2056180563e+01   3.8434119393e+01    0.4204469    0.3910172  20.91   0.00100894    1.203    0.169
        61 -10.5743     13.4895     59.7147   1.3069157042e+02   6.3123070283e+01    0.1878819    0.1631241 -52.55 0.0004251642    1.102    0.093
        62 -12.4372    180.2176    192.7140   1.1158944506e+02   8.0456491608e+00    0.3659785    0.2993703 -77.69  0.001308566    1.707    0.414
        63 -10.8492    135.2541     30.4259   7.8688546886e+01   4.8157285724e+01    0.2902566    0.2308124  76.74  0.001512933    1.363    0.266
        64 -13.0235    175.9063    187.0053   1.1143322911e+02   9.8511550306e+00    0.6387318    0.3986705 -67.43  0.002744672    2.767    0.639
        65 -12.5841    175.0756    193.4150   1.1275465815e+02   8.8922818950e+00    0.4052206    0.2756131 -57.65  0.001116881    1.891    0.471
