#   1 NUMBER                 Running object number                                     
#   2 MAG_AUTO               Kron-like elliptical aperture magnitude                    [mag]
#   3 X_IMAGE                Object position along x                                    [pixel]
#   4 Y_IMAGE                Object position along y                                    [pixel]
#   5 X_WORLD                Barycenter position along world x axis                     [deg]
#   6 Y_WORLD                Barycenter position along world y axis                     [deg]
#   7 A_WORLD                Profile RMS along major axis (world units)                 [deg]
#   8 B_WORLD                Profile RMS along minor axis (world units)                 [deg]
#   9 THETA_WORLD            Position angle (CCW/world-x)                               [deg]
#  10 FWHM_WORLD             FWHM assuming a gaussian core                              [deg]
#  11 ELONGATION             A_IMAGE/B_IMAGE                                           
#  12 ELLIPTICITY            1 - B_IMAGE/A_IMAGE                                       
         1 -18.8028    242.4569     96.0481   3.8930232961e+01   1.4164960721e+01     6.561692     5.990026 -81.78   0.01971303    1.178    0.151
         2 -10.6176    211.2252    163.0435   5.7598317135e+01   7.4336210003e+00    0.2161462    0.2044975  33.31 0.0002660296    1.212    0.175
         3 -10.2160    247.5974    250.0759   6.6936836031e+01  -1.2226979985e+01    0.3211012    0.1208914  26.75   0.00161112    2.627    0.619
         4  -9.4282    157.0037    247.0152   8.4426300884e+01  -2.1438299761e-01    0.1561406    0.1376655   6.68 0.0003233754    1.051    0.049
         5  -9.4243    158.5977    242.7516   8.3431870213e+01   3.2513811700e-01    0.1607312     0.130645 -55.96 0.0004430392    1.533    0.348
         6 -10.6746    126.8262    230.0174   8.8694013654e+01   7.6058071849e+00     0.260107    0.2139323 -49.82 0.0005227932    1.323    0.244
         7  -8.5402     78.3178    222.2728   9.9159347743e+01   1.6506476566e+01    0.1294349    0.1066629 -16.35  0.000222742    1.565    0.361
         8  -9.1631    150.1370    217.1525   8.1213322826e+01   6.6063406622e+00    0.1799266    0.1662716  59.49  0.000263722    1.281    0.219
         9 -10.8308    215.6807    211.3966   6.6137473225e+01  -2.2838794620e+00    0.3021582    0.2696373  75.17 0.0009539913    1.857    0.462
        10  -9.8549    170.9492    203.8869   7.4096188289e+01   5.9610400502e+00    0.4000355    0.2752607  76.55  0.001578057    3.260    0.693
        11 -10.1252     10.8124    203.5670   1.1324732876e+02   2.8731825079e+01    0.2092594    0.1450102 -70.98 0.0003383927    1.323    0.244
        12 -10.8967    192.2579    193.7940   6.7547774014e+01   4.5201140986e+00    0.9712399    0.4846698 -63.51  0.002636266    6.449    0.845
        13 -10.2657    190.6363    248.1188   7.7477793791e+01  -5.1059201279e+00    0.2217995    0.1741545  15.68 0.0003736805    1.109    0.098
        14 -14.6276    227.6970     88.5105   3.9292809771e+01   1.8131732539e+01    0.7053074    0.5022433  -8.91  0.003502867    2.545    0.607
        15  -8.8240     13.9611    187.9844   1.1126563016e+02   3.2233994653e+01    0.1532884    0.1314306  86.46 0.0003091275    1.026    0.025
        16 -11.7212    186.5303    171.6260   6.4321703622e+01   9.9895094458e+00    0.6612545     0.387604 -69.29  0.002243871    3.811    0.738
        17 -11.9851    210.0674    187.7577   6.2768584517e+01   2.8622324733e+00    0.5701599    0.3605515  33.57  0.002349285    1.692    0.409
        18 -10.8556    174.0575    175.9949   6.7948722067e+01   1.1289400793e+01     0.459246    0.3336166  81.51  0.001947406    2.484    0.597
        19 -12.3755     69.2577    145.3793   8.9888188240e+01   3.7122589370e+01     1.008472    0.3457714  36.36  0.003437995    2.887    0.654
        20 -12.0951     65.6264    142.8140   9.0528341080e+01   3.8295419176e+01    0.4307006    0.4005646  26.89  0.002371346    1.143    0.125
        21 -13.9227     28.4917    126.4059   9.9630000576e+01   4.6730110398e+01     1.110164    0.8404551 -40.40  0.004402034    1.264    0.209
        22 -14.2380     65.7277    121.6079   8.6087579871e+01   4.3706389584e+01     1.856863     1.214621  20.97  0.003921025    1.693    0.409
        23 -12.7463     53.3896    122.3873   9.0439524193e+01   4.5137198637e+01    0.5611729    0.5161021   8.68 0.0009468068    1.155    0.134
        24  -9.0429     97.4676    116.5122   7.4516727691e+01   3.9787354671e+01    0.1562541    0.1471534 -18.89 8.405726e-05    1.039    0.037
        25 -10.3066     74.5031    105.9881   7.9318314348e+01   4.6189023401e+01    0.2573582    0.2141529  21.99 -9.859772e-05    1.230    0.187
        26 -11.3268    179.1217    180.7356   6.7789247751e+01   9.3877678504e+00    0.4979038    0.3656555  81.49  0.001674395    2.492    0.599
        27 -11.6468    118.9193     92.1686   6.1541984891e+01   4.0872932385e+01    0.4411461    0.3199097  64.86  0.001963136    1.698    0.411
        28 -12.2083    149.2750     83.5267   5.1573529235e+01   3.5809502815e+01     0.552904    0.3177916  49.31  0.002135075    1.709    0.415
        29 -12.7335    136.4101     71.7869   5.1237038560e+01   4.0789326771e+01     0.763958    0.3094404  53.28  0.002869166    2.388    0.581
        30 -12.9348    141.8234     77.1852   5.1510800460e+01   3.8629882751e+01    0.7327569     0.453819  29.68  0.003096668    2.204    0.546
        31 -12.9380    140.0698     73.7044   5.0937272402e+01   3.9630911949e+01      1.17447    0.4560264  62.90  0.003537755    4.044    0.753
        32 -10.4883    115.0304     71.8342   5.6647013562e+01   4.5536134520e+01    0.5099714    0.1977748 -30.54  0.001638138    3.684    0.729
        33 -11.1326    142.0232     61.9938   4.7202445750e+01   4.1094686416e+01    0.2169399    0.2037276  68.14 0.0003362671    1.008    0.008
        34 -11.5061    135.0946     59.0579   4.7868657031e+01   4.3137788159e+01    0.2726506    0.2333784 -50.76 0.0008550402    1.248    0.199
        35 -12.3964    149.6644     46.1859   4.1272994156e+01   4.1615755741e+01    0.6154626    0.3827219 -11.34  0.001047145    2.600    0.615
        36  -9.1096    110.7449    167.9635   8.2171241639e+01   2.4674615144e+01    0.2143483    0.2007462 -55.38 0.0003417554    1.064    0.060
        37  -9.9370    109.2747     23.9688   4.2802885801e+01   5.3501886952e+01    0.2166819    0.1629273  52.04 0.0004894621    1.130    0.115
        38 -11.8232    202.8102     18.0735   2.7356112474e+01   3.3087275064e+01    0.4281086    0.2260691  79.83  0.002291329    1.717    0.418
        39  -9.8300    160.0806    164.8191   6.8828585473e+01   1.6318347315e+01    0.2508518    0.2102156 -44.08 0.0002945001    1.161    0.139
