#   1 NUMBER                 Running object number                                     
#   2 MAG_AUTO               Kron-like elliptical aperture magnitude                    [mag]
#   3 X_IMAGE                Object position along x                                    [pixel]
#   4 Y_IMAGE                Object position along y                                    [pixel]
#   5 X_WORLD                Barycenter position along world x axis                     [deg]
#   6 Y_WORLD                Barycenter position along world y axis                     [deg]
#   7 A_WORLD                Profile RMS along major axis (world units)                 [deg]
#   8 B_WORLD                Profile RMS along minor axis (world units)                 [deg]
#   9 THETA_WORLD            Position angle (CCW/world-x)                               [deg]
#  10 FWHM_WORLD             FWHM assuming a gaussian core                              [deg]
#  11 ELONGATION             A_IMAGE/B_IMAGE                                           
#  12 ELLIPTICITY            1 - B_IMAGE/A_IMAGE                                       
         1 -12.6869    248.4138     25.4039   2.6041603516e+02  -6.1216737343e+01    0.2553955   0.07607588  19.90  0.006559442    3.284    0.696
         2 -11.6918    247.4524      6.6283   2.5906749912e+02  -6.1397278271e+01    0.1222335   0.08781433   2.08  0.004778758    1.481    0.325
         3 -12.0227    236.5699      4.2757   2.5864752440e+02  -6.1053340092e+01    0.1027778   0.08101288  -8.63  0.004218491    1.346    0.257
         4  -8.8032     91.9909     26.5419   2.5713187566e+02  -5.5874224726e+01   0.03581658   0.02424768 -14.25  0.000821077    1.652    0.395
         5  -8.4246     93.4584     12.5072   2.5629699289e+02  -5.6064657791e+01   0.01791739   0.01780531 -24.63 0.0001298445    1.004    0.004
         6  -8.7297     56.0007     10.0466   2.5550581958e+02  -5.4798515599e+01   0.03128285   0.01937099 -37.72 0.0007680538    1.709    0.415
         7  -9.6344      6.4994      8.4773   2.5463342964e+02  -5.3109124698e+01   0.03506514   0.01324812 -59.79  0.001029109    2.397    0.583
         8  -8.7457     70.9583      6.4680   2.5553928678e+02  -5.5347534025e+01   0.02776436   0.01139442 -48.47 0.0008080865    2.420    0.587
         9  -8.8838     33.5262      5.4566   2.5487277516e+02  -5.4066786649e+01   0.03363874    0.0168601  -5.19  0.001029554    2.402    0.584
        10  -8.6994     79.2788      3.6389   2.5550709680e+02  -5.5660993635e+01   0.03393709   0.02164906  -5.29  0.001183653    1.732    0.423
        11  -8.8104     62.8037      1.5601   2.5510788110e+02  -5.5111939625e+01   0.02695427   0.01537724 -57.65 0.0009399402    1.681    0.405
        12  -8.3901     39.4910      1.4968   2.5473256395e+02  -5.4308302122e+01   0.01787518   0.01778615  51.58 0.0006250892    1.008    0.008
        13  -9.4617     89.5079    246.9917   2.6967163198e+02  -5.2867111126e+01   0.03849253   0.01757381 -33.58  0.001019098    3.327    0.699
        14 -10.0011    241.9819    237.5145   2.7380208947e+02  -5.7796604296e+01   0.08322192   0.03531197  52.08  0.002181983    3.453    0.710
        15  -9.9792    243.3194    245.5800   2.7430893005e+02  -5.7690496807e+01   0.06283137   0.03149424  37.85  0.002091357    1.954    0.488
        16  -9.1836    247.9520    234.0453   2.7380737355e+02  -5.8042526336e+01   0.03973688   0.02949403  40.60 0.0009519014    1.349    0.259
        17 -10.0542    246.7465    227.5288   2.7338825693e+02  -5.8123108216e+01   0.07965787   0.03201272  38.14  0.002197557    2.400    0.583
        18  -9.4025    248.5393    249.8737   2.7473416145e+02  -5.7770308340e+01   0.04724645   0.03325443 -80.67  0.001768327    1.743    0.426
        19 -10.4844    248.9476    241.4712   2.7426912957e+02  -5.7937571371e+01   0.08862239   0.04162298  30.73  0.002419946    2.148    0.534
        20  -9.9597    233.7565    244.8801   2.7394171956e+02  -5.7410893439e+01   0.07786583   0.03933732  50.40  0.002438407    2.376    0.579
        21  -9.3614    201.5268    248.9825   2.7310321007e+02  -5.6345610083e+01   0.06429131   0.03613761  81.11  0.001711986    3.746    0.733
        22  -9.3321    132.9308    248.8007   2.7098823679e+02  -5.4209201188e+01   0.06478752   0.03002235 -31.09  0.001651661    3.751    0.733
        23  -9.0869     27.6705    250.4321   2.6824205822e+02  -5.0846704316e+01   0.04601137   0.01432798 -57.48  0.001246644    2.859    0.650
        24  -9.7794     22.0171    248.4355   2.6800108430e+02  -5.0696657266e+01   0.04903417   0.02955895 -47.65  0.001244589    1.651    0.394
        25  -8.6339      3.7541    250.3436   2.6765319861e+02  -5.0085226543e+01   0.02519468   0.01712724 -77.07 0.0004548217    1.645    0.392
        26 -10.0828    119.8601    244.9609   2.7040684110e+02  -5.3860704371e+01   0.05429878   0.02885327 -15.49  0.001421508    3.741    0.733
        27  -9.4344     46.4070    244.6783   2.6841909540e+02  -5.1532084271e+01   0.03394294   0.02033883 -50.47  0.000814463    1.633    0.387
        28  -9.1003    193.4513    243.6543   2.7254771138e+02  -5.6189253462e+01   0.04139815   0.02556779  74.69   0.00131457    2.541    0.606
        29  -8.6651    201.8239    243.1007   2.7278491547e+02  -5.6458707305e+01   0.02785819   0.02434214 -11.48 0.0005432834    1.246    0.198
        30  -8.6172    168.9847    243.0142   2.7174901351e+02  -5.5437712621e+01   0.02965541   0.02135224 -22.49 0.0006802398    1.677    0.404
        31 -10.2132      3.9692    241.6150   2.6722013827e+02  -5.0221312486e+01   0.05139818   0.03508248 -18.38  0.001094204    1.770    0.435
        32  -9.8464     30.0930    241.8434   2.6786499817e+02  -5.1054050018e+01   0.05118304   0.02492156 -57.21  0.001690106    1.948    0.487
        33  -8.9485    214.6944    240.2937   2.7304575914e+02  -5.6906638701e+01   0.03968378   0.01855536  49.22  0.001175636    2.578    0.612
        34  -8.9597    182.6715    239.7616   2.7199176915e+02  -5.5921149745e+01    0.0461808   0.02644932 -22.29  0.001391864    2.767    0.639
        35  -9.4090    159.8719    239.8505   2.7129877977e+02  -5.5205863997e+01   0.04021266   0.02632191   5.46  0.001172505    1.936    0.484
        36  -9.0769     62.7325    241.4274   2.6866987976e+02  -5.2103027587e+01   0.03473676   0.01603737 -56.68 0.0008368236    2.045    0.511
        37  -8.8640     38.0437    241.0465   2.6802174171e+02  -5.1320342300e+01   0.03141932   0.02063552 -29.85  0.001135475    1.772    0.436
        38 -10.1886    127.4614    239.3014   2.7031906265e+02  -5.4193643208e+01   0.05641988   0.02844887 -62.96  0.001855794    1.997    0.499
        39 -10.1787     71.9656    238.9910   2.6878343099e+02  -5.2435399777e+01   0.04134353   0.02758642 -28.38  0.001509086    1.767    0.434
        40  -9.3143     53.4916    239.3329   2.6832334857e+02  -5.1840267259e+01   0.04107039   0.02612504 -24.16  0.001114834    1.978    0.494
        41 -10.2110     19.5847    238.9173   2.6745850038e+02  -5.0761450585e+01   0.05256743   0.02687855 -57.73 0.0009343071    1.865    0.464
        42  -9.4551    103.2569    246.1081   2.7000221710e+02  -5.3316984653e+01   0.05053296   0.02299934  14.10   0.00139068    3.107    0.678
        43  -9.9209    230.9030    235.9836   2.7333889388e+02  -5.7483647440e+01   0.05663707   0.04130618  24.06  0.001584906    1.425    0.298
        44  -8.0907    135.2800    238.6258   2.7050709868e+02  -5.4451835522e+01   0.01919815   0.01367395 -20.93 0.0007010663    1.702    0.412
        45  -9.3886     83.1660    238.4996   2.6905376448e+02  -5.2800163284e+01   0.04959449   0.01766262 -62.77  0.001375077    2.776    0.640
        46  -9.9106    214.6488    232.6801   2.7261276118e+02  -5.7039612363e+01   0.07942791   0.04371807 -14.14  0.002094976    3.794    0.736
        47  -9.6962    175.6127    233.0423   2.7139972032e+02  -5.5815062193e+01   0.06786805   0.03370054  12.95  0.001953544    2.914    0.657
        48  -8.4640     45.0020    236.4981   2.6796160066e+02  -5.1611908506e+01   0.02787597   0.01240285 -42.18 0.0008104145    2.537    0.606
        49  -9.3538     95.5430    234.9828   2.6919980891e+02  -5.3249938019e+01    0.0372168   0.02335516 -45.31  0.001251803    1.620    0.383
        50  -9.1967      7.2790    235.0411   2.6696650760e+02  -5.0423902957e+01   0.02549943   0.02374591   4.07 0.0006894436    1.084    0.077
        51  -9.1383    108.2986    233.8271   2.6948644129e+02  -5.3674367110e+01   0.03529213   0.01716618  15.64 0.0007836598    2.568    0.611
        52  -8.9923    202.9893    234.4707   2.7233744238e+02  -5.6645998722e+01   0.03512049   0.02548733   4.74 0.0008204023    1.654    0.395
        53  -9.7711    236.1131    229.7990   2.7315885960e+02  -5.7754808784e+01   0.06625243   0.02350494  33.70  0.001290551    2.675    0.626
        54  -8.4957    194.3894    232.2299   2.7193769207e+02  -5.6416735734e+01    0.0252644   0.01758558  12.96 0.0004920657    1.643    0.391
        55  -9.0799     11.5768    231.8695   2.6690733113e+02  -5.0608347893e+01   0.03863088   0.02076051 -46.30  0.001000979    1.886    0.470
        56  -8.9681    186.2363    230.3078   2.7157434570e+02  -5.6194655252e+01   0.04078919   0.02486326 -16.77  0.001241428    2.487    0.598
        57  -9.1807    139.8131    229.8113   2.7015710424e+02  -5.4739866253e+01   0.02586932   0.02067355 -30.08  0.000566497    1.349    0.259
        58  -9.9751    149.0064    225.6203   2.7019271605e+02  -5.5099733509e+01   0.08289886    0.0489285 -10.69  0.002567218    2.669    0.625
        59  -8.3535    103.2392    229.4012   2.6911001668e+02  -5.3583516005e+01   0.02763653   0.01550529 -50.45 0.0009514705    1.744    0.427
        60  -9.4531     63.5241    229.0484   2.6804270148e+02  -5.2318622703e+01   0.02760584   0.02460805 -58.75 0.0004491746    1.113    0.101
        61  -9.0464    229.5967    227.8253   2.7282693932e+02  -5.7588467769e+01   0.03521946   0.01657232  34.34  0.001125695    2.059    0.514
        62  -8.7382    161.9090    227.8973   2.7069924419e+02  -5.5470198155e+01   0.02996452   0.02126033 -25.41 0.0009829394    1.673    0.402
        63  -8.7548     48.4420    228.5136   2.6763306039e+02  -5.1842713581e+01   0.01784315   0.01762526 -10.60 0.0001075843    1.006    0.006
        64  -8.6081     20.6540    228.3096   2.6694196767e+02  -5.0952385105e+01   0.01966472   0.01305897 -31.55 0.0007044855    1.704    0.413
        65  -9.1416    127.7209    226.9327   2.6965467701e+02  -5.4402692730e+01   0.03060745   0.02003754 -18.53  0.001061413    2.002    0.501
        66 -10.1438      6.5324    226.2337   2.6650103744e+02  -5.0527871069e+01   0.03400873   0.03266934 -46.36   0.00063227    1.032    0.031
        67  -8.8021    206.3038    225.8566   2.7195457358e+02  -5.6898676212e+01   0.03506592   0.01725811  19.29 0.0008872887    2.481    0.597
        68  -8.3972    200.0000    226.0005   2.7176233329e+02  -5.6699215271e+01   0.02921662   0.01032824  28.80 0.0005225249    2.841    0.648
        69  -9.6793    225.4771    222.0278   2.7235590651e+02  -5.7562579121e+01   0.09748723   0.03364324  44.22  0.002556284    3.236    0.691
        70  -8.2862     72.3337    225.3223   2.6807256100e+02  -5.2658059218e+01   0.01939031   0.01352003  61.75 0.0007050213    1.705    0.413
        71  -9.1117    216.2732    222.9452   2.7210853286e+02  -5.7260065050e+01   0.03645312   0.02481334  11.85  0.000890464    1.725    0.420
        72  -8.6634    180.4549    224.0655   2.7104472529e+02  -5.6118826094e+01   0.02945045   0.02415575 -27.92 0.0006169024    1.319    0.242
        73  -8.7229    104.6304    223.6254   2.6883642788e+02  -5.3718897359e+01   0.03748463   0.02190727  -5.59  0.001163629    2.560    0.609
        74  -8.2766     93.4762    223.5104   2.6853051087e+02  -5.3363751332e+01   0.01874689   0.01687894 -28.47 0.0008064771    1.140    0.123
        75 -10.1391    239.1896    220.4526   2.7271980569e+02  -5.8015805390e+01   0.05764521    0.0313857  42.10   0.00157983    1.862    0.463
        76  -9.1808     55.4784    221.2447   2.6742825283e+02  -5.2177978543e+01   0.03120589   0.02863135  32.82  0.001385447    1.092    0.084
        77  -9.2110     20.1581    221.6640   2.6658815237e+02  -5.1033341352e+01   0.05168818   0.02450492 -38.95  0.001487901    2.498    0.600
        78  -9.0404    192.0155    220.9151   2.7122270576e+02  -5.6535560217e+01   0.03082009   0.02565093  18.08 0.0005729709    1.245    0.197
        79  -8.8670     44.1854    220.8784   2.6712854207e+02  -5.1819670086e+01   0.02937153    0.0239566 -26.53 0.0009688694    1.307    0.235
        80  -8.9385    158.9497    220.4715   2.7019756405e+02  -5.5499247411e+01   0.02729381   0.01298466 -40.57 0.0008085456    2.460    0.593
        81  -9.0364      2.0590    219.7359   2.6606529480e+02  -5.0476714590e+01   0.03105954   0.02495004  -6.58 0.0007927371    1.353    0.261
        82  -8.2415    210.2069    218.9534   2.7168359337e+02  -5.7139473777e+01   0.02394591   0.01457932  27.42 0.0004237008    1.665    0.399
        83  -8.0714    202.5293    219.5387   2.7147338343e+02  -5.6888974012e+01   0.01795973   0.01766938 -32.56 7.625711e-05    1.015    0.015
        84  -8.1922     82.4616    219.9566   2.6804959991e+02  -5.3065247262e+01   0.02633582   0.01540535 -10.06 0.0008091521    2.534    0.605
        85  -8.8490    119.8176    218.6869   2.6898314661e+02  -5.4282178719e+01   0.03502037   0.02253598 -16.68 0.0009832073    2.070    0.517
        86  -8.5585    172.8528    222.7212   2.7073807517e+02  -5.5901745284e+01   0.03424919   0.02151551  13.00 0.0009461305    1.877    0.467
        87 -10.1082    248.0899    214.2388   2.7265509255e+02  -5.8401190193e+01   0.08521931    0.0440862  32.05  0.002876047    1.900    0.474
        88  -9.7461     56.0153    216.8784   2.6721131624e+02  -5.2260422346e+01   0.02876649   0.02445603  24.63 0.0006679313    1.176    0.150
        89  -8.5535    169.1393    215.4774   2.7021857569e+02  -5.5904213825e+01   0.03366389   0.02113467  -3.70 0.0008107333    2.236    0.553
        90  -8.4519    142.5215    216.0035   2.6947226634e+02  -5.5049617284e+01   0.02581272    0.0156024  -9.29 0.0008088173    2.450    0.592
        91  -8.6181    132.1443    215.2134   2.6913490859e+02  -5.4731112771e+01   0.03449102   0.02249109 -12.52 0.0008018799    2.045    0.511
        92  -9.2347     12.3900    215.7339   2.6609949130e+02  -5.0867780066e+01   0.04405907   0.02171538 -65.68   0.00143619    2.038    0.509
        93  -9.1322    232.0882    214.0909   2.7211149569e+02  -5.7906669048e+01   0.04164419   0.02642679  28.13 0.0007940597    1.591    0.372
        94  -8.5572     87.1708    215.1897   2.6791642079e+02  -5.3289450102e+01   0.02678462   0.02051806 -34.81 0.0007277377    1.382    0.277
        95  -8.0120    154.2908    214.6604   2.6973604605e+02  -5.5446040758e+01   0.01907596   0.01367651 -24.17 0.0007024643    1.646    0.392
        96  -9.3376    213.8759    211.7071   2.7138151030e+02  -5.7378306734e+01   0.05203463   0.03931345 -11.14  0.001552089    1.595    0.373
        97  -8.4140    161.6231    212.2940   2.6981686697e+02  -5.5717632196e+01   0.02925861   0.02028788 -25.81 0.0009346945    1.723    0.420
        98  -9.1677      4.0568    212.0079   2.6571501086e+02  -5.0650883941e+01   0.02841336   0.02662292 -39.27 0.0007552527    1.062    0.058
        99  -8.9375    204.1678    210.6844   2.7101499201e+02  -5.7090553811e+01   0.03148036    0.0242558   9.09 0.0006772086    1.442    0.306
       100  -8.8283     71.0332    210.8470   2.6726790594e+02  -5.2834933299e+01   0.04064706   0.03505024  87.51  0.001740237    1.257    0.204
       101  -9.1373    174.9096    209.4035   2.7004595958e+02  -5.6186895376e+01   0.03430246   0.02520142  -5.40 0.0007408824    1.642    0.391
       102  -8.7704    147.5043    210.0039   2.6927951057e+02  -5.5304681746e+01   0.02728595   0.01812521  22.51 0.0006937383    1.550    0.355
       103  -8.5802    115.9729    209.9743   2.6839946783e+02  -5.4295468188e+01   0.03085631   0.02067541 -28.39 0.0007877176    1.760    0.432
       104  -9.3425    236.5423    208.0395   2.7190253359e+02  -5.8150482170e+01   0.04108218   0.02935603 -11.19  0.001148534    1.789    0.441
       105  -8.4194     26.5356    209.4522   2.6610547277e+02  -5.1415680388e+01   0.01792873   0.01753499 -28.68 5.529745e-05    1.013    0.013
       106  -9.3399    246.6093    206.7630   2.7216203741e+02  -5.8486336689e+01   0.04238131   0.03053904  29.58 0.0008163019    1.389    0.280
       107  -9.6599    250.2599    201.4382   2.7196659634e+02  -5.8692612696e+01    0.0627868   0.02636276  33.50  0.001921838    2.279    0.561
       108  -9.8431    124.0546    206.0253   2.6840159411e+02  -5.4616399846e+01   0.02961503   0.02523859 -28.11            0    1.235    0.190
       109  -9.0769     80.8776    206.5389   2.6728670313e+02  -5.3217307944e+01   0.03030588   0.02446593 -18.55 0.0006928555    1.359    0.264
       110  -8.6941     98.8385    205.3548   2.6768811386e+02  -5.3814988393e+01   0.03582466    0.0232739 -11.82  0.001243456    2.005    0.501
       111 -10.4769     14.2448    204.8575   2.6557925040e+02  -5.1082149793e+01   0.06465507   0.04204636 -42.07  0.001762729    1.594    0.373
       112  -8.8693      2.9978    205.9883   2.6538068031e+02  -5.0701003354e+01   0.02184151   0.02153354 -34.17 0.0005307608    1.007    0.007
       113  -9.1420    194.7910    203.2656   2.7029442198e+02  -5.6918276974e+01   0.03930993   0.02487366  13.73 0.0007590343    1.828    0.453
       114  -8.5560    183.3322    203.1358   2.6993911760e+02  -5.6556907572e+01   0.02555855   0.02299375  13.05 0.0005705235    1.141    0.124
       115  -9.1124    163.0072    202.5205   2.6930320339e+02  -5.5919468586e+01   0.03245557   0.02508721  -3.06  0.000512553    1.483    0.326
       116  -9.3916    243.3373    200.3759   2.7167193236e+02  -5.8494921056e+01   0.04682887   0.02389588  27.79  0.001088668    1.988    0.497
       117  -8.2510    185.4820    213.9846   2.7062644757e+02  -5.6446028440e+01   0.02547228   0.01572851  -8.27 0.0006852677    2.404    0.584
       118  -8.8651    139.4233    199.5558   2.6846435241e+02  -5.5210940379e+01   0.03493755   0.02254689 -18.73 0.0005098657    2.027    0.507
       119  -9.3163    237.1140    198.1641   2.7133470863e+02  -5.8337986928e+01   0.04071851   0.02589883  21.58  0.001308536    1.676    0.403
       120  -9.0170    149.2135    198.2764   2.6866671281e+02  -5.5545314378e+01   0.04100716   0.02411515 -20.22 0.0009802409    2.459    0.593
       121  -8.8031    133.0197    199.0054   2.6825602163e+02  -5.5013633660e+01   0.02573842   0.02532185 -71.02   0.00117355    1.023    0.023
       122  -8.5610    123.7197    198.7176   2.6798567495e+02  -5.4718620648e+01   0.03560207   0.02130232  -6.78 0.0009272944    2.387    0.581
       123  -8.8991    112.4381    198.2232   2.6765498871e+02  -5.4362246225e+01   0.04206567   0.02210334 -32.95  0.001288683    2.476    0.596
       124  -8.6577     88.4639    198.4376   2.6704055415e+02  -5.3583652786e+01    0.0326547    0.0179288   6.58  0.001021008    2.373    0.579
       125  -9.0708    192.2619    197.1310   2.6986079709e+02  -5.6938787905e+01   0.03531402   0.02851849  -2.83  0.000716107    1.388    0.280
       126  -8.1651    202.4388    197.5062   2.7019387158e+02  -5.7255675380e+01    0.0181004   0.01752676 -22.06 0.0001187439    1.043    0.041
       127  -8.7716    215.7296    195.3510   2.7048107838e+02  -5.7712085621e+01   0.03232529   0.02274079   7.49 0.0006818757    1.666    0.400
       128  -8.7212    185.4817    195.0264   2.6953424595e+02  -5.6757160239e+01   0.04754901   0.02894341 -23.21  0.001566896    2.250    0.556
       129 -10.1379      6.2539    194.5132   2.6485893050e+02  -5.0965976474e+01   0.04896427   0.03032066 -49.10  0.001121249    1.597    0.374
       130  -9.6947    245.5491    192.9000   2.7129608643e+02  -5.8692206361e+01    0.0385581   0.03015825 -10.54 0.0006331453    1.500    0.333
       131  -8.7863    224.4488    193.2979   2.7063530516e+02  -5.8021730623e+01   0.04136833   0.01883208  15.83  0.001137901    3.048    0.672
       132 -11.3828     16.6749    192.1526   2.6497068282e+02  -5.1338500901e+01   0.07007343   0.06049424 -56.79  0.001869566    1.146    0.127
       133  -8.0718     76.5400    193.5710   2.6647322563e+02  -5.3268567561e+01   0.01801203   0.01748139 -35.42 0.0001107475    1.025    0.024
       134  -9.4742     41.0533    192.1604   2.6553550846e+02  -5.2133625490e+01   0.04363211   0.03025529 -77.14  0.000495171    1.563    0.360
       135  -8.7164    139.0359    189.9980   2.6791315729e+02  -5.5346534759e+01   0.02990189   0.02079632 -26.53 0.0006183789    1.680    0.405
       136 -10.0448     92.1419    189.0084   2.6661659580e+02  -5.3842488715e+01    0.1080361   0.02313738 -52.88  0.002519088    3.883    0.742
       137  -8.3804    237.4171    187.9847   2.7073336987e+02  -5.8519729939e+01   0.02776465    0.0176547  27.72 0.0006293756    1.578    0.366
       138  -8.5710    160.4917    193.9052   2.6873831600e+02  -5.5975958900e+01     0.027249   0.01812502  22.35  0.000735398    1.544    0.352
       139  -8.7990    216.2977    187.6338   2.7004051299e+02  -5.7857739709e+01   0.03239635   0.02233772   9.84 0.0005379642    1.674    0.403
       140  -9.1462    155.8551    187.2792   2.6822616818e+02  -5.5930691475e+01   0.03970427   0.02560395   2.05 0.0008570558    1.941    0.485
       141  -8.5519    129.1587    188.1755   2.6754071917e+02  -5.5055298191e+01   0.02623303   0.02071895 -24.92 0.0006185676    1.389    0.280
       142  -8.4538    231.0000    193.0802   2.7083224136e+02  -5.8231936402e+01   0.03056801   0.01032838  28.11 0.0008058641    2.966    0.663
       143  -8.3307    230.5990    186.7910   2.7044195154e+02  -5.8324513922e+01   0.02566963   0.01768885  11.57 0.0009041309    1.658    0.397
       144  -8.5061    191.4657    186.9784   2.6924273561e+02  -5.7077779202e+01   0.02603482   0.01563735  -8.88 0.0008088606    2.487    0.598
       145  -9.0704    120.2343    185.4724   2.6714939191e+02  -5.4807062094e+01   0.04786741   0.02462262   8.39  0.001437254    2.604    0.616
       146  -9.3017     28.5082    187.2740   2.6498334068e+02  -5.1792475572e+01   0.04743078   0.01608885 -53.67  0.001324549    2.683    0.627
       147  -8.1384    164.5544    186.4895   2.6842749079e+02  -5.6222922216e+01   0.01828316   0.01741054 -25.92 0.0002707696    1.062    0.059
       148  -8.7834    109.0033    185.2779   2.6684339641e+02  -5.4445464291e+01   0.03624086   0.02109523 -12.38 0.0006850475    2.499    0.600
       149  -9.2621    249.2193    184.9761   2.7093652944e+02  -5.8941885615e+01     0.034019   0.02934217  -5.88  0.001085004    1.263    0.208
       150  -8.3871    183.1570    184.7559   2.6886582918e+02  -5.6847399840e+01   0.03127773   0.01705064 -26.73 0.0008359691    2.692    0.628
       151  -8.6226    210.1825    184.1717   2.6964449067e+02  -5.7720017485e+01   0.02529444   0.02095526 -10.20 0.0004974332    1.341    0.254
       152  -8.2204    202.5271    184.4777   2.6942855770e+02  -5.7471132751e+01   0.01829397   0.01744686 -27.99 0.0008088927    1.061    0.058
       153  -7.9690     66.3184    184.6294   2.6573425395e+02  -5.3064753013e+01   0.02009176    0.0131392 -28.06 0.0007034818    1.793    0.442
       154  -8.5324    224.0602    183.3582   2.7002785026e+02  -5.8174297250e+01   0.02537574   0.02342381 -48.56 0.0005336624    1.079    0.073
       155  -8.6529    174.1855    183.2140   2.6851399488e+02  -5.6583837047e+01   0.02562465   0.02076184 -19.94 0.0005177525    1.365    0.267
       156  -8.3423     44.0146    182.4832   2.6508660400e+02  -5.2366107254e+01   0.02637423   0.01267381 -42.24 0.0007330591    2.282    0.562
       157  -9.0850     39.5034    182.5215   2.6498358127e+02  -5.2217964790e+01     0.018111   0.01754979 -29.15 6.802546e-06    1.028    0.027
       158  -8.2464    235.3555    181.1779   2.7025486407e+02  -5.8568127943e+01   0.02570002     0.017346  12.90 0.0006644765    1.683    0.406
       159 -10.7894     11.9068    188.6783   2.6468052235e+02  -5.1230574010e+01   0.04516472   0.04064691 -29.80  0.001134229    1.129    0.114
       160  -9.0551     15.9278    181.1659   2.6437457601e+02  -5.1464523166e+01   0.03438149   0.02021823 -55.77  0.001229253    1.638    0.390
       161  -8.7122    147.0683    180.0374   2.6756487049e+02  -5.5758458816e+01   0.02956106   0.02089643 -24.68 0.0007046537    1.653    0.395
       162  -9.1313    191.1888    178.0816   2.6870938975e+02  -5.7210648177e+01   0.03188948   0.02547749 -41.23 0.0005886491    1.281    0.219
       163  -8.1532    137.3041    178.6589   2.6721945449e+02  -5.5463022712e+01   0.01947816   0.01347122 -27.22 0.0007040214    1.679    0.404
       164  -9.2755    248.8844    176.9445   2.7043377158e+02  -5.9066066053e+01   0.03269277   0.02638168 -40.40   0.00064876    1.276    0.216
       165  -8.5170    217.4709    176.9910   2.6943873924e+02  -5.8068633395e+01   0.02726275   0.01809411  22.95 0.0005359317    1.548    0.354
       166  -8.4988    205.0000    177.0285   2.6905973417e+02  -5.7669816647e+01   0.02950155   0.01034728  26.54 0.0004302094    2.858    0.650
       167  -8.6578    182.9797    175.9902   2.6834489285e+02  -5.6979780180e+01   0.02951158   0.02098291 -25.72 0.0005493762    1.640    0.390
       168  -9.3081    100.8860    176.1521   2.6612376839e+02  -5.4315053745e+01   0.05712002   0.02668447 -81.95  0.001089196    3.184    0.686
       169  -8.7758    103.7099    174.1503   2.6608307944e+02  -5.4436257901e+01   0.03065586   0.02009724 -28.68  0.001006085    1.787    0.440
       170  -8.2243     88.6765    176.3745   2.6582945965e+02  -5.3913103656e+01   0.02023296   0.01311947 -28.21 0.0007029072    1.819    0.450
       171  -9.0904     58.7754    175.5440   2.6505786179e+02  -5.2946223231e+01   0.05418815   0.02479817 -20.82  0.001247154    4.618    0.783
       172  -8.7579    158.6257    174.6668   2.6757400940e+02  -5.6214294284e+01   0.03705126   0.02319816 -26.25  0.000845091    2.006    0.501
       173  -9.9950     76.0376    171.4233   2.6524463359e+02  -5.3569774132e+01     0.118417    0.0488863   4.11  0.002634356    4.899    0.796
       174  -8.1955    224.2410    173.9654   2.6946570974e+02  -5.8333353453e+01   0.02388161    0.0153946  25.55 0.0004374633    1.566    0.362
       175  -8.6040    250.5980    172.6783   2.7022667253e+02  -5.9191089940e+01   0.02437132   0.01770312  13.22 0.0005275978    1.513    0.339
       176  -8.4591    231.5146    176.7845   2.6986551638e+02  -5.8518767911e+01   0.02520035   0.01777879   6.23  0.000646423    1.661    0.398
       177  -8.9045    175.7874    172.3732   2.6792396474e+02  -5.6804172369e+01   0.03041114   0.02455145   5.34 0.0006569829    1.337    0.252
       178 -10.2812     40.0158    171.1438   2.6438244876e+02  -5.2391207652e+01   0.04838584   0.02947974 -39.24  0.001557634    1.768    0.435
       179  -9.1599    121.1353    170.3858   2.6631788277e+02  -5.5059818288e+01   0.04082363   0.02739431  -5.16 0.0009555822    1.828    0.453
       180  -8.4434    113.8425    171.2306   2.6617726528e+02  -5.4809478778e+01   0.02559075   0.02066211  53.70 0.0008156404    1.312    0.238
       181  -8.2740    230.4890    169.9997   2.6941917106e+02  -5.8596617293e+01   0.02758795    0.0178701  27.14 0.0005946727    1.543    0.352
       182  -8.2938    205.6355    169.8607   2.6864847732e+02  -5.7804094434e+01   0.02581947   0.01729951   7.86  0.000704633    1.745    0.427
       183  -8.1190    198.5146    170.0071   2.6844490182e+02  -5.7573102446e+01   0.02474315   0.01540633 -12.79 0.0005276225    2.243    0.554
       184  -8.8425     20.1073    170.4871   2.6389974575e+02  -5.1745533186e+01   0.02758083   0.01775864 -66.11  0.001017762    1.547    0.353
       185  -8.0711    244.6473    169.3064   2.6982574824e+02  -5.9058130837e+01   0.01961045   0.01340148 -29.97 0.0007042121    1.713    0.416
       186  -8.1571    237.4850    169.5118   2.6960982261e+02  -5.8827235995e+01   0.01799772   0.01775956 -26.87 4.918337e-05    1.013    0.013
       187  -8.1943    149.4917    169.0148   2.6699351110e+02  -5.6003495955e+01   0.02553336   0.01530427 -13.04 0.0006642286    2.354    0.575
       188  -8.4604    218.6303    167.8561   2.6892092947e+02  -5.8252337945e+01   0.02525111    0.0174196   9.79 0.0005637564    1.649    0.393
       189  -8.8822    166.7902    168.1483   2.6742040536e+02  -5.6577885305e+01   0.02866455   0.02337288 -28.17 0.0006565875    1.314    0.239
       190  -8.0156    134.5126    171.5008   2.6673388409e+02  -5.5479308927e+01    0.0183588   0.01746197 -29.74 7.238522e-05    1.059    0.055
       191  -8.3939    191.7622    166.5717   2.6804042018e+02  -5.7409310172e+01   0.02461294   0.01645587 -50.87 0.0004179968    1.474    0.322
       192  -9.1684    136.7277    164.2766   2.6637588718e+02  -5.5658079565e+01   0.05924827   0.01848748 -46.92  0.001485331    3.408    0.707
       193  -9.6528     94.2081    162.1190   2.6516794107e+02  -5.4296860601e+01   0.08406799   0.03605094 -26.52   0.00184857    5.033    0.801
       194  -8.6539    213.0418    163.6120   2.6849269574e+02  -5.8140378611e+01   0.03100602   0.02486483   1.24 0.0007277359    1.375    0.273
       195  -8.4516    159.4748    163.9723   2.6697175257e+02  -5.6403464141e+01   0.02589877   0.01534729 -12.20 0.0008084463    2.418    0.586
       196  -8.2134    240.3041    163.7045   2.6934058688e+02  -5.9011128290e+01   0.01878225   0.01359883 -28.41 0.0002524815    1.580    0.367
       197  -8.9109      4.0004    162.7752   2.6313931441e+02  -5.1316671706e+01   0.04298605   0.02158873 -43.67   0.00119605    2.102    0.524
       198  -8.2279    204.5988    162.5147   2.6817349180e+02  -5.7886026522e+01   0.01792479   0.01754088   0.05 0.0001658136    1.026    0.026
       199  -8.1820     32.3488    162.6296   2.6374886593e+02  -5.2253520613e+01   0.02065023   0.01271355 -30.93 0.0001653187    1.887    0.470
       200  -8.9295    177.5619    160.5577   2.6727336542e+02  -5.7042185414e+01   0.03661484   0.02346008 -24.03 0.0008037987    1.958    0.489
       201  -8.4285    151.7889    160.9690   2.6658590584e+02  -5.6197986174e+01   0.03105355   0.01973239 -19.87 0.0009461371    2.023    0.506
       202  -9.9497    249.9600    157.3539   2.6925154371e+02  -5.9421286454e+01    0.0489943   0.03736379   1.17  0.001379737    1.498    0.332
       203  -8.6611    227.3821    158.7575   2.6863149340e+02  -5.8677137194e+01   0.02980007   0.02009022 -22.96  0.001066834    1.834    0.455
       204  -8.1458    237.2830    158.6666   2.6893282527e+02  -5.8995585889e+01   0.01890416   0.01369814 -24.08 0.0004096787    1.616    0.381
       205  -8.4154    196.5313    157.7288   2.6764656345e+02  -5.7699640422e+01    0.0247557   0.01777736   4.22  0.000931429    1.592    0.372
       206  -9.2892    104.9812    157.8865   2.6519432479e+02  -5.4710330341e+01   0.05600278   0.03429285 -62.44  0.002039646    1.596    0.373
       207  -8.7074     43.5122    158.0841   2.6375142208e+02  -5.2682426119e+01   0.02743857    0.0237368 -65.75 0.0003109774    1.155    0.134
       208  -8.7325    218.1027    156.2910   2.6819708375e+02  -5.8417794374e+01   0.03486938   0.02235727 -13.94 0.0008084468    2.094    0.522
       209  -8.8186    167.3254    156.9871   2.6677501774e+02  -5.6763165412e+01   0.03350348    0.0232067 -35.75  0.000710185    1.571    0.363
       210  -8.1861    157.4785    155.9659   2.6644527969e+02  -5.6457370678e+01   0.02639679   0.01532435 -11.97 0.0008096094    2.501    0.600
       211  -7.8893    204.6803    155.3057   2.6773734510e+02  -5.8000240840e+01   0.01927444   0.01345427 -30.00 0.0007030275    1.634    0.388
       212  -8.8561    119.3994    154.7484   2.6537636203e+02  -5.5228321381e+01   0.03651889   0.02428267 -14.07 0.0008329634    1.858    0.462
       213  -8.1021    144.2921    154.6335   2.6601398018e+02  -5.6045995445e+01   0.01963639   0.01340789 -26.05 0.0007027086    1.712    0.416
       214  -9.2157    132.6040    152.6031   2.6558985434e+02  -5.5692310446e+01   0.05128597   0.02789942 -35.92   0.00121613    2.175    0.540
       215  -8.6332     81.0146    154.0459   2.6439445449e+02  -5.3974642193e+01    0.0306223   0.02050809 -28.34 0.0007084839    1.712    0.416
       216  -8.6331     67.8539    153.5751   2.6405893301e+02  -5.3546705485e+01   0.03704351   0.02054215 -27.68  0.001170072    2.332    0.571
       217  -7.7709     49.3236    154.6814   2.6369576270e+02  -5.2919740107e+01   0.01966363   0.01309781 -32.06 0.0007044675    1.672    0.402
       218  -9.3173    248.9417    149.2496   2.6870870681e+02  -5.9518344854e+01   0.03951963   0.02560186  25.91 0.0007839649    1.546    0.353
       219  -8.8245    243.5013    150.0205   2.6858645565e+02  -5.9331922902e+01   0.02821959   0.01798872  24.84 0.0007317976    1.582    0.368
       220  -8.7653    189.3017    149.7403   2.6695451836e+02  -5.7586371751e+01   0.03277268   0.02205048   5.19 0.0009561552    1.731    0.422
       221  -7.7571    182.3028    150.6967   2.6681493770e+02  -5.7344436846e+01   0.01903388   0.01347568 -29.73 0.0003581633    1.593    0.372
       222  -8.1002     98.3416    150.6491   2.6461849315e+02  -5.4592775843e+01    0.0203321   0.01300029 -30.88 0.0007043132    1.803    0.445
       223  -8.7201     55.0074    150.5224   2.6359468573e+02  -5.3163012585e+01   0.02739688   0.01767517 -65.07 0.0003948967    1.531    0.347
       224  -9.5878     89.2355    146.2650   2.6414989680e+02  -5.4352227048e+01   0.08307976   0.03897393 -16.34  0.002006937    4.239    0.764
       225  -8.3533    198.5270    148.5297   2.6714439821e+02  -5.7904222520e+01   0.01832528   0.01745952 -29.55 8.078245e-05    1.059    0.056
       226  -8.6910    133.6056    148.1536   2.6535579397e+02  -5.5788613186e+01   0.02779216   0.01535535  37.00 0.0009468342    1.772    0.436
       227  -8.5487     76.8089    147.9812   2.6395412588e+02  -5.3918152142e+01   0.03297319   0.01832979  51.72  0.001083964    2.067    0.516
       228  -8.6871     39.7638    147.7779   2.6310323245e+02  -5.2694437093e+01   0.04263273   0.02107641 -32.36  0.001263416    2.623    0.619
       229 -10.1501    148.7966    145.0166   2.6556557020e+02  -5.6332244082e+01   0.06663234   0.03635531 -22.90  0.001554697    2.649    0.622
       230  -9.7252     55.3556    145.2018   2.6330729595e+02  -5.3244910574e+01   0.08224967   0.03258497 -32.12  0.001897652    4.432    0.774
       231  -8.2728    223.4147    146.5832   2.6775577579e+02  -5.8739484828e+01    0.0177375   0.01757343 -25.04 7.370932e-05    1.006    0.006
       232  -9.1742    139.0654    144.8928   2.6530497148e+02  -5.6014335689e+01   0.04679409   0.02650743 -12.51  0.001280829    2.563    0.610
       233  -9.7220    106.2160    144.0397   2.6443133757e+02  -5.4943698348e+01   0.06831816   0.03006063 -32.36  0.001785169    3.435    0.709
       234  -8.3681    233.5839    147.2887   2.6810804650e+02  -5.9056307789e+01    0.0261708   0.01637391  36.94 0.0009480219    1.572    0.364
       235  -8.4083     13.9502    146.4897   2.6247770037e+02  -5.1855259362e+01   0.02867368   0.01152187 -45.53 0.0008092714    2.625    0.619
       236  -8.0909    240.6264    145.3085   2.6820007434e+02  -5.9313677533e+01   0.02003001   0.01314348 -31.73 0.0007031871    1.773    0.436
       237  -8.7367    247.1560    143.8539   2.6831083007e+02  -5.9546177638e+01   0.02736308   0.02414167 -17.48 0.0004870715    1.201    0.167
       238  -8.6353    165.6840    143.8853   2.6594751726e+02  -5.6902181553e+01   0.02975955   0.01956438 -19.84  0.001046145    1.887    0.470
       239  -8.2901    243.2969    143.3136   2.6815656334e+02  -5.9430653609e+01   0.01894203   0.01356035  59.91 0.0003492141    1.602    0.376
       240  -9.4313    124.5839    142.0953   2.6477253151e+02  -5.5576794023e+01   0.04574517   0.02841125 -16.32  0.001115428    2.079    0.519
       241  -8.7546     47.4239    141.1839   2.6290791862e+02  -5.3034279507e+01   0.03546187   0.02255656  -3.96 0.0009167333    1.884    0.469
       242  -9.2643      2.3055    142.0167   2.6199478424e+02  -5.1525176809e+01   0.02611299   0.02383213   8.30  0.001131862    1.102    0.093
       243  -8.3690    182.2731    141.6225   2.6626417592e+02  -5.7477744047e+01   0.01940405   0.01348714 -23.56 0.0006999668    1.693    0.410
       244  -9.2767     69.4730    140.7996   2.6338044691e+02  -5.3771053894e+01   0.03725113   0.02697111 -30.53  0.001440136    1.505    0.336
       245  -9.1367    243.6054    139.7907   2.6794252915e+02  -5.9495347476e+01   0.02570836   0.01761487   8.86 0.0007305703    1.657    0.396
       246  -8.1886    116.9875    139.5102   2.6443295264e+02  -5.5361794142e+01   0.02698948   0.01252849 -43.19 0.0005322536    2.345    0.574
       247  -8.8601     23.6259    138.3420   2.6223892109e+02  -5.2279871224e+01   0.04354526   0.02048513 -32.80  0.001247093    2.805    0.643
       248  -8.3893    207.5742    137.7356   2.6673956283e+02  -5.8360155794e+01   0.02535777   0.01767866   4.83 0.0009383155    1.640    0.390
       249  -8.3439    172.3447    138.1558   2.6578194674e+02  -5.7203296228e+01   0.02587916   0.01713661   6.42 0.0005149943    1.727    0.421
       250  -9.5051     63.5438    137.3042   2.6304969281e+02  -5.3620132564e+01   0.04878825   0.02849298  -8.28  0.001337951    2.240    0.554
       251  -8.5392    197.4635    137.0580   2.6640925782e+02  -5.8040780930e+01   0.02751028   0.01812134  19.93 0.0006676226    1.562    0.360
       252  -9.6479    248.5931    135.0802   2.6779587424e+02  -5.9728823955e+01   0.03679954   0.02227632  10.08 0.0009154039    1.962    0.490
       253  -8.2690     39.1990    136.3886   2.6246335301e+02  -5.2822604676e+01   0.02639014   0.01543754 -53.89 0.0005135341    1.654    0.396
       254  -9.9283     83.4666    133.2816   2.6327484327e+02  -5.4334821037e+01   0.05816227   0.03499478 -10.55  0.001485205    2.146    0.534
       255  -9.0573     10.8224    134.7952   2.6177953096e+02  -5.1898270218e+01    0.0263238   0.02051313 -30.18 0.0005503379    1.357    0.263
       256  -8.6205    179.4291    133.7354   2.6570518789e+02  -5.7499297899e+01   0.03368564   0.01837474  14.55 0.0008515203    2.053    0.513
       257  -9.1606     19.8647    139.9725   2.6224869936e+02  -5.2134241350e+01   0.03908558   0.01970937 -42.07  0.001250314    2.139    0.533
       258  -8.6441    112.7172    132.9154   2.6394430791e+02  -5.5310411539e+01   0.03050555   0.01929329 -21.05   0.00104997    1.953    0.488
       259  -8.8650    142.8605    131.5816   2.6461322097e+02  -5.6326030986e+01   0.03477849   0.02334714  -8.01 0.0006979539    1.801    0.445
       260  -9.4063    132.2179    131.2669   2.6432648105e+02  -5.5978573114e+01   0.04415609   0.02891554 -18.81  0.001048091    1.866    0.464
       261  -9.2694     32.4215    131.6207   2.6205541792e+02  -5.2657300801e+01   0.03531829   0.02812408 -41.89 0.0006407091    1.273    0.214
       262  -8.1945    162.4262    136.1949   2.6539781101e+02  -5.6905866591e+01    0.0253904   0.01758699   2.29  0.000752028    1.655    0.396
       263  -8.2579    192.6211    129.8083   2.6582574990e+02  -5.7988362955e+01   0.02519287   0.01744837   5.95 0.0003125932    1.625    0.385
       264  -9.3463    152.8073    128.8300   2.6470284565e+02  -5.6692688731e+01   0.04739335   0.02608905   5.07 0.0009752875    2.292    0.564
       265  -9.0050     12.9765    129.4740   2.6153414232e+02  -5.2035762918e+01   0.03974656   0.01788047 -27.45  0.001036138    3.428    0.708
       266  -8.8458    168.0171    129.0536   2.6511344088e+02  -5.7191034802e+01   0.03008352   0.02060378 -27.88 0.0006153468    1.675    0.403
       267  -9.7405     99.0110    127.5587   2.6330650046e+02  -5.4926999639e+01   0.06053465   0.03129403 -25.18  0.001786306    2.738    0.635
       268  -8.4138     50.3223    128.6697   2.6227398743e+02  -5.3291188946e+01   0.03287261   0.01633368 -34.49 0.0007391587    2.477    0.596
       269 -10.2277     44.7637    123.8558   2.6188544377e+02  -5.3166299994e+01    0.1141679    0.0500711 -22.88  0.002743848    4.213    0.763
       270  -7.8591    211.2833    128.6326   2.6627747231e+02  -5.8615738639e+01    0.0194653   0.01347785 -24.87 0.0004952367    1.693    0.409
       271  -9.8774     60.2166    125.2357   2.6229595086e+02  -5.3664756102e+01   0.07820516   0.03698821 -29.02  0.002189175    3.022    0.669
       272  -9.5668    117.5314    124.8859   2.6358990352e+02  -5.5578050166e+01   0.05059715   0.02747909 -34.04  0.000892334    2.207    0.547
       273  -8.9436    179.0007    124.3838   2.6512002685e+02  -5.7618585769e+01   0.03262172   0.02404254 -24.12 0.0006099325    1.529    0.346
       274  -8.9778     83.2294    124.1091   2.6274380436e+02  -5.4446667746e+01   0.04137949   0.02031026  34.72  0.001009665    1.951    0.487
       275  -9.7774      6.1865    124.8415   2.6114475708e+02  -5.1865706579e+01   0.02944672   0.02391234 -31.68 0.0007307435    1.280    0.219
       276  -9.3844     28.7090    122.6752   2.6148349904e+02  -5.2644559318e+01   0.06653909   0.03205968 -22.86  0.001839655    3.144    0.682
       277  -8.8700    158.5053    121.3076   2.6439429826e+02  -5.6985073645e+01   0.03223977   0.02463752 -14.73 0.0005620204    1.467    0.318
       278  -8.5991     73.0156    129.0089   2.6279345821e+02  -5.4042996949e+01   0.03064759   0.02036595 -29.86 0.0008603249    1.697    0.411
       279  -8.5859    171.9787    121.5157   2.6475729558e+02  -5.7427371344e+01     0.027158   0.01768298 -63.60 0.0004841308    1.511    0.338
       280  -9.5310    141.4510    118.3084   2.6378253117e+02  -5.6460681090e+01    0.0509807   0.03135692 -17.63  0.001073512    2.077    0.519
       281  -9.7255     22.0485    119.8354   2.6119017029e+02  -5.2456572398e+01   0.02895265   0.02338334 -33.35 0.0004748121    1.284    0.221
       282  -9.1016    130.5144    118.1275   2.6350319294e+02  -5.6099710445e+01    0.0431247   0.02703677 -17.32    0.0010712    1.999    0.500
       283  -8.1890     71.3050    119.6955   2.6222442904e+02  -5.4105247862e+01   0.01927018   0.01315969 -32.79 0.0006639203    1.600    0.375
       284  -9.3010      2.6881    117.2478   2.6066201487e+02  -5.1839864747e+01   0.04770628    0.0185271 -33.47  0.001148109    3.959    0.747
       285  -8.7947     66.0144    116.8578   2.6194669951e+02  -5.3964173329e+01    0.0284112   0.02310837 -33.11 0.0004324278    1.277    0.217
       286  -8.2391    185.6285    115.7720   2.6476403570e+02  -5.7957898658e+01   0.02510573   0.01735133   4.71 0.0003987681    1.624    0.384
       287  -9.4156     38.2506    115.9850   2.6130858282e+02  -5.3045745000e+01   0.03046094   0.02614591 -61.54 0.0004533955    1.155    0.134
       288  -8.2319    193.1305    115.1645   2.6492772752e+02  -5.8213762991e+01   0.02519032   0.02072969 -21.03 0.0004106121    1.308    0.236
       289  -9.5006    109.3276    113.9386   2.6275084426e+02  -5.5448859156e+01   0.04605156    0.0274785 -16.47  0.001500266    2.162    0.537
       290  -9.2853     52.5879    114.7457   2.6153894957e+02  -5.3541082982e+01   0.03540754   0.03141147  27.50 0.0008187735    1.121    0.108
       291  -9.2225    250.3370    114.7065   2.6653004644e+02  -6.0093356893e+01   0.03079621   0.01785477 -58.43  0.001083493    1.668    0.400
       292  -8.2365    167.3863    114.2039   2.6418832686e+02  -5.7376479221e+01   0.02460077    0.0175187   5.10 0.0003262816    1.545    0.353
       293  -9.6852     92.6316    112.5986   2.6229003478e+02  -5.4908229056e+01   0.05122269   0.03183793 -15.19   0.00137385    1.998    0.499
       294  -8.9860    121.9134    112.3468   2.6295195458e+02  -5.5889506359e+01   0.03053446   0.02495744  -6.14 0.0005668715    1.310    0.237
       295  -9.4471     78.8014    112.2870   2.6196397785e+02  -5.4449420877e+01   0.04714515   0.02812638 -28.94  0.001349999    1.991    0.498
       296  -8.7754    174.5713    111.3905   2.6420050292e+02  -5.7652910936e+01   0.03340032   0.01833316  13.78 0.0009369806    2.009    0.502
       297  -8.5911    159.2941    111.4506   2.6381271407e+02  -5.7145504036e+01   0.03085574   0.02114624 -11.42  0.000584221    1.733    0.423
       298 -10.2418      9.5222    110.9303   2.6045007691e+02  -5.2143626078e+01   0.05273296   0.02833746 -27.70  0.001362425    2.334    0.572
       299  -8.9360     66.4680    110.4503   2.6159029750e+02  -5.4059183524e+01   0.04203621   0.02248269 -32.07 0.0009982791    2.272    0.560
       300  -9.9862    132.7627    108.7430   2.6299483515e+02  -5.6298477237e+01    0.0644418   0.03984538 -38.17  0.002299011    1.753    0.430
       301 -10.1500    249.1432    107.9970   2.6605446586e+02  -6.0153093013e+01   0.03518938   0.02755317  41.79  0.001435889    1.288    0.223
       302  -8.1439    189.2257    107.9469   2.6437022945e+02  -5.8185146938e+01   0.02377089   0.01512204  20.39 0.0004448681    1.593    0.372
       303  -9.6535    150.6296    102.8542   2.6307032195e+02  -5.6971535387e+01    0.0597376   0.03310704 -16.65  0.001515431    2.520    0.603
       304  -9.2550    139.8072    104.4448   2.6290438449e+02  -5.6589658027e+01   0.03574145   0.02623519 -26.99 0.0006733387    1.500    0.333
       305 -10.6347     22.6252    103.0506   2.6027110905e+02  -5.2676267853e+01   0.07601445   0.04589357 -35.30  0.001740728    1.829    0.453
       306  -9.9868     45.6205    102.0445   2.6067506153e+02  -5.3461380212e+01   0.08638129   0.03681609 -32.86  0.002295942    3.296    0.697
       307  -8.9718    128.4076    101.8039   2.6247333925e+02  -5.6242873842e+01   0.03555294   0.02615219 -33.46 0.0007529585    1.451    0.311
       308  -8.7840    159.7098    100.5844   2.6315442726e+02  -5.7304108766e+01   0.03154637   0.02149615 -13.05 0.0005984433    1.737    0.424
       309 -10.0306    108.8386     98.5838   2.6182984129e+02  -5.5627974188e+01   0.06875736   0.03112706 -44.10   0.00123007    2.356    0.576
       310  -8.4961    166.6200    103.8518   2.6352955468e+02  -5.7490876850e+01   0.02574927   0.01730778   2.07 0.0007227301    1.694    0.410
       311  -8.7500     95.0034     96.9738   2.6142655732e+02  -5.5183323637e+01   0.02974354   0.02037714 -29.12 0.0005602754    1.621    0.383
       312  -9.6129     63.9477     95.8711   2.6069921467e+02  -5.4151821832e+01   0.06395223   0.02991414 -30.60  0.001718374    2.892    0.654
       313  -8.7539    249.6669     95.6789   2.6525548858e+02  -6.0347380944e+01   0.01962916   0.01334816  59.64 0.0007049646    1.701    0.412
       314  -8.5358     57.9164     95.5075   2.6055374976e+02  -5.3953019306e+01   0.02746992   0.01747273 -65.16  0.001006464    1.537    0.350
       315  -9.2301     31.7270     94.9596   2.5999671476e+02  -5.3076994548e+01   0.03312001   0.02443594 -12.60 0.0006611685    1.494    0.331
       316  -8.4181    164.6297     93.8184   2.6285627110e+02  -5.7556809848e+01   0.02602217   0.01725149   2.27 0.0006994309    1.712    0.416
       317  -9.8689      1.8361     93.9206   2.5936687842e+02  -5.2081550150e+01   0.03637443   0.02712715   3.30 0.0009107696    1.410    0.291
       318  -8.3671    176.4988     93.0434   2.6310379380e+02  -5.7962947580e+01   0.02606864    0.0148142 -16.53  0.000752926    2.395    0.582
       319  -9.3067    139.0214     92.1618   2.6213712951e+02  -5.6721219730e+01   0.04275289   0.02527841 -23.17 0.0007379492    2.116    0.527
       320  -8.8947    117.6075     92.8155   2.6168283443e+02  -5.5994345663e+01   0.02713702   0.02125581 -35.69 0.0006306893    1.327    0.246
       321  -8.3856    158.0236     91.8128   2.6256967781e+02  -5.7362006614e+01    0.0315932   0.01763163 -40.99 0.0008311948    1.928    0.481
       322  -9.8846    125.0542     90.9479   2.6173952498e+02  -5.6267755651e+01   0.05735177   0.03157492 -46.18  0.001956699    1.847    0.459
       323  -8.4371     82.1816     99.9676   2.6132293810e+02  -5.4715646445e+01   0.03074573     0.018806 -21.00  0.000616366    1.996    0.499
       324  -9.0863     35.0050     90.1798   2.5979100137e+02  -5.3242758749e+01   0.04500599   0.02384872 -10.64  0.001240727    2.523    0.604
       325  -9.4870     86.3851     86.4854   2.6062222888e+02  -5.5020160981e+01   0.05039094   0.02717455 -33.75  0.001207186    2.177    0.541
       326  -8.8450     16.5034     86.9477   2.5925438796e+02  -5.2654873155e+01    0.0272072   0.01786068  17.47 0.0004303904    1.524    0.344
       327  -9.3277     48.5776     84.3981   2.5972807909e+02  -5.3767620612e+01   0.05377607   0.02379504 -34.80  0.001511311    2.881    0.653
       328  -8.1679    158.2862     83.6974   2.6207059244e+02  -5.7474290711e+01   0.01896596   0.01327371 -31.68 0.0003022698    1.560    0.359
       329  -8.9780    140.9051     82.6453   2.6159655545e+02  -5.6903713048e+01   0.03668501   0.02332094 -11.51 0.0007648275    1.903    0.475
       330  -9.1701     24.6118     80.7982   2.5906138705e+02  -5.2997823677e+01   0.04569106   0.02487431 -26.83  0.001339588    2.261    0.558
       331  -8.4635    150.5579     80.7406   2.6170330938e+02  -5.7251884848e+01   0.02577931   0.01752311  -1.41 0.0009420316    1.663    0.399
       332  -9.4191    104.6968     83.1057   2.6081363182e+02  -5.5678407968e+01   0.04162923   0.02761736 -23.62  0.001033311    1.732    0.423
       333  -8.3646    119.4107     80.2194   2.6096190252e+02  -5.6209513992e+01   0.02544722   0.01734728  -1.83 0.0007488481    1.646    0.393
       334  -8.3092     74.7033     80.3376   2.6001759604e+02  -5.4697906529e+01    0.0196361   0.01304145 -31.69 0.0004347073    1.654    0.395
       335  -8.6272      9.3552     80.6540   2.5876998577e+02  -5.2483291005e+01   0.02064428   0.01241115 -35.03 0.0007036104    1.829    0.453
       336  -8.2387     59.2758     78.6958   2.5961090203e+02  -5.4194812454e+01   0.01883655   0.01315544 -32.00 0.0001870051    1.544    0.352
       337  -8.1774    184.4543     77.5286   2.6231763174e+02  -5.8429531824e+01   0.01813033   0.01765181 -29.46 9.943186e-05    1.026    0.025
       338  -8.2416    114.2490     77.6188   2.6069079735e+02  -5.6066573077e+01   0.02414564    0.0174973 -85.68 0.0003174604    1.489    0.328
       339  -9.3735    128.0796     75.4166   2.6086117699e+02  -5.6559922440e+01   0.03923153   0.02541749 -23.03 0.0007710409    1.800    0.444
       340  -8.5285    140.4285     75.2313   2.6112749980e+02  -5.6978718244e+01   0.02519712   0.01748934  -1.57 0.0006397747    1.606    0.377
       341  -9.6925     63.1221     73.8489   2.5940513009e+02  -5.4380233644e+01    0.0501113   0.03000242  -6.60 0.0008552108    1.997    0.499
       342  -9.3711     82.3976     72.6615   2.5972222730e+02  -5.5047063869e+01   0.04409241   0.02603488 -28.40 0.0008617761    1.987    0.497
       343  -9.4399      4.6179     74.0622   2.5831630729e+02  -5.2394786184e+01   0.03293645   0.02435664 -53.59  0.001097679    1.332    0.249
       344  -8.4832    163.4879     73.0704   2.6152670503e+02  -5.7781786068e+01   0.02776718   0.01812709  16.60  0.000781424    1.563    0.360
       345  -8.0906    151.3121     73.6440   2.6127826294e+02  -5.7364851464e+01   0.02011035   0.01297973 -31.30 0.0007044024    1.736    0.424
       346  -8.4122    115.6243     72.7882   2.6042747957e+02  -5.6170478183e+01   0.02519558   0.01725829   0.54 0.0004767417    1.610    0.379
       347  -8.1135    170.5171     71.4394   2.6159012217e+02  -5.8038374090e+01   0.01806325   0.01768546 -41.51 0.0001112734    1.016    0.016
       348  -8.4478    105.9845     71.4917   2.6014251310e+02  -5.5859544161e+01   0.02666816   0.01226341 -45.01  0.000572481    2.270    0.559
       349  -8.8384     94.9539     70.6828   2.5986255339e+02  -5.5495331230e+01   0.03645003   0.02284442 -11.80 0.0008874303    1.901    0.474
       350  -9.1016     51.3881     69.4998   2.5892381111e+02  -5.4030959536e+01   0.04801599   0.02445641 -15.20  0.001419973    2.693    0.629
       351  -8.6884     16.9830     70.4639   2.5833732611e+02  -5.2852827177e+01   0.02687385    0.0119166 -46.21 0.0005746565    2.315    0.568
       352  -8.7162    147.0329     67.9786   2.6082602515e+02  -5.7289216378e+01   0.03106868    0.0200638 -31.98  0.000665399    1.722    0.419
       353  -8.7099    138.6827     66.0928   2.6052109014e+02  -5.7029561203e+01   0.02938564   0.02179128 -11.13 0.0006336247    1.490    0.329
       354  -8.6100    121.7599     65.8084   2.6013346899e+02  -5.6460146853e+01   0.02609735   0.02030645 -28.03 0.0005537632    1.365    0.267
       355  -8.7257    110.1531     63.5320   2.5974773596e+02  -5.6093042685e+01   0.03048606   0.02372257 -26.38 0.0006698327    1.369    0.269
       356  -8.1922     37.6512     64.3242   2.5836633221e+02  -5.3621059058e+01   0.02031985   0.01256455 -36.12 0.0005817535    1.749    0.428
       357  -7.9376     58.7110     63.7019   2.5872677743e+02  -5.4343741962e+01     0.018966    0.0130761  54.18 0.0002758403    1.556    0.358
       358  -9.4858      3.0733     61.3568   2.5757859612e+02  -5.2477275867e+01   0.03558517   0.02385393 -24.82  0.001317633    1.658    0.397
       359  -7.9922    158.2791     61.6666   2.6068425880e+02  -5.7744675247e+01   0.01928561    0.0131978 -30.08 0.0003367734    1.608    0.378
       360  -9.5089     73.4419     59.5941   2.5876949488e+02  -5.4889931173e+01   0.04438967   0.02887071  -7.72  0.001136458    1.758    0.431
       361  -8.6006     97.5099     60.4850   2.5930181475e+02  -5.5698419273e+01   0.03210535   0.01465926 -57.15 0.0009325845    2.044    0.511
       362  -8.4034    130.5912     57.7358   2.5982497666e+02  -5.6853161363e+01   0.02547343   0.01743855  -0.98 0.0009399794    1.613    0.380
       363  -9.4734     23.7065     56.5174   2.5766658190e+02  -5.3229803794e+01   0.06226712   0.02985106 -22.70  0.001788836    2.856    0.650
       364  -8.7738    119.2733     55.6652   2.5945701370e+02  -5.6492504655e+01    0.0329781    0.0220994  -4.50 0.0008436635    1.679    0.404
       365  -8.7320     62.9593     54.9166   2.5829214464e+02  -5.4583992377e+01   0.03020362   0.01995297 -33.46 0.0006182988    1.636    0.389
       366  -8.8602      7.6937     57.3309   2.5743233601e+02  -5.2676283978e+01   0.03066716   0.01880145 -35.70  0.001051404    1.766    0.434
       367  -8.3143     54.4495     53.9572   2.5807642023e+02  -5.4304285141e+01   0.02740997   0.01404956 -18.72 0.0008084374    2.590    0.614
       368  -8.1110    105.6964     53.3052   2.5903249641e+02  -5.6057268235e+01   0.01938887   0.01300386 -34.69 0.0002850195    1.599    0.374
       369  -9.3830     92.4971     50.3489   2.5858912296e+02  -5.5640264025e+01    0.0432237   0.02740538 -12.16  0.001015523    1.839    0.456
       370  -8.7093    172.1191     50.0679   2.6025777209e+02  -5.8349934075e+01   0.02599227   0.02319946  53.55            0    1.150    0.131
       371  -9.5718    215.0480     52.5205   2.6144151743e+02  -5.9768716392e+01    0.0295856   0.02531348  -6.30 0.0004749959    1.221    0.181
       372  -8.3676    145.0000     49.0121   2.5958883751e+02  -5.7442307802e+01   0.02987922   0.01036552  18.51 0.0006869049    2.888    0.654
       373  -8.3700    129.7790     48.9895   2.5926338794e+02  -5.6925075906e+01   0.02457147    0.0148703  18.47 0.0003736934    1.652    0.395
       374  -8.7707      4.6497     48.3208   2.5687230795e+02  -5.2664845289e+01   0.02027979   0.01244762 -37.07 0.0006505959    1.744    0.427
       375  -8.2360    112.3978     47.1730   2.5879257632e+02  -5.6353403788e+01   0.02543089   0.01724652  -2.72 0.0009010317    1.630    0.387
       376  -9.7359    224.9559     46.0286   2.6125190122e+02  -6.0181032098e+01    0.0279073   0.02701533  61.16 0.0006317887    1.052    0.049
       377  -8.6590     82.1996     46.2268   2.5814093068e+02  -5.5333543376e+01   0.02594055   0.02024548 -30.57 0.0004983339    1.343    0.255
       378  -8.3683    140.3531     56.1384   2.5993639846e+02  -5.7202760476e+01    0.0257864   0.01694168  -0.72  0.000433881    1.706    0.414
       379  -8.3603     45.2991     44.6596   2.5736635329e+02  -5.4089704808e+01   0.01975952   0.01283647 -33.28 0.0007035083    1.666    0.400
       380  -8.1810    132.7816     43.0196   2.5895267046e+02  -5.7093904405e+01   0.02402705   0.01487269  17.10 0.0003868714    1.625    0.385
       381  -8.4780     58.4775     42.5301   2.5747862969e+02  -5.4562112844e+01   0.03227262   0.01721773  -3.21  0.001018162    2.261    0.558
       382  -9.4509      5.7057     42.5703   2.5656487136e+02  -5.2758541578e+01   0.03257056   0.02099627 -19.18  0.001081988    1.758    0.431
       383  -9.0823     69.5818     41.4057   2.5761529630e+02  -5.4953437527e+01   0.04121445   0.02410058 -29.93  0.000968011    1.955    0.488
       384  -8.6264    105.9961     41.0606   2.5828893074e+02  -5.6201530198e+01   0.03052097   0.01988818 -32.36 0.0005394719    1.674    0.402
       385 -10.3012     64.7572    248.6289   2.6909657135e+02  -5.2055247573e+01   0.05317946   0.02833645 -51.63  0.001727374    1.815    0.449
       386  -9.4002     50.6795    249.5748   2.6877995349e+02  -5.1592710797e+01   0.03628679   0.01827666 -69.12  0.001157015    2.177    0.541
       387  -9.4834    218.7864    246.3192   2.7352021260e+02  -5.6925305649e+01    0.0553506   0.02100748  36.15  0.001616813    2.509    0.602
       388  -9.1630     26.1249     35.3780   2.5649508239e+02  -5.3527979063e+01   0.03920896   0.02336561 -30.88 0.0009301135    1.878    0.468
       389  -8.2682    125.7985     35.3982   2.5833202741e+02  -5.6938895675e+01    0.0246201   0.01740068  88.98 0.0003495927    1.542    0.351
       390  -8.5147    111.7894     34.7420   2.5801304174e+02  -5.6467059491e+01    0.0261419   0.02036294 -29.63 0.0006349665    1.348    0.258
       391  -8.5827     95.6171     37.8839   2.5789280458e+02  -5.5880709285e+01    0.0261601   0.01686871  -5.10 0.0006462846    1.747    0.428
       392  -8.6346     48.6588     33.1773   2.5675278493e+02  -5.4321549940e+01   0.02888422   0.02163851 -19.44 0.0006843507    1.436    0.304
       393  -8.4661     60.4773     32.2767   2.5690721251e+02  -5.4735559516e+01   0.02463965   0.01730026  -7.28 0.0005797336    1.554    0.357
       394  -8.5200     72.4019     31.1838   2.5705534308e+02  -5.5155311649e+01   0.02588291   0.01702246  -5.46 0.0007247645    1.689    0.408
       395  -8.4407     13.3767     31.1045   2.5603829096e+02  -5.3133472732e+01   0.02639293   0.01679409  -4.65 0.0009411644    1.742    0.426
       396  -8.2929    101.4485     29.2139   2.5747264869e+02  -5.6171018015e+01   0.02558192   0.01723739  -6.40 0.0008654469    1.645    0.392
       397  -9.0426     81.6886     27.5186   2.5700255181e+02  -5.5510928499e+01   0.04218098   0.02091196 -30.05  0.001185379    2.471    0.595
       398  -9.1329    175.5312    247.4343   2.7219371415e+02  -5.5566109441e+01   0.04053929   0.02705493 -18.25  0.001129986    2.007    0.502
       399  -9.0406     63.7468     20.9459   2.5628862191e+02  -5.4960414623e+01   0.03422698   0.02400828 -14.35 0.0008474113    1.565    0.361
       400  -8.6269     48.6421     21.3947   2.5605762973e+02  -5.4437112139e+01   0.02854101   0.01915385 -35.90 0.0005479314    1.573    0.364
       401  -9.0084     18.1817     21.1411   2.5554333377e+02  -5.3393573169e+01   0.02611819   0.02010986 -41.28  0.001051768    1.321    0.243
       402  -9.1660     74.1797     19.3362   2.5637333331e+02  -5.5334727556e+01   0.03752151   0.02359132 -37.50 0.0007998593    1.685    0.406
       403  -8.7605      3.5272     27.5064   2.5567472469e+02  -5.2830753324e+01   0.01812068    0.0174539 -33.42 0.0001139885    1.041    0.040
       404  -8.1770    112.7119     16.3844   2.5688833257e+02  -5.6688347987e+01   0.02016684   0.01266965 -31.51 0.0007012639    1.747    0.428
       405  -8.5899     97.3792     15.1907   2.5653280106e+02  -5.6173185469e+01   0.02589238   0.01701849  -3.85 0.0005431268    1.672    0.402
       406  -8.8481      7.3383     15.6575   2.5505798509e+02  -5.3072497668e+01   0.02042145   0.01234221 -36.60 0.0007049589    1.770    0.435
       407  -9.0786    155.8749    247.8097   2.7161348911e+02  -5.4945803920e+01   0.02515737   0.02113274 -20.57 0.0004811206    1.302    0.232
       408  -8.5723    113.0000    248.0816   2.7037925520e+02  -5.3592961006e+01   0.02969027    0.0103163  27.35 0.0007683463    2.894    0.654
       409  -8.2138    119.3945     10.7288   2.5665754209e+02  -5.6974529355e+01   0.02031174   0.01216772 -41.79 0.0006986337    1.730    0.422
       410  -9.7829     76.5447    247.7882   2.6936449841e+02  -5.2443035976e+01   0.04484572   0.02322972 -57.21  0.001515572    1.849    0.459
       411  -9.7772     34.8202    247.8029   2.6828683959e+02  -5.1114691975e+01   0.05036895   0.02533044 -52.46  0.001340725    1.907    0.476
       412 -10.4475    223.9515    243.5634   2.7353692063e+02  -5.7133695116e+01   0.07685974   0.03833099  20.22  0.002361395    2.485    0.598
       413  -9.5780    210.8896    246.2340   2.7325491012e+02  -5.6683529978e+01   0.04037947   0.02608096   7.30  0.001059413    2.035    0.509
       414  -9.3080    146.4010    245.2265   2.7119043659e+02  -5.4692351936e+01   0.03327008   0.01841718  11.73  0.000635633    2.389    0.581
