#   1 NUMBER                 Running object number                                     
#   2 MAG_AUTO               Kron-like elliptical aperture magnitude                    [mag]
#   3 X_IMAGE                Object position along x                                    [pixel]
#   4 Y_IMAGE                Object position along y                                    [pixel]
#   5 X_WORLD                Barycenter position along world x axis                     [deg]
#   6 Y_WORLD                Barycenter position along world y axis                     [deg]
#   7 A_WORLD                Profile RMS along major axis (world units)                 [deg]
#   8 B_WORLD                Profile RMS along minor axis (world units)                 [deg]
#   9 THETA_WORLD            Position angle (CCW/world-x)                               [deg]
#  10 FWHM_WORLD             FWHM assuming a gaussian core                              [deg]
#  11 ELONGATION             A_IMAGE/B_IMAGE                                           
#  12 ELLIPTICITY            1 - B_IMAGE/A_IMAGE                                       
         1 -13.9682     22.6967     71.2001   1.1905768720e+02   5.9035207184e+01     9.668298     2.071431 -69.20   0.02077981   10.506    0.905
         2 -15.0530      2.9081     74.1221   1.2653855853e+02   5.9608756248e+01     8.246406          nan -68.48   0.01922316    9.230    0.892
         3 -14.7474    202.5128     20.1322   5.4484341504e+01   3.1841912246e+01     3.893485     2.129332  17.37  0.006716729    3.429    0.708
         4 -13.4903      5.9482    106.0263   1.2986968186e+02   5.2315314296e+01     5.846453     0.784719 -73.69   0.01636758    6.433    0.845
         5 -14.0823    126.2232    131.2313   1.0127726023e+02   3.0930507784e+01     2.132001     1.544653 -82.29  0.009847785    1.854    0.461
         6 -10.3303     72.5075    200.8761   1.2436522725e+02   2.4929593122e+01    0.3418652    0.2243057  67.81  0.002013319    1.386    0.279
         7 -10.4182    139.9382    249.7070   1.1690215082e+02   6.8757441320e+00    0.1717319    0.1167923  45.01  0.001042498    1.121    0.108
         8 -10.5716     70.4577    249.0626   1.2877658257e+02   1.6708042999e+01    0.3482719    0.1741169  34.71  0.001549884    2.155    0.536
         9 -14.5493     64.4102    214.6554   1.2718994733e+02   2.3376392112e+01      3.52731     1.920572  48.06   0.02150595    1.517    0.341
        10 -14.2881    112.7808    193.8848   1.1531334199e+02   2.0345153891e+01     2.008703     1.670142  74.77    0.0114353    1.174    0.148
        11 -15.4433     76.4325    161.5898   1.1891238930e+02   3.2525216418e+01     2.755074     2.272633  31.26   0.01687299    1.423    0.297
        12 -13.8916      9.8452    206.4318   1.3654656514e+02   3.0870842852e+01    0.8785161    0.3800178  33.25  0.004649071    2.518    0.603
        13 -15.1122      5.9988    192.1563   1.3650850557e+02   3.3932947653e+01     1.522346    0.6562853  88.05   0.00889515    1.976    0.494
        14 -14.8388     35.6337    245.1139   1.3421738733e+02   2.1458913794e+01    0.9071158    0.5541871  39.91   0.00449915    1.643    0.391
        15 -14.8135     46.9325    238.5797   1.3200458982e+02   2.1273870082e+01      1.46496    0.5837761  70.94  0.007592583    2.825    0.646
        16 -11.0875    198.6199    198.4205   9.8832956265e+01   4.6529399424e+00    0.3719268    0.2341331  42.98  0.002031456    1.450    0.310
        17  -9.6738    208.4994    186.5248   9.4837456355e+01   4.6550364992e+00     0.134596    0.1123416  16.93 0.0008095437    1.056    0.053
        18 -11.9482     44.0876    172.7388   1.2749363681e+02   3.4161161267e+01     1.021245    0.6020826 -75.79  0.004983693    1.511    0.338
        19 -12.5211    118.1522    161.0801   1.0908535304e+02   2.6030181792e+01      0.82254    0.6246566 -65.42  0.004053342    1.384    0.278
        20 -14.6254     88.7670    198.9882   1.2089410487e+02   2.3034875684e+01     2.877594     1.461187 -63.49   0.01518001    2.073    0.518
        21  -9.4090     87.3048    240.4308   1.2523250328e+02   1.5883718131e+01    0.1735974    0.1073505  76.02 0.0007901982    1.688    0.408
        22 -15.9429      7.9883    241.4794   1.3837429458e+02   2.4881026696e+01     1.843977     1.283652  87.11   0.01575841    1.281    0.219
        23 -13.2006    140.3611    127.8195   9.7040029698e+01   2.8829820148e+01    0.9457139    0.7000762 -33.59  0.004562772    1.476    0.322
        24  -9.9523    112.6314    132.6840   1.0500798671e+02   3.3161450928e+01    0.2715481    0.2166074 -10.76 0.0009355725    1.719    0.418
        25 -12.8436     87.0217    126.5640   1.1046675207e+02   3.8863827984e+01       1.1823    0.7868398  20.53  0.005645288    2.053    0.513
        26 -12.1724    100.8862    127.7337   1.0701625958e+02   3.6336103143e+01    0.7021231    0.6789627  34.63  0.002449868    1.126    0.112
        27 -11.4877    164.0989    119.8699   8.9583238526e+01   2.5354886911e+01    0.4386835    0.4126246  64.24  0.002359783    1.121    0.108
        28 -12.8815    153.7609    123.9060   9.2935542899e+01   2.6810972614e+01    0.7185659    0.5769966  26.73  0.003563102    1.355    0.262
        29 -10.1007    108.7082    120.8728   1.0346802844e+02   3.6502020313e+01    0.2362464    0.1989868  27.04 0.0005728145    1.327    0.246
        30 -12.8013    134.0759    144.9110   1.0228183224e+02   2.6492923925e+01    0.9437867    0.6449479 -51.81  0.004597328    1.512    0.338
        31 -12.0096     40.8738    111.0992   1.2058268613e+02   4.8366574632e+01    0.5820847    0.3383645 -59.68  0.002359354    1.453    0.312
        32  -9.9369    167.3769    112.4810   8.6983951078e+01   2.6059644542e+01    0.3147838    0.2555816 -72.09 0.0008706601    1.531    0.347
        33 -14.0614     74.6547    182.7107   1.2197587607e+02   2.8275533258e+01     1.513303     1.116681  13.41  0.006819983    2.143    0.533
        34 -12.1927     83.3792    104.3879   1.0676109706e+02   4.4514269087e+01     1.143238    0.7413517 -85.83  0.004989792    2.329    0.571
        35 -12.1707     77.2610     93.9762   1.0610657914e+02   4.7809024037e+01    0.7174593    0.5652279  64.32  0.003880865    1.518    0.341
        36 -12.1043     83.8887     90.1931   1.0310234821e+02   4.7629421200e+01     1.059191    0.7866886  83.69  0.005178556    1.905    0.475
        37 -13.1859     51.1623    102.4946   1.1600372885e+02   4.9268701446e+01    0.9074913    0.8168225 -70.44  0.005853515    1.046    0.044
        38 -13.1012     55.3408     96.2983   1.1345918675e+02   5.0215485516e+01     1.306124    0.4804602 -50.58  0.005357239    2.359    0.576
        39 -13.6223    143.9350    140.6678   9.9068981476e+01   2.5428966229e+01      2.00605     1.191994  20.58  0.007583175    2.807    0.644
        40 -12.2784    147.8056     98.6208   8.7816573847e+01   3.3229415304e+01    0.8271471    0.3693196 -38.83  0.003012146    2.268    0.559
        41 -12.2015     39.8928     75.3417   1.1387965535e+02   5.6634178959e+01    0.5569173    0.2343193 -66.94  0.002335982    2.573    0.611
        42 -12.0893     48.1168     68.3508   1.0917976983e+02   5.7303066149e+01    0.3754911    0.2992962 -39.12  0.002301857    1.127    0.112
        43 -11.5627     47.1852     62.3594   1.0784816444e+02   5.8688408546e+01    0.4477423    0.2199656 -36.29  0.002066073    2.127    0.530
        44 -14.0802      7.2005    125.9044   1.3159382109e+02   4.7781186194e+01     2.018147     1.056706 -63.59   0.01198435    1.586    0.370
        45 -11.0806    186.5013     36.1574   6.1306859066e+01   3.4020644589e+01    0.4447578    0.3899764  -8.75  0.001328604    1.251    0.201
        46 -11.1953    193.4416    236.9536   1.0585420521e+02   2.8206390288e-01     0.233977    0.1935719 -60.09  0.001612326    1.844    0.458
        47 -14.9723     54.9744    128.2056   1.1938431794e+02   4.2861276234e+01     2.976648     1.968529  29.21   0.01646522    1.785    0.440
