#   1 NUMBER                 Running object number                                     
#   2 MAG_AUTO               Kron-like elliptical aperture magnitude                    [mag]
#   3 X_IMAGE                Object position along x                                    [pixel]
#   4 Y_IMAGE                Object position along y                                    [pixel]
#   5 X_WORLD                Barycenter position along world x axis                     [deg]
#   6 Y_WORLD                Barycenter position along world y axis                     [deg]
#   7 A_WORLD                Profile RMS along major axis (world units)                 [deg]
#   8 B_WORLD                Profile RMS along minor axis (world units)                 [deg]
#   9 THETA_WORLD            Position angle (CCW/world-x)                               [deg]
#  10 FWHM_WORLD             FWHM assuming a gaussian core                              [deg]
#  11 ELONGATION             A_IMAGE/B_IMAGE                                           
#  12 ELLIPTICITY            1 - B_IMAGE/A_IMAGE                                       
         1 -13.7355    235.8095     53.0255   3.5887228593e+02   2.3735469598e+01     4.714456     1.349114 -55.09   0.02029176    3.458    0.711
         2 -10.2334    178.7176     72.9581   8.8765543465e+00   3.1290720809e+01    0.8935601    0.2717297 -37.80  0.003294209    3.434    0.709
         3  -9.0508    141.1712     39.2361   6.0720462844e+00   4.4436944029e+01    0.2105458    0.1837076 -28.47  0.001035206    1.478    0.323
         4  -9.5500    249.2205     15.6051   3.5144959124e+02   2.5986735509e+01    0.1447342    0.1042173 -69.31 0.0007343836    1.137    0.121
         5 -10.1068    191.1384     16.7696   3.5506187107e+02   3.6316945265e+01     0.391786    0.1430533 -45.29  0.001690359    2.157    0.536
         6 -10.1706    235.0135      3.7448   3.5000929135e+02   2.9572828864e+01    0.2872722    0.1184183 -49.65  0.001130061    1.662    0.398
         7 -11.8777    233.5421    114.4558   1.0161939646e+01   1.5473519538e+01    0.8710454     0.421059  49.31  0.004269584    2.610    0.617
         8 -10.0996    249.2116    248.5338   2.8712481485e+01  -4.9409868694e+00    0.2933744    0.1568569 -29.49  0.002213907    1.416    0.294
         9  -9.9407    231.6523    249.8095   3.1453832946e+01  -3.7699915129e+00    0.3021407    0.1418424  39.07  0.001721201    3.625    0.724
        10  -8.6626    150.8982    226.4033   4.2811426915e+01   7.6149960153e+00    0.1830096    0.1626982 -39.73 0.0002294376    1.290    0.225
        11  -8.8310    173.0806    220.8390   3.7537966342e+01   5.9887670109e+00    0.1647585    0.1535592   9.05 0.0005067922    1.259    0.206
        12  -9.6655    223.8736    219.4639   2.8493122607e+01   9.0719869089e-01    0.1927445    0.1736575   7.12 0.0006483578    1.401    0.286
        13  -7.5101    230.5060    213.5124   2.6625429133e+01   1.1142330758e+00    0.1064607   0.08038147 -19.47 0.0008105365    1.001    0.001
        14  -9.7106      2.9899    202.7494   7.8520274583e+01   2.9519898513e+01    0.2441394    0.2227107  14.11 0.0003273499    1.218    0.179
        15  -8.1300    210.4643    202.4968   2.8117746074e+01   4.7424314937e+00    0.1130843   0.09064702 -19.32 3.192758e-05    1.003    0.003
        16  -7.8983    232.8421    200.9022   2.4425058360e+01   2.6623277809e+00    0.1336277    0.1072511 -36.95 0.0004085814    1.288    0.224
        17  -9.6891    193.3401    195.6537   2.9964729704e+01   7.7811739522e+00    0.2868644    0.2425827  88.25  0.001754795    2.011    0.503
        18 -10.6183    190.2467    189.6071   2.9550760056e+01   9.1678438294e+00     1.075131    0.5390233 -62.43  0.004031463    4.781    0.791
        19 -10.1733    232.4038    196.4547   2.3820753651e+01   3.3413922440e+00    0.1969572    0.1749996   2.10 0.0007528982    1.283    0.220
        20  -8.1238    180.1595    194.1851   3.2138920656e+01   9.6548640769e+00    0.1542574     0.147395 -57.56  0.001067819    1.336    0.251
        21  -8.7726     80.0846    190.5936   5.5308356722e+01   2.4254234431e+01    0.2629699    0.2038084 -46.85 0.0008318064    1.413    0.292
        22  -8.6502    174.0280    187.7780   3.2277434147e+01   1.1581390048e+01    0.3223785    0.1885758  -5.94  0.001464371    2.700    0.630
        23  -8.9503    237.5788    186.8889   2.1628665168e+01   4.1874892767e+00    0.1767175     0.139596 -41.89 0.0007392663    1.306    0.234
        24 -10.5090    202.2736    183.6570   2.6506368549e+01   8.6660650614e+00    0.3705828     0.284233 -39.75 0.0009710179    1.201    0.167
        25 -11.4227    206.3103    177.1989   2.4784995718e+01   9.2202154409e+00    0.7943136    0.6138999 -55.49   0.00525178    1.519    0.342
        26 -11.6789    160.2724    164.4837   3.1039831948e+01   1.7930572500e+01     1.098402    0.6947623 -18.30  0.002374944    2.225    0.550
        27 -11.4013    186.9638    173.6416   2.7492285103e+01   1.2344300196e+01    0.6720404    0.4371643 -51.97  0.002463287    1.608    0.378
        28 -11.3783    193.7635    170.8437   2.5817669011e+01   1.1907253536e+01    0.6544876    0.4569316 -69.42  0.002561541    2.258    0.557
        29 -10.3758    179.8797    174.3657   2.8914909802e+01   1.3193186109e+01    0.4635657    0.3597113  88.99  0.001311859    2.164    0.538
        30 -10.6473    168.9411    160.8376   2.8629004670e+01   1.7295493690e+01    0.5424355    0.3519898 -16.89  0.002648426    2.123    0.529
        31 -11.3336    178.4576    165.5025   2.7638870965e+01   1.5001556182e+01    0.5739233    0.3808964 -47.04  0.001700024    1.426    0.299
        32 -11.5103    174.7529    159.4541   2.7254532376e+01   1.6667449830e+01     0.769887    0.3395699 -48.14  0.001410754    2.152    0.535
        33 -11.2940    224.4287    165.4669   2.0082296997e+01   8.8566844596e+00    0.6685145    0.3196326 -57.22  0.003035729    3.421    0.708
        34 -10.9413    230.6658    167.8015   1.9582667463e+01   7.7595614217e+00    0.7334897    0.2290042 -42.66  0.002877722    2.599    0.615
        35 -10.1330    225.8967    183.0082   2.2696314781e+01   6.0081049729e+00    0.3517503    0.2057849 -23.70  0.001052156    1.712    0.416
        36 -10.6042    222.4026    177.2840   2.2301348253e+01   7.2744962387e+00    0.3214408    0.2665374 -43.59  0.001313093    1.254    0.203
        37 -10.3689    216.3446    181.5229   2.3899917717e+01   7.3226289784e+00    0.4068169     0.245484   3.20  0.002274314    2.359    0.576
        38  -9.4291      2.6777    182.5125   7.7727874227e+01   3.4557009083e+01    0.2448485     0.119568 -83.50  0.001094379    2.035    0.509
        39  -8.7310     18.5213    181.9490   7.2859694582e+01   3.3441583446e+01    0.2000246    0.1339533 -80.04 0.0004725823    1.521    0.342
        40 -11.3460    211.8844    152.4480   1.9718545319e+01   1.2534573087e+01     2.319672    0.5987397 -51.75  0.005992759    8.262    0.879
        41 -12.0395    226.0383     95.4238   7.5761240405e+00   1.9424442293e+01     1.472921    0.6346571 -29.89  0.006249846    3.598    0.722
        42 -12.2010    238.0845    157.3409   1.6885302151e+01   8.4582303648e+00     1.186833    0.9322425   6.32  0.005005045    1.528    0.345
        43 -11.2872    222.6036    139.0300   1.5849450548e+01   1.3224967722e+01    0.4936467    0.3574439  84.30  0.003005854    2.284    0.562
        44 -13.7893    240.4743    130.9391   1.2202292317e+01   1.2083060913e+01     1.975969     1.455567  28.54   0.01405775    1.869    0.465
        45 -12.6283    218.3691    115.0918   1.2112666806e+01   1.7603872641e+01     1.339945     1.109045 -72.12  0.009441846    1.294    0.227
        46 -10.0118    238.1581    167.0337   1.8439675817e+01   7.0161249298e+00     0.270466    0.1967439 -76.42  0.001165358    2.668    0.625
        47  -9.6511    201.2117    165.3718   2.3628350727e+01   1.1834805628e+01    0.3582619    0.2397015 -80.59  0.001647795    3.596    0.722
        48  -8.4053    148.0872    166.7845   3.4067924970e+01   1.9372796808e+01    0.2414319    0.1907115 -44.32  0.001070072    1.241    0.194
        49  -8.9038    215.1494    166.9178   2.1691715472e+01   9.7726253703e+00    0.2237726    0.1640429  22.98  0.001492713    1.575    0.365
        50  -9.1826    149.6861    157.7591   3.2067918892e+01   2.0955526403e+01    0.2805961    0.1833771  48.14 0.0008152862    1.671    0.401
        51  -8.3892    200.6894    157.0903   2.2276018184e+01   1.3303455707e+01    0.1738618    0.1351224 -39.28  0.000515432    1.115    0.103
        52 -10.2038      5.7349    155.3863   7.5235080892e+01   4.1429725159e+01    0.3592297    0.2046757  32.92 0.0008063956    1.622    0.383
        53  -9.7902    135.3600    153.1766   3.4484246990e+01   2.4302741172e+01    0.3686619    0.2338293 -54.42 0.0008746517    1.618    0.382
        54 -11.0327    134.0014    146.9804   3.3612996906e+01   2.5871470122e+01     1.161405     0.330244 -56.31  0.002394872    4.888    0.795
        55 -10.8762    158.5110    149.1072   2.8548863560e+01   2.1239432006e+01    0.4036544    0.3524673 -75.12  0.002377302    1.303    0.233
        56  -9.9931    144.5073    147.6229   3.1291441052e+01   2.3912740917e+01    0.3363983    0.2481605 -73.50   0.00111034    1.717    0.417
        57  -8.8428    189.2281    147.9955   2.2548871665e+01   1.6547740699e+01    0.2049872    0.1380036 -68.26  0.001065291    2.084    0.520
        58  -9.2010     69.5280    145.4735   5.1867587160e+01   3.7068052303e+01    0.3924506    0.2713456  39.71  0.001486683    1.360    0.264
        59  -9.4021     66.4818    143.5085   5.2557466616e+01   3.8030393662e+01     0.367482    0.3181219  69.91  0.001261063    1.190    0.160
        60 -10.4621    180.5559    143.6636   2.3257639322e+01   1.8676627128e+01     0.273873    0.2236576  20.25  0.001660209    1.429    0.300
        61 -10.0651    186.4341    142.2937   2.1968371727e+01   1.7993791058e+01    0.2765794    0.2416821 -39.48 0.0007144671    1.030    0.029
        62 -10.4371    191.8067    143.6230   2.1307261695e+01   1.6925367536e+01    0.4085535    0.2365637 -48.80  0.001228774    1.589    0.371
        63  -9.7858    195.9810    140.7033   2.0083297511e+01   1.6796109350e+01    0.2419446    0.2345743  86.48  0.001433084    1.183    0.155
        64  -7.6004     47.4804    145.4065   5.9448239956e+01   4.0110989073e+01    0.1494914    0.1413388  43.01 7.563481e-05    1.024    0.023
        65  -9.3676      5.0509    145.4894   7.4803782376e+01   4.4131628326e+01    0.2056821    0.1367252  16.80 0.0009041387    1.539    0.350
        66  -9.9765    137.0024    137.2464   3.0948064016e+01   2.7425042841e+01    0.5031702    0.2299396 -55.45  0.001217756    2.379    0.580
        67  -9.7669    142.0824    131.9730   2.8684132936e+01   2.7606212978e+01    0.4418355    0.2473153  46.72  0.001282802    1.836    0.455
        68 -11.2906    136.9875    125.4198   2.8464504198e+01   2.9929581909e+01     1.091835     0.432015 -51.20   0.00405952    2.556    0.609
        69 -10.1985    134.6698    112.6343   2.6165176170e+01   3.3042704904e+01    0.4519609    0.2505549 -55.00   0.00126213    1.872    0.466
        70 -10.2854    134.6864    106.9290   2.4842305887e+01   3.4205820075e+01    0.5607104    0.2938047 -43.21  0.001435552    1.969    0.492
        71  -9.7505      2.3555    138.0227   7.5264384617e+01   4.6314782154e+01    0.3339522    0.1262193 -79.82  0.001258015    2.545    0.607
        72 -11.2655    191.3592    134.2227   1.9618285802e+01   1.8643169633e+01    0.4921974    0.4649645 -89.45  0.002619949    1.183    0.155
        73 -10.1334    166.4704    133.2058   2.3836634032e+01   2.2981201167e+01    0.4224283    0.2763612   7.32  0.001799593    3.004    0.667
        74  -8.4857    115.9256    131.9685   3.5153326425e+01   3.2466392878e+01    0.2294003    0.2204321  68.60 0.0007680095    1.020    0.020
        75 -10.2613    160.7507    128.3293   2.3964242517e+01   2.4932912574e+01    0.3987245    0.2734912 -61.09  0.001790911    1.571    0.363
        76  -9.0673    209.0585    127.4819   1.5653986020e+01   1.7031550970e+01    0.2286412    0.2093059 -73.92  0.001633341    1.199    0.166
        77  -8.3502    120.9206    127.5172   3.2880196788e+01   3.2530294450e+01    0.2218405    0.1428933  43.42 0.0007942474    1.534    0.348
        78  -8.0349     73.5256    126.9677   4.7103991767e+01   4.1207040782e+01    0.2132082    0.1523885 -60.66 -1.944904e-05    1.444    0.308
        79  -8.2552    197.8907    124.8891   1.6809320050e+01   1.9208183112e+01     0.167612    0.1306341 -60.56 0.0004368483    1.280    0.218
        80  -9.9885    168.4268    124.5525   2.1710807287e+01   2.4276994350e+01    0.2884618    0.2312818 -66.74 0.0007508906    1.308    0.235
        81 -10.8471    239.0530    117.8150   1.0122058182e+01   1.4209117335e+01     0.356227    0.2371329 -40.91 0.0003875365    1.200    0.167
        82 -10.9071    203.0702    113.9602   1.3952005911e+01   2.0196605026e+01    0.8696955    0.4363905 -30.24  0.003998265    2.617    0.618
        83  -9.9186    198.6433    120.0751   1.5772215979e+01   1.9900593490e+01    0.2431261    0.1875644 -51.93 0.0004245274    1.145    0.127
        84 -10.9233    178.2011    113.7444   1.7748414754e+01   2.4504188971e+01    0.4958057    0.4318446  61.41   0.00233612    1.244    0.196
        85 -10.7114    178.1373    105.4708   1.6033636053e+01   2.5980589659e+01    0.3560449    0.2927865 -45.16 0.0008006505    1.154    0.134
        86 -10.5123     49.3831    107.0857   5.2121111528e+01   5.0017193848e+01    0.6590965    0.4944665  -3.65  0.002036967    1.628    0.386
        87 -10.9376     47.2995    114.2528   5.4388248676e+01   4.8440919925e+01    0.6582387    0.5204558 -10.87  0.002252273    1.492    0.330
        88 -10.7832     31.1327    111.1018   6.0540886226e+01   5.1234265361e+01    0.5682401    0.3161333  24.95  0.001267944    1.743    0.426
        89 -11.1217    159.0376    112.1224   2.0868313142e+01   2.8365750842e+01    0.5655046    0.4713578  47.73  0.002710048    1.288    0.224
        90 -10.9713      2.1493    110.5640   7.3088830615e+01   5.3718026654e+01    0.8084546    0.2532598 -77.26  0.002821378    3.042    0.671
        91  -9.7441    186.6738    113.2495   1.6262889627e+01   2.3088555417e+01    0.2439336     0.200576 -51.79 0.0003510747    1.074    0.069
        92 -10.5311    160.0746    107.4025   1.9636056123e+01   2.9054738514e+01    0.3780778    0.2848802 -64.20 0.0003916123    1.344    0.256
        93  -9.8778    126.8790    106.8121   2.6670884254e+01   3.5820672479e+01    0.5116599    0.2354965 -48.73 0.0007270998    2.176    0.540
        94 -10.8963    247.6892     91.6816   4.7189938734e+00   1.6743653423e+01    0.3133152    0.2538935 -35.56 0.0005717599    1.313    0.238
        95  -8.1425    113.3461    107.3080   3.0286551732e+01   3.8471752948e+01    0.1482974    0.1212435   1.15 0.0007043814    1.700    0.412
        96  -8.7820    144.1268    105.2178   2.2350267769e+01   3.2633199008e+01    0.2580495    0.2079725 -85.70 0.0006477184    1.357    0.263
        97 -11.1864     39.5199    110.4001   5.6863517462e+01   5.0454483516e+01    0.7780313    0.7019412 -62.13  0.002841003    1.127    0.113
        98  -8.7717    195.5759    103.0522   1.2869258646e+01   2.3260048028e+01    0.1936715    0.1637793 -81.11 0.0004268651    1.220    0.180
        99  -9.6388    119.7657    102.0864   2.7317144164e+01   3.8270278564e+01    0.2822946    0.2033033  18.70  0.001254599    2.104    0.525
       100 -10.4012    188.5262     99.6506   1.3199838683e+01   2.5077448230e+01    0.4358799    0.2906941 -43.09  0.001698157    1.366    0.268
       101  -8.0750    103.0074     98.7426   3.1086463319e+01   4.2446059033e+01    0.2027864    0.1797687  56.65  0.000228782    1.074    0.069
       102  -7.7373    211.0000     97.8857   9.7989670381e+00   2.1466145470e+01    0.1958101   0.05777448 -41.57 0.0007894906    2.853    0.650
       103 -10.7032    238.9442    246.5857   2.9939398611e+01  -3.9379434751e+00    0.2697762    0.2057902 -14.05  0.002324268    1.158    0.136
       104  -9.1812    183.6234     91.5163   1.2219435982e+01   2.7338693698e+01    0.4927185    0.1174963 -39.70  0.001585222    4.254    0.765
       105  -7.8042    157.2025     93.0760   1.6940163290e+01   3.2259739000e+01    0.1812774    0.1028305 -43.97 0.0005127014    1.704    0.413
       106  -9.3835    174.5046     90.0717   1.3302312735e+01   2.9330299860e+01    0.3406022    0.1195792 -41.74  0.001345524    2.669    0.625
       107  -8.0124    194.5808     90.0139   1.0355575348e+01   2.5557454084e+01    0.1890557     0.105914 -44.59  0.000444372    1.555    0.357
       108  -8.5861    117.4216     89.7316   2.4796700634e+01   4.1299720792e+01    0.2036676    0.1407478 -36.90 0.0009526198    1.687    0.407
       109 -10.5193    196.7975    113.1611   1.4700367901e+01   2.1368252618e+01    0.4302488    0.2643784  49.39  0.002178537    1.873    0.466
       110  -8.5111    144.3093     88.9740   1.8461341332e+01   3.5686399608e+01    0.1926528    0.1660431 -61.51 0.0002041944    1.105    0.095
       111  -8.9194    215.2072     83.4128   6.5081038644e+00   2.2962518908e+01    0.2915684    0.1327799  49.18  0.001471817    2.910    0.656
       112  -9.6154    181.2825     83.0147   1.0730507871e+01   2.9181288487e+01    0.3096348    0.2675777  25.73  0.001913812    1.654    0.395
       113  -8.9575    184.0387     78.4286   9.3437366309e+00   2.9381278419e+01     0.233914    0.2193109 -41.65  0.001017717    1.278    0.217
       114  -8.2965    112.7212     86.4786   2.5165372530e+01   4.2964243575e+01     0.260283    0.1296381 -47.10  0.001058641    2.073    0.518
       115 -10.3838    237.3750    239.2253   2.9192489734e+01  -2.8966617496e+00    0.3196014    0.1409675 -18.42  0.001800788    2.581    0.613
       116  -9.1476    222.4771     67.2005   2.6482395328e+00   2.4058447983e+01    0.1904463    0.1671276 -77.83 0.0008212733    1.204    0.169
       117  -8.6715    194.1496     66.4428   5.4809341739e+00   2.9262758882e+01      0.36993    0.1865693 -25.82  0.001551751    3.520    0.716
       118  -7.5492    187.5672     66.5800   6.3053197456e+00   3.0515109290e+01    0.1223784    0.1050399 -67.28 0.0001769573    1.063    0.059
       119  -9.4635    227.8175     59.0992   6.3846367981e-01   2.4260390092e+01    0.2007565    0.1460649 -64.55 0.0006058511    1.119    0.106
       120  -7.9505    206.1812     53.1912   1.4424095254e+00   2.8867237232e+01    0.1572614    0.1405809 -58.65 0.0007505933    1.248    0.199
       121  -7.8900    210.5541     70.4929   4.4820676770e+00   2.5655619375e+01    0.1187285   0.09490495 -59.60 4.899027e-05    1.018    0.017
       122 -10.2476    249.8625     45.6420   3.5657668460e+02   2.2433483864e+01    0.3747339     0.144333 -38.70  0.001152143    2.130    0.530
       123 -10.7296    245.3720    174.3479   1.8642937027e+01   5.1705910172e+00     0.488871    0.2563976 -47.32  0.001514947    1.784    0.440
       124  -8.1940    174.3000     42.0096   2.3464527443e+00   3.6711830361e+01    0.1732963    0.1407546 -61.38 0.0005188901    1.113    0.102
       125  -7.6679     74.9814     42.2572   2.2712714629e+01   5.9379968134e+01    0.1723937    0.1091344  52.95 0.0002400108    1.403    0.287
       126  -8.6025    215.3509    241.6927   3.2937930963e+01  -1.3688903689e+00    0.0878226   0.08112219  27.87 0.0007042976    1.710    0.415
       127  -9.9573    247.5272     33.8982   3.5468626461e+02   2.4198156084e+01    0.1988838    0.1300632  81.65  0.001182244    1.638    0.390
       128 -10.9485    248.9368    167.3756   1.7101242528e+01   5.7846457569e+00    0.5539718    0.3193736 -52.71   0.00236936    1.959    0.490
       129  -8.2307    187.3925     33.8445   3.5912222880e+02   3.5052819228e+01    0.1528395    0.1101119 -29.38 0.0004837686    1.758    0.431
       130  -7.5659    179.3286     38.3166   9.3540561832e-01   3.6142602365e+01    0.1099203   0.09479417  42.64 0.0004050271    1.679    0.404
       131  -9.2965    203.8652     32.0873   3.5731800961e+02   3.2022798268e+01     0.176388     0.133974 -66.14  0.001241663    1.011    0.011
       132  -8.1753     81.4713     31.3374   1.6462371142e+01   5.9571190381e+01    0.1637565    0.1287766 -58.20 0.0009171702    1.427    0.299
       133 -10.4337    248.2596     28.9626   3.5379069456e+02   2.4653287017e+01    0.2878231    0.1952382 -67.07  0.001244685    1.145    0.127
       134  -7.9464     97.5239     33.2321   1.2770685323e+01   5.5562615202e+01     0.153165    0.1375073  -9.40  0.000352865    1.460    0.315
       135 -12.9022    241.4461     96.8831   6.2238792024e+00   1.6905544327e+01     1.576415    0.7376564 -45.26  0.005578442    1.627    0.385
       136  -9.2501    238.0584     19.4324   3.5266367220e+02   2.7383880071e+01    0.2018228     0.135817  88.44 0.0008721961    1.455    0.313
       137  -9.7695     57.5826    231.5156   6.5658783489e+01   1.7690385739e+01    0.2348416    0.2063686 -26.47 0.0001564009    1.343    0.255
       138  -8.3240      3.0210    231.0039   7.9538804418e+01   2.3018692296e+01    0.1766099    0.1429282 -31.24 0.0004238712    1.617    0.381
       139  -8.0974     97.0223     16.6561   6.9570246706e+00   5.7749020325e+01    0.1842704    0.1387473  72.89 0.0002449784    1.115    0.103
       140 -11.8094    249.8416    117.5703   8.9097217521e+00   1.2810733131e+01     1.454092     0.243741 -42.22  0.005359449    4.342    0.770
       141  -8.4040    250.4107    229.2276   2.5972186521e+01  -2.6777373920e+00    0.1248059      0.07644 -39.90 0.0005666735    1.564    0.361
