#   1 NUMBER                 Running object number                                     
#   2 MAG_AUTO               Kron-like elliptical aperture magnitude                    [mag]
#   3 X_IMAGE                Object position along x                                    [pixel]
#   4 Y_IMAGE                Object position along y                                    [pixel]
#   5 X_WORLD                Barycenter position along world x axis                     [deg]
#   6 Y_WORLD                Barycenter position along world y axis                     [deg]
#   7 A_WORLD                Profile RMS along major axis (world units)                 [deg]
#   8 B_WORLD                Profile RMS along minor axis (world units)                 [deg]
#   9 THETA_WORLD            Position angle (CCW/world-x)                               [deg]
#  10 FWHM_WORLD             FWHM assuming a gaussian core                              [deg]
#  11 ELONGATION             A_IMAGE/B_IMAGE                                           
#  12 ELLIPTICITY            1 - B_IMAGE/A_IMAGE                                       
         1 -13.9902    208.1183      3.7638   5.5168488753e+01   3.3230262464e+01     1.618564    0.6509205  63.74  0.005639519    2.149    0.535
         2 -15.1377    186.5984     31.9897   6.3802084846e+01   3.4973411799e+01     2.123413     1.472403  19.65   0.01061928    2.562    0.610
         3 -11.8765     58.8414      2.9045   8.1348931087e+01   6.5195155320e+01    0.2542013    0.1452359  48.47  0.001554961    1.632    0.387
         4  -9.0924    176.0000    240.9743   1.1227396259e+02  -2.3668473090e+00     0.196338   0.07614767 -46.69 0.0007159195    2.863    0.651
         5 -14.3582     51.6068    230.8588   1.3707691562e+02   1.9638560622e+01     5.718717     2.793826  20.15   0.02085761    4.939    0.798
         6 -17.8758     33.4317    242.3767   1.4158000030e+02   1.9479758241e+01     8.908038     8.043566  41.45   0.06454629    1.492    0.330
         7 -12.9697     64.5960    204.0835   1.3138166915e+02   2.3955119879e+01      0.71548    0.4011846 -44.25  0.001654385    2.412    0.585
         8 -11.2124      4.9877    215.6764   1.4499808463e+02   2.8288467244e+01    0.1318701    0.1087028   5.59   0.00088876    2.009    0.502
         9 -12.1934     70.7889    228.5846   1.3289440793e+02   1.7477393551e+01    0.2334668    0.1961769  75.85 0.0003959969    1.021    0.021
        10 -10.2639     97.1547    213.4579   1.2522429758e+02   1.6788523503e+01    0.3271686    0.2166888  34.87  0.001625086    1.585    0.369
        11 -10.7574    159.3057    205.5049   1.0976857999e+02   7.4382978517e+00    0.4072248    0.2542928  70.28  0.001340689    2.749    0.636
        12 -19.0860     22.4732    108.5317   1.2821763595e+02   5.1869286180e+01     16.99248    0.9047676 -63.26   0.02862592   14.972    0.933
        13 -10.0829     93.5766    205.3006   1.2487539732e+02   1.9255225586e+01    0.2603077    0.2493594 -11.84  0.001148663    1.313    0.238
        14 -10.1277    163.7418    204.5849   1.0861281530e+02   6.8016038506e+00    0.2490796    0.1973168 -48.43 0.0004507473    1.318    0.241
        15 -12.3071     45.3507    203.7082   1.3564667252e+02   2.6595288809e+01    0.2298428    0.1868683  82.50 0.0004670457    1.028    0.027
        16 -12.2255    184.1334    215.8840   1.0627486837e+02   8.2747738435e-01    0.4992074    0.4192075 -87.70  0.002712283    1.653    0.395
        17 -10.2383     88.7854    203.3289   1.2570506022e+02   2.0491992593e+01    0.3728468    0.2339443  69.94  0.001716874    1.841    0.457
        18 -10.3202    210.0910    199.9196   9.7934445812e+01  -7.2309009073e-01    0.1966557    0.1858184 -63.95 0.0004445084    1.278    0.218
        19 -12.3935    193.6311    192.9941   9.9926603158e+01   3.5758000263e+00    0.8793927    0.5048098 -53.93   0.00346529    2.016    0.504
        20 -10.5925    153.8928    195.6663   1.0916771897e+02   1.0576288968e+01     0.216374    0.1872983  44.91  0.000760579    1.122    0.109
        21 -10.7686     81.7348    194.9634   1.2615657080e+02   2.3597769574e+01    0.3693082    0.2865783  37.86  0.001977637    1.372    0.271
        22 -11.0854     76.4971    183.0650   1.2565266009e+02   2.7301377269e+01    0.3229558    0.2178284 -70.90 0.0007291418    1.417    0.294
        23 -11.6459     66.9632    195.5777   1.2974280925e+02   2.5649235237e+01    0.3032124    0.1991554  64.09 0.0008692927    1.547    0.354
        24 -13.2972     73.7730    190.5197   1.2742309663e+02   2.5883592926e+01    0.8366022    0.7472451 -21.46  0.003194335    1.481    0.325
        25 -10.6307     99.8411    192.1518   1.2136344137e+02   2.1328716585e+01    0.2251576    0.1848966  74.22 0.0004241595    1.215    0.177
        26 -11.1545     60.4518    189.5242   1.3047929493e+02   2.8022548337e+01    0.3418576     0.211117 -62.39 0.0009829635    1.502    0.334
        27 -12.7137    109.9088    188.9130   1.1837219668e+02   2.0355073234e+01    0.5781419    0.3762803 -25.79  0.002341117    2.550    0.608
        28 -12.1983    110.0112    183.2231   1.1734833046e+02   2.1705613815e+01    0.3901051    0.2539129 -56.89    0.0017888    1.521    0.343
        29 -10.7554    167.2186    188.0997   1.0467910150e+02   9.6437209991e+00    0.3188769    0.2373711 -59.60   0.00150979    1.487    0.327
        30 -11.4518    205.9447    180.5173   9.4881507724e+01   3.7633553872e+00    0.4375561    0.3065589  40.85  0.001452472    1.484    0.326
        31 -10.9242    209.3103    178.6793   9.3833164475e+01   3.4992082288e+00    0.3172092    0.2764737 -45.65    0.0015673    1.149    0.130
        32 -11.7453     99.4009    180.5160   1.1951544216e+02   2.4227438353e+01    0.3478672    0.2989466 -49.89  0.001489214    1.229    0.186
        33 -10.1083     68.9776    217.9618   1.3207591883e+02   2.0112392497e+01    0.2088696    0.1620333  72.50 0.0006451026    1.145    0.127
        34 -10.7405     70.9738    210.1573   1.3069618628e+02   2.1617076646e+01    0.4859337    0.2449638  59.14   0.00176368    2.143    0.533
        35 -11.3453    144.1842    178.8722   1.0817586681e+02   1.6255514652e+01    0.2416148    0.2135449  80.12 0.0007496531    1.220    0.180
        36 -11.9672    143.5074    172.1787   1.0698002377e+02   1.7945252847e+01    0.6815389    0.4070634 -81.77  0.002226836    3.462    0.711
        37 -11.1867    146.0240    168.6961   1.0564887348e+02   1.8249550811e+01      0.37729    0.2611687 -31.61  0.001054135    1.734    0.423
        38 -11.7294    195.8045    169.8753   9.4721882850e+01   7.8713514488e+00    0.5708905    0.3659193 -45.74  0.002104534    1.512    0.339
        39 -10.7124    193.3982    164.3986   9.4047925990e+01   9.4930365674e+00    0.3848982    0.3633417 -77.30  0.001807046    1.146    0.127
        40 -12.7432     60.2404    214.8663   1.3361937872e+02   2.2050985613e+01    0.4918253    0.2760527  59.09  0.001747413    1.732    0.423
        41 -10.3071     73.3167    166.9977   1.2389163683e+02   3.1771117209e+01     0.335506    0.2061184  37.35  0.001162693    1.723    0.420
        42  -9.1302     40.2905    167.2962   1.3245675723e+02   3.5998644800e+01    0.1303265   0.09412346 -44.75 0.0003355492    1.556    0.357
        43 -11.1379    230.0189    166.0016   8.7296863986e+01   2.1587659562e+00    0.2177846    0.1715637 -72.76 0.0008318608    1.689    0.408
        44 -10.3748     65.2335    233.0039   1.3451946284e+02   1.7310405648e+01    0.2867897    0.1726225 -39.02  0.001323938    2.958    0.662
        45 -12.0710     65.6724    211.0052   1.3198129759e+02   2.2182726971e+01    0.3418496    0.2831523 -78.23 0.0007222333    1.145    0.127
        46 -11.2444    140.9442    157.5992   1.0450960496e+02   2.1890354575e+01     0.281444    0.2383697 -62.71 0.0003518522    1.199    0.166
        47 -12.7537     98.9779    154.8724   1.1480840588e+02   3.0646302681e+01    0.7402321    0.4764684 -36.33  0.003182275    1.875    0.467
        48 -11.3906    165.0670    153.0711   9.7740075130e+01   1.7862481329e+01    0.4133616    0.3062662  83.35  0.001780325    1.860    0.462
        49 -11.1753    134.3224    148.6585   1.0417869484e+02   2.5369619693e+01    0.4531118     0.277077 -65.34  0.001780998    2.009    0.502
        50 -11.8439    134.0000    144.0000   1.0319697120e+02   2.6538454355e+01    0.9663534    0.3240963 -57.28  0.002507367    4.420    0.774
        51 -12.1477    146.6668    147.7065   1.0088387667e+02   2.3010466140e+01    0.7342024    0.4303141  72.45  0.002382534    3.317    0.699
        52 -12.1518    109.2861    140.0687   1.0883135216e+02   3.2399396905e+01    0.5558999    0.3452555 -31.71  0.002232622    2.093    0.522
        53 -12.4143     97.9276    140.2908   1.1201908936e+02   3.4427128863e+01    0.3204891    0.2999037  54.85 0.0003951797    1.106    0.095
        54 -10.7879    174.6977    148.9499   9.4633255345e+01   1.6716983645e+01    0.2877963    0.2437559 -84.73 0.0007580533    1.365    0.267
        55 -11.2697    106.0982    130.8800   1.0758693512e+02   3.5207497209e+01    0.3691501    0.3204626 -67.76  0.001377658    1.177    0.150
        56 -11.4520    104.0319    126.7851   1.0719183766e+02   3.6565423172e+01    0.3304334    0.2920413 -21.99 0.0007015554    1.239    0.193
        57 -12.1620    117.3009    129.9435   1.0427419075e+02   3.3258224648e+01    0.5509796    0.3913294  31.19  0.002233578    1.570    0.363
        58 -10.8562    136.0000    129.0137   9.9116015139e+01   2.9602182300e+01    0.3873882    0.1508554 -49.91  0.001269748    2.603    0.616
        59 -11.2710    136.7201    124.2889   9.7761387476e+01   3.0518976312e+01    0.4010159    0.3554742  22.43  0.001302177    1.255    0.203
        60 -11.0983    160.4020    127.2117   9.2734407521e+01   2.4641248767e+01    0.3958248    0.2869825 -69.42  0.001335521    1.662    0.398
        61 -10.4979    135.0000    120.0042   9.7120966587e+01   3.1849690462e+01    0.4338672   0.08852996 -46.02   0.00104183    4.848    0.794
        62 -10.8574    120.3207    124.5467   1.0213329661e+02   3.3905110702e+01    0.2688394    0.1853426 -29.48 0.0007197785    1.747    0.428
        63 -10.6067    111.1064    119.2252   1.0333494369e+02   3.6968744558e+01    0.2449655    0.2396611 -22.66 0.0003834154    1.040    0.038
        64 -10.5267    168.1191    112.8047   8.7427513336e+01   2.5951517253e+01    0.3936529    0.2745785 -83.26  0.001260387    2.028    0.507
        65 -10.4574    205.5200    110.1649   7.9425427380e+01   1.7981897910e+01    0.3048613    0.2132341  46.39 0.0008579222    1.579    0.367
        66  -9.9551     41.7974     91.8741   1.1817103986e+02   5.3771108678e+01    0.1930346    0.1534964 -32.28  0.000405905    1.141    0.123
        67 -12.5085    171.3107     70.5885   7.5926052802e+01   3.3078439319e+01    0.5173253    0.3263462 -87.25  0.001343763    2.248    0.555
        68  -8.9627     73.5026     73.4896   1.0210066322e+02   5.3263407111e+01    0.1358893    0.1225334  -9.65 2.110345e-05    1.002    0.002
        69  -9.8229    107.9576     62.6910   8.8121163339e+01   4.8795472855e+01    0.1924149    0.1673872  38.90 0.0002664505    1.085    0.079
        70  -9.2606    168.2870    248.2853   1.1500840826e+02  -2.3592661660e+00    0.1262948   0.09594867   6.03 0.0001911377    1.529    0.346
        71 -13.7902    172.0910     47.0480   6.9684591740e+01   3.6445522259e+01    0.7214838    0.6203762 -34.75 0.0008139621    1.327    0.247
        72 -10.4134    157.5198    242.5053   1.1634776769e+02   4.6690462993e-01     0.134257     0.118713  34.24 8.832071e-05    1.012    0.012
