#   1 NUMBER                 Running object number                                     
#   2 MAG_AUTO               Kron-like elliptical aperture magnitude                    [mag]
#   3 X_IMAGE                Object position along x                                    [pixel]
#   4 Y_IMAGE                Object position along y                                    [pixel]
#   5 X_WORLD                Barycenter position along world x axis                     [deg]
#   6 Y_WORLD                Barycenter position along world y axis                     [deg]
#   7 A_WORLD                Profile RMS along major axis (world units)                 [deg]
#   8 B_WORLD                Profile RMS along minor axis (world units)                 [deg]
#   9 THETA_WORLD            Position angle (CCW/world-x)                               [deg]
#  10 FWHM_WORLD             FWHM assuming a gaussian core                              [deg]
#  11 ELONGATION             A_IMAGE/B_IMAGE                                           
#  12 ELLIPTICITY            1 - B_IMAGE/A_IMAGE                                       
         1 -11.1752      9.3979     24.8267   1.1903947414e+02   6.8195961921e+01    0.4130824    0.2268894 -41.03  0.002744639    1.408    0.290
         2 -11.2155     84.8730     21.9105   8.9430911027e+01   5.8992019894e+01    0.3979323    0.2296692   5.79  0.001942619    2.245    0.555
         3 -10.5542     35.0818     21.4071   1.0685080156e+02   6.6389497696e+01    0.4442069    0.1688329 -36.69   0.00226303    2.292    0.564
         4 -11.4484     25.6489     20.1608   1.1027135712e+02   6.7542509729e+01    0.4208081    0.2373877  -1.69  0.002425377    1.934    0.483
         5 -10.9512    216.2462     16.8817   6.3462072281e+01   2.9325020115e+01    0.7426411    0.1754899  52.83  0.002302074    4.865    0.794
         6  -9.3592     50.4046     18.7686   9.9770919705e+01   6.4854123496e+01    0.1483362   0.09356164 -17.40  0.000214192    1.431    0.301
         7 -10.4921     19.7094     16.6177   1.1141126173e+02   6.8597300800e+01    0.3381115    0.1652242 -23.90  0.001332483    1.881    0.468
         8 -12.4031     26.2869     13.5692   1.0729964634e+02   6.8383388405e+01     0.267965    0.1825901  10.01 0.0003985135    1.330    0.248
         9 -10.5689     75.8406     16.7723   9.0181209687e+01   6.1171169312e+01    0.2936337    0.1750031  15.04  0.001164635    1.833    0.455
        10 -12.0374    130.8754     14.7734   7.5489247186e+01   5.0183505493e+01    0.5444161    0.3224091  21.88  0.002363199    2.140    0.533
        11  -9.3564     51.3214     11.3186   9.6291200002e+01   6.5619367288e+01    0.2209238    0.1072665   0.58 0.0009384467    3.492    0.714
        12 -11.2938    119.8903     11.5753   7.6690958722e+01   5.2958258455e+01     0.271856    0.2044707  23.43 0.0002826962    1.344    0.256
        13 -10.7308     75.0970      5.2633   8.5731662703e+01   6.2467590567e+01    0.4324875    0.1963831 -23.42  0.002250753    2.243    0.554
        14 -11.2566     78.5118      9.6608   8.6501197414e+01   6.1445298819e+01    0.4169011    0.2110707  44.10  0.002251347    1.735    0.423
        15 -11.6257     81.3912      6.0121   8.4185248868e+01   6.1271092269e+01    0.2353281    0.1809631  19.87 0.0002023708    1.104    0.094
        16 -10.1762     60.9902     10.7386   9.2586190739e+01   6.4254598217e+01    0.3352107     0.197456  62.12  0.001550693    3.794    0.736
        17  -9.5120    107.7667      9.8048   7.8785315553e+01   5.5733275581e+01     0.153005    0.1448472  69.53 0.0007514606    1.257    0.205
        18  -9.8730     23.1615      9.3056   1.0683312356e+02   6.9251711410e+01     0.175157    0.1099608 -20.51  0.000520117    1.264    0.209
        19  -9.6152      2.9804      9.7226   1.1624174489e+02   7.0890408360e+01    0.1395053    0.1113016 -79.85 0.0008823641    3.392    0.705
        20 -11.4609    129.3112      7.4995   7.3404681673e+01   5.1216374520e+01    0.3310916    0.1965342  80.93 0.0008088501    2.179    0.541
        21 -10.2811      9.4739      7.1036   1.1209727580e+02   7.0768539740e+01    0.2759806    0.1337288 -25.18  0.001474987    1.726    0.421
        22  -9.2868    182.5697      7.5344   6.5086762460e+01   3.8493337482e+01    0.1312525    0.1120334  80.77 6.484948e-05    1.014    0.014
        23  -9.1543     66.9785      5.2327   8.8252523093e+01   6.3854239088e+01    0.1425718   0.08541181  42.29 0.0003749704    1.527    0.345
        24  -9.2375     58.4845      5.4650   9.1192669482e+01   6.5187695360e+01    0.1170086    0.0909021  11.37 8.765555e-05    1.005    0.005
        25  -9.4706     14.4968      5.4948   1.0906493638e+02   7.0554692236e+01      0.10701   0.07650129 -13.25   -1.201e-05    1.005    0.005
        26 -10.3863    135.8385      4.1492   7.1113228676e+01   5.0008188663e+01    0.1806014    0.1303691  39.22   0.00105232    1.315    0.240
        27  -9.4863     37.1935      8.5747   1.0057777485e+02   6.7788834379e+01    0.1444486   0.08656946  17.17 0.0003803986    1.544    0.352
        28  -9.5218    120.5013      4.4998   7.4139385380e+01   5.3449030313e+01    0.1265587    0.1091154  48.33 -0.0004933209    1.038    0.037
        29  -9.6700    115.6053      4.2099   7.5051751311e+01   5.4545997832e+01    0.1729442    0.1140459   2.96 0.0009628447    1.754    0.430
        30 -10.7609     91.8135      3.9670   8.0533164755e+01   5.9481542597e+01    0.1949848    0.1469162  39.22 0.0003486041    1.115    0.104
        31 -11.5916     27.0622      3.2666   1.0243953133e+02   6.9577946168e+01    0.3624465    0.2007881  36.77  0.002101202    2.084    0.520
        32 -10.6570     31.0322      2.5150   1.0039953551e+02   6.9214718346e+01    0.2286917    0.1756919  45.19  0.001270827    2.116    0.527
        33  -9.9332     18.7342      3.9320   1.0643114614e+02   7.0357533308e+01    0.1440024    0.1011875 -15.94 0.0003119355    1.081    0.075
        34  -9.6288     99.7710      3.6225   7.8412396384e+01   5.7926098514e+01    0.2884566   0.09982797  55.53  0.001250157    2.467    0.595
        35  -9.3514    124.4311      1.4212   7.2325256080e+01   5.2826112592e+01     0.124487    0.1073042  53.85 3.260711e-05    1.055    0.052
        36 -10.3247     88.1052    227.1487   1.3596098779e+02   1.6317093172e+01     0.179336    0.1658341  63.05  0.001199166    1.292    0.226
        37 -11.1096    247.2913    250.1152   1.0922714550e+02  -1.3982506199e+01    0.3406416    0.2060601  24.82  0.002101842    1.405    0.288
        38 -11.3765    250.5258    244.6090   1.0774253758e+02  -1.3791542402e+01    0.5422903    0.2183652 -39.39  0.001529676    2.905    0.656
        39 -11.0317    181.5593    247.8456   1.2080758149e+02  -3.1719557639e+00    0.4089384    0.2137418 -29.46  0.001933574    2.894    0.654
        40 -11.0780    178.7209    243.6922   1.2072367152e+02  -2.0549381289e+00    0.4910549    0.1675114  44.37  0.002026693    2.475    0.596
        41  -9.3577    168.6471    250.6829   1.2363123218e+02  -1.3901752303e+00    0.1256237   0.09007626  17.27 0.0007046688    1.741    0.425
        42 -10.2877    127.9044    249.6781   1.3108739629e+02   5.7045517628e+00    0.1852337    0.1707092 -56.63   0.00128732    1.379    0.275
        43  -9.7782     72.6757    250.1828   1.4103324058e+02   1.4227492394e+01    0.1709238    0.1519943  17.74  0.001186083    1.916    0.478
        44 -11.6233     34.4786    241.3466   1.4676767037e+02   2.0888193468e+01    0.3785186    0.2482821  46.51  0.002624066    1.557    0.358
        45 -12.6493     19.6253    248.0594   1.4955704348e+02   2.1355322228e+01     0.813817    0.2097023  54.49  0.003959497    2.953    0.661
        46 -11.8150     27.6829    246.1350   1.4817942890e+02   2.0794274558e+01    0.5045159    0.1779169 -74.36  0.002709107    2.527    0.604
        47 -10.5090     31.8021    237.1412   1.4691834269e+02   2.2003490007e+01    0.2756363    0.1455536  84.62 0.0009825343    1.628    0.386
        48 -10.5343     29.0497    233.0053   1.4708955069e+02   2.3118670212e+01    0.5277198    0.1128692  44.94  0.002347925    3.399    0.706
        49 -10.7524     11.0398    250.1438   1.5097911915e+02   2.1911502728e+01     0.263343    0.1507611  49.68  0.001895938    1.582    0.368
        50  -9.5295      6.6553    227.2926   1.5039721111e+02   2.6631130515e+01    0.1151735    0.0558023  68.42  0.000455802    1.661    0.398
        51 -10.4920     66.4714    226.3059   1.3994260332e+02   1.9670344604e+01    0.2605649    0.1415773  48.05  0.001049561    1.628    0.386
        52 -10.5916    180.8611    224.1178   1.1722876459e+02   7.1106094281e-01    0.2194248    0.1806224 -29.37 0.0006289462    1.393    0.282
        53 -10.3129     81.3642    224.6150   1.3696964347e+02   1.7848082814e+01    0.2436681    0.1657737  86.19 0.0009882655    1.394    0.283
        54 -10.8209     13.1152    222.1359   1.4902427451e+02   2.6982123088e+01    0.1843154    0.1435443 -87.18 0.0004165681    1.249    0.199
        55 -11.2567    141.4177    221.3987   1.2468415758e+02   8.4212539301e+00    0.2930261     0.232402  18.27  0.001294421    1.642    0.391
        56  -9.3074     51.5075    222.5539   1.4234353069e+02   2.2443752036e+01    0.1199679   0.09278177  77.57 0.0001214156    1.029    0.028
        57 -10.3058    174.0166    219.9886   1.1790269729e+02   2.6767121882e+00    0.2122194    0.1842124  42.79 0.0006271285    1.024    0.023
        58  -9.6791    250.2872    219.0544   1.0327074387e+02  -1.0452664872e+01    0.1737354    0.1403704  -8.85  0.000748969    1.114    0.102
        59 -10.9849    123.3620    221.5231   1.2833824380e+02   1.1612538412e+01    0.2684903    0.2269635  59.78 0.0009260205    1.019    0.019
        60 -10.5610    191.5270    216.9789   1.1391164723e+02  -4.6137213457e-02    0.2568311    0.1774972 -40.22  0.001154953    1.605    0.377
        61 -10.0690    194.5185    215.4762   1.1305814644e+02  -3.4499579533e-01     0.216626     0.118158  33.03 -2.654008e-05    1.821    0.451
        62  -9.7045     49.8574    218.3747   1.4227132901e+02   2.3507760693e+01    0.1497866    0.1099337  35.04 0.0008452309    1.763    0.433
        63 -10.8461     10.0599    217.0415   1.4921029705e+02   2.8301690621e+01    0.2721896    0.1518762  66.69 0.0009627063    1.448    0.310
        64 -10.6479    201.5089    216.0948   1.1179934309e+02  -1.7261180073e+00    0.2737509     0.198605  20.98  0.001493088    1.424    0.298
        65 -10.1185     24.5911    216.9320   1.4670299542e+02   2.6803045586e+01    0.2399491     0.106006  57.53  0.001334531    1.969    0.492
        66 -10.1823    234.7939    216.6018   1.0560053258e+02  -7.6124812200e+00    0.1779345    0.1133947  47.29 0.0009484888    1.740    0.425
        67 -10.0357     30.8546    215.4904   1.4548357531e+02   2.6396565827e+01    0.2048499    0.1247544  79.29  0.001293968    1.346    0.257
        68  -9.2061    179.6673    215.7130   1.1605066019e+02   2.3721571689e+00    0.1364186    0.1019664  13.86 0.0007014867    1.623    0.384
        69  -9.5844    137.1978    215.6323   1.2467777248e+02   1.0290090083e+01     0.196909    0.1189207  35.67  0.000944138    1.722    0.419
        70 -10.3732    208.9691    212.1469   1.0963882231e+02  -2.4363130085e+00    0.2120418     0.190744 -15.70 0.0004951883    1.148    0.129
        71 -10.1287    170.1987    213.1583   1.1752595083e+02   4.6067679963e+00     0.187392    0.1583632  69.38 0.0009677769    1.313    0.238
        72  -9.7034    142.8099    213.3858   1.2317882061e+02   9.6969817739e+00    0.1900112    0.1210238  35.74 0.0004498495    1.605    0.377
        73 -10.9251     20.6388    211.6144   1.4700709192e+02   2.8311289575e+01    0.2943548    0.1493514  75.59 0.0008910553    1.755    0.430
        74  -9.7621    212.8994    211.8935   1.0883557644e+02  -3.1037809226e+00    0.1683696    0.1586229  62.09   0.00052762    1.310    0.237
        75 -12.0125      4.2908    207.2894   1.4956617096e+02   3.0820322322e+01    0.4429365     0.243872  82.53  0.002881018    1.420    0.296
        76  -9.2093     27.6991    205.3748   1.4524400910e+02   2.8843481962e+01    0.1277604   0.06703612  73.78 0.0007028466    1.756    0.430
        77 -10.5528    205.9883    201.4884   1.0823134429e+02  -1.0905705015e-01    0.2363918    0.1451341 -30.18 0.0007224741    1.812    0.448
        78  -9.4903    238.5185    201.4504   1.0205890376e+02  -5.9617281016e+00    0.1337493     0.112721   5.18  0.000159694    1.065    0.061
        79 -10.0155    222.9087    200.9122   1.0485493575e+02  -3.1310097214e+00    0.3047166    0.2140107 -89.00  0.001236683    3.651    0.726
        80  -9.8686    218.2692    201.3613   1.0582478907e+02  -2.3627089628e+00    0.1386187   0.09928402  -0.49 0.0006995428    1.648    0.393
        81  -9.1204     34.6670    200.7375   1.4353510167e+02   2.9045541398e+01    0.1023686   0.08750866 -55.44 0.0002405981    1.576    0.366
        82  -9.7710     19.6540    200.6624   1.4635062032e+02   3.0685643704e+01    0.1074664   0.07845666 -54.41 0.0002979631    1.778    0.437
        83 -11.3947    215.5439    194.1070   1.0493851561e+02  -6.4115016031e-01    0.3630975    0.2032638 -40.03  0.001703948    1.844    0.458
        84 -10.5208    227.3077    196.7114   1.0320852434e+02  -3.2403104609e+00    0.2848874    0.2042787   4.52 0.0008353154    1.587    0.370
        85 -11.8435    192.1911    194.9428   1.0973725452e+02   3.6972844966e+00    0.3924397    0.3201049 -75.86  0.002071138    1.640    0.390
        86  -9.5982      7.0000    195.9684   1.4831505940e+02   3.2899668526e+01    0.1828632   0.04963047 -75.16 0.0006713112    2.909    0.656
        87 -10.1703    163.1507    191.6265   1.1517262622e+02   1.0088243388e+01    0.3960391   0.09703309 -43.94  0.001115378    4.684    0.787
        88 -11.0377    232.4845    191.2601   1.0116526925e+02  -3.2828025853e+00    0.3353027    0.2058764  22.38  0.001605981    1.885    0.469
        89  -9.7727    203.0003    195.9846   1.0776552939e+02   1.4147916146e+00    0.2126431    0.1977396  16.18 0.0007006066    1.017    0.017
        90  -9.4493    205.5996    190.2418   1.0612343571e+02   1.9326083975e+00    0.1876191    0.1316017 -27.06 0.0004811265    1.550    0.355
        91 -10.6202    225.9106    188.9251   1.0192667920e+02  -1.6953270030e+00    0.3061471    0.1722415  17.15  0.001218914    2.786    0.641
        92 -11.8977     16.3995    183.6172   1.4556609897e+02   3.4648783305e+01    0.4462723    0.2036466 -86.93  0.002333461    1.977    0.494
        93  -9.3146     61.6138    184.7840   1.3636132120e+02   2.9216951597e+01    0.1889912    0.1082448 -79.98  0.000954362    1.682    0.405
        94  -9.9133    236.4892    182.4693   9.8653181652e+01  -2.5579120603e+00    0.1364468    0.1230574  -2.62 0.0004941871    1.004    0.004
        95 -11.4634    248.5146    182.5657   9.6516972454e+01  -4.7149604691e+00    0.4877543    0.2449805  24.13  0.001977243    2.885    0.653
        96  -9.6270    250.4726    190.0207   9.7672707557e+01  -6.2259266104e+00    0.1959177    0.1192867 -34.49 0.0005308415    1.559    0.359
        97 -10.5844      2.2287    180.2107   1.4803677935e+02   3.6648074179e+01    0.2149477    0.1337937  70.93 0.0005832606    1.405    0.288
        98 -11.1299    244.6344    177.9009   9.6248647970e+01  -3.2733691785e+00    0.3072418    0.1590351 -25.49  0.001339068    2.170    0.539
        99 -11.5048    224.3401    178.3474   1.0006472447e+02   4.1615276200e-01     0.306066    0.2709645  23.54 0.0005703902    1.094    0.086
       100  -9.4058     36.0867    178.5051   1.4107077053e+02   3.3754925848e+01    0.1564813    0.1146772  47.24 0.0005461529    1.468    0.319
       101 -10.5408    200.1595    176.8067   1.0448767871e+02   5.4839577282e+00    0.2037957    0.1695719   6.30 0.0006282246    1.331    0.249
       102  -9.4845     70.2054    177.6017   1.3353763349e+02   2.9666081105e+01    0.1554781    0.1292381  32.40 0.0004389818    1.496    0.332
       103  -9.8971    241.7002    173.6463   9.5890066430e+01  -2.0350626066e+00    0.1431622    0.1009355  -1.48 0.0004047917    1.699    0.411
       104  -9.7801    183.3410    173.3140   1.0724787561e+02   9.6345285966e+00    0.1533116    0.1174062   6.57 0.0006878059    1.703    0.413
       105 -10.5990    167.7974    183.9438   1.1271516326e+02   1.0700927241e+01    0.4558197    0.2685702  68.95   0.00170248    2.843    0.648
       106  -9.6485    193.3626    172.3170   1.0494098202e+02   7.7429075217e+00    0.1554095    0.1154082   7.73 0.0007041525    1.766    0.434
       107  -9.8301     74.5814    171.6841   1.3170075972e+02   3.0403182825e+01    0.1731507    0.1538226 -87.56  0.001052395    1.061    0.057
       108  -9.7124     59.6370    171.7881   1.3512352707e+02   3.2447139350e+01    0.1900961    0.1089505 -77.97 0.0008990566    1.670    0.401
       109  -9.8542      4.5208    168.0218   1.4659592528e+02   3.9089406558e+01    0.1845107    0.0870243 -76.31  0.001040213    1.614    0.381
       110  -9.7506    209.9871    166.3100   1.0029612265e+02   5.4539456188e+00    0.2049081    0.1874663  26.87 0.0004792397    1.078    0.073
       111  -9.2749     21.6592    166.6767   1.4289242861e+02   3.7885099597e+01    0.1171639   0.07920253 -49.95 0.0007050839    1.725    0.420
       112 -10.6473     52.7129    163.2970   1.3556069585e+02   3.5293522068e+01    0.5303277     0.276388 -32.91  0.001910876    4.709    0.788
       113 -10.4497     40.9080    165.3073   1.3851307023e+02   3.6213565684e+01    0.1952419    0.1321389  64.42 0.0005189367    1.476    0.323
       114 -10.2786      9.9979    165.2750   1.4522186326e+02   3.9238984115e+01    0.1564941    0.1221843  89.27 0.0003134221    1.068    0.063
       115  -9.1450    229.4985    164.5306   9.6180031990e+01   1.8568938183e+00    0.1424354    0.1310541  -7.66 8.608525e-05    1.027    0.027
       116 -10.7733     36.2888    161.4111   1.3907975298e+02   3.7610971025e+01    0.4267526    0.1332074 -64.68  0.001792745    2.527    0.604
       117 -11.2662    246.5095    162.4792   9.2691709377e+01  -1.0340768912e+00    0.2226847    0.1967462 -23.31 0.0007090716    1.034    0.032
       118 -11.0853    248.2164    159.0324   9.1663048159e+01  -7.6454021479e-01    0.3377246    0.2211007 -53.10   0.00164955    1.821    0.451
       119  -9.3341    200.0555    162.7791   1.0152223238e+02   8.1999471566e+00    0.1947383    0.1205857  46.68 0.0004432703    1.615    0.381
       120  -9.7808    238.4951    158.5090   9.3249261001e+01   1.1700420060e+00    0.2558878    0.1278738 -27.65  0.001026582    2.297    0.565
       121  -9.8574     48.3476    158.6983   1.3595139756e+02   3.6887560430e+01     0.135253    0.0863644  73.59 0.0003161536    1.689    0.408
       122  -9.5002      8.0569    158.2560   1.4496953355e+02   4.0949668049e+01    0.1192388   0.09999733  41.34 0.0005480577    1.500    0.334
       123 -10.8315     22.0420    156.0047   1.4166313596e+02   4.0252961163e+01    0.3433666    0.2255836  53.98  0.002138624    1.608    0.378
       124  -9.5677     23.7106    152.6535   1.4090100751e+02   4.0859956467e+01    0.2078491     0.117383 -60.50 0.0005614814    1.518    0.341
       125  -9.1320    235.6602    154.7010   9.2928054649e+01   2.3969606523e+00    0.1453923    0.1081312   5.39 0.0006252039    1.664    0.399
       126  -9.4312    217.4220    155.0000   9.6373542573e+01   6.0427568824e+00    0.3173778   0.08347367  47.38 0.0009306908    3.902    0.744
       127  -9.9938    205.2673    152.2569   9.8138359075e+01   9.1409658245e+00    0.2755645    0.1864377 -36.20  0.001269346    1.482    0.325
       128 -10.0683    197.2034    153.6233   1.0007853404e+02   1.0614138537e+01    0.2196045    0.1394721  37.24 0.0009513503    1.671    0.402
       129  -9.4711    151.5423    153.0694   1.0998165858e+02   2.0676123025e+01    0.2158605    0.1348279 -72.91 0.0008068185    2.417    0.586
       130 -10.2932     11.7666    152.7827   1.4361132515e+02   4.1867036721e+01     0.406421    0.1475202  45.12  0.001986788    2.926    0.658
       131 -10.4021    178.3167    151.4170   1.0357551287e+02   1.5203236406e+01    0.3368098    0.2735397  70.39  0.001628169    1.403    0.287
       132  -9.5617    169.3082    152.2924   1.0575840900e+02   1.6998780743e+01    0.1526788    0.1240815   4.64 0.0003411924    1.582    0.368
       133  -9.4536     46.1533    151.1392   1.3542132830e+02   3.8902375037e+01    0.1765035     0.131641  78.21 0.0003958599    1.334    0.251
       134  -9.5620     92.9815    148.0159   1.2325332465e+02   3.3115606925e+01    0.1766486     0.163558 -88.88  0.001005905    1.034    0.033
       135  -9.3232    233.5172    146.9901   9.1612161573e+01   4.2108723420e+00    0.2237406    0.1345056 -37.68  0.001023979    1.566    0.361
       136 -10.3116    207.1003    145.9110   9.6334104990e+01   9.9818669929e+00    0.2593775    0.2231518  29.91 0.0006876873    1.222    0.182
       137 -10.9063      8.1603    145.3702   1.4364053088e+02   4.3806282325e+01    0.2412516     0.125706  39.20  0.001416118    2.190    0.543
       138 -10.8947      3.9449    142.3928   1.4428720581e+02   4.4778654444e+01    0.3859076    0.1671274 -60.66  0.002111766    1.817    0.450
       139 -11.6987      3.5696    136.3627   1.4372709820e+02   4.6142239916e+01    0.5243406    0.1821848 -51.93  0.001851483    2.658    0.624
       140 -11.8829      9.0739    136.7833   1.4247249152e+02   4.5656272565e+01    0.2149948    0.1958993 -61.88 0.0002480423    1.270    0.213
       141 -10.0051     37.5241    142.2943   1.3626913890e+02   4.1895789832e+01    0.1953609    0.1154288  32.01  0.001063589    2.025    0.506
       142 -10.4777    212.3596    141.8766   9.4381615979e+01   9.6194298593e+00    0.3931979    0.2825618  15.31  0.001759914    1.894    0.472
       143  -9.5640     49.9855    141.6685   1.3305856187e+02   4.0676770020e+01    0.1892121    0.1100891  -3.51 0.0007049846    4.449    0.775
       144 -10.4672    236.2060    138.6053   8.9264169713e+01   5.1810906747e+00    0.2578323    0.2135963 -63.23 0.0005608635    1.372    0.271
       145 -11.1290     57.8055    138.7052   1.3057578908e+02   4.0431180048e+01    0.2700472    0.2054092  78.87 0.0005062011    1.408    0.290
       146  -9.2978     16.6633    139.7039   1.4100731672e+02   4.4410169626e+01    0.1185675   0.07640716 -47.53 0.0003215188    1.651    0.394
       147 -10.2416     21.8621    136.1136   1.3928971464e+02   4.4790736112e+01    0.1892786    0.1409853  86.38 0.0007731962    1.280    0.218
       148  -9.9472    138.3299    135.2634   1.0910355132e+02   2.7480158449e+01    0.2880212    0.1894564  33.87 0.0007913806    1.735    0.424
       149  -9.7253     40.9057    135.5537   1.3441618246e+02   4.3109021035e+01    0.1648367    0.1285887  32.64  0.001011499    1.547    0.354
       150 -12.1984     36.5812    130.7629   1.3478998691e+02   4.4660853080e+01    0.4006092     0.287079 -70.19   0.00198402    1.158    0.137
       151 -10.4126    249.5319    130.1270   8.5140638360e+01   3.9966136810e+00     0.269309    0.2181556 -69.37  0.001206648    1.465    0.318
       152  -9.4729    123.6821    131.2955   1.1184171273e+02   3.1407097150e+01    0.1553092    0.1197159  84.55 0.0003144235    1.609    0.378
       153  -9.5871     29.0451    130.6956   1.3672867742e+02   4.5394309662e+01    0.1605797    0.1393087 -65.90            0    1.114    0.102
       154  -9.9008     73.9495    129.4762   1.2460355103e+02   4.0443612259e+01    0.2204191    0.1711332 -59.34 0.0005883219    1.152    0.132
       155  -9.7127    126.6740    129.3200   1.1061446426e+02   3.1253536520e+01     0.159259    0.1210749  86.95 0.0007046732    1.681    0.405
       156  -9.4438    242.9965    128.4678   8.5833154332e+01   5.6101006593e+00    0.1950808    0.1430345  52.58 0.0005069581    1.496    0.332
       157  -9.4734     60.0620    128.5281   1.2817142620e+02   4.2538569017e+01     0.173526    0.1338895  38.90 0.0003841257    1.467    0.318
       158  -9.6436      2.0275    126.4823   1.4297419193e+02   4.8431311480e+01    0.2134414    0.1189135  52.85 0.0009055574    2.131    0.531
       159 -10.3835    219.5302    124.5390   8.8990840652e+01   1.1353368415e+01    0.2559783    0.2414275 -44.85 0.0005536336    1.010    0.010
       160 -11.5635     10.5073    122.4573   1.4033920232e+02   4.8754420603e+01     0.357138    0.2683677 -23.09  0.002154142    1.756    0.431
       161 -11.2617     17.8116    116.8301   1.3762486630e+02   4.9476967523e+01    0.3547676    0.2565081 -49.96  0.002323155    1.288    0.223
       162  -9.3476     20.5385    121.5447   1.3759908239e+02   4.8204452169e+01    0.1225781   0.09642442 -67.91 0.0001146496    1.007    0.007
       163  -9.6787    221.7153    119.9733   8.7518725611e+01   1.1724655061e+01    0.2184757    0.1845849 -39.33 0.0005807272    1.129    0.114
       164 -12.4995     16.9899    109.0389   1.3664497370e+02   5.1273504018e+01    0.4729452    0.3407937  79.42 0.0002887249    1.605    0.377
       165  -9.8618     54.4515    117.5331   1.2761652179e+02   4.5779123143e+01    0.2020259    0.1331466  11.04  0.001020759    2.173    0.540
       166 -10.0467    179.4362    116.2994   9.4893671860e+01   2.2257666903e+01    0.2798283    0.2127461  51.15 0.0005933826    1.324    0.245
       167  -9.2466     86.3054    116.6390   1.1844072112e+02   4.1559972102e+01    0.1473508    0.1101911  88.29 0.0007039015    1.731    0.422
       168  -9.0141     96.2931    115.7085   1.1543773584e+02   4.0112771193e+01    0.1427531    0.1133824  86.76            0    1.552    0.356
       169  -9.3841     63.3319    114.7050   1.2452126680e+02   4.5328418214e+01    0.1417716    0.1225384 -50.90 0.0004278652    1.063    0.059
       170 -10.8486     66.8188    113.0079   1.2315889937e+02   4.5257248294e+01    0.2096208    0.1993894  40.29  0.000261333    1.186    0.157
       171 -11.3852     35.9740    110.9096   1.3160002447e+02   4.9259990511e+01       0.5393    0.2512911 -60.08  0.001743762    1.723    0.420
       172  -9.5529      5.5473    113.5096   1.4042501359e+02   5.1066812844e+01    0.1731555   0.09482002  41.76 0.0008649871    2.233    0.552
       173  -8.7992    212.5154    112.4958   8.7384316888e+01   1.5221678277e+01     0.150609    0.1450077 -49.27 0.0008103474    1.025    0.025
       174  -9.6006     42.5175    110.4692   1.2964066151e+02   4.8712119501e+01    0.1293874    0.1082922 -60.15 0.0002986457    1.009    0.009
       175  -9.6040    167.4777    109.0096   9.5632177681e+01   2.6580314550e+01    0.2396721    0.1548515 -41.62 0.0005852015    1.545    0.353
       176 -10.4903    241.7832    108.0505   8.1386007334e+01   9.4913265836e+00    0.2825114    0.1793996  89.55  0.001171428    2.559    0.609
       177  -9.4287    117.5446    108.2999   1.0776324444e+02   3.7807828461e+01    0.2228911    0.1398201 -35.41 0.0005610186    1.735    0.423
       178 -11.9886     62.0492    107.0669   1.2323719061e+02   4.7231618841e+01    0.3045875    0.2019057 -48.49 0.0003927973    1.332    0.249
       179 -11.0309     23.2945    107.0068   1.3452791453e+02   5.1241350843e+01      0.22525    0.1822548 -62.20 0.0004460569    1.019    0.018
       180  -9.5150    133.4650    107.5092   1.0338420454e+02   3.4662317377e+01    0.1534149    0.1499135 -21.76 9.429413e-05    1.050    0.048
       181  -8.9896    102.6881    107.2582   1.1156087180e+02   4.0877532810e+01    0.1414073    0.1151931  81.58 0.0002290882    1.529    0.346
       182 -10.1769     76.3536    107.2099   1.1907948602e+02   4.5231782180e+01    0.2007535    0.1228755 -61.48 0.0003275591    1.651    0.394
       183 -10.3293      6.3764    106.2085   1.3915942013e+02   5.2613406816e+01    0.2551702    0.1319783 -58.63 0.0009478786    1.444    0.307
       184 -10.8306      2.8574    105.1293   1.3997326108e+02   5.3059636920e+01    0.2420112    0.1631897 -77.78  0.000423422    1.289    0.224
       185  -9.9215    223.3258    103.9991   8.3429044615e+01   1.4310455157e+01    0.2149848    0.1785486 -45.81 0.0005305891    1.133    0.118
       186  -9.5736     93.3330    104.2904   1.1344607227e+02   4.3184342527e+01    0.1448649    0.1116813 -13.39 0.0006860425    1.630    0.387
       187 -11.2977     70.5562    102.4137   1.1964264136e+02   4.7135737731e+01    0.3643196    0.2632468  12.58  0.001201614    1.766    0.434
       188 -10.8409    247.9595    102.2985   7.9139104829e+01   9.1772400765e+00    0.1946579    0.1847145 -76.91 0.0007476515    1.091    0.083
       189 -10.1776     36.5108    101.6565   1.2967253632e+02   5.1278328087e+01    0.2736059    0.1548577  24.91  0.001471268    2.156    0.536
       190  -9.7131    120.0256    101.4738   1.0527886179e+02   3.8780740321e+01    0.2134182    0.1332536  19.81  0.000809686    2.515    0.602
       191 -10.5635     27.6470    100.8828   1.3215962366e+02   5.2239551049e+01    0.1820611    0.1705582  49.73 0.0006708775    1.303    0.233
       192 -11.0832      3.5726    100.6580   1.3911174897e+02   5.3984571741e+01    0.2404146    0.2058534 -86.23   0.00101005    1.236    0.191
       193 -11.3539     50.5078     99.3009   1.2495668453e+02   5.0351911495e+01    0.2226193    0.1983489 -60.45 0.0003126723    1.089    0.082
       194 -10.1850     65.4157     98.2973   1.2019463953e+02   4.8745319001e+01    0.2287797    0.1630175   0.58 0.0006085602    1.886    0.470
       195 -10.2731     62.0356     98.4649   1.2126060428e+02   4.9149624408e+01    0.2572128    0.1865767  -4.53  0.001340492    1.811    0.448
       196 -11.4885     20.6865     95.3744   1.3320782482e+02   5.3994648979e+01    0.5762922   0.09971143 -60.24  0.002029373    3.706    0.730
       197 -10.6193     38.6191     96.2261   1.2791613827e+02   5.2271350705e+01    0.2274088    0.1950456  -9.54  0.001088004    1.340    0.254
       198 -10.2041     92.5518     95.9565   1.1148707272e+02   4.5130021840e+01    0.2271556    0.1323723 -45.96  0.001027075    1.602    0.376
       199  -9.9106      4.3887     85.8095   1.3643595089e+02   5.7094930088e+01    0.2677791    0.1670234   2.30  0.001713956    2.112    0.526
       200 -11.0286      8.3288     94.9041   1.3681650193e+02   5.4937788792e+01     0.271119    0.1598376 -54.55 0.0003079437    1.298    0.230
       201 -10.9007     10.8874     91.0462   1.3538112691e+02   5.5602093867e+01    0.2595378    0.1665989  10.38  0.001300616    2.026    0.507
       202 -10.6474      7.0882     88.8433   1.3614495909e+02   5.6302053063e+01     0.184125    0.1501684 -81.17 0.0003397923    1.287    0.223
       203 -10.3366      1.4938     94.0726   1.3868855437e+02   5.5510664020e+01    0.2487887   0.07177093 -61.41  0.001161094    2.285    0.562
       204 -10.0983    227.1518     93.1957   8.0211396417e+01   1.5365037569e+01    0.2020018    0.1999323 -32.64 0.0003765257    1.127    0.112
       205 -10.6494    109.4736     92.6843   1.0574050571e+02   4.2729760668e+01     0.326997    0.1410191 -44.69  0.001230234    2.239    0.553
       206 -10.1985     57.7460     92.9860   1.2125888757e+02   5.0881609334e+01    0.1799172    0.1003486 -52.99 0.0005062666    1.557    0.358
       207  -9.4524    171.3298     91.3270   9.0064527087e+01   2.9146773922e+01    0.1594622    0.1242406  14.86 0.0007050995    1.707    0.414
       208 -10.7267     96.3194     90.3389   1.0884371166e+02   4.5659024654e+01    0.3749999     0.218659  -7.89  0.001171084    4.510    0.778
       209  -9.3820     73.0326     88.7456   1.1542394497e+02   4.9745167699e+01    0.1542737    0.1181072  33.28 0.0002688133    1.432    0.302
       210 -10.1393     49.4399     88.0039   1.2265771988e+02   5.2920904147e+01     0.303276    0.1626759 -61.55  0.001476438    1.872    0.466
       211 -10.4471     46.1227     83.8284   1.2269777626e+02   5.4164429907e+01    0.2498115    0.2111266 -60.74  0.000927662    1.201    0.167
       212  -9.7416     46.0000     79.9871   1.2177078121e+02   5.4975896648e+01    0.1920281    0.1257432 -34.51 0.0005177844    1.436    0.304
       213 -10.5433    113.0624     86.6713   1.0302276622e+02   4.3248034316e+01    0.3126377    0.1837982  51.46   0.00103557    1.868    0.465
       214  -9.0629    176.2617     86.0266   8.7590964718e+01   2.8931348289e+01    0.1851535    0.1339003 -38.52 0.0002962962    1.402    0.287
       215 -10.8370     67.1431     85.0662   1.1627784358e+02   5.1344587858e+01    0.2143118    0.1646278 -29.20 0.0006525339    1.273    0.214
       216 -11.1799    118.2790     82.8646   1.0047626459e+02   4.2938196064e+01    0.3948934    0.2923159 -24.09  0.001485126    1.491    0.329
       217 -12.4919     72.1846     78.9875   1.1299008157e+02   5.1877012194e+01    0.4353919      0.34647 -28.94 0.0005093002    1.181    0.153
       218 -11.1227     77.8689     72.0611   1.0913811986e+02   5.2382863209e+01    0.3409675    0.2850202  46.22 0.0007234918    1.394    0.282
       219 -11.5844     23.6600     79.7882   1.2908866399e+02   5.7074471204e+01    0.3695737    0.2206324 -68.48  0.001934336    1.709    0.415
       220 -11.5159     19.7301     81.7833   1.3080249101e+02   5.6954899405e+01    0.2897454    0.2022443 -80.90 0.0001866097    1.701    0.412
       221 -10.7976     15.7252     81.6574   1.3206927888e+02   5.7262684435e+01     0.340838    0.1268955 -48.23  0.001691077    2.041    0.510
       222  -9.5263    133.0055     82.0364   9.6362159208e+01   3.9931522108e+01    0.1826814    0.1788633 -19.28  0.001002016    1.019    0.019
       223 -10.9942     85.2577     80.9173   1.0946337907e+02   4.9468674204e+01    0.3122519    0.2197729 -40.28 0.0008999008    1.319    0.242
       224  -9.9102    126.0466     80.4786   9.7696538124e+01   4.1753640038e+01    0.2145058    0.1458859  47.43 1.338309e-05    1.475    0.322
       225 -10.2179      2.4155     71.7742   1.3442189527e+02   6.0082969118e+01    0.2310211    0.1273869 -47.97   0.00146166    1.366    0.268
       226 -12.0704      3.3534     77.2376   1.3518494632e+02   5.8925393826e+01    0.3886212     0.298245 -60.52 0.0004878006    1.095    0.087
       227 -10.9495      8.1731     73.5947   1.3287774221e+02   5.9396470304e+01    0.2841464    0.2090479   0.13  0.002001479    1.636    0.389
       228 -11.2395    150.9199     78.5406   9.0998807749e+01   3.6451968194e+01    0.2832341    0.2579127 -77.11 0.0004258659    1.183    0.155
       229 -12.4749     61.9242     72.8756   1.1455819617e+02   5.4511144236e+01    0.6219893    0.4046376 -25.30  0.001913212    1.635    0.389
       230 -10.3214     54.6856     72.2905   1.1680236001e+02   5.5539837863e+01     0.212197    0.1836452 -79.01  0.000232985    1.526    0.345
       231  -9.3845     12.2623     77.9760   1.3243623277e+02   5.8252124068e+01    0.1504538   0.08049371 -60.11 0.0006109886    1.471    0.320
       232  -9.9237    121.5885     76.2139   9.7594905066e+01   4.3508848613e+01    0.2078649    0.1393628 -28.10 0.0007787011    1.619    0.382
       233 -11.5386    108.6530     75.2087   1.0084140546e+02   4.6346031199e+01    0.4827694    0.3136185  -5.20  0.001646481    2.436    0.589
       234 -10.4160     40.5792     73.0747   1.2178782292e+02   5.6944424838e+01    0.3018033    0.2091651 -62.65 0.0009347519    1.541    0.351
       235 -10.6864     37.0119     67.9029   1.2163121209e+02   5.8320795827e+01    0.3448251    0.2013208 -39.26  0.001294846    1.452    0.311
       236  -9.6015    102.3467     73.2759   1.0205431236e+02   4.7926781028e+01    0.1447698    0.1081683   5.68 0.0003971762    1.630    0.387
       237 -11.7362     48.7303     70.6027   1.1833965561e+02   5.6567561372e+01     0.345275    0.2974181 -10.32  0.001347293    1.164    0.141
       238 -10.2878     50.7241     67.6744   1.1682275950e+02   5.6910456677e+01    0.2447338    0.1748638 -30.06  0.000676987    1.268    0.212
       239 -10.5924    152.3234     72.1577   8.8817977529e+01   3.7254022997e+01    0.2609718    0.2003043  43.79 0.0006810782    1.298    0.230
       240 -10.5202    116.0380     71.4635   9.7636440513e+01   4.5543355916e+01    0.2721835    0.2116612 -35.26 0.0005666061    1.277    0.217
       241  -9.1235     16.6717     72.3020   1.2974038335e+02   5.9116286019e+01    0.1054483   0.08638573  83.18 0.0006057709    1.645    0.392
       242 -10.0467    175.0505     70.8986   8.3669794820e+01   3.1906796429e+01    0.2200594    0.2163071  89.73  0.000430001    1.042    0.041
       243 -11.0259     26.2499     69.3568   1.2575170762e+02   5.8988217314e+01    0.3182033    0.2426808  89.01  0.001970906    1.945    0.486
       244 -11.1392     21.8049     66.0300   1.2646994168e+02   5.9994666273e+01    0.2498519    0.1910545  17.25  0.001342786    1.542    0.352
       245 -10.9319     68.9665     67.2224   1.1054112830e+02   5.4630747754e+01    0.3969588    0.2191152 -37.18  0.001272607    1.677    0.404
       246  -9.6090     71.7266     61.6780   1.0788690442e+02   5.5248235297e+01    0.1867698    0.1234811 -27.78 0.0001622368    1.469    0.319
       247 -10.6782     70.2161     58.7635   1.0744435083e+02   5.5992638841e+01    0.4305537    0.1605746 -35.44  0.001682794    2.801    0.643
       248 -10.5381    159.7071     69.4264   8.6399963291e+01   3.5938431523e+01    0.2921299    0.1468949  60.80  0.001065635    2.120    0.528
       249 -10.5405    130.1238     64.2748   9.1709597712e+01   4.3760842729e+01    0.3106898     0.217231 -44.33 0.0005266814    1.507    0.336
       250 -10.9606     95.9637     66.8368   1.0191701710e+02   5.0294881163e+01    0.4847199    0.3353007  -2.59  0.002325114    1.889    0.471
       251 -11.4322     42.9530     65.7246   1.1895290974e+02   5.8146220027e+01    0.3105177    0.2443859 -61.43  0.001497029    1.451    0.311
       252 -11.4632     31.1517     66.2799   1.2324560638e+02   5.9179273491e+01    0.2605775    0.2023392 -54.67 0.0004500054    1.240    0.193
       253 -10.0992      6.6778     67.8776   1.3216672997e+02   6.0629694798e+01    0.1766333    0.1279529 -30.14 0.0006876921    1.316    0.240
       254 -10.4855    130.4825     68.9999   9.3081357987e+01   4.2870986365e+01     0.382047    0.2599047  16.76  0.001668808    2.029    0.507
       255 -11.0592    105.8315     64.4548   9.8273569953e+01   4.8846598039e+01    0.3718136    0.2236807 -37.22  0.001360915    1.642    0.391
       256 -11.1961      2.4126     63.3451   1.3265305042e+02   6.1754565729e+01    0.4073597    0.2358796 -68.89  0.002522499    1.700    0.412
       257 -11.0869    140.9563     63.8371   8.8944737280e+01   4.1358000781e+01    0.4322853    0.2652706  38.46  0.001063053    1.732    0.423
       258 -10.4410    121.4113     62.7594   9.3466506906e+01   4.5927759243e+01    0.3629554    0.2195501 -18.77  0.001548053    2.147    0.534
       259 -11.2194     83.6185     62.4223   1.0428891294e+02   5.3238732423e+01    0.4115295    0.3349868 -66.86  0.001470957    1.694    0.410
       260 -10.5704     86.1387     58.4179   1.0218542821e+02   5.3511733303e+01    0.2773442      0.19419 -33.13 0.0007091818    1.356    0.262
       261 -10.4169     77.1579     65.4125   1.0730599668e+02   5.3740592558e+01    0.2507969    0.1660141  50.31  0.001279673    1.905    0.475
       262 -10.4493    174.0380     63.6018   8.1827576463e+01   3.3365618393e+01      0.31541    0.2349382 -57.36  0.001352616    1.450    0.310
       263  -9.3972    165.6863     64.6946   8.3787837203e+01   3.5259634067e+01    0.1511806    0.1154865  24.40 0.0002455833    1.620    0.383
       264 -10.1573     51.7579     62.5975   1.1496000570e+02   5.7754546806e+01    0.2432422    0.1624384 -26.01 0.0007329175    1.443    0.307
       265 -11.3773     10.8431     62.5439   1.2949485413e+02   6.1430743230e+01    0.2226716    0.1661678 -39.61 0.0004096534    1.086    0.079
       266  -9.6111     56.3018     62.3086   1.1329711489e+02   5.7252659818e+01    0.1299135    0.1136647 -29.52 0.0002277538    1.076    0.071
       267 -11.2134     57.8848     58.6838   1.1161351257e+02   5.7714590683e+01    0.3172459    0.2273874 -35.94  0.001487985    1.218    0.179
       268 -11.2273     27.1949     61.4100   1.2334319467e+02   6.0461437450e+01    0.3192937    0.1890495  13.46   0.00188943    1.990    0.498
       269 -10.5434     33.1419     60.0617   1.2082281500e+02   6.0194886562e+01    0.3129868    0.1920778 -13.03  0.001672401    1.902    0.474
       270  -9.7469     93.0403     61.2321   1.0098895883e+02   5.1814610043e+01    0.1892972    0.1713539   9.97 0.0004390769    1.055    0.052
       271 -10.0733     18.4234     59.8439   1.2609701908e+02   6.1443823689e+01    0.2406141    0.1503855 -73.03  0.001364448    2.178    0.541
       272  -9.4249    184.0455     61.0000   7.9254496276e+01   3.1281555080e+01    0.2407373   0.08120362  59.09 0.0005481098    2.849    0.649
       273 -10.9451     64.6327     59.9982   1.0972044358e+02   5.6572689688e+01     0.275813    0.1832646  33.44  0.000898909    1.610    0.379
       274 -10.2127    137.6773     55.2931   8.7073463049e+01   4.3489989069e+01    0.3459417    0.2089406 -19.78  0.001500772    2.069    0.517
       275 -10.4302    123.0085     56.7338   9.1125596065e+01   4.6567679681e+01     0.334754    0.2260066 -83.89  0.001349168    2.900    0.655
       276 -10.4149    114.0713     57.4479   9.3712804694e+01   4.8357923391e+01    0.3626346    0.1328464  47.89  0.001284054    2.652    0.623
       277  -9.5996     80.9668     57.2189   1.0342220365e+02   5.4584394677e+01    0.1760302    0.1574426   1.47 0.0003040487    1.048    0.045
       278 -10.8817     98.9905     55.8995   9.7452020293e+01   5.1612573531e+01    0.4140676    0.1927729  38.90  0.001251796    2.186    0.543
       279 -12.2673    127.8287     52.1743   8.8445144952e+01   4.6211986877e+01    0.4015524    0.3053244 -24.25 0.0006731548    1.389    0.280
       280 -11.7513     38.1869     51.8230   1.1650465014e+02   6.1219659080e+01     0.573404    0.3255247 -28.92  0.003222929    1.658    0.397
       281 -10.6674     44.9035     51.6847   1.1398823119e+02   6.0526649030e+01    0.2532901    0.1758053  -5.63 0.0006082894    1.516    0.340
       282 -11.2905     46.1292     47.0462   1.1200663029e+02   6.1188970966e+01    0.2483237    0.1679443 -31.69 0.0002644979    1.251    0.200
       283 -11.2082      4.3524     52.7525   1.2946347588e+02   6.3677594600e+01    0.3549189    0.1854517 -24.96  0.002148781    1.950    0.487
       284 -10.7622     87.1267     52.6306   9.9931248184e+01   5.4307172193e+01    0.1964431    0.1629306  47.30  0.001146851    1.375    0.273
       285 -11.0302     13.0069     50.1155   1.2549934650e+02   6.3640754246e+01    0.3739173    0.1575209 -43.73  0.001945033    1.767    0.434
       286 -12.1784      9.4731     45.5234   1.2557724392e+02   6.4701991066e+01    0.4433655    0.2886299 -24.14  0.001400741    1.385    0.278
       287  -9.9856      7.0010     40.9721   1.2524593389e+02   6.5662661001e+01    0.2320194    0.1020364 -45.12  0.000740705    1.643    0.391
       288  -9.8127    157.7502     52.0661   8.1713144095e+01   3.9183915150e+01    0.1946749    0.1875992  21.81 0.0003562318    1.098    0.089
       289 -10.9985     51.6253     47.7875   1.1024730205e+02   6.0407308171e+01    0.3815291     0.154341 -49.29  0.001678438    2.694    0.629
       290 -11.0924    134.8211     49.5968   8.5944287341e+01   4.5009924773e+01      0.37704    0.2755674 -72.58  0.001316552    1.946    0.486
       291 -10.8443    114.8401     49.2252   9.0792735332e+01   4.9480417934e+01    0.3510141    0.2386646 -17.81  0.001749413    1.645    0.392
       292 -10.8539     73.7932     51.9427   1.0397658512e+02   5.6620358914e+01    0.3789421    0.2990919  24.48   0.00161913    1.260    0.206
       293 -11.5754    143.6058     46.5157   8.2995528383e+01   4.3401641621e+01    0.4560637    0.3072261  49.30   0.00166008    1.381    0.276
       294 -10.8449    137.9625     43.6273   8.3330045692e+01   4.5134212580e+01    0.4005414    0.2620784  82.22 0.0009019083    2.237    0.553
       295 -11.1912    101.7493     47.7924   9.3907154467e+01   5.2357428344e+01    0.4208404    0.2884788  30.82  0.001545498    1.457    0.314
       296 -10.4665    157.7011     45.4973   7.9769849208e+01   4.0144375314e+01    0.2552159    0.1317553 -31.60  0.001084624    2.085    0.520
       297 -10.3191     22.8676     46.2121   1.2056481360e+02   6.3616027243e+01    0.1572998     0.129183 -36.52 0.0004663611    1.136    0.120
       298  -9.4913    233.3577     45.2349   6.8049438786e+01   2.1600188046e+01    0.1812878    0.1126828 -47.86 0.0004037519    1.487    0.328
       299 -10.6812    122.9060     43.8464   8.6938226924e+01   4.8522250384e+01    0.3512644    0.3087017   1.62  0.001588386    1.162    0.139
       300  -9.7187     86.0549     45.1239   9.7658271559e+01   5.5674740114e+01    0.2246626    0.1407399  33.22 0.0008214411    1.574    0.365
       301 -10.3945    163.0328     42.5026   7.7864306318e+01   3.9247078053e+01    0.2090049    0.1929484 -38.86 0.0005006247    1.164    0.141
       302 -10.6813     64.1481     41.4659   1.0356839057e+02   5.9747981608e+01    0.2477384    0.1771765 -29.44 0.0009775775    1.269    0.212
       303 -10.9212     70.1526     36.7654   9.9785545939e+01   5.9548360953e+01    0.5221341     0.257701 -13.72  0.002066483    3.413    0.707
       304  -9.6723     56.5247     42.0407   1.0647260381e+02   6.0718555856e+01    0.1654462     0.105191 -58.82  0.000809756    2.690    0.628
       305  -9.3577     52.2902     42.3117   1.0810426426e+02   6.1225541267e+01    0.1251393   0.08160794 -12.34 0.0002049303    1.585    0.369
       306 -10.0944     23.9951     41.5135   1.1864132803e+02   6.4339159711e+01    0.1841173    0.1555456 -11.98  0.001373677    1.173    0.148
       307 -10.3377    226.3811     40.3303   6.7753544476e+01   2.3926541984e+01    0.2509958    0.2017914 -75.87 0.0004313593    1.122    0.109
       308 -11.6065     95.6998     39.2356   9.2657564150e+01   5.4767644486e+01    0.4275214    0.2972885 -21.27  0.002351508    1.452    0.311
       309 -10.5331    159.1286     39.2784   7.7646522100e+01   4.0640939183e+01    0.2429807    0.2004495 -43.05 0.0002599944    1.298    0.230
       310 -10.8483     88.8281     38.6224   9.4480314840e+01   5.6130804847e+01     0.313012    0.2545093 -78.78 0.0008905425    2.080    0.519
       311 -10.1729     43.9673     39.3648   1.1015470441e+02   6.2704598447e+01    0.2712308    0.1562685 -43.90  0.001036605    1.666    0.400
       312 -10.5430    119.6873     39.0410   8.6128910135e+01   4.9886536764e+01    0.1894123    0.1684585  -5.68 0.0004463938    1.143    0.125
       313 -11.8178     82.3420     36.4588   9.5695498451e+01   5.7584715782e+01      0.33966    0.2677484   0.75  0.001408685    1.192    0.161
       314 -10.1677     19.4018     37.9691   1.1932153211e+02   6.5315460653e+01    0.1913241    0.1372668  -8.76 0.0005014653    1.319    0.242
       315 -11.3454     24.6688     35.6701   1.1642261722e+02   6.5258415670e+01    0.2461607    0.2137843  18.25 0.0009466253    1.429    0.300
       316 -10.7397      2.1192     37.6728   1.2625443486e+02   6.6521052003e+01    0.2502801    0.1283214 -26.78 0.0006816784    1.774    0.436
       317 -10.4494      1.4519     31.7836   1.2475935700e+02   6.7563693134e+01    0.1497827    0.1034466 -42.66  0.001107681    1.142    0.124
       318 -11.9132    224.7677    247.0915   1.1272155773e+02  -1.0204894761e+01    0.5308087    0.2754954 -20.56  0.002479436    2.574    0.612
       319 -10.5480      9.0120     33.2849   1.2206354326e+02   6.6852488578e+01     0.284836    0.1349618 -47.84  0.001721292    1.662    0.398
       320 -10.8488      5.5215     32.0467   1.2312843221e+02   6.7281062159e+01    0.3622132    0.1750544 -36.41  0.001706444    1.571    0.364
       321 -10.1268    103.5719     36.8385   8.9578391816e+01   5.3556149337e+01    0.3486241    0.1634868  43.25  0.001563944    1.985    0.496
       322 -10.4594    106.6157     34.2575   8.7842826837e+01   5.3278297332e+01    0.2959698    0.2416525 -60.80  0.001279063    1.668    0.401
       323  -9.6745    142.1461     36.1526   8.0061243828e+01   4.5145746448e+01    0.1845339     0.161219 -77.42 0.0004018268    1.318    0.241
       324  -9.7457     56.5559     35.9686   1.0424659474e+02   6.1649843318e+01    0.1849595    0.1058382 -34.70  0.001026773    1.591    0.372
       325 -10.5696     56.0909     31.3052   1.0265478011e+02   6.2394927056e+01    0.3692163    0.1656412 -24.24  0.001689301    2.558    0.609
       326 -10.7654    111.1441     33.9749   8.6554841042e+01   5.2375904556e+01    0.4163466    0.2306364 -23.77 0.0008331988    1.965    0.491
       327 -10.6542     77.0153     33.5159   9.6302004185e+01   5.8898232732e+01    0.2643898     0.163845  23.09 0.0008798218    1.670    0.401
       328 -10.3643     78.4965     29.9907   9.4495435416e+01   5.9120418674e+01    0.1757076    0.1463354  -5.11 0.0003345809    1.080    0.074
       329 -10.2855     31.9639     33.9413   1.1288301857e+02   6.4854608189e+01    0.2274038    0.1419497  16.15  0.001141002    1.660    0.397
       330 -10.7855     13.7716     32.7453   1.1990241224e+02   6.6611898725e+01    0.2949065    0.1701872 -45.22  0.001925339    1.428    0.300
       331 -10.6250    145.1996     31.7169   7.8047370829e+01   4.4973549358e+01    0.2213728    0.2072629  35.37 0.0002938087    1.074    0.069
       332  -9.3629    235.5976     40.4925   6.6713765612e+01   2.1747229026e+01    0.1325129    0.1164864 -74.39  0.000297227    1.054    0.051
       333  -9.8796     18.2121     30.9007   1.1742117323e+02   6.6572004710e+01    0.1904366    0.1498415 -55.81 0.0006448049    1.674    0.402
       334 -10.5176     50.1651     28.4483   1.0374169691e+02   6.3592150779e+01     0.538443    0.1579128 -34.57   0.00218277    3.262    0.693
       335 -10.9737     54.3074     23.3676   1.0019372836e+02   6.3728337983e+01    0.3725033    0.1990356  33.83  0.001897842    1.826    0.452
       336 -10.5894    124.8638     27.9241   8.1151132280e+01   5.0135331365e+01     0.214081    0.1707098  44.77 0.0002986942    1.122    0.109
       337  -9.3964    101.2588     28.6589   8.7283986721e+01   5.5063543654e+01    0.1195162    0.1018481 -58.85 0.0003289817    1.586    0.370
       338 -11.0690     70.9125     26.1401   9.5482592101e+01   6.0876791622e+01    0.4026848    0.2448464  21.56  0.002224827    1.680    0.405
       339  -9.9628    172.7268     27.5429   7.1901742844e+01   3.8751596397e+01     0.192449    0.1245235  78.93 0.0009361079    1.588    0.370
       340  -9.6567    179.8458     25.8120   7.0329539394e+01   3.7190532562e+01    0.1878074    0.1479746 -78.97 0.0003045834    1.304    0.233
       341  -9.9517    148.9523     27.0000   7.5859277698e+01   4.4634381020e+01    0.2310518   0.07144096  60.82 0.0006689097    2.909    0.656
       342  -9.3005     90.5335     26.5538   8.9524839629e+01   5.7397082314e+01    0.1270086    0.1113071  17.15    5.283e-05    1.042    0.040
       343 -11.5902     60.9639     23.7832   9.7962183886e+01   6.2719445563e+01    0.3499659    0.2228068 -45.31  0.001983066    2.100    0.524
       344 -11.0554     65.7116     21.3798   9.5351152342e+01   6.2298222438e+01    0.2673621    0.1826013  19.25 0.0008008573    1.349    0.258
       345 -10.1468    113.1189     25.1141   8.2957347309e+01   5.3028004383e+01    0.1950979    0.1741964  38.83 0.0005660495    1.059    0.056
       346 -10.3097    100.0572     22.1289   8.5223382825e+01   5.6065265812e+01    0.2095015    0.1884611 -26.50 0.0006222581    1.265    0.209
       347 -12.3730    232.9698    246.4705   1.1114740462e+02  -1.1400240108e+01     0.427251    0.3870898  66.15  0.002961189    1.714    0.417
       348 -10.2042    137.1414    247.3829   1.2908645873e+02   4.5368639104e+00    0.1848922    0.1739559 -46.72 0.0007121255    1.356    0.263
       349  -9.6587     33.0480     16.9993   1.0588554670e+02   6.7212807079e+01    0.1593781    0.1202028  -8.30 0.0005025491    1.019    0.019
       350 -10.9986      6.1525    245.2152   1.5145681401e+02   2.3317331648e+01    0.3032336    0.1434728  78.18  0.001429911    1.663    0.399
       351 -10.0901    124.1689     21.8135   7.9248136302e+01   5.0977433266e+01    0.1835642     0.134856  33.07 0.0002390678    1.312    0.238
       352 -10.6779      4.0323     20.7120   1.1993907334e+02   6.9195522476e+01    0.3152948    0.1355215 -38.28  0.001919867    1.710    0.415
       353  -9.6847    137.2003     20.3759   7.6049350313e+01   4.8151246541e+01    0.1849678    0.1196027  70.75 0.0001045264    1.621    0.383
       354 -10.5956    107.7941     18.6301   8.1962992742e+01   5.4861068304e+01    0.2994773    0.2047429   2.69  0.001653057    1.642    0.391
       355 -10.0511    104.4694     18.4839   8.2741409844e+01   5.5565395721e+01    0.2480069    0.1491705  18.56 0.0007920468    1.947    0.486
       356  -8.9304     45.5080     20.5198   1.0235509075e+02   6.5270824550e+01    0.1179842   0.09112975  -4.88 0.0008102012    1.023    0.022
       357 -11.6171      8.5311    241.7594   1.5091259719e+02   2.3706347257e+01    0.4022428    0.1751009  74.57  0.002410808    1.924    0.480
       358  -9.4373    160.9472    250.0000   1.2497512266e+02   3.5162526633e-02    0.2096786   0.05992274  42.66 0.0005186504    2.862    0.651
       359  -9.8263    115.3880    244.5181   1.3279697823e+02   8.6773569543e+00    0.1825228     0.117604 -63.68  0.001058633    1.755    0.430
       360 -10.3042    110.0471    243.3223   1.3365099931e+02   9.7647541855e+00    0.2417058    0.1516484  88.40   0.00131617    1.926    0.481
       361 -10.0044     82.0036     16.4859   8.8177743489e+01   6.0117219333e+01    0.1774881    0.1453054   2.44 4.126329e-05    1.111    0.100
       362 -10.3421     72.0383    243.9429   1.4058980673e+02   1.5468707804e+01    0.1858123    0.1438409  69.59 0.0007363076    1.040    0.038
       363 -10.1904     10.3246     15.7997   1.1526305495e+02   6.9491392519e+01    0.2353165    0.1235524  -0.86  0.001447598    2.076    0.518
       364 -11.9618    155.9500    241.5389   1.2474444550e+02   2.2649510072e+00    0.3602716    0.2226586  33.19  0.001226265    1.630    0.387
       365  -9.2934    123.9911     14.7590   7.6902288058e+01   5.1742931800e+01    0.1702349   0.09818503  57.00 0.0003938518    1.530    0.347
       366 -10.0439     99.7704     14.1366   8.2339851029e+01   5.6965818705e+01    0.1768315    0.1656937  17.28 0.0009587937    1.152    0.132
       367 -11.4483     19.3756    238.2400   1.4901107467e+02   2.3206452168e+01    0.4132931    0.2472751  44.43  0.002823921    1.725    0.420
       368  -9.4634    175.5068     12.4224   6.7320024978e+01   3.9732353019e+01     0.134093    0.1141195  70.73  0.000127319    1.028    0.027
       369  -9.9274     88.6444    241.1784   1.3735459543e+02   1.3534360003e+01    0.1571614    0.1045982 -58.36 0.0008064167    1.777    0.437
       370 -10.5970    174.4761    238.4856   1.2074762517e+02  -4.9736821045e-01    0.4471558    0.2532382  22.73  0.002027251    2.506    0.601
       371 -10.9958    177.5548    234.9388   1.1961010099e+02  -4.7337124813e-01    0.2860817    0.2283291   5.85  0.001239548    1.509    0.337
       372 -10.7801    147.4509    244.2999   1.2674213896e+02   3.2853903870e+00    0.2438883   0.09738942  43.50  0.001082538    2.074    0.518
       373 -11.5319     73.9760    238.3461   1.3972822575e+02   1.6247430161e+01    0.5393911    0.3059085  53.90  0.003167053    1.452    0.311
       374  -9.4040     50.2921    240.3302   1.4404789048e+02   1.9111815785e+01   0.09722801   0.08582298 -64.56 0.0004507309    1.628    0.386
       375  -9.6604    195.2834    238.5859   1.1679764969e+02  -4.1461941948e+00    0.1901334    0.1043001  33.26 0.0009577056    1.671    0.402
       376 -10.3471     12.0369    238.0741   1.5016356918e+02   2.4026609142e+01    0.1706554    0.1112663  76.68 0.0007289416    1.070    0.065
       377 -10.7542    160.0730    235.7728   1.2312073747e+02   2.5008014209e+00    0.2401353    0.1634907  30.79 0.0008952718    1.518    0.341
       378 -10.7113     73.7216    232.9997   1.3926014923e+02   1.7315526389e+01    0.3086366    0.1519374  48.29  0.001489562    1.732    0.423
       379 -10.3619    166.9857    233.8202   1.2148617597e+02   1.5950126326e+00    0.2010798    0.1961611 -32.60 0.0007806157    1.202    0.168
       380 -11.2672    153.4106    233.6310   1.2410358674e+02   4.0535078549e+00    0.2363086    0.2014244 -14.85 0.0007644772    1.553    0.356
       381  -9.4281     53.6713    234.6932   1.4300563539e+02   1.9753742562e+01   0.09813223   0.09082343 -58.13 0.0007037937    1.657    0.396
       382  -9.9511     79.5698    231.3756   1.3801944423e+02   1.6776234408e+01    0.2183236    0.1310642  45.47 0.0006253119    1.536    0.349
       383  -9.3152     12.8030    231.3751   1.4964872846e+02   2.5217444203e+01    0.1253532   0.09611128  42.82 0.0009441927    1.676    0.403
       384  -9.4478    235.8359    230.4241   1.0789761403e+02  -9.7363791178e+00    0.1687883     0.100675  27.10 0.0004246341    1.543    0.352
       385  -9.7666    169.8129    229.1839   1.2021831466e+02   1.8657429165e+00    0.1821204    0.1475673  21.35  0.001067492    1.335    0.251
       386 -10.0162     86.1851    233.5217   1.3701242285e+02   1.5364569912e+01    0.2346937    0.1263791  85.61  0.001140661    2.321    0.569
       387 -10.3808    190.4540    226.5916   1.1576359844e+02  -1.4327961520e+00     0.251715    0.2016179 -39.37  0.000847857    1.419    0.295
       388 -10.1456    178.3046    228.3341   1.1841859324e+02   4.7180444930e-01    0.1313341   0.09876971   9.60 0.0007038468    1.664    0.399
       389 -10.8986    116.1025    226.5714   1.3045698361e+02   1.1885331499e+01    0.3024561    0.1477512 -63.70  0.001416862    2.334    0.572
       390 -10.3991    144.1664    226.6859   1.2491263538e+02   6.9450646401e+00     0.214337    0.1451675  56.79 0.0004780243    1.388    0.280
       391 -10.2745    129.8605    226.7326   1.2776029539e+02   9.4783386452e+00    0.4028449    0.1702148  55.76  0.001619269    2.614    0.618
