#   1 NUMBER                 Running object number                                     
#   2 MAG_AUTO               Kron-like elliptical aperture magnitude                    [mag]
#   3 X_IMAGE                Object position along x                                    [pixel]
#   4 Y_IMAGE                Object position along y                                    [pixel]
#   5 X_WORLD                Barycenter position along world x axis                     [deg]
#   6 Y_WORLD                Barycenter position along world y axis                     [deg]
#   7 A_WORLD                Profile RMS along major axis (world units)                 [deg]
#   8 B_WORLD                Profile RMS along minor axis (world units)                 [deg]
#   9 THETA_WORLD            Position angle (CCW/world-x)                               [deg]
#  10 FWHM_WORLD             FWHM assuming a gaussian core                              [deg]
#  11 ELONGATION             A_IMAGE/B_IMAGE                                           
#  12 ELLIPTICITY            1 - B_IMAGE/A_IMAGE                                       
         1 -13.7257    197.8315     52.9217   1.2019929236e+01   2.8643736153e+01     1.226197    0.9569007  44.66  0.003826567    1.551    0.355
         2 -14.0524    227.2504     24.6229   2.1479622793e+00   2.5779468734e+01     1.410302    0.9656236 -17.05  0.007247731    1.908    0.476
         3 -12.5745     31.5493     15.8081   4.4222888948e+01   7.2063716204e+01     0.400325    0.2655106  16.93  0.002172048    1.529    0.346
         4 -10.2631     53.0000     11.9958   3.0637621814e+01   6.8999328653e+01    0.2051151   0.07191881 -31.75 0.0008056515    2.965    0.663
         5 -11.0534     60.1685      2.3316   2.2120415767e+01   6.8652268995e+01    0.3244479   0.09706136  54.43  0.001244989    2.851    0.649
         6 -10.9077     38.5026      2.4764   3.2055661427e+01   7.2838374985e+01     0.218759    0.1102387  43.79  0.001111692    1.837    0.456
         7 -11.4225     53.0688    243.3312   8.0779369858e+01   1.7102844580e+01    0.2657041    0.1468337  31.43  0.001538229    1.621    0.383
         8 -19.3453     10.2718    157.1424   8.5278891041e+01   4.0449252853e+01     17.91216     4.776176 -83.43    0.0618866    3.698    0.730
         9 -10.4573     88.7923    221.3491   7.1214361821e+01   1.6690490652e+01    0.3240421    0.2053814  24.97  0.001433948    1.628    0.386
        10  -8.7205    194.2671    221.3390   4.8952428894e+01   1.3107650252e+00    0.1221323   0.08050984  -2.58 0.0003673052    1.597    0.374
        11  -9.0558     99.2906    218.3030   6.8508660301e+01   1.5795201174e+01    0.1201161   0.09852049  -3.52 0.0001916026    1.569    0.363
        12 -11.2318     16.5414    249.5110   8.8362477244e+01   1.9941649038e+01    0.1706901    0.1364464  29.28  0.001279373    1.464    0.317
        13  -9.4211     50.7258    199.6750   7.8063174010e+01   2.6238595470e+01    0.3490927    0.1089992 -71.87  0.001344369    3.335    0.700
        14  -9.9861    211.0188    198.7752   4.2150178106e+01   2.2311079217e+00     0.198397    0.1585839 -15.95 0.0005066284    1.133    0.117
        15 -10.2032    193.2603    195.5890   4.4902361637e+01   5.3466231226e+00    0.4897482     0.260547 -61.88  0.001485566    7.093    0.859
        16  -9.1739     58.8365    196.9690   7.5835671197e+01   2.5831505826e+01    0.1733345    0.1245999  75.27 0.0005094808    1.356    0.262
        17  -9.1499     97.2255    238.1432   7.1063585873e+01   1.2406524301e+01    0.1698541    0.1177973  51.66 0.0005859133    1.297    0.229
        18 -10.4047     69.1515    195.0335   7.3086697261e+01   2.4906824248e+01    0.2609064    0.2076623 -73.69  0.001530308    1.330    0.248
        19  -8.4380     46.9272    193.4920   7.8462507410e+01   2.8082037091e+01    0.3472269    0.1474836 -75.85   0.00153188    2.444    0.591
        20 -15.9009     66.2274    141.9979   6.6888873639e+01   3.8143852982e+01     5.779168     3.710576  74.74   0.02572542    1.873    0.466
        21  -9.6454     72.8056    186.9129   7.1251771995e+01   2.6238767203e+01    0.1821111    0.1679162  55.71 0.0002228606    1.079    0.073
        22  -8.6635     78.3561    184.2068   6.9494165383e+01   2.6069066759e+01    0.1282237    0.1042719   8.13 0.0003470416    1.545    0.353
        23 -10.7559     96.5425    179.6534   6.4174091717e+01   2.4347424332e+01    0.5386452    0.2912283 -82.55  0.001570733    2.989    0.665
        24 -10.1679     62.3192    181.1816   7.3312773091e+01   2.8998877510e+01    0.4691272    0.2094611  26.67  0.001540861    2.437    0.590
        25 -11.7638    179.5699    169.1955   4.2761095999e+01   1.2086226538e+01    0.8848991    0.6218404  10.99  0.004481822    1.663    0.399
        26 -10.2361    174.6345    180.1864   4.5867249176e+01   1.0953750001e+01    0.2892354    0.2220679 -24.65 0.0008312293    1.329    0.248
        27 -11.2316    172.2961    176.0683   4.5590029438e+01   1.2099974745e+01     0.382254    0.3682494  -5.03  0.001300988    1.117    0.105
        28  -9.4187     74.0977    179.8312   7.0054212308e+01   2.7694642050e+01    0.2106255    0.1625774  58.27  0.000449969    1.199    0.166
        29 -11.4601    113.5866    172.7944   5.8719249633e+01   2.3077083306e+01    0.3492942    0.2556873  57.80  0.001343213    1.447    0.309
        30 -10.9794    111.1150    167.2984   5.8421246976e+01   2.4738506764e+01    0.4261143     0.295053 -89.46  0.001504982    1.998    0.500
        31 -10.8134    234.1655    168.8031   3.2735358907e+01   3.2992802248e+00    0.1741222    0.1265645  -6.95 0.0003391169    1.313    0.238
        32 -10.7271     50.1744    164.5908   7.4734072603e+01   3.4563127188e+01    0.3150595    0.2168461  32.62  0.001646045    1.461    0.315
        33  -9.5842     91.9026    237.8534   7.2170406033e+01   1.3179004380e+01    0.1666763    0.1341157  36.14  0.001098083    1.099    0.090
        34 -10.1994    231.4548    160.4557   3.1565269083e+01   4.9533836552e+00    0.1256772    0.1059696 -17.22 5.300581e-05    1.029    0.028
        35  -8.5977    117.6453    159.2778   5.5278538271e+01   2.5409335882e+01    0.1546567    0.1115594  65.31 0.0003909771    1.652    0.395
        36 -10.8835     85.8692    149.5401   6.2278536222e+01   3.3227994159e+01    0.3213341    0.2731958  26.84 0.0003337501    1.260    0.207
        37  -9.8416     92.9655    156.4910   6.1457913645e+01   3.0360576953e+01    0.2087058    0.1930559  28.43 0.0002380384    1.144    0.126
        38 -10.9355     90.3850    152.9994   6.1582802620e+01   3.1636768766e+01    0.3626359    0.2621932  71.76 0.0009993777    1.591    0.372
        39 -11.2636    151.6813    236.4300   5.9479571683e+01   5.0462052464e+00    0.2821103     0.211567  47.91  0.001786792    1.456    0.313
        40 -10.8854    134.0000    148.0138   4.8843098840e+01   2.4873370778e+01    0.5461077    0.2295352 -54.72  0.001914069    2.725    0.633
        41 -11.1016    133.6061    143.7993   4.8050708489e+01   2.5884825400e+01    0.7979882    0.2814851 -56.61  0.002330399    3.942    0.746
        42 -12.1633     92.6984    144.6884   5.9414543947e+01   3.3287420135e+01     0.676208     0.593516 -23.32  0.002260448    1.349    0.259
        43 -11.3029    109.0534    145.0883   5.4844988117e+01   3.0282206509e+01    0.4288724    0.3171584 -45.14  0.001406268    1.433    0.302
        44 -10.2766    100.0103    140.9510   5.6572585270e+01   3.2921997727e+01    0.2335822    0.2165888  69.76 0.0004521116    1.059    0.056
        45  -9.4728    128.2212    138.8297   4.8359980647e+01   2.8064963635e+01    0.2282224    0.2055764  80.49 0.0005118145    1.207    0.172
        46  -9.7412    107.9627    136.9893   5.3482854789e+01   3.2419323326e+01    0.2309981    0.2277263  73.66 0.0005589975    1.030    0.029
        47 -11.7758    105.4498    131.5830   5.3040519131e+01   3.4194222055e+01    0.6320162    0.3986746 -39.14  0.001779514    1.821    0.451
        48 -11.7040     92.9802    131.5715   5.6731148006e+01   3.6484364623e+01    0.3399804    0.2969255  77.05 0.0004022996    1.188    0.159
        49  -9.0341    118.6879    132.2925   4.9462081658e+01   3.1460601369e+01    0.1564701    0.1210678  76.43 0.0002633077    1.590    0.371
        50 -10.9072    135.4792    126.5116   4.3666691515e+01   2.9350943622e+01    0.7066114    0.1838712 -52.57  0.001707959    5.257    0.810
        51  -9.5423    163.8072    129.5522   3.7656970158e+01   2.2761714196e+01    0.2021268    0.1438505  58.59 0.0005290059    1.606    0.377
        52 -10.8061    113.2524    125.6697   4.9466451742e+01   3.4095564433e+01    0.3271951    0.2779205  12.59 0.0007933374    1.386    0.279
        53 -10.3952    100.4832    120.8612   5.2090662378e+01   3.7738511865e+01    0.2903745     0.246812   3.93 0.0006343781    1.436    0.304
        54  -9.4757     53.4019    231.6301   7.9925848738e+01   1.9271769958e+01    0.2090804     0.109798 -71.01 0.0008733422    2.116    0.527
        55 -10.0874    108.9293    115.9760   4.8395353289e+01   3.7256585783e+01    0.2297563    0.2273211 -80.76 0.0003298099    1.026    0.026
        56 -12.0055    113.8986    106.5162   4.4522139307e+01   3.8440554524e+01    0.6903878    0.3889247 -62.75  0.002576516    2.280    0.561
        57 -10.3324    134.2958    105.1888   3.8586356568e+01   3.4285649810e+01    0.3741083    0.1393061 -46.72  0.001214364    2.707    0.631
        58 -11.8785    117.9568    102.3729   4.2243547356e+01   3.8512951769e+01    0.4759191    0.3056157 -71.32  0.001840802    2.244    0.554
        59  -9.0885    150.4114    100.2777   3.3336121065e+01   3.1650750417e+01    0.2140601    0.1424901 -53.35 0.0004830811    1.578    0.366
        60 -12.3709     52.4189     93.6903   6.2253705364e+01   5.2518633056e+01    0.5825612    0.4223557  37.67   0.00202053    1.436    0.304
        61  -9.7331     93.1747    100.5133   4.9300386969e+01   4.4063144890e+01    0.2759651    0.2255326  76.27 0.0009474768    1.420    0.296
        62 -11.8008     39.0658     88.5585   6.6469184644e+01   5.5459988170e+01    0.3509753    0.2927209  -6.34  0.001067933    1.363    0.266
        63  -9.2516     37.5987    224.7564   8.2890388305e+01   2.2456184052e+01    0.1509823   0.09735012  76.66 0.0009151041    1.456    0.313
        64 -10.9055    122.6618     84.9822   3.5938800857e+01   4.1224067196e+01    0.3246075    0.2722193 -85.66  0.000665658    1.370    0.270
        65 -11.4542     57.4591     84.5990   5.7956597388e+01   5.4070795047e+01    0.5575287    0.2696275  46.88  0.001762366    2.388    0.581
        66  -9.5248     92.4960     79.9680   4.3556394504e+01   4.8930922127e+01    0.2306764    0.1509075 -48.52 0.0005608913    1.532    0.347
        67 -10.5978     46.5458    229.1189   8.1231315389e+01   2.0570820528e+01    0.2859782      0.13949  36.07  0.001539986    1.674    0.403
        68  -8.9959     97.6008     73.8087   3.9886822789e+01   4.9182606904e+01     0.212696    0.1438262 -57.03 0.0004826702    1.648    0.393
        69  -9.8595     80.8226     73.1134   4.5455808907e+01   5.2765399852e+01    0.2494091    0.2111541  44.23 0.0004947605    1.194    0.162
        70  -9.4487     92.1998     70.1976   4.0475010672e+01   5.1089504598e+01     0.220358    0.2064499  13.63 0.0004922716    1.115    0.103
        71 -12.4314    180.9750     65.1513   1.7692179225e+01   3.0766774190e+01    0.5140066    0.4030119 -40.36 0.0007750643    1.228    0.185
        72 -10.0927     89.2278    250.7025   7.3889626299e+01   1.1296359528e+01    0.1517096   0.08833697  31.04 0.0002244632    1.465    0.317
        73  -9.1846    146.9968     64.6883   2.3798119584e+01   3.9191890453e+01    0.2103992    0.1882775  74.80 0.0003821728    1.095    0.087
        74 -10.3420    250.0000    247.9746   4.3433293321e+01  -8.6548694186e+00    0.2545556   0.04987162 -35.07  0.001053367    4.953    0.798
        75 -12.4285    203.6744     47.7001   9.9678231662e+00   2.8035389831e+01    0.5039563    0.4520771  43.13   0.00146174    1.374    0.272
        76  -9.8268     70.5096     57.1509   4.3837812040e+01   5.8100294457e+01    0.2294533    0.1943136   4.85 0.0005731214    1.284    0.221
        77  -8.8322    136.4742     54.5726   2.2842794473e+01   4.3530913943e+01    0.1508156    0.1411256  86.22 0.0001340329    1.029    0.028
        78 -10.6847     43.3985     51.6669   5.3914097644e+01   6.3646398904e+01    0.4022716    0.1913105  41.62  0.001680554    2.340    0.573
        79  -9.6763     53.1154     44.3918   4.6392707506e+01   6.3682645451e+01     0.219397    0.1799435 -26.77 0.0004763353    1.185    0.156
        80  -9.6088    237.6930    249.3393   4.5584148972e+01  -7.5051213014e+00   0.08799048   0.07843865  15.45 0.0007042316    1.682    0.405
        81 -10.8503     60.3567     21.5380   3.2507056870e+01   6.6275053918e+01    0.2749032    0.2365344  -9.06 0.0009180104    1.147    0.128
        82 -11.4570    147.7244    245.4236   6.1413767275e+01   4.2294360275e+00     0.227561    0.1777024  17.27 0.0006371298    1.151    0.131
        83  -8.9841    189.3370     14.7112   2.8703530138e+00   3.5521726743e+01    0.1426729   0.08314095 -64.88 0.0005542906    1.636    0.389
        84  -9.9701     35.3159    244.3704   8.4453807896e+01   1.8926174698e+01    0.1606389    0.1144536 -34.05 0.0009809863    2.452    0.592
        85  -9.5755     71.5067    223.0283   7.5265646269e+01   1.8693618136e+01    0.1498144    0.1210586 -71.79 0.0003282349    1.414    0.293
        86 -12.0342     36.3069    240.0291   8.4027134134e+01   1.9626820289e+01    0.2094478    0.1642438  79.94  0.001037023    1.259    0.206
