#   1 NUMBER                 Running object number                                     
#   2 MAG_AUTO               Kron-like elliptical aperture magnitude                    [mag]
#   3 X_IMAGE                Object position along x                                    [pixel]
#   4 Y_IMAGE                Object position along y                                    [pixel]
#   5 X_WORLD                Barycenter position along world x axis                     [deg]
#   6 Y_WORLD                Barycenter position along world y axis                     [deg]
#   7 A_WORLD                Profile RMS along major axis (world units)                 [deg]
#   8 B_WORLD                Profile RMS along minor axis (world units)                 [deg]
#   9 THETA_WORLD            Position angle (CCW/world-x)                               [deg]
#  10 FWHM_WORLD             FWHM assuming a gaussian core                              [deg]
#  11 ELONGATION             A_IMAGE/B_IMAGE                                           
#  12 ELLIPTICITY            1 - B_IMAGE/A_IMAGE                                       
         1 -13.6945    171.9811     93.5547   4.3715898134e+01   2.9215195333e+01     2.670891     2.029252   1.73   0.01356576    1.988    0.497
         2 -16.5066    242.8145     84.1810   3.2039981748e+01   1.7765603694e+01      6.05762     5.160265 -29.58   0.03852341    1.380    0.275
         3 -15.4058    242.5336     45.2323   2.5023195815e+01   2.3012440090e+01     3.253759     1.916544 -72.89   0.01960558    1.638    0.389
         4 -10.8795    137.2878     30.6125   3.3586583828e+01   4.6081656469e+01    0.7311134    0.3665435 -12.60  0.002882585    4.035    0.752
         5 -10.6549    203.1816     18.1622   2.2989502842e+01   3.3291461798e+01    0.3712351    0.3240789 -58.72  0.002735717    1.236    0.191
         6 -10.3530    141.6234     16.7677   2.9108243047e+01   4.6559789894e+01    0.6634069    0.2907602 -14.36   0.00260222    4.524    0.779
         7  -9.8842    125.7139     14.7014   3.0880698846e+01   5.0399473200e+01     0.245903    0.2404518 -74.34   0.00168905    1.203    0.169
         8 -11.3292    119.1480      9.7980   3.0462742041e+01   5.2356463582e+01    0.6028779    0.3706394  51.70     0.002507    1.492    0.330
         9  -9.5834    199.8763     14.4478   2.2500066843e+01   3.4329260516e+01    0.3164297    0.2428321 -27.43  0.002009513    1.684    0.406
        10 -10.8611    229.6148      4.4539   1.8657234098e+01   2.9778753506e+01    0.4314014    0.2481125  55.50  0.002850814    2.403    0.584
        11 -10.7912    235.0219      2.5016   1.8031356591e+01   2.9026265945e+01    0.2584452    0.1608151  69.04  0.001366338    1.760    0.432
        12 -10.1412    244.7112      3.1306   1.7654136310e+01   2.7320267744e+01    0.2994767    0.1548421  61.05  0.001848934    2.445    0.591
        13 -10.1074    216.3516      2.2074   1.9006755342e+01   3.2397245967e+01    0.1862513    0.1495912  86.25  0.000531406    1.256    0.204
        14  -8.5069    181.4864      3.4990   2.1662576405e+01   3.9120927261e+01    0.1127523   0.08977389 -84.26 -0.000157194    1.032    0.031
        15  -8.7304    188.5805     14.6368   2.3467314839e+01   3.6578994762e+01    0.2076156    0.1541949 -80.01 0.0005358872    1.108    0.097
        16  -8.9611     97.0150      2.9839   3.2195084963e+01   5.7989962034e+01    0.1952138    0.1365638 -75.06   0.00113788    1.748    0.428
        17  -8.0124     86.3269      2.7047   3.4353434180e+01   6.0423456216e+01    0.1186511   0.08851306 -83.21 0.0007023136    1.627    0.386
        18  -9.0182    237.8229    197.2914   5.3127517838e+01   6.0838912752e-01    0.2688458    0.2033317 -51.17  0.001743793    1.729    0.422
        19  -8.3978    143.7911    249.9198   8.0274958531e+01   2.8315061662e+00    0.1932409    0.1487849  -1.92  0.000447454    1.146    0.127
        20  -9.9742    192.2735    193.8220   6.0689588454e+01   6.8294600826e+00    0.8145319     0.419756 -62.17  0.002614754    5.505    0.818
        21  -9.1023    248.6291    195.7572   5.1178689470e+01  -3.2248050849e-01    0.2376529    0.1634686 -36.61 0.0007842859    1.244    0.196
        22  -7.9647    116.7528    196.5556   7.8773312931e+01   1.7332818246e+01    0.1856205    0.1330977  36.96  0.000341708    1.381    0.276
        23  -9.4266    228.4148    191.5282   5.3676126931e+01   2.6139175996e+00     0.273345    0.2587463  67.83  0.001507459    1.702    0.412
        24 -11.0804    220.2943    186.4132   5.4150929220e+01   4.4595389351e+00     1.092144    0.4476701  37.78  0.004762395    2.840    0.648
        25  -8.8277    208.2684    179.6409   5.5049153714e+01   7.2114860363e+00    0.2376308    0.1696921 -32.68 0.0005423118    1.182    0.154
        26  -9.4933    211.1817    177.4456   5.4120627706e+01   7.2036558782e+00    0.3790005    0.2301933 -49.74  0.001277106    1.754    0.430
        27  -8.8406    250.3619    189.0431   4.9789802557e+01   5.2211875229e-01    0.2662648    0.0859092 -40.86 0.0009411696    2.423    0.587
        28  -9.1182    249.0830    248.8226   5.9560583687e+01  -8.0019573669e+00    0.2175206    0.1208567 -21.27  0.001451242    1.354    0.261
        29 -13.7815    235.3316    104.9168   3.6731001913e+01   1.5855431680e+01     2.050999    0.5497081 -52.41  0.005726158    6.901    0.855
        30  -9.2737    237.0056    249.4921   6.1666366193e+01  -7.0543723721e+00     0.154585   0.09155998  15.20 0.0004738103    1.561    0.360
        31  -9.8220    134.4059    148.2183   6.4782171169e+01   2.5555940196e+01    0.7698939    0.3647534 -61.89  0.002477082    3.440    0.709
        32  -9.3563    132.5659    139.4366   6.3316388685e+01   2.7872234163e+01    0.8190894    0.2684282 -56.69    0.0020363    5.363    0.814
        33  -9.0739    214.1050    168.8349   5.2009384265e+01   8.3187467804e+00    0.3117234     0.242865 -76.95  0.001682198    2.202    0.546
        34 -10.1380    176.9924    168.2356   5.8982636485e+01   1.3982185642e+01    0.4857512    0.1899787 -51.66  0.001521359    2.972    0.664
        35  -9.7299    144.1686    146.1174   6.1854485327e+01   2.4246604608e+01    0.4135103    0.2868552 -76.18  0.001724961    2.340    0.573
        36 -11.1451     67.8421    143.6594   8.3890120234e+01   3.7778313464e+01     2.396661     1.526962 -68.78   0.01006554    1.759    0.432
        37 -11.9313     55.7197    129.5190   8.5380464607e+01   4.3104375357e+01     1.108856    0.6260504 -49.95  0.002606246    1.677    0.404
        38 -11.5241     38.9969    131.2215   9.1820841559e+01   4.4593953428e+01    0.5124068    0.4775417   0.28 0.0008670905    1.088    0.081
        39 -13.1523     46.6803    129.1471   8.8617326968e+01   4.4303133605e+01     3.220775     1.450806   8.57   0.01089877    3.132    0.681
        40 -12.1658     10.2766    134.0860   1.0269517605e+02   4.6190630160e+01     1.006959    0.5146869   9.47  0.004478439    2.181    0.541
        41  -9.8320    185.1734    168.0408   5.7259824329e+01   1.2734107732e+01    0.3949554     0.216976 -52.60  0.001779995    2.047    0.511
        42 -11.2300    159.0875    130.2386   5.4821089621e+01   2.4820566537e+01    0.6681423    0.4889324 -15.61  0.002601694    1.696    0.410
        43 -12.3182     11.1679    140.4798   1.0311524354e+02   4.4435099903e+01    0.9949065    0.6405931  10.60  0.004987594    1.704    0.413
        44 -10.2762    173.0323    123.6084   5.0401983226e+01   2.3490792176e+01    0.4092494    0.2572868 -55.93   0.00192017    1.751    0.429
        45  -8.0084    166.2879    133.6548   5.4021731090e+01   2.2778033792e+01    0.1422591    0.1133842 -76.76 0.0004950382    1.652    0.395
        46 -10.4418    204.6870    122.5058   4.4496188203e+01   1.7990369279e+01    0.4057128    0.2910259 -62.44  0.001607088    1.583    0.368
        47  -8.8269    192.1459    143.8996   5.1063078594e+01   1.6224304888e+01    0.1961524    0.1739542 -56.24 0.0003130719    1.224    0.183
        48  -7.7452    111.1365    168.1930   7.5228478816e+01   2.4887059333e+01    0.2011428    0.1780262  57.37 0.0003644547    1.296    0.229
        49  -8.7738     89.1298    118.2910   7.1140669308e+01   4.0811135517e+01    0.3830913    0.2531962 -70.07  0.001382067    2.063    0.515
        50  -8.4147     89.7838    167.1205   8.1256733709e+01   2.8513093149e+01    0.2053822    0.2024067  52.36 0.0002745186    1.086    0.080
        51 -10.2763     63.5890    113.1924   7.8932125050e+01   4.6189647464e+01    0.2691668      0.24499   6.48 0.0001931839    1.066    0.061
        52 -10.0491    117.0401    110.0748   6.0461816362e+01   3.7386024998e+01    0.4135566    0.2626604  44.75  0.001825803    1.573    0.364
        53  -9.5524    113.6156    104.1465   5.9888644039e+01   3.9342897657e+01    0.4545933     0.315731  -6.86  0.001903875    2.144    0.534
        54  -8.8674    120.4236     96.3086   5.5891402185e+01   3.9551095366e+01     0.262488    0.1452972 -39.86 0.0007227929    1.882    0.469
        55  -7.9783    209.8200    164.1248   5.1866952358e+01   9.7614140270e+00    0.1795321    0.1573911 -46.06 0.0003821172    1.245    0.197
        56 -12.7600    226.6326     80.3782   3.3057385625e+01   2.0984937298e+01    0.5074264    0.4806083  49.88  0.002803093    1.361    0.265
        57  -8.4121    203.1341    160.6583   5.2390170866e+01   1.1373207508e+01    0.2205051    0.1644465 -45.99 0.0006815557    1.294    0.227
        58  -7.8720    156.9308     79.5064   4.3094940431e+01   3.4764709257e+01    0.2065097    0.1320937  55.30  0.001019821    1.553    0.356
        59  -7.9115    152.9937     73.5527   4.2333241296e+01   3.6595285702e+01    0.2172506    0.1694751 -44.51 0.0007880316    1.289    0.224
        60  -8.1721    216.0996    155.6726   4.9188965044e+01   1.0346933629e+01    0.1757526    0.1631617  75.33 0.0006784654    1.454    0.312
        61  -8.0727    133.7165     73.2757   4.6263020429e+01   4.0898527650e+01    0.1897395    0.1585506  30.42   0.00102581    1.336    0.252
        62  -8.5501    105.8460     68.5497   5.1935373468e+01   4.7845318002e+01    0.2725492    0.1051536 -37.26 0.0009816736    2.882    0.653
        63 -10.1716    172.7601     65.0894   3.6837353659e+01   3.3635525461e+01    0.2463047    0.2023746 -86.26 0.0006847428    1.193    0.162
        64  -8.0085    171.5622    249.0738   7.4092052886e+01  -3.0720397567e-01    0.1747931    0.1142914 -38.87  0.001018697    1.575    0.365
        65  -9.8070    161.9325     63.5548   3.8199652331e+01   3.6192037662e+01    0.3027671    0.2419337  82.17  0.001158658    1.246    0.197
        66  -8.8260    103.9650     61.9252   5.0405498778e+01   4.9362729870e+01    0.2112754    0.1907616  48.30  0.000313534    1.035    0.034
        67 -11.5057    166.8050     57.6772   3.5964431430e+01   3.5987374969e+01    0.6185219    0.4312977 -80.38  0.003373099    1.597    0.374
        68  -8.9605    136.5739     60.4380   4.2083426905e+01   4.2299354751e+01    0.2231476    0.1941282 -26.06  0.001295184    1.310    0.237
        69  -9.8030    171.6985     53.9455   3.4332001758e+01   3.5453562490e+01    0.2842713    0.1566074 -30.45 0.0006711502    2.126    0.530
        70 -10.1810    141.4884     51.1866   3.8563581221e+01   4.2524788288e+01    0.3238338    0.2506005  12.22  0.001667378    1.854    0.461
        71 -10.9675    163.2110     49.8829   3.4589770187e+01   3.7847983388e+01     0.582958    0.3288937  46.36  0.002890231    2.050    0.512
        72 -11.3825    151.8904     48.3146   3.5973111468e+01   4.0569767168e+01     0.634854    0.4697116  89.53  0.003604337    1.399    0.285
        73 -10.2910    144.6817     44.1154   3.6066052484e+01   4.2748896714e+01    0.3704119    0.2300259 -28.20  0.001913696    1.923    0.480
        74 -10.5625    140.7496     42.8644   3.6406479906e+01   4.3804191539e+01    0.4613937    0.3085747 -13.40  0.002344402    2.195    0.544
        75 -11.0734    187.5920     45.2694   3.0258528354e+01   3.3260519483e+01    0.4240905     0.315984 -40.13 0.0009362515    1.384    0.277
        76  -9.2086    179.7735    243.0104   7.1465875235e+01  -2.4830611185e-01    0.4027189    0.2534178  56.44  0.001647006    4.575    0.781
        77  -9.1329    189.9993     36.4811   2.8052039824e+01   3.3858166747e+01    0.5266696    0.2204222 -66.45  0.002116956    3.559    0.719
        78  -9.3425    197.5868    177.0063   5.6546552210e+01   9.1837301762e+00    0.3542076    0.2364002  41.89  0.001242208    1.788    0.441
        79 -10.1346    195.1557     36.7624   2.7574196048e+01   3.2777732121e+01    0.3696069    0.1976918  68.53  0.001524888    1.791    0.442
        80  -8.8848    196.7222     32.6518   2.6545366410e+01   3.2952095047e+01    0.2048529    0.1788068  35.55 0.0007064798    1.645    0.392
        81  -7.8272    179.9559     39.3617   2.9828569467e+01   3.5594610210e+01    0.1639905    0.1368614  83.82  0.000437832    1.097    0.088
        82  -8.5533    151.8323     36.9690   3.3014348933e+01   4.2029932605e+01    0.1798401    0.1592012  52.52 0.0003057959    1.239    0.193
        83  -8.0061    170.5307     35.3080   3.0031166310e+01   3.8100363073e+01    0.3216769    0.1092904  73.03  0.001225961    3.383    0.704
        84  -8.3142    144.4850     32.4646   3.2943398871e+01   4.4226097761e+01    0.1280528    0.1109684  80.62 6.370524e-05    1.003    0.003
        85 -10.0937    195.8046    173.1379   5.6154812728e+01   1.0159641632e+01    0.3570803    0.2671079 -75.49  0.001785952    2.377    0.579
        86  -8.8499    196.3544     27.6281   2.5522523573e+01   3.3604668074e+01    0.2701152    0.2099055  12.32  0.000928503    2.289    0.563
        87  -9.5410    146.1121    177.0276   6.7737341611e+01   1.7129410570e+01    0.2369714    0.2091599 -27.55 0.0002756226    1.079    0.073
        88  -9.1006    123.7665     22.7811   3.3620721673e+01   5.0046599933e+01     0.177461    0.1384005 -82.52  0.001066141    1.341    0.254
        89 -10.1159    110.2219    240.6447   8.6880280911e+01   8.7582576098e+00    0.2315917    0.2139468 -13.02  0.000458123    1.142    0.124
        90  -8.9215    171.1202    236.3819   7.2271095866e+01   1.8934674294e+00    0.3187963    0.1949048  48.09  0.001535268    2.658    0.624
        91 -10.8815    134.8583     42.1052   3.7258636823e+01   4.5247143293e+01     0.690099    0.3042914 -49.42  0.002924901    2.660    0.624
        92  -8.3620    165.3653    232.1779   7.2862440790e+01   3.3418642572e+00    0.2289627    0.1530899  45.71 0.0008535198    2.069    0.517
        93  -8.4729     61.3011    230.1764   9.7841843052e+01   1.6954300706e+01    0.2067847    0.1660157  14.04 0.0004002247    1.248    0.199
        94  -9.2085    240.1961    228.9171   5.7940048465e+01  -4.4379705167e+00    0.1725278    0.1527999  17.02  0.001102391    1.623    0.384
        95  -8.7641    134.4483    228.6415   7.9391587425e+01   8.0012457593e+00    0.2257746    0.1947244  -1.52 0.0002881809    1.042    0.041
        96  -8.9551    159.1134    226.3073   7.3322258971e+01   5.2098660909e+00    0.2382924    0.1929355  48.33 0.0008498619    1.686    0.407
        97  -7.7718    164.6781    222.6840   7.1501937976e+01   5.1615654579e+00    0.1421655   0.09065734 -10.98 0.0004083337    1.662    0.398
        98  -7.7759     61.8120    206.4138   9.5161912090e+01   2.2425362236e+01    0.1882738    0.1317297   8.37 0.0003379428    1.572    0.364
        99  -8.3791    233.0862    195.8799   5.3655996307e+01   1.3648527160e+00    0.1824435    0.1586342  16.02 0.0005864237    1.379    0.275
       100  -9.4364    246.2053    202.2056   5.2627614865e+01  -1.0527077612e+00    0.2261561    0.1331653 -42.79 0.0009077278    1.594    0.373
       101  -8.9637    242.2814    199.3966   5.2773061962e+01  -2.0667107004e-01    0.2208979     0.202553  37.16  0.000939773    1.673    0.402
