#   1 NUMBER                 Running object number                                     
#   2 MAG_AUTO               Kron-like elliptical aperture magnitude                    [mag]
#   3 X_IMAGE                Object position along x                                    [pixel]
#   4 Y_IMAGE                Object position along y                                    [pixel]
#   5 X_WORLD                Barycenter position along world x axis                     [deg]
#   6 Y_WORLD                Barycenter position along world y axis                     [deg]
#   7 A_WORLD                Profile RMS along major axis (world units)                 [deg]
#   8 B_WORLD                Profile RMS along minor axis (world units)                 [deg]
#   9 THETA_WORLD            Position angle (CCW/world-x)                               [deg]
#  10 FWHM_WORLD             FWHM assuming a gaussian core                              [deg]
#  11 ELONGATION             A_IMAGE/B_IMAGE                                           
#  12 ELLIPTICITY            1 - B_IMAGE/A_IMAGE                                       
         1 -13.7065    199.2918     23.8456   5.2678353736e+01   3.1815285874e+01     1.065637    0.7831626  10.80  0.001511956    1.663    0.399
         2 -16.7117    156.8092     61.3048   7.1786056890e+01   3.7718925312e+01     4.839887      2.99855  36.89   0.01144991    1.801    0.445
         3 -12.4521     50.4867      3.5397   7.9755612736e+01   6.8923814924e+01    0.5432186    0.4161438  17.64  0.003477485    1.253    0.202
         4 -11.7604     60.2879      2.3950   7.5081421119e+01   6.7477170445e+01    0.5379691    0.3659838  30.68  0.003154623    1.431    0.301
         5 -12.3564     43.3117      6.4031   8.4530021630e+01   6.9566231676e+01    0.4503617    0.2711676  24.74    0.0025564    1.794    0.443
         6 -11.2134     35.7257      2.1720   8.5870704612e+01   7.1202571197e+01    0.3755559    0.1616216  38.14  0.001345625    2.592    0.614
         7 -13.9507    120.8644     70.7004   8.3524803021e+01   4.4491307447e+01     1.523532     1.128928  50.12  0.006152546    1.392    0.282
         8 -14.3929    180.8766    242.8681   1.0467853501e+02   3.5561876251e+00     2.933218     1.467995  39.92   0.01796772    1.477    0.323
         9 -13.6113    169.5939    221.8596   1.0391997960e+02   7.8802840619e+00     2.704561    0.8648707  36.27   0.01112667    3.081    0.675
        10 -17.3616     69.7810    226.6456   1.2206931858e+02   2.1862547243e+01     3.237814     1.368806  65.96   0.01708801    2.629    0.620
        11 -10.0051    112.5741    218.1800   1.1371960490e+02   1.7340594742e+01    0.2662919    0.1738688  85.39    0.0013491    1.931    0.482
        12 -12.1418     80.9710    173.5294   1.1494993138e+02   2.9890975962e+01    0.5357893    0.3566611 -50.15   0.00258099    1.851    0.460
        13 -13.7873     84.3376    198.5910   1.1699671552e+02   2.4710086012e+01    0.5255724    0.4320248  10.44  0.002724305    1.944    0.486
        14 -14.7529     84.8780    192.2285   1.1623667162e+02   2.5786602025e+01     1.355502    0.6479576 -68.20  0.007061759    2.270    0.559
        15 -19.5398      7.7697    145.5144   1.2829585768e+02   4.3688525375e+01     15.78678     1.680746 -77.83   0.04035319    9.366    0.893
        16 -13.7557    218.3744    196.8878   9.1604704094e+01   2.9476868487e+00     1.175103    0.9450707 -22.62  0.007942419    1.386    0.279
        17 -14.7749    234.3468    182.1904   8.6309666503e+01   2.0138368789e+00     1.503197    0.9236154  19.15  0.005691272    1.617    0.382
        18 -14.9993    228.6888    168.5500   8.4679102552e+01   4.6940760392e+00     1.603928     1.298202  -4.78  0.005508593    1.166    0.142
        19 -12.5017    194.1252    194.9407   9.5532849541e+01   7.3505138828e+00    0.7446004    0.4783968 -55.74  0.003992434    2.448    0.591
        20 -10.8096    206.3158    180.6752   9.0872579967e+01   7.1210716410e+00    0.5410574    0.3293291 -61.29  0.002298774    3.790    0.736
        21 -10.2580    208.6916    178.6752   9.0083422708e+01   6.9637145075e+00    0.2092927    0.1872877  22.79  0.000870743    1.105    0.095
        22  -9.8696     66.3239    250.6676   1.2424336186e+02   1.8612330050e+01     0.190999   0.07461711  45.19 0.0008925964    1.814    0.449
        23 -12.0752    133.9511    145.4429   9.8834019754e+01   2.6738673889e+01     1.736208    0.3885291 -55.04  0.003582322    9.924    0.899
        24 -12.3591    130.2030    174.2126   1.0462030211e+02   2.1978742985e+01     1.204795    0.5872068  53.31  0.005518505    2.062    0.515
        25 -12.0194    128.7696    165.1816   1.0348352646e+02   2.3896841906e+01    0.9493985    0.4687722  26.82  0.003512591    3.565    0.719
        26 -11.0650    134.4977    159.5228   1.0129015213e+02   2.3932458720e+01     0.342927    0.2960548 -34.41  0.001849419    1.360    0.265
        27  -9.9892    195.7388    169.6146   9.0762135115e+01   1.0639129087e+01    0.2412425    0.2156969  33.03  0.000865538    1.084    0.077
        28  -9.8573    140.5803    157.4637   9.9609406628e+01   2.3195446439e+01    0.2729834    0.1969205  83.81 0.0009197377    1.912    0.477
        29 -11.3536    248.4619    122.3789   7.1677470293e+01   7.0657998916e+00    0.8293005    0.4701445  -6.84  0.003749691    2.192    0.544
        30 -12.2183    248.3360    134.9265   7.4489882412e+01   5.4420237349e+00    0.7913579     0.487604 -15.68  0.003293443    1.611    0.379
        31 -11.9467    240.7285    142.0561   7.7241329207e+01   5.9395514449e+00    0.6036738    0.4061612 -10.34  0.002567625    1.498    0.333
        32 -12.3576    245.3476    148.5880   7.7885844389e+01   4.2362825065e+00    0.6429795    0.3190198 -39.13  0.003043726    2.244    0.554
        33 -12.3217    249.5147    145.5003   7.6577630199e+01   3.8702269922e+00    0.9508289    0.2830705 -30.73  0.003620705    3.177    0.685
        34  -9.9163    113.4598    151.0560   1.0451340864e+02   2.9326730573e+01    0.1973155    0.1306858 -58.59  0.001025174    1.580    0.367
        35 -10.7014    221.3958    136.6503   7.9300628314e+01   1.0461644511e+01    0.4592668    0.3164386   3.85  0.002312807    1.673    0.402
        36 -12.4873    183.1029    133.0456   8.5659467008e+01   1.9020353735e+01    0.7200752    0.7150125 -61.46  0.002426688    1.126    0.112
        37 -12.6806    114.2404    131.1259   1.0065465186e+02   3.3299161205e+01    0.7831247    0.5024155 -21.05  0.003193586    2.979    0.664
        38 -13.1351    122.9226    130.7123   9.8470357893e+01   3.1784072229e+01     1.074884    0.5103707  46.29  0.004506395    2.041    0.510
        39 -13.3570    126.6334    126.8629   9.6769743552e+01   3.1868893025e+01     1.377809     1.048575   0.15  0.006460808    1.975    0.494
        40 -11.8384    106.1051    130.8320   1.0259483870e+02   3.4799804027e+01    0.4041621    0.3231845  75.62  0.001241305    1.328    0.247
        41 -11.1113    101.5687    127.4590   1.0307360169e+02   3.6299747599e+01     0.291954    0.2453457 -41.33 0.0008130901    1.335    0.251
        42 -11.2065    109.7786    119.6900   9.9405141270e+01   3.6530561592e+01    0.2918085    0.2538832  20.38 0.0004818437    1.359    0.264
        43 -12.0120     40.2430    114.4081   1.1710501966e+02   4.7589988004e+01     0.389805    0.1937765 -69.46  0.001598632    1.727    0.421
        44  -9.3388    167.8208    112.5365   8.3969776719e+01   2.5997136397e+01     0.279766    0.1960234 -75.87   0.00109366    2.267    0.559
        45 -13.5958     94.4290    104.7244   1.0016859432e+02   4.2473083090e+01     1.067094    0.8314437 -54.75  0.003684873    1.226    0.185
        46 -11.7053    104.8682     94.8384   9.4872324011e+01   4.2771229123e+01     0.841965     0.565233  80.00  0.003601829    2.361    0.577
        47  -9.1631    205.7762    110.1944   7.5869692738e+01   1.7817841560e+01    0.2029606    0.1640278  16.68 0.0006284937    1.301    0.231
        48 -10.5175     55.8587    246.4788   1.2564785909e+02   2.0469045071e+01     0.228922    0.1170969  77.27  0.001083336    1.924    0.480
        49  -9.4360    126.4178    245.5876   1.1405431448e+02   1.1331016305e+01    0.2740039    0.1490792  73.97  0.001442404    3.194    0.687
        50  -9.6686     59.7347    244.2781   1.2490427341e+02   2.0343738486e+01      0.19479    0.1087479 -88.02  0.000721284    1.870    0.465
        51  -9.1825     57.3075    240.6535   1.2507778454e+02   2.1179682595e+01    0.1774331    0.1161437  73.14  0.001379871    1.277    0.217
        52 -10.4941     62.1485    250.7119   1.2490227366e+02   1.9105398824e+01    0.2669755   0.08777545  44.13 0.0007426461    2.122    0.529
        53 -16.7097     99.7757    230.5856   1.1719992384e+02   1.7261710813e+01     3.697257      1.76228 -74.79   0.02054213    2.915    0.657
