#   1 NUMBER                 Running object number                                     
#   2 MAG_AUTO               Kron-like elliptical aperture magnitude                    [mag]
#   3 X_IMAGE                Object position along x                                    [pixel]
#   4 Y_IMAGE                Object position along y                                    [pixel]
#   5 X_WORLD                Barycenter position along world x axis                     [deg]
#   6 Y_WORLD                Barycenter position along world y axis                     [deg]
#   7 A_WORLD                Profile RMS along major axis (world units)                 [deg]
#   8 B_WORLD                Profile RMS along minor axis (world units)                 [deg]
#   9 THETA_WORLD            Position angle (CCW/world-x)                               [deg]
#  10 FWHM_WORLD             FWHM assuming a gaussian core                              [deg]
#  11 ELONGATION             A_IMAGE/B_IMAGE                                           
#  12 ELLIPTICITY            1 - B_IMAGE/A_IMAGE                                       
         1 -16.6378    238.5608     84.8482   8.2921647970e+01   1.4866763985e+01     9.339679     2.146561 -28.54   0.02998247    3.893    0.743
         2 -12.5927    226.9181    158.3520   1.0076459837e+02   7.6354081589e+00    0.5622299    0.2363066 -23.44  0.002504729    2.658    0.624
         3 -10.0845    233.6558    247.1607   1.1397500973e+02  -2.5626115780e+00    0.1736833    0.1045749  32.39 0.0009814937    1.350    0.259
         4 -10.4817    248.6333    240.9044   1.1085967163e+02  -3.8528820148e+00    0.1859861    0.1075759  40.61  0.001169231    1.982    0.495
         5  -9.8784    231.4221    238.2407   1.1312534861e+02  -1.5177303726e+00    0.1372597   0.09077305 -14.29  0.001015272    1.574    0.365
         6 -10.4134    226.3629    232.2048   1.1309193142e+02  -3.2121677645e-01    0.1578632    0.1255929 -44.74  0.001157383    2.344    0.573
         7  -9.9583    246.9348    233.1867   1.1003520740e+02  -3.0111010373e+00    0.2233513     0.185768  66.49  0.001437804    3.745    0.733
         8 -10.0892    220.0060    233.7686   1.1433152028e+02   3.6625852336e-01    0.2134609    0.1475598  46.63  0.001474693    1.975    0.494
         9 -10.5605    241.1120    232.9002   1.1088032784e+02  -2.2669466958e+00    0.1506362    0.1139986  25.57  0.000809094    1.348    0.258
        10 -10.1941    235.7069    232.0316   1.1159315398e+02  -1.5096089571e+00    0.1753543    0.1591202   5.34  0.001483984    1.662    0.398
        11  -9.3149    213.5013    233.5070   1.1535901107e+02   1.2572367158e+00    0.1104172   0.07758417  22.60 0.0003237815    1.016    0.016
        12  -9.7847    195.4402    231.7719   1.1817143499e+02   3.9112813835e+00    0.1711417    0.1075744 -38.58  0.001149972    2.151    0.535
        13 -10.1326    229.6612    228.3264   1.1201889502e+02  -3.9133823448e-01    0.2185786    0.1682029  46.83  0.001587768    1.988    0.497
        14 -10.7553    248.4971    227.3261   1.0895633092e+02  -2.7044615559e+00    0.2526856    0.1186542  40.34  0.001559769    2.107    0.526
        15  -9.8858    218.3385    225.4898   1.1344601953e+02   1.3949471704e+00    0.1422097    0.1337687 -23.35 0.0009264745    1.735    0.423
        16  -9.6433    233.4971    223.9842   1.1078402582e+02  -4.8918873155e-01    0.1115688    0.0942306 -47.53  0.000733101    2.357    0.576
        17 -10.4927    246.4404    221.2278   1.0836847653e+02  -1.9119383748e+00    0.1835883    0.1230373 -34.58  0.001146617    2.158    0.537
        18 -11.0409    241.9204    210.4694   1.0742291539e+02  -3.2944501810e-01    0.3539323    0.2233904 -45.55  0.002084207    3.192    0.687
        19 -10.6813    237.3314    205.0495   1.0728889556e+02   8.2319769078e-01    0.3274962    0.2597609  69.07  0.001934036    3.334    0.700
        20 -10.7839    237.2225    221.7343   1.0986731770e+02  -7.6817478052e-01     0.231324    0.1258022 -42.69  0.001320066    3.390    0.705
        21 -10.3082    234.0886    216.6144   1.0959584803e+02   1.3148288150e-01     0.168998    0.1444583 -14.31  0.000861079    1.531    0.347
        22  -9.7122    224.5008    221.9456   1.1192734743e+02   9.0758785000e-01    0.1414484   0.09778212 -18.94 0.0007026485    1.559    0.359
        23  -9.1807    250.3169    220.6589   1.0769639541e+02  -2.3521452473e+00    0.1367439    0.1262297 -29.59  0.001104089    2.051    0.512
        24 -10.4680    249.1649    217.3964   1.0737782218e+02  -1.9166527233e+00    0.1589355    0.1414619   2.04  0.001129075    1.607    0.378
        25 -10.1564    211.0137    218.5166   1.1366345208e+02   3.1307191264e+00    0.1764218    0.1587161 -35.81  0.001355203    1.727    0.421
        26 -11.3682    218.0387    209.8706   1.1118629514e+02   3.0483040506e+00    0.3541236    0.1623533 -35.38  0.001980839    2.594    0.615
        27 -10.2631    169.8742    213.5486   1.2033018088e+02   9.8229316962e+00    0.1665141    0.1472211 -36.21  0.001213275    1.486    0.327
        28 -10.3248    249.6199    213.0911   1.0664912754e+02  -1.5860880636e+00     0.184328    0.1291765  37.29  0.001337001    1.621    0.383
        29 -10.9419    231.7163    210.8043   1.0908662452e+02   1.0243576646e+00    0.2664542     0.178169  58.92  0.001402049    3.676    0.728
        30 -10.8583    225.7330    209.3010   1.0982392290e+02   2.0120027445e+00    0.2468362    0.1401145 -34.15  0.001542435    2.133    0.531
        31 -10.3632    248.2998    208.0417   1.0606086165e+02  -9.4739012312e-01    0.2130607    0.1844456   7.25  0.001015436    1.448    0.309
        32 -10.3805    245.4758    203.4585   1.0576358400e+02  -1.3417459869e-01    0.2369092    0.1665623 -30.74  0.001407289    1.796    0.443
        33 -10.5275    243.5647    198.7554   1.0529628048e+02   5.8816195909e-01    0.2228093     0.169895 -29.41  0.001044362    1.688    0.408
        34  -9.0884    203.2845    209.6048   1.1367290193e+02   5.2378701177e+00    0.1004522   0.08962671  58.72  0.000489653    1.766    0.434
        35  -9.4712    149.3189    205.6488   1.2326136464e+02   1.4119058967e+01     0.121467    0.0856031  59.75 0.0005163371    1.741    0.426
        36  -9.8871    249.9108    202.1366   1.0487301865e+02  -6.0364807934e-01    0.1541487    0.1266751   8.01 0.0007516041    1.281    0.220
        37  -9.6234    193.3855    202.2050   1.1431099532e+02   7.6267202588e+00    0.1405635    0.1136063 -40.36 0.0009461187    1.667    0.400
        38  -9.7260    186.3811    201.3043   1.1545967025e+02   8.8381133952e+00    0.1966041     0.113039 -31.02  0.001068729    2.061    0.515
        39  -9.4152    160.6701    202.6915   1.2059317840e+02   1.2743853361e+01     0.124497   0.08417824  14.79 0.0007040196    1.663    0.399
        40 -10.5790    230.0658    200.4112   1.0770919873e+02   2.3219602637e+00    0.2485629    0.1617226  32.57 0.0009663797    1.311    0.237
        41 -10.0293    210.2830    200.6210   1.1106278348e+02   5.2195573535e+00    0.1781909    0.1399079 -34.59 0.0008464619    1.657    0.396
        42 -10.4101    243.6164    187.7370   1.0344358971e+02   1.7000685551e+00    0.2625368    0.1810868 -37.52  0.001190597    1.978    0.494
        43 -10.4579    248.2852    185.2383   1.0229596869e+02   1.2910350974e+00    0.3307189    0.1750125 -43.09  0.001716549    3.208    0.688
        44 -11.9632    242.5143    181.1133   1.0246595111e+02   2.5575225286e+00    0.3731915    0.3148547 -38.71  0.002286387    1.781    0.439
        45 -10.4123    248.3127    196.6490   1.0421947411e+02   1.4296544440e-01     0.262909    0.2196587  67.56  0.001708316    2.770    0.639
        46 -10.5656    246.3729    193.1991   1.0394269813e+02   7.5313266014e-01    0.2264055    0.1727598 -28.12 0.0009618186    1.628    0.386
        47 -11.3317    224.6547    198.1416   1.0822826294e+02   3.3513120538e+00    0.1870222    0.1363764 -34.38  0.001163251    1.762    0.433
        48  -9.8873    202.1220    197.8681   1.1205769355e+02   6.7977163352e+00    0.2203018    0.1749276  68.76  0.001323824    2.336    0.572
        49 -11.3616    237.8279    199.9462   1.0638937550e+02   1.2676961674e+00    0.3090167    0.2219311 -45.99  0.001965455    2.498    0.600
        50  -9.9908    215.6173    196.7059   1.0951472532e+02   4.8608948980e+00     0.175121    0.1406257 -28.37 0.0007575756    1.527    0.345
        51  -9.6581    195.5259    195.9783   1.1294437164e+02   8.0676281795e+00    0.1581246    0.1166678 -29.80 0.0008524228    1.569    0.363
        52  -9.4004    144.3045    196.3578   1.2301309968e+02   1.6326426864e+01     0.124632   0.09070336   8.44 0.0007039678    1.721    0.419
        53  -9.6318    209.4947    195.0528   1.1030249700e+02   5.9906189771e+00    0.1613757    0.1105807 -23.40 0.0007835526    1.569    0.363
        54 -10.0210    185.6873    194.5831   1.1454356054e+02   9.8249005930e+00    0.2042713    0.1540329 -35.13 0.0009555409    1.599    0.374
        55  -9.7364    241.8456    192.4050   1.0451086266e+02   1.4708836611e+00    0.1696901    0.1454224 -36.34 0.0008747368    1.808    0.447
        56  -9.9821    232.8351    191.8019   1.0584048084e+02   2.8350612574e+00    0.1724111    0.1472169 -44.87 0.0007884648    1.932    0.482
        57  -9.6213    205.9984    191.0063   1.1025123891e+02   7.0245719746e+00     0.165881    0.1464593  56.50  0.001119562    1.660    0.398
        58  -9.3298    194.3623    190.1809   1.1221788422e+02   8.9947037500e+00    0.1479832    0.1147327 -41.03 0.0005766794    1.674    0.403
        59 -10.1726    237.2944    188.9229   1.0463893576e+02   2.4902643431e+00    0.2208413    0.1514453  45.40  0.001225607    1.787    0.440
        60 -10.1098    233.5307    185.5693   1.0466612330e+02   3.4084352507e+00    0.2491503    0.1286992 -35.35 0.0008731279    2.225    0.551
        61 -11.0815    235.7298    182.1104   1.0371134701e+02   3.4585022548e+00    0.2270388    0.2074695  45.40  0.001112591    1.654    0.395
        62  -9.7813    210.8205    189.0751   1.0907980673e+02   6.4974675445e+00    0.1672923    0.1527689  23.75 0.0007614983    1.339    0.253
        63 -10.4952    229.7335    186.9002   1.0551166381e+02   3.8314987589e+00    0.2388128    0.1457284 -35.37  0.001117686    1.951    0.487
        64  -9.0151    229.2565    182.6284   1.0484987869e+02   4.3826895956e+00   0.09943948     0.092855 -36.91 0.0003629171    1.645    0.392
        65 -11.0656    224.7668    183.9397   1.0582030740e+02   4.9239318192e+00    0.1870749    0.1585878 -35.37  0.001125371    1.618    0.382
        66  -9.3326    216.3025    187.6799   1.0789470312e+02   5.8036988373e+00    0.1021566   0.09505896  53.08 0.0003928341    1.628    0.386
        67  -9.9640    210.7554    183.5597   1.0815042218e+02   7.1794006606e+00    0.2097251    0.1581414 -18.91  0.001120233    1.372    0.271
        68  -9.2643    188.3199    184.6771   1.1243109038e+02   1.0721786803e+01    0.1154182   0.09693244  62.13  0.000704511    1.673    0.402
        69  -9.6313    177.4680    184.0338   1.1441256877e+02   1.2641831904e+01    0.1726621     0.125025 -32.14  0.001029648    1.590    0.371
        70 -11.0306    249.6677    177.9493   1.0080968595e+02   1.8468828372e+00    0.4277745       0.1809 -38.64  0.002100579    3.091    0.676
        71  -9.5247    204.4233    181.2574   1.0887528646e+02   8.4983848235e+00    0.1507929    0.1160406 -39.60 0.0009387924    1.656    0.396
        72  -9.8836    226.0103    179.5186   1.0483815988e+02   5.2414855280e+00    0.1780202    0.1407333  -5.63 0.0006365279    1.175    0.149
        73  -9.3576    189.5109    177.4954   1.1097461393e+02   1.1508242731e+01    0.1296336    0.1062127  23.67 0.0008105788    1.002    0.002
        74 -11.5925    232.3751    174.2936   1.0285877300e+02   4.8500540561e+00    0.2877882    0.2518525 -88.45  0.001823908    2.303    0.566
        75 -11.0309    224.4042    173.4543   1.0401745740e+02   6.2105549051e+00    0.2606617    0.1057705 -36.33   0.00122761    2.703    0.630
        76 -10.8851    249.3465    169.1073   9.9262395604e+01   2.8326248894e+00    0.3738138    0.1764266 -37.76   0.00194738    2.543    0.607
        77 -11.2238    234.2812    164.5649   1.0075559784e+02   5.6774026649e+00    0.2895455    0.1393947 -30.93  0.001078523    2.069    0.517
        78 -11.8747    244.4995    169.5327   1.0007733734e+02   3.5167620513e+00    0.5111548    0.1525332 -35.55  0.002158498    3.566    0.720
        79  -9.6876    243.0599    249.2429   1.1281898851e+02  -3.8611730497e+00    0.1409569   0.09515471  40.64  0.001059594    1.930    0.482
        80 -10.7596    203.5192     65.0198   8.2623689752e+01   2.5287266840e+01    0.2232863    0.1377447 -28.39 0.0006391797    1.569    0.363
