#   1 NUMBER                 Running object number                                     
#   2 MAG_AUTO               Kron-like elliptical aperture magnitude                    [mag]
#   3 X_IMAGE                Object position along x                                    [pixel]
#   4 Y_IMAGE                Object position along y                                    [pixel]
#   5 X_WORLD                Barycenter position along world x axis                     [deg]
#   6 Y_WORLD                Barycenter position along world y axis                     [deg]
#   7 A_WORLD                Profile RMS along major axis (world units)                 [deg]
#   8 B_WORLD                Profile RMS along minor axis (world units)                 [deg]
#   9 THETA_WORLD            Position angle (CCW/world-x)                               [deg]
#  10 FWHM_WORLD             FWHM assuming a gaussian core                              [deg]
#  11 ELONGATION             A_IMAGE/B_IMAGE                                           
#  12 ELLIPTICITY            1 - B_IMAGE/A_IMAGE                                       
         1 -14.7370      7.5421    148.9340   1.4518456586e+02   4.3455181364e+01     11.26839     4.593958  71.30   0.05297076    2.707    0.631
         2 -13.4071    194.9670     28.6780   6.8546928227e+01   3.3021852878e+01     1.447751     1.376355  37.08  0.006856067    1.198    0.165
         3 -13.3793    210.9575      9.0610   6.1407444161e+01   3.1167911255e+01     1.227812    0.9686496  40.15  0.007014557    1.555    0.357
         4 -12.0965      2.8510      7.9873   1.1944282535e+02   7.3670593221e+01    0.7978968    0.2180826 -48.75  0.003850488    2.666    0.625
         5 -10.7013    238.4051    247.3070   1.1058806935e+02  -9.0397313297e+00    0.2281384    0.1610674 -40.60  0.001548139    2.045    0.511
         6 -10.5309    140.0370    250.3882   1.2825067313e+02   5.7852238387e+00    0.3690905   0.09382703  39.49  0.001409729    3.353    0.702
         7 -10.9204    124.2492    249.9108   1.3103542624e+02   8.3210848292e+00    0.4504579    0.1048471  38.96  0.001609858    3.980    0.749
         8 -11.0388     99.0295    248.3409   1.3538889001e+02   1.2371673579e+01     0.345599    0.2665903   3.65  0.002094005    2.603    0.616
         9  -9.9194     46.6258    249.0727   1.4446741612e+02   1.9285583955e+01    0.2486886    0.1148444  67.86  0.001243655    1.882    0.469
        10 -10.9364     35.1118    244.2304   1.4609364221e+02   2.1474324974e+01    0.3063542    0.2362363  49.72  0.001933226    1.394    0.283
        11 -10.2826     29.9342    250.4717   1.4725817874e+02   2.0990714783e+01    0.2412773    0.1038476  49.09  0.001539701    1.686    0.407
        12 -10.7370     34.0944    249.2514   1.4652771315e+02   2.0727711060e+01    0.3540299    0.1384418  49.85   0.00214774    1.817    0.450
        13  -9.4812     16.8195    250.3751   1.4932050738e+02   2.2428217535e+01    0.1248017   0.08337151  40.24 0.0009450308    1.697    0.411
        14 -10.6850      2.7614    248.5315   1.5140785565e+02   2.4160094475e+01    0.2637062    0.1725185 -79.95  0.002135733    1.583    0.368
        15  -9.6487    198.5038    245.9963   1.1722266423e+02  -2.9129922823e+00    0.1527099   0.09299203  -5.32  0.000810266    2.517    0.603
        16 -10.7304     21.1855    244.2570   1.4835976865e+02   2.3011769054e+01    0.3278449    0.1249643  64.55  0.001780779    2.088    0.521
        17  -9.6146    161.4994    249.4960   1.2428547045e+02   2.5049290684e+00    0.1199921   0.09272604  39.75 -0.0001155062    1.030    0.029
        18 -10.9428     11.6334    241.4013   1.4975702600e+02   2.4501791829e+01    0.2122631    0.1876451 -58.73    0.0017993    1.916    0.478
        19  -9.4965     22.4601    237.2348   1.4781599527e+02   2.4107444482e+01    0.2044859    0.1193912 -62.47  0.001380255    2.195    0.544
        20 -10.6377    248.6896    248.9085   1.0914685320e+02  -1.0635877561e+01    0.3039154    0.1505698  26.43  0.001819238    1.686    0.407
        21 -12.8780     48.8671    216.1852   1.4186170874e+02   2.4995105530e+01     1.274062    0.9687867  32.31   0.00867032    1.717    0.418
        22  -9.0408    102.3253    225.6558   1.3253648581e+02   1.5757971663e+01    0.1315022   0.07787196  67.02 0.0007050635    1.740    0.425
        23 -10.4095     56.7550    223.7567   1.4097452700e+02   2.2559891180e+01    0.3128943    0.2800215  47.11  0.001623226    1.449    0.310
        24 -10.2662    173.8438    222.7391   1.1834366605e+02   4.3463946462e+00    0.3581621    0.2545263  62.06  0.002044059    1.710    0.415
        25 -12.5516     34.3678    233.7095   1.4562690058e+02   2.3424580725e+01    0.2621687    0.2192801 -89.63 0.0007474879    1.370    0.270
        26  -9.0372     92.0538    214.5681   1.3334773620e+02   1.9383064767e+01    0.2791675     0.150932  70.54  0.001379039    2.153    0.535
        27  -8.7084    152.5099    213.0480   1.2104964977e+02   9.6311119254e+00    0.1623177    0.1315389 -55.13 0.0003297885    1.455    0.313
        28 -12.2399      9.4064    206.9536   1.4853334036e+02   3.1088834903e+01    0.6681973    0.3806706  36.83   0.00323742    1.914    0.477
        29 -11.4068     60.9724    199.4370   1.3806350716e+02   2.6807189278e+01    0.2559852    0.2185258 -67.63 0.0004770999    1.395    0.283
        30 -10.7944     16.7634    198.1491   1.4668379386e+02   3.2130185906e+01    0.2643512    0.1440222  58.26 0.0006157911    1.492    0.330
        31  -8.7970     50.2018    196.7348   1.4000721928e+02   2.8735433588e+01    0.1433792    0.1271731 -84.65 0.0004127244    1.289    0.224
        32  -9.3620    192.1087    193.4655   1.0996590068e+02   5.6865437351e+00    0.3756056    0.2248763 -70.52  0.001295001    4.897    0.796
        33 -11.7098     67.2714    191.0337   1.3590165911e+02   2.7718099252e+01    0.2689032    0.2300184 -69.30 0.0004612256    1.321    0.243
        34  -9.9923      2.7886    192.8719   1.4901778505e+02   3.4487074228e+01    0.1604909    0.1246311 -88.71  0.001237901    1.217    0.178
        35 -10.5587      6.5774    188.6102   1.4806735462e+02   3.5022022578e+01    0.2264076    0.1452935  71.92  0.001125949    1.190    0.160
        36 -10.6535     77.4846    178.0627   1.3214493733e+02   2.9074431070e+01    0.2350542     0.201625  84.51 0.0004074103    1.051    0.049
        37 -12.9671     64.1198    176.2619   1.3493850144e+02   3.1341440128e+01    0.4590843    0.2726615 -48.35  0.001585506    2.158    0.537
        38  -9.2642     98.4886    175.3343   1.2698189519e+02   2.6414224511e+01    0.2312873    0.1811537  62.48 0.0002745143    1.166    0.143
        39 -11.3213     84.4666    169.4760   1.2937938819e+02   2.9935259844e+01    0.5843192    0.4265852 -56.67  0.003258019    1.452    0.311
        40 -10.2532     91.1282    167.2437   1.2748327326e+02   2.9394500053e+01    0.4220331    0.3295228 -62.70  0.002391043    1.295    0.228
        41 -13.6588     39.5516    226.4458   1.4427967567e+02   2.4160158913e+01    0.8451288    0.5274965  59.97  0.002416553    1.214    0.176
        42  -9.8147     97.5108    152.8467   1.2359164759e+02   3.1616313575e+01    0.3265122    0.2752565 -41.02 0.0008669029    1.407    0.289
        43  -8.8474    100.5281    148.5138   1.2206093407e+02   3.2098203974e+01    0.1843858    0.1409383  29.78 0.0002453338    1.538    0.350
        44 -11.7570     86.2145    151.8864   1.2625135308e+02   3.3675553705e+01     0.280366    0.2456288 -51.40 0.0005693543    1.278    0.217
        45 -12.0146     67.3004    143.6724   1.2975475432e+02   3.8379444054e+01    0.6906805    0.4186217  64.39  0.003138247    1.842    0.457
        46  -8.6957    134.0000    146.0339   1.1328767941e+02   2.6367331793e+01    0.2454755   0.08525322 -49.68 0.0008035003    2.950    0.661
        47  -9.7868    140.4910    231.5070   1.2591314700e+02   8.6222197314e+00    0.1251805    0.1015407  46.11 -0.0001032656    1.035    0.034
        48  -9.5033    109.3069    137.7048   1.1771692506e+02   3.3024154825e+01    0.3802065    0.2564095 -17.14  0.001420128    2.791    0.642
        49 -10.2171     96.6320    134.8308   1.2045146482e+02   3.5945745033e+01    0.2463195    0.2347583 -13.78 0.0004744821    1.259    0.205
        50  -8.9800     90.0356    130.8212   1.2141896833e+02   3.7995091993e+01    0.2141201    0.1735477  76.72  0.000443408    1.290    0.225
        51  -8.7081     78.9996    131.4657   1.2454507505e+02   3.9585105946e+01    0.1933659    0.1068474  61.20 0.0003831685    2.298    0.565
        52 -10.0399     54.3623    229.5172   1.4184305622e+02   2.1791494408e+01    0.2217547    0.1589943  67.43 0.0007233896    1.038    0.037
        53  -8.7373    106.6548    124.0679   1.1547833168e+02   3.6662875116e+01    0.1958151    0.1752877 -59.13 0.0003309367    1.086    0.079
        54  -9.3289    167.5344    112.8267   9.7513446561e+01   2.6023830129e+01    0.2967095    0.2392976  88.41 0.0009584099    1.525    0.344
        55  -9.2591    203.4772    111.5019   8.9828684703e+01   1.7809165521e+01    0.1504378     0.145275 -12.73 0.0001917179    1.035    0.034
        56  -8.8011     38.6743     94.9673   1.2951064474e+02   5.3271445143e+01    0.1803084    0.1387987 -64.33 0.0003046713    1.097    0.088
        57 -10.3865    242.1425     92.1475   7.8684335813e+01   1.2314734309e+01    0.2179755    0.1954567  -1.39  0.001251053    1.232    0.188
        58  -9.4840    157.5099     76.5063   8.9537791957e+01   3.5473553192e+01    0.1544729     0.152365  85.25 9.040355e-05    1.003    0.003
        59  -9.3986     42.7745     67.4334   1.2161878803e+02   5.9027655546e+01    0.2104878    0.1831863  80.63 0.0007201922    1.442    0.306
        60 -10.8699     14.3874     55.1959   1.2956928034e+02   6.4044258637e+01    0.2278307    0.1787956  36.19 0.0007946783    1.613    0.380
        61 -10.0410    152.1944    248.8151   1.2587747960e+02   4.0856560646e+00    0.1624453    0.1254657  26.43  0.001085481    1.365    0.267
        62  -9.9102     81.8647    249.3033   1.3849118349e+02   1.4663591172e+01    0.1943339    0.1033114  56.59  0.001185376    1.473    0.321
