#   1 NUMBER                 Running object number                                     
#   2 MAG_AUTO               Kron-like elliptical aperture magnitude                    [mag]
#   3 X_IMAGE                Object position along x                                    [pixel]
#   4 Y_IMAGE                Object position along y                                    [pixel]
#   5 X_WORLD                Barycenter position along world x axis                     [deg]
#   6 Y_WORLD                Barycenter position along world y axis                     [deg]
#   7 A_WORLD                Profile RMS along major axis (world units)                 [deg]
#   8 B_WORLD                Profile RMS along minor axis (world units)                 [deg]
#   9 THETA_WORLD            Position angle (CCW/world-x)                               [deg]
#  10 FWHM_WORLD             FWHM assuming a gaussian core                              [deg]
#  11 ELONGATION             A_IMAGE/B_IMAGE                                           
#  12 ELLIPTICITY            1 - B_IMAGE/A_IMAGE                                       
         1 -16.4275    227.7280     49.0769   4.1463075758e+01   2.2932935466e+01     1.851707      1.45206  15.82   0.01025178    2.056    0.514
         2 -17.7681    223.8708     83.4418   4.9879542353e+01   1.8503302927e+01     4.626245     2.603732 -72.37   0.01864428    2.802    0.643
         3 -16.8644    239.9349     87.2971   4.8586197716e+01   1.4551397823e+01     1.764928    0.9221033 -55.10  0.008099769    1.989    0.497
         4 -18.6311    243.5038     69.5349   4.4241073780e+01   1.6623112515e+01     9.726715     8.374593  79.76   0.04561258    1.252    0.201
         5 -12.0273     41.6195    148.9469   1.0989942401e+02   3.9635068278e+01       1.1997    0.3277238 -53.83  0.004167502    3.216    0.689
         6 -12.0889     14.8387     15.6215   8.6399603496e+01   7.1498954127e+01    0.6392741    0.5351968 -84.11  0.003991518    2.754    0.637
         7 -12.0905    113.2856     29.6584   5.4566862893e+01   5.2772819713e+01    0.5131925    0.4583915 -36.86  0.001280098    1.241    0.194
         8 -11.0512     68.2135     14.6360   6.1562179845e+01   6.3962444243e+01    0.3129342     0.292908 -48.17  0.001562885    1.465    0.318
         9 -10.6067     51.4782     14.1183   6.7687951884e+01   6.6954522383e+01    0.3621316    0.2797281 -68.57  0.001953294    2.881    0.653
        10  -9.9834    168.3506      9.9819   3.8592207980e+01   4.1563416092e+01    0.4127171    0.2980763 -20.50  0.001878229    1.679    0.404
        11  -9.4441     90.9355     11.3019   5.3164947429e+01   5.9715400552e+01    0.3804546    0.2008501 -48.20   0.00172525    2.851    0.649
        12 -10.5196     86.4233      5.1250   5.1792154176e+01   6.1228388715e+01    0.4220222     0.288098 -50.01  0.002353782    2.044    0.511
        13 -10.7081    250.5294      8.9837   3.1063789446e+01   2.3199559448e+01     0.270097   0.09243194 -45.66 0.0008479891    2.229    0.551
        14  -8.0286    244.2422      7.0990   3.1102461662e+01   2.4675579348e+01    0.2617723    0.1299818 -66.87 0.0008976132    1.813    0.449
        15  -9.2145    248.5001      4.0458   3.0235505391e+01   2.4148131845e+01    0.1592792    0.1159355 -61.94 0.0007589618    1.079    0.073
        16  -8.3640    244.6588      3.3356   3.0335506483e+01   2.4999009617e+01      0.18054    0.1349212 -87.84 0.0003209356    1.184    0.156
        17  -9.8704     60.4330      9.2982   6.1868551513e+01   6.5953748496e+01    0.1920003    0.1550322  64.65 0.0009979639    1.753    0.430
        18 -10.6031     52.0238      6.8008   6.3880546188e+01   6.7676298515e+01    0.2565371    0.2109869 -17.14   0.00168591    1.305    0.234
        19  -9.2733    148.8994      7.1126   4.0319367984e+01   4.6562757125e+01    0.1939212    0.1581786 -81.42 0.0002719004    1.225    0.184
        20 -10.4607     92.4729      3.5663   4.9598628527e+01   6.0057949788e+01    0.4033517    0.2899695  89.47  0.001958448    1.937    0.484
        21 -10.5146    107.7912      4.0255   4.6324295398e+01   5.6598787177e+01    0.3856803    0.3168869  63.21  0.001465456    1.131    0.116
        22 -10.7887    101.8463      3.2822   4.7310155408e+01   5.8006362897e+01    0.3949017    0.3333457  52.63  0.000656846    1.050    0.047
        23 -10.7875     71.9334      4.0647   5.5504510012e+01   6.4283197454e+01    0.3572123    0.3195086 -27.34 0.0009205036    1.368    0.269
        24  -8.4534    196.4253      5.4978   3.4462436863e+01   3.5316301881e+01    0.1248339      0.10477 -84.21  0.000107831    1.023    0.023
        25  -9.0341    162.3175      3.9331   3.7642688853e+01   4.3586878434e+01    0.2424373     0.190984  63.24  0.001065571    1.168    0.144
        26  -9.7956     65.6755      4.9428   5.7946866748e+01   6.5411872369e+01    0.1725373     0.140997  16.09 0.0006480165    1.073    0.068
        27  -9.7317    201.9032      2.3900   3.3245757551e+01   3.4358785288e+01    0.3161985     0.241299  88.71  0.002035005    1.106    0.096
        28  -9.1713    176.1192      2.9270   3.5814791635e+01   4.0354549310e+01    0.2581293    0.1602961 -38.66  0.001445177    1.680    0.405
        29 -10.3774     78.3243      2.6597   5.2960144847e+01   6.3119724832e+01    0.2695728    0.2622012  71.49  0.001451629    1.308    0.236
        30  -9.8509     11.5230      4.0357   8.2534075825e+01   7.3485671444e+01    0.1675296    0.1228863   4.05 0.0007424725    1.154    0.133
        31  -8.4634    187.3254      3.2839   3.4777045791e+01   3.7660559517e+01    0.1225821   0.08628836  50.31 0.0007003463    1.601    0.375
        32  -9.7731     32.4877     22.8227   8.0452649398e+01   6.8503697225e+01    0.2225237    0.1505338  41.96  0.001318261    1.964    0.491
        33 -15.3883    248.4233     98.4781   4.9931305628e+01   1.1081424805e+01    0.6589118    0.4931312 -29.53  0.002580124    1.329    0.247
        34 -10.0875    248.5488    235.6160   7.7147078485e+01  -1.0485302892e+01    0.2203076    0.1890323  23.58   0.00130859    1.489    0.328
        35 -10.7533     25.5218    232.9047   1.2153160654e+02   2.1928563212e+01    0.3067106    0.1553057 -62.66  0.001736855    2.152    0.535
        36  -9.5397    183.7456    194.5990   8.2129323450e+01   5.6887346542e+00    0.1990959    0.1275296  45.25 0.0006702713    1.643    0.391
        37  -8.7345     85.4948    192.1416   1.0449470731e+02   2.3192501175e+01    0.2023529    0.1339751 -67.70 0.0007431033    1.524    0.344
        38  -9.0826    250.3280    188.0562   6.8230084775e+01  -3.9818427755e+00     0.417812    0.1483982 -41.31  0.001753586    2.685    0.628
        39  -9.1695     65.3702    187.6525   1.0879619222e+02   2.7143578618e+01    0.2966293    0.1890992  69.05 0.0009159462    1.667    0.400
        40  -9.2244    108.8406    187.1855   9.8044616129e+01   2.0597440556e+01    0.2264398    0.1848685  66.45 0.0006810434    1.264    0.209
        41  -8.3308     71.2830    187.6808   1.0735622279e+02   2.6320680938e+01     0.143237   0.09588664  70.93 0.0002836325    1.586    0.370
        42  -9.6314    168.3796    186.0718   8.3817153852e+01   1.0112563249e+01    0.2487653    0.1927755  23.03 0.0005612152    1.308    0.236
        43  -8.2890     57.6852    198.3133   1.1186293842e+02   2.5657673307e+01    0.1411579   0.08664411  66.75 0.0004481088    1.640    0.390
        44  -9.6857    124.7838    183.7491   9.3561689579e+01   1.8609240366e+01    0.3164141    0.2019223  72.13  0.001282094    2.401    0.583
        45 -10.6961    171.5653    181.3470   8.2184776510e+01   1.0474499544e+01    0.4090804     0.320571  29.98  0.001336448    1.250    0.200
        46  -9.9052    165.0027    181.5308   8.3684469518e+01   1.1663575892e+01    0.2253248    0.1966121 -37.66 0.0004461419    1.165    0.142
        47  -9.0704     46.4972    197.9599   1.1439815386e+02   2.7130220855e+01    0.1988788    0.1155806 -76.22  0.001035622    1.604    0.376
        48  -8.9866     92.1755    178.6429   1.0083111183e+02   2.5349239169e+01    0.3301615    0.1730665 -78.79  0.001230783    2.768    0.639
        49 -10.1063    160.1831    176.6285   8.3805362598e+01   1.3595078258e+01    0.4384764    0.2858373  42.27  0.002027881    1.511    0.338
        50 -10.5262    171.6341    171.8299   8.0238024399e+01   1.2404467279e+01    0.4627492    0.3048616 -25.69  0.001900934    1.781    0.439
        51  -9.9017     87.6852    171.5207   1.0084253570e+02   2.7786552616e+01    0.4678463    0.3280589 -52.44  0.001745373    1.449    0.310
        52 -10.3039    201.2012    197.0646   7.9010967490e+01   2.2410364480e+00    0.4035183    0.3361129  66.10  0.002188253    1.760    0.432
        53 -10.1319    162.7244    193.0476   8.6398322828e+01   9.7433881117e+00    0.2370706    0.2035207 -35.77 0.0003630146    1.204    0.169
        54 -10.9966    123.5819    158.0739   8.8956092542e+01   2.4797352750e+01     1.265598    0.6617739  17.25  0.003610604    4.567    0.781
        55 -10.1113    179.8752    159.6180   7.5823128137e+01   1.3309557812e+01    0.2574773    0.2299482 -29.18 0.0003244131    1.083    0.076
        56 -10.2749    181.1653    155.1769   7.4565734993e+01   1.3964125931e+01    0.3066618    0.2675455 -54.83 0.0003695052    1.234    0.190
        57 -11.0851    179.1728    150.4994   7.3949589190e+01   1.5332402159e+01    0.4342329    0.3927209  59.18  0.001288816    1.229    0.187
        58  -9.8822     94.6114    156.7326   9.6410101983e+01   3.0312649643e+01    0.5273329    0.2882604 -81.86  0.001803358    3.172    0.685
        59 -10.6853    143.4028    155.1539   8.3314821470e+01   2.1605640829e+01    0.6160423    0.4761853  84.62   0.00264163    1.752    0.429
        60 -10.3782    136.2370    151.6101   8.4333625609e+01   2.3852985988e+01    0.4615059    0.3523664  36.23  0.001113646    1.334    0.250
        61 -11.5365    132.6926    139.9967   8.2622548366e+01   2.7276115498e+01     1.120797    0.5114821 -57.12  0.003806273    2.622    0.619
        62 -10.4897    137.8454    139.3055   8.1131189810e+01   2.6380103619e+01    0.4796265    0.3636181 -71.99  0.001306191    1.613    0.380
        63 -10.7644    142.2629    145.7216   8.1496411598e+01   2.3993523018e+01    0.4668826    0.3327002 -51.64  0.001601079    1.416    0.294
        64 -10.8196    145.8495    144.1061   8.0232294168e+01   2.3623402419e+01    0.6327987     0.342924 -55.58  0.002424309    2.064    0.516
        65  -9.9173     52.0430    151.1060   1.0729034532e+02   3.7892763846e+01    0.4086968    0.1892946 -66.46  0.001572146    1.952    0.488
        66 -11.1498     61.8897    149.2729   1.0422481096e+02   3.7111145175e+01    0.7344457    0.3062426 -42.87  0.002596284    3.122    0.680
        67 -10.9117     38.9863    135.4993   1.0870065022e+02   4.3315632036e+01    0.3949674    0.2060067  70.33  0.001575329    2.845    0.648
        68 -11.8977     26.0730    207.5254   1.1970401574e+02   2.7256188788e+01    0.7411332    0.6719062  36.44  0.002339755    1.393    0.282
        69  -9.9240     86.3332    149.5697   9.7353368350e+01   3.3456558025e+01    0.3370781    0.2597269  53.26  0.001682075    1.348    0.258
        70 -10.6806     60.1025    136.1016   1.0248375354e+02   4.0694993293e+01    0.4193601    0.2411713  86.30  0.001643497    2.635    0.620
        71 -10.2071     85.3788    133.5071   9.4406275361e+01   3.7647425609e+01    0.5989274    0.3817645 -64.91  0.002639239    1.611    0.379
        72 -10.1676     89.6121    131.6118   9.2741024704e+01   3.7421293192e+01    0.4897566    0.2899968  18.63  0.001918371    2.419    0.587
        73  -8.6089    249.9571    134.3714   5.7405933230e+01   4.8186363972e+00    0.1822472    0.1464662 -64.86 0.0007381547    1.533    0.348
        74  -9.1848    104.3601    133.3680   8.8836406339e+01   3.4388528122e+01    0.3260629    0.2393854 -43.00  0.001406583    1.372    0.271
        75  -9.3736    104.4366    145.6927   9.1511978327e+01   3.1343264297e+01    0.3021611    0.2446083  69.38 0.0004170959    1.387    0.279
        76  -8.0617     15.4834    159.4912   1.1811626302e+02   3.9511371114e+01    0.1292071    0.1041451 -88.84 0.0001363719    1.022    0.022
        77  -8.9231    250.3940    195.0311   6.9550292357e+01  -5.0522064692e+00    0.1780517    0.1380722 -20.33 0.0005545138    1.082    0.076
        78  -7.8985     79.6444    127.7224   9.4892628805e+01   4.0012086836e+01    0.1512255    0.1150798 -19.93 0.0003031215    1.653    0.395
        79  -9.5956    151.1481    139.5855   7.7874915909e+01   2.3535836348e+01     0.300782    0.2499727 -87.19 0.0009348619    1.491    0.329
        80  -9.7114     84.2556    143.3330   9.6741823652e+01   3.5357477849e+01    0.2691421     0.214158 -66.37  0.001136583    1.215    0.177
        81 -10.0126     27.8420    124.3241   1.1038215659e+02   4.7195428422e+01    0.2608717    0.1841378  65.45  0.001358449    1.610    0.379
        82 -10.5977    134.9576    121.0094   7.7392249641e+01   3.1187918888e+01     0.389164    0.3770616  51.40 0.0009463601    1.052    0.050
        83 -10.4467    138.8563    119.1207   7.5894127590e+01   3.0771787687e+01    0.5173534    0.3656902 -55.54  0.002168261    1.493    0.330
        84  -9.9073    135.0386    116.4053   7.6178615781e+01   3.2208672074e+01    0.2907884     0.267579 -38.18 0.0002601375    1.077    0.072
        85 -11.5166      5.3564    119.2878   1.1660920483e+02   5.0096879077e+01    0.4695839    0.3366054 -82.12  0.002871339    1.208    0.172
        86  -9.5873     82.1691    119.2997   9.2221946604e+01   4.1703465748e+01    0.3263435    0.2149551  58.81  0.001013207    1.919    0.479
        87 -10.7841    120.6990    141.3793   8.6117751264e+01   2.9341584943e+01    0.5614636    0.4283136  81.35  0.002516411    1.711    0.416
        88 -10.5261    127.7611    124.8671   8.0279931011e+01   3.1822485673e+01    0.6229393    0.3968859 -88.00  0.002066305    3.317    0.699
        89  -9.8529    135.6126    129.2305   7.9286290054e+01   2.9170463074e+01    0.3929773    0.2780617  58.35   0.00171438    1.614    0.380
        90  -9.6460    113.4825    121.3441   8.3349813836e+01   3.5548559504e+01    0.2738212    0.1484552  40.43 0.0008308123    1.893    0.472
        91  -9.9338    112.7076    114.3652   8.1786625134e+01   3.7342471338e+01    0.3140216    0.2575964 -32.86  0.001278351    1.265    0.209
        92  -9.5896    142.1302    137.1656   7.9536724054e+01   2.5980605344e+01    0.2644751    0.2240747 -44.06 0.0003791078    1.166    0.142
        93  -9.2149     71.0028    110.0097   9.3604890816e+01   4.5714821116e+01      0.22931    0.2143363 -63.81  0.001145416    1.069    0.064
        94 -10.7051     14.2502    108.8744   1.1237776803e+02   5.2071290628e+01    0.2696418    0.1672841  -7.59   0.00143155    2.140    0.533
        95  -8.4748     90.8335    102.8346   8.5343556548e+01   4.4182552227e+01    0.2044105    0.1821974  84.33 0.0006013865    1.314    0.239
        96 -10.2761      3.2892    103.3098   1.1519054873e+02   5.4077777867e+01    0.2393465    0.1530464  31.05  0.001402894    1.881    0.468
        97 -10.0953      5.2949     99.4221   1.1395524280e+02   5.4899028669e+01    0.2189348    0.1345929  88.45 0.0007583217    1.775    0.437
        98 -10.5090    140.6967    132.9567   7.8889064222e+01   2.7243978414e+01    0.5217057    0.3131574  57.02  0.001630766    2.008    0.502
        99  -9.6408     15.4969     98.9915   1.1036340021e+02   5.4379052666e+01    0.2070982    0.1078873 -67.12  0.001035002    1.598    0.374
       100  -8.9791     95.0971     95.6362   8.1991285951e+01   4.5047367307e+01    0.2695192    0.2094642 -55.10  0.001313879    1.325    0.245
       101  -8.7088     44.2576     94.9678   9.9266908032e+01   5.2805790014e+01    0.1913328    0.1565521 -51.10 0.0004001299    1.068    0.064
       102  -8.7319     49.0986     88.8615   9.6003483697e+01   5.3686192317e+01     0.203133    0.1832224 -74.91 0.0005966405    1.241    0.194
       103 -11.0296    104.5838     85.3779   7.6005891495e+01   4.5417931093e+01    0.5897831    0.4494834 -87.05  0.001564412    1.970    0.492
       104  -9.3227     63.2064     86.8620   9.0307776951e+01   5.2301616055e+01    0.4469891    0.1823004  38.79  0.001738037    2.644    0.622
       105  -9.0310      2.4646     84.4631   1.1257808578e+02   5.8560108846e+01    0.1256311   0.09735667 -56.43 8.738224e-05    1.020    0.020
       106  -8.1987     76.3178     79.6916   8.3517548140e+01   5.1855428727e+01    0.1389885    0.1171527  83.71 0.0004096945    1.636    0.389
       107  -9.8154     81.5415     77.1238   8.0899498593e+01   5.1504315487e+01    0.4172171     0.333785  76.58  0.001699079    1.821    0.451
       108  -9.3764      1.8606     77.4218   1.1156227683e+02   6.0201751653e+01     0.217985    0.1125422 -60.27 0.0006120178    1.470    0.320
       109  -9.1322    105.3303     77.0324   7.3175160536e+01   4.6958789070e+01    0.2034462    0.1919078 -29.12  0.001107616    1.054    0.051
       110  -9.3843     98.6033     76.6296   7.5120838491e+01   4.8406144853e+01    0.2736969    0.2131106 -86.87 0.0008023123    1.936    0.484
       111  -9.9505     85.0097     72.1749   7.8118476031e+01   5.1890646424e+01    0.3135794    0.2657174  31.47 0.0005328747    1.190    0.160
       112  -8.8595    105.1441     71.7978   7.1541994410e+01   4.8011425210e+01    0.2169341    0.2086848  82.72 0.0005898989    1.179    0.152
       113 -10.0016    244.0200    194.9469   7.0620944535e+01  -4.1298598912e+00    0.3388978    0.1758411  33.25  0.001086109    2.006    0.501
       114  -9.5046     99.9180     68.4013   7.2018066784e+01   4.9732537126e+01    0.3071714    0.1956248 -21.25  0.001334639    1.929    0.482
       115  -9.3455     76.1038     66.8685   7.9455304500e+01   5.4513131540e+01    0.2053807    0.2028779  55.46  0.001225909    1.212    0.175
       116  -9.5112     85.8369     55.0988   7.1941186951e+01   5.4914085061e+01    0.2897708    0.2335947 -54.49  0.001247534    1.516    0.340
       117 -10.2535     95.1462     63.4502   7.1841255832e+01   5.1611175510e+01    0.5907108    0.2715088 -52.55  0.002101018    3.095    0.677
       118 -10.2628     90.7135     57.6794   7.1252628564e+01   5.3519403386e+01    0.4224701    0.3057235  80.57  0.001740466    2.492    0.599
       119  -8.5150    223.3112    195.3328   7.4408299139e+01  -1.0622998950e+00    0.1388725   0.09229466  -4.04 0.0007043697    1.676    0.403
       120  -9.0355     84.7326     64.7978   7.5737083691e+01   5.3371410403e+01    0.2684165    0.2033307  -8.21  0.001030279    1.479    0.324
       121  -9.4861    100.7699     62.1117   6.9625105477e+01   5.0703161402e+01    0.3338061    0.2597294 -64.34  0.001652563    1.699    0.412
       122 -10.1357     79.4744     63.0268   7.6945556828e+01   5.4660917903e+01    0.3708707      0.20656  36.17  0.001678414    1.819    0.450
       123  -8.9302     53.9200     62.9297   8.6538991496e+01   5.8707726451e+01    0.1994688    0.1720283  86.66  0.001128578    1.718    0.418
       124  -9.3051    207.9479    193.3465   7.6960938118e+01   1.7619894015e+00    0.2245451     0.178493 -42.56 0.0006204917    1.373    0.272
       125  -9.5931     57.4841     55.6492   8.2600606834e+01   5.9619125428e+01    0.3194011    0.2223624 -76.46  0.001210443    3.050    0.672
       126  -9.3995     74.9009     50.7734   7.4160659081e+01   5.7673371305e+01    0.2397621    0.2036076 -41.73 0.0007416586    1.298    0.230
       127  -8.7813     21.0659     50.9885   9.6836276779e+01   6.4688163670e+01    0.1713713    0.1497104  85.83 0.0006124556    1.682    0.405
       128  -9.4212     59.1694     46.8792   7.8675955511e+01   6.0949154420e+01    0.1870497      0.18214 -27.18 0.0006963246    1.299    0.230
       129 -11.3918     68.3042     41.8517   7.3154990208e+01   6.0295210744e+01    0.6897976    0.3672276 -50.00  0.003044688    2.566    0.610
       130 -10.7281     72.6226     36.9817   6.9604504089e+01   6.0279598384e+01    0.3594171    0.3002578 -29.99  0.001115626    1.259    0.206
       131  -8.8949    132.7813     42.5485   5.4520805567e+01   4.6512778091e+01    0.2106542    0.1859221 -74.44 0.0005035707    1.261    0.207
       132  -8.0866     33.6382     41.2866   8.7599020198e+01   6.5320936556e+01    0.1106193   0.09996699  58.82 0.0005454682    1.688    0.407
       133 -10.0444     55.1679     39.5202   7.7406251178e+01   6.2794598269e+01    0.2608306    0.2042367   1.91 0.0004663154    1.177    0.151
       134 -11.6405    123.5045     34.7598   5.3970875342e+01   4.9756872399e+01    0.6570094    0.3733211 -26.63  0.003065932    1.942    0.485
       135  -9.2622     45.6451     39.0282   8.1270692913e+01   6.4238633908e+01     0.180742    0.1432131 -25.34 0.0004202994    1.131    0.116
       136 -10.0867    107.2036     20.6235   5.2702549385e+01   5.5187695876e+01    0.2358124     0.221135  30.39     0.000288    1.075    0.070
       137  -9.0790    110.9428     23.4597   5.2862936279e+01   5.4026713274e+01    0.2606482    0.1470205  52.24  0.001049058    1.550    0.355
       138 -10.0233     78.6918     31.5745   6.5271414465e+01   5.9908291088e+01     0.323798    0.2747138 -54.94  0.001911824    1.590    0.371
       139  -9.4754     54.1253     32.3571   7.4863785803e+01   6.4077279875e+01    0.2271158     0.156348 -19.60 0.0008226736    1.376    0.273
       140  -9.8323     54.0478     27.4109   7.2750704733e+01   6.4813054299e+01    0.3162855    0.1615431  22.51  0.001156673    2.296    0.564
       141 -10.2717     24.0394     27.5261   8.6767656936e+01   6.8711084714e+01    0.2034183    0.1608784 -47.75 0.0007784049    1.541    0.351
       142  -8.9379     48.1938     24.9402   7.4137717983e+01   6.6060804087e+01    0.1747246    0.1623946   0.53 0.0006588364    1.301    0.231
       143 -12.4555     20.3788    223.1709   1.2192260681e+02   2.4478964103e+01    0.6401201    0.4010907  57.20  0.004094642    1.308    0.236
       144  -8.8288    136.0173    224.9839   9.7591223643e+01   8.0822490199e+00    0.2066323    0.1583155   2.40 0.0005798923    1.658    0.397
       145  -9.6901     50.8463     19.1027   7.0317109003e+01   6.6440838585e+01    0.1764683    0.1621421 -11.18 0.0007478656    1.312    0.238
       146  -8.7687    183.4574    223.2626   8.7301725479e+01   6.4979215206e-01    0.2451589    0.1225001 -37.07   0.00114686    2.170    0.539
       147  -9.8901     64.0018     16.4822   6.3910856257e+01   6.4530015478e+01    0.3466596    0.1043721  45.52  0.001378767    2.927    0.658
       148  -8.2366    175.3063    223.0162   8.8935805601e+01   2.0039872018e+00    0.2074109    0.0947153 -25.75 0.0007033267    4.151    0.759
       149  -9.4888      1.8919    227.1639   1.2564694920e+02   2.5462683766e+01    0.2388712     0.117756 -88.40  0.001422185    1.704    0.413
       150 -10.0074     44.0597     14.0633   7.0848499466e+01   6.8123428841e+01    0.2615873    0.1556048  28.01   0.00151303    1.524    0.344
       151  -9.6038     43.3542    221.3669   1.1716820973e+02   2.2307092533e+01    0.2991129    0.1790466  67.95  0.001513037    1.516    0.341
       152 -12.2112     15.2594    217.2178   1.2256365997e+02   2.6253543261e+01    0.4232826    0.3832485 -41.65  0.003105759    1.625    0.385
       153  -9.7241    135.3107    192.9181   9.2654654369e+01   1.4707602476e+01      0.25977    0.1902504  49.44 0.0007028853    1.355    0.262
       154  -9.5557    249.2243    221.4068   7.4575997358e+01  -8.6858974687e+00    0.1559885    0.1049924  36.66 0.0009589386    1.715    0.417
       155  -8.6231     86.3675    221.6749   1.0801593146e+02   1.6516713942e+01    0.1448324   0.08578851  63.40 0.0007036277    1.803    0.445
       156 -11.5024     13.8351    207.8330   1.2226612588e+02   2.8417003368e+01    0.6441563      0.28488  65.68  0.003259392    2.119    0.528
       157 -10.6301    236.2342    211.9076   7.5148602876e+01  -5.5761333008e+00    0.4287951    0.3327492 -41.32   0.00247451    1.565    0.361
       158  -9.0158     57.6497    209.5386   1.1303964779e+02   2.3115691976e+01    0.2415291    0.1498645 -79.45 0.0008749834    1.575    0.365
       159 -10.3734     11.7462     23.8281   9.1733582337e+01   7.0449967469e+01    0.1873652    0.1573143   9.69 0.0006989353    1.341    0.254
       160  -9.6892    249.0736    206.3624   7.1889727502e+01  -6.5448605690e+00    0.2230583    0.1408162 -21.12 0.0009400239    1.390    0.280
       161 -10.3591    170.1723    196.4735   8.5392223203e+01   7.7332118234e+00    0.4190505    0.3497721 -20.18  0.002324856    1.239    0.193
       162 -10.0583    229.4876    205.4727   7.5184290366e+01  -3.6238757541e+00    0.3850975    0.2212516   4.41  0.001811928    2.320    0.569
       163  -8.7533    228.3976    192.1991   7.2866794278e+01  -1.3462327577e+00    0.1878844    0.1147498 -45.35 0.0009527697    1.820    0.451
       164  -9.0101    143.9239    209.0376   9.3395999660e+01   9.8608932087e+00     0.209043    0.1886089  34.55 0.0003623367    1.013    0.013
       165  -9.9311    188.2919    208.0690   8.3673150605e+01   2.4675811925e+00    0.4336114    0.2470364  50.64  0.001974031    2.227    0.551
       166  -9.9423    225.4643    202.0020   7.5275256993e+01  -2.4734581843e+00    0.1951689    0.1568089 -42.05 0.0005763922    1.457    0.314
       167 -10.4066    221.5186    199.5150   7.5540546254e+01  -1.4647876447e+00    0.3506998    0.1712901  34.99  0.001656824    2.041    0.510
       168 -10.1226    185.6381    201.3432   8.2995699738e+01   4.1172018985e+00    0.2511382    0.2101117  32.66  0.001000287    1.165    0.141
       169  -9.8622    231.1702    199.5032   7.3759407593e+01  -2.9417151140e+00    0.1978516    0.1743602 -29.27  0.001271527    1.281    0.219
       170  -9.0927    192.4918    199.9203   8.1314202349e+01   3.2051165430e+00    0.2019715    0.1309812 -38.34 0.0008354702    1.557    0.358
       171 -16.6203    247.3109    119.8150   5.4692057702e+01   7.7378436036e+00      4.74573     3.001615  16.31   0.02114227    2.868    0.651
       172  -9.6181    236.4063    248.7895   8.1441006584e+01  -1.0642797207e+01    0.1579109   0.09125158 -19.26 0.0005734175    1.653    0.395
       173 -15.9662    231.9347     95.8178   5.1589419848e+01   1.4755230647e+01     0.920631    0.8064442 -83.10  0.004961767    1.225    0.184
       174 -10.7316    245.8772    240.4649   7.8421313863e+01  -1.0773391743e+01    0.2617799    0.1478845  -8.59  0.001505332    1.804    0.446
       175 -17.5026    241.7057    107.0726   5.2719832577e+01   1.0930048870e+01     7.590046     1.657681  53.24   0.02363138    5.166    0.806
