#   1 NUMBER                 Running object number                                     
#   2 MAG_AUTO               Kron-like elliptical aperture magnitude                    [mag]
#   3 X_IMAGE                Object position along x                                    [pixel]
#   4 Y_IMAGE                Object position along y                                    [pixel]
#   5 X_WORLD                Barycenter position along world x axis                     [deg]
#   6 Y_WORLD                Barycenter position along world y axis                     [deg]
#   7 A_WORLD                Profile RMS along major axis (world units)                 [deg]
#   8 B_WORLD                Profile RMS along minor axis (world units)                 [deg]
#   9 THETA_WORLD            Position angle (CCW/world-x)                               [deg]
#  10 FWHM_WORLD             FWHM assuming a gaussian core                              [deg]
#  11 ELONGATION             A_IMAGE/B_IMAGE                                           
#  12 ELLIPTICITY            1 - B_IMAGE/A_IMAGE                                       
         1 -11.6127    210.2136     31.6999   4.5769530751e+01   2.8725469657e+01     1.009583    0.6886668 -55.90  0.005242541    1.426    0.299
         2 -11.0911    215.8763     24.2569   4.3208410784e+01   2.8266366650e+01    0.5377345     0.366404  49.14  0.001312005    1.672    0.402
         3 -10.7331      2.1198     22.6927   1.0422223305e+02   7.0587593441e+01    0.6545702    0.1297051 -59.29  0.002163204    5.536    0.819
         4 -10.0450      1.8015      8.7294   9.8924409943e+01   7.3039305522e+01    0.5592147    0.1050869 -50.73  0.002240955    3.862    0.741
         5 -11.8202    227.1807     12.4355   3.9201433914e+01   2.6947942280e+01    0.7269865    0.5903863 -62.07  0.002764632    1.084    0.077
         6  -8.9808     83.9580    241.2200   1.1657597026e+02   1.4409026021e+01    0.1706566    0.1351036  13.11  0.001082054    2.043    0.510
         7 -11.0241    114.9615    244.8873   1.1118026926e+02   9.2527975758e+00    0.6432723    0.2357419 -57.86  0.002848719    3.276    0.695
         8 -10.1418    119.5672    246.8771   1.1053421844e+02   8.2279885452e+00    0.2121363    0.2027205  20.37  0.001581099    1.334    0.250
         9 -10.0414    101.4930    250.3143   1.1420657602e+02   1.0355144329e+01     0.394522    0.1449371  38.36  0.001870026    2.363    0.577
        10  -9.8970    110.2532    249.0320   1.1248093173e+02   9.2784214989e+00    0.3938004    0.1532106  34.29  0.001763836    2.729    0.634
        11 -11.7009     22.8907    224.3398   1.2637474074e+02   2.5073383441e+01      0.53366    0.4072844 -71.71  0.002857503    1.509    0.337
        12 -11.9942      2.9571    184.2575   1.2776465353e+02   3.5061042291e+01      1.56864    0.3363585 -79.30  0.001346834    3.948    0.747
        13 -14.0888      2.8145    138.1406   1.2450920314e+02   4.5289899537e+01     6.674465     1.097605 -77.39   0.01969933    5.711    0.825
        14  -9.8133     44.5170    219.5650   1.2213626015e+02   2.3589787659e+01    0.2057111    0.1966182  75.89 0.0006969878    1.429    0.300
        15 -10.0800     83.6264    223.6718   1.1498653705e+02   1.7674772155e+01    0.2891167    0.1974169  39.68  0.001764432    1.424    0.298
        16  -9.0258     37.7449    224.5262   1.2373312677e+02   2.3412602433e+01    0.1845581    0.1018843  35.67  0.001107871    1.940    0.485
        17 -10.1999     73.3098    219.2976   1.1658294715e+02   1.9963870421e+01    0.5190438    0.1821977  54.94  0.002183279    2.873    0.652
        18  -8.9699     64.3824    240.2385   1.2005347221e+02   1.7223772677e+01    0.1863091    0.1598025 -67.39  0.000931656    1.505    0.336
        19 -11.0248    126.3907    228.7789   1.0713053068e+02   1.0206541028e+01    0.4636379    0.3064135  69.52  0.002566193    1.807    0.447
        20 -10.8782    115.0174    230.9852   1.0962949069e+02   1.1620356665e+01    0.3590116    0.2814231 -73.45  0.002103191    1.451    0.311
        21  -9.7596    141.5789    230.2806   1.0433126644e+02   7.4842050505e+00    0.2256153    0.1455754  24.67  0.001042383    1.802    0.445
        22  -9.0643    102.0207    228.5519   1.1189681310e+02   1.4055697791e+01    0.1869471    0.1572434 -85.97   0.00125706    1.256    0.204
        23 -10.2448     60.8678    182.2230   1.1535752457e+02   2.9418646591e+01    0.3844332      0.25788 -38.46  0.002017156    2.250    0.556
        24  -9.8765     66.4575    176.2507   1.1338446841e+02   3.0028062114e+01    0.2760998    0.2229943 -54.96 0.0007427868    1.396    0.284
        25 -10.8801     47.4439    223.4881   1.2188056638e+02   2.2476062528e+01    0.3724222    0.2346352 -89.24 0.0005296469    1.436    0.303
        26  -9.8493     76.2546    166.0885   1.0971452321e+02   3.1005413477e+01    0.2633699    0.2484029 -74.51 0.0004234754    1.164    0.141
        27 -11.6847     63.3007    162.4498   1.1235974201e+02   3.3633129773e+01    0.4912607     0.289121 -46.13  0.001484537    2.048    0.512
        28 -11.1941     82.3888    159.4472   1.0720937390e+02   3.1658264560e+01    0.7240021    0.5166003  30.76  0.002062431    1.607    0.378
        29 -10.8973     74.0336    155.9370   1.0876273425e+02   3.3707413202e+01    0.6087662    0.3607332  69.23  0.002780701    2.065    0.516
        30  -8.9151     32.5882    155.7660   1.1900099074e+02   3.8735034425e+01    0.2529318   0.09513348 -66.70  0.001142507    2.176    0.541
        31 -10.6357     70.3177    145.3313   1.0805117558e+02   3.6763800603e+01    0.4473147    0.3683462 -33.67  0.001753315    1.499    0.333
        32 -11.2400     67.5204    142.5023   1.0833214393e+02   3.7827986815e+01    0.5297798    0.4286914  47.37  0.001304295    1.294    0.227
        33  -9.4203     32.4517    143.9716   1.1770627825e+02   4.1521500913e+01    0.4127544   0.08938785 -66.66  0.001454232    3.436    0.709
        34  -9.2216     99.0457    143.0611   1.0005194615e+02   3.2877915547e+01    0.5625678    0.3040847 -30.36  0.001927059    3.551    0.718
        35 -10.4476     85.4701    143.1953   1.0367111205e+02   3.5054940548e+01     0.382145    0.3087344  51.93 0.0004437159    1.257    0.205
        36 -10.2952     58.8325    131.6463   1.0890233952e+02   4.1586699051e+01    0.3679994    0.2096049 -86.30  0.001621768    2.185    0.542
        37 -13.9122      6.3637    239.1955   1.2987328490e+02   2.3988835334e+01     3.786593     1.488439 -75.62   0.02311604    2.293    0.564
        38  -8.6798    107.9544    132.1141   9.5416552084e+01   3.3903714535e+01    0.3732814    0.1966435  49.01  0.001507261    2.028    0.507
        39  -9.1045     96.2391    128.8356   9.7908989273e+01   3.6750596507e+01    0.2537862    0.2346052  -1.75 0.0003976071    1.261    0.207
        40 -11.8982     33.2818    210.6940   1.2361501961e+02   2.6639498288e+01    0.6067744    0.4678337 -33.96  0.001020442    2.295    0.564
        41  -7.9682    106.5014    120.4745   9.3172248883e+01   3.6913758248e+01    0.1505319    0.1444974 -51.03 0.0002243203    1.036    0.035
        42 -12.9475      8.5780    207.7401   1.2801522251e+02   2.9734479516e+01     1.080768    0.9759572 -63.41  0.008085736    1.586    0.370
        43  -7.7402    205.3279    110.6974   6.7294650348e+01   1.7296181159e+01       0.1526     0.118887 -72.93 0.0006975331    1.645    0.392
        44  -9.5016     13.0445     60.4625   1.1004477402e+02   6.2429996196e+01    0.1995201    0.1274228 -57.29 0.0005973295    1.229    0.186
        45 -13.6079     43.3501    199.7801   1.2080338422e+02   2.7752106491e+01     2.491421     1.044318  66.36   0.01131426    2.681    0.627
        46  -9.7823    138.2310     44.5122   6.1794534937e+01   4.5174763931e+01    0.4526123    0.3178128 -86.19 0.0008806708    2.081    0.520
        47 -11.5450    201.3545     36.9656   4.8298790486e+01   3.0237591785e+01    0.6524574    0.4825255  54.20  0.003123316    1.394    0.282
        48 -10.1204     81.5422    249.2764   1.1770634925e+02   1.3348194941e+01     0.273999    0.1462118  33.71  0.001541657    2.035    0.509
        49  -9.0442    139.0135    248.7699   1.0712558713e+02   4.9321308835e+00    0.1688297   0.08068678  41.00  0.000664871    1.655    0.396
        50 -10.8220    126.6588    243.6655   1.0885037943e+02   7.6587658393e+00    0.3359179    0.1630566  39.01  0.001761102    1.722    0.419
        51 -11.1972     96.8241    244.8113   1.1453845072e+02   1.1954620896e+01    0.6335169    0.2083791  43.59   0.00293935    2.335    0.572
