#   1 NUMBER                 Running object number                                     
#   2 MAG_AUTO               Kron-like elliptical aperture magnitude                    [mag]
#   3 X_IMAGE                Object position along x                                    [pixel]
#   4 Y_IMAGE                Object position along y                                    [pixel]
#   5 X_WORLD                Barycenter position along world x axis                     [deg]
#   6 Y_WORLD                Barycenter position along world y axis                     [deg]
#   7 A_WORLD                Profile RMS along major axis (world units)                 [deg]
#   8 B_WORLD                Profile RMS along minor axis (world units)                 [deg]
#   9 THETA_WORLD            Position angle (CCW/world-x)                               [deg]
#  10 FWHM_WORLD             FWHM assuming a gaussian core                              [deg]
#  11 ELONGATION             A_IMAGE/B_IMAGE                                           
#  12 ELLIPTICITY            1 - B_IMAGE/A_IMAGE                                       
         1 -13.9021    191.0186     21.9818   6.7375905299e+01   3.4344790086e+01     2.337713     1.298266   0.66   0.00833334    2.211    0.548
         2 -13.5629    197.7925     17.4014   6.4945153032e+01   3.3021487048e+01     1.385502    0.8348709 -28.73  0.004468629    1.615    0.381
         3 -13.9584    203.5986      9.8895   6.1837852578e+01   3.2209959436e+01     1.658499    0.9441878  49.83  0.001403673    1.703    0.413
         4 -13.8509      7.0404     11.4960   1.2358298198e+02   7.1513675465e+01     2.064144    0.7107738 -49.45   0.01050064    1.933    0.483
         5 -10.7094    223.4507    244.5115   1.1266977004e+02  -4.4354656681e-01    0.2324619   0.07449689  39.59  0.001223864    2.213    0.548
         6 -10.5321    209.0163    250.5213   1.1568771172e+02   1.0427791736e+00    0.2192855   0.07534894  43.18  0.001075979    2.264    0.558
         7 -11.0249    143.6655    249.4442   1.2597376896e+02   1.0216151160e+01     0.383716    0.2342284 -89.37  0.002177274    4.005    0.750
         8 -11.5314    150.1481    248.0536   1.2479586196e+02   9.4909321733e+00     0.398563    0.1887808  43.20  0.002038166    1.507    0.337
         9  -9.6907    152.4745    243.7393   1.2398292391e+02   9.6589576025e+00     0.178688    0.1060953 -58.49  0.001214079    2.607    0.616
        10 -11.4920    146.1761    240.6525   1.2470113200e+02   1.0893771592e+01    0.2663799    0.1519759  42.65 0.0004028724    1.270    0.213
        11 -10.3568    135.7117    250.6639   1.2736014793e+02   1.1143081932e+01    0.1846839    0.1608215  26.87 0.0008748898    1.336    0.252
        12 -10.8771    132.7193    249.3608   1.2772118977e+02   1.1693209921e+01    0.2779166    0.1531383  54.69  0.001460771    1.694    0.410
        13 -12.9004    124.8257    243.9605   1.2851300979e+02   1.3391404196e+01    0.6661348    0.5593281  10.55  0.005474231    1.625    0.385
        14 -10.8724    104.3821    238.1022   1.3135402649e+02   1.6796251843e+01    0.3264443    0.1489072  40.95  0.002088204    1.648    0.393
        15 -12.5449    110.0135    230.4768   1.2977425122e+02   1.7098291905e+01    0.6899369    0.2482173  41.73    0.0029782    2.058    0.514
        16 -11.4049     98.3354    231.1838   1.3179580703e+02   1.8502893192e+01    0.3655832    0.2315399  62.13  0.001748111    1.457    0.313
        17 -12.0576    111.5282    248.4006   1.3102402452e+02   1.4562206597e+01    0.6978019    0.3074143  51.17  0.004264483    1.820    0.451
        18 -12.0165     99.6034    246.9815   1.3280895362e+02   1.6231140706e+01    0.5585193    0.3698422  48.14  0.004511654    1.075    0.070
        19 -10.5832    110.4162    222.4300   1.2897631017e+02   1.8165287340e+01    0.2097601    0.1859604  24.02 0.0007586224    1.392    0.282
        20 -10.5202    105.1375    219.1552   1.2959349818e+02   1.9336924637e+01    0.2526736    0.1552217  70.50 0.0003962269    1.899    0.473
        21  -9.8993     93.7128    217.2034   1.3142071876e+02   2.1106414365e+01    0.2327454     0.143053  89.79  0.001507306    2.035    0.509
        22 -10.6452     92.7624    226.0963   1.3232349784e+02   1.9921679238e+01    0.2813787    0.1432758  51.05 0.0009853294    1.539    0.350
        23 -12.0517     98.9551    223.2052   1.3102631988e+02   1.9554622208e+01    0.4471837    0.2235373  39.35  0.001125731    1.630    0.387
        24 -11.2179     87.4166    249.4107   1.3489185819e+02   1.7384047165e+01    0.3406874    0.2627182  61.00   0.00252391    1.144    0.126
        25 -10.2150     83.8292    242.1465   1.3497094716e+02   1.8767797088e+01    0.2612121    0.1924484  17.40  0.001977113    2.150    0.535
        26 -11.1544     90.0058    236.1683   1.3355599195e+02   1.8844111355e+01    0.3325975     0.172599  52.87  0.002311196    1.501    0.334
        27  -9.9557     83.2908    238.3653   1.3479991848e+02   1.9346407575e+01    0.2315377   0.09926739  39.47  0.001418085    1.841    0.457
        28  -9.2242     86.3079    237.2825   1.3423745136e+02   1.9136605683e+01    0.1599606     0.104839  62.44 0.0002715032    1.310    0.237
        29  -9.4137     74.5171    250.6403   1.3695641141e+02   1.8708576851e+01    0.2230959   0.07334741  36.22  0.001242512    2.741    0.635
        30 -14.3408     23.2493    177.8443   1.4138706885e+02   3.5373784243e+01     5.880845     1.672848  71.33   0.01985968    6.943    0.856
        31 -13.1714     13.9901    239.0948   1.4546681455e+02   2.6346633213e+01    0.3178345    0.1519409  44.60  0.001158196    1.558    0.358
        32 -11.0496     81.1811    246.3051   1.3566109373e+02   1.8520250534e+01    0.3535531    0.1868251  83.54  0.002410859    2.462    0.594
        33 -10.3264    166.0960    241.5503   1.2151934267e+02   7.9890413915e+00    0.2901997    0.1284375  30.08  0.001091308    2.280    0.561
        34 -11.5542    136.1822    227.8427   1.2506189424e+02   1.3883776199e+01    0.2693146    0.1779722 -39.64  0.001874216    2.124    0.529
        35 -11.5522    135.7206    241.1632   1.2647361522e+02   1.2271692416e+01     0.260543    0.1784266  35.01  0.001677936    1.244    0.196
        36 -12.2541    135.4152    236.7244   1.2609285895e+02   1.2860352986e+01    0.2914276    0.2869989 -44.95  0.001486451    1.387    0.279
        37 -10.5696    173.2297    239.9422   1.2016694789e+02   7.1463548670e+00    0.1926937    0.1741169 -62.28 0.0008954358    1.674    0.403
        38 -10.2179    115.9475    240.2408   1.2963691121e+02   1.5027375376e+01    0.1531099    0.1328048  57.89 0.0007045504    1.210    0.174
        39 -10.7113     74.0135    238.6000   1.3629960130e+02   2.0391226641e+01    0.3377207    0.1672904  76.30  0.002168905    2.488    0.598
        40  -9.2831    150.9413    239.4753   1.2379258944e+02   1.0366774640e+01    0.1631061   0.07736672  41.75 0.0007063274    1.524    0.344
        41 -13.4457     20.0817    232.6686   1.4435757385e+02   2.6733737252e+01    0.6660486    0.4345067 -84.50  0.004477903    1.541    0.351
        42 -11.9957     96.5050    239.1232   1.3271888821e+02   1.7646034946e+01    0.5869792    0.3183525  81.03   0.00368922    2.705    0.630
        43 -10.3139    165.5485    235.4979   1.2092866084e+02   8.7451802627e+00    0.1756879    0.1089764 -44.13  0.001216713    2.210    0.547
        44 -11.4435    121.7311    232.9237   1.2802115499e+02   1.5212325894e+01    0.2628073    0.1987853  44.83  0.001039337    1.041    0.039
        45 -11.5950    245.6435    232.2406   1.0751426248e+02  -2.5157762010e+00    0.5055468    0.2290773  48.73  0.002612921    3.095    0.677
        46 -14.9890     11.5609    208.8545   1.4482188062e+02   3.1106006524e+01     1.845723     0.957617  89.41   0.01413104    1.667    0.400
        47 -11.2458    142.0676    230.1505   1.2429887943e+02   1.2755286550e+01    0.2928823    0.2141822 -19.38  0.001265703    2.120    0.528
        48  -9.7804    180.9250    229.8775   1.1767827111e+02   7.1241146975e+00    0.1617601    0.1520494 -69.54  0.001320497    1.620    0.383
        49 -10.7634     73.8883    230.7182   1.3580735856e+02   2.1520367405e+01    0.2750463    0.1423151  30.66  0.001747622    2.238    0.553
        50 -10.7514    165.4518    227.3459   1.1998905201e+02   9.7064648497e+00    0.2784996    0.2110015 -71.51  0.001607052    2.205    0.546
        51  -9.7141    164.3349    220.6781   1.1936609407e+02   1.0678602395e+01    0.2192864    0.1588085  -8.61 0.0007618546    1.903    0.474
        52  -9.5911    150.8493    229.9276   1.2277873351e+02   1.1527101206e+01    0.2147488    0.1078179  53.95   0.00122081    2.136    0.532
        53 -10.5923     84.7043    229.7765   1.3395832405e+02   2.0381791183e+01    0.1830115    0.1496141  34.09 0.0009152573    1.418    0.295
        54 -10.0517     79.4971    229.0585   1.3476995878e+02   2.1105644848e+01    0.1274717   0.09077023 -84.93  0.001015114    1.547    0.354
        55 -10.8774    156.8462    231.6565   1.2195422467e+02   1.0451493992e+01    0.2089271    0.1587019  49.37 0.0004261653    1.239    0.193
        56 -10.0387    190.9011    228.0812   1.1577412633e+02   5.8348879234e+00    0.1654981    0.1201389  32.58 0.0002940793    1.022    0.021
        57  -9.5710    160.3421    224.2949   1.2050043261e+02   1.0831055140e+01    0.1690269    0.1340146 -16.18  0.001058577    1.655    0.396
        58 -10.4823    132.9110    224.2125   1.2524573866e+02   1.4823865851e+01    0.1730611    0.1478196  24.01 0.0006048973    1.313    0.238
        59 -10.8237    117.3824    224.3405   1.2795010509e+02   1.6959429407e+01    0.1908619     0.150674  45.85  0.000306825    1.059    0.056
        60  -8.8871    220.0334    223.4981   1.1031345906e+02   1.9478067051e+00    0.1601027   0.08340143  37.31 -0.0002837484    1.438    0.305
        61  -9.4802    155.9625    223.4986   1.2116347863e+02   1.1578085098e+01    0.1684648   0.08468194  41.35 0.0003432804    1.500    0.333
        62 -10.3635    149.9680    222.4687   1.2208497140e+02   1.2591737643e+01    0.1795897     0.153914  27.11 5.963448e-05    1.200    0.167
        63  -9.0082    149.5564    218.5505   1.2169822354e+02   1.3159379882e+01    0.1506902    0.1156634  59.22 0.0004785237    1.413    0.292
        64 -12.6248    131.7782    211.6609   1.2407476298e+02   1.6715997264e+01    0.2939965    0.2328892  15.86  0.000468919    1.544    0.352
        65 -12.0717    142.1516    221.0959   1.2329434578e+02   1.3912696716e+01    0.3110734    0.2906797 -52.54 0.0009599891    1.400    0.286
        66 -11.2646    138.6982    213.9199   1.2308721516e+02   1.5386706391e+01    0.4950967    0.2459446  31.60  0.001926203    2.018    0.505
        67  -9.5545    177.1327    219.6435   1.1701081694e+02   8.8622920351e+00    0.1752544    0.0807948  34.04 0.0009494881    1.795    0.443
        68  -9.9402     88.8739    220.0435   1.3249950143e+02   2.1290855406e+01    0.2878945    0.1491637 -43.34  0.001617913    3.517    0.716
        69  -8.9616    101.1994    216.2032   1.3001542244e+02   2.0289133081e+01    0.1420542   0.09692198  59.46 0.0002844653    1.294    0.227
        70 -10.8941     88.0367    213.0941   1.3206912596e+02   2.2445799101e+01    0.2687097    0.1905714  37.53 0.0004478474    1.354    0.262
        71  -9.5239    152.1393    211.9528   1.2043533548e+02   1.3644161423e+01    0.1691459    0.1296984  52.46  0.000560793    1.272    0.214
        72 -10.2595    109.0033    209.0033   1.2792358270e+02   2.0325395929e+01    0.2722983    0.1330987 -74.80  0.001400606    3.313    0.698
        73 -10.4342    101.8282    212.1232   1.2952461652e+02   2.0818035186e+01    0.3351524    0.1765317  49.47    0.0021018    1.532    0.347
        74  -8.8986    197.6263    208.1629   1.1183431737e+02   7.0044854575e+00    0.1347293    0.1006108  -3.76 0.0001794976    1.460    0.315
        75 -10.2646    174.7262    206.2756   1.1561395963e+02   1.0872175448e+01    0.2728108    0.1910035  -7.31   0.00128389    1.876    0.467
        76 -11.7513     93.1598    205.0710   1.3043314931e+02   2.3045061417e+01    0.5478514    0.2348515  45.13  0.001572507    1.844    0.458
        77 -11.5459    247.6678    205.1735   1.0297775500e+02  -4.6640088673e-01    0.4525403    0.1900395  26.85  0.002332385    2.115    0.527
        78  -9.1817    163.9806    206.2496   1.1755148300e+02   1.2572968036e+01    0.2109518    0.1522372 -89.81  0.001198237    2.698    0.629
        79  -9.6615    126.0210    205.8377   1.2446261109e+02   1.8399280467e+01    0.1742085    0.1241976  54.28 0.0004422964    1.261    0.207
        80  -9.4311    113.6698    204.8189   1.2663150647e+02   2.0316919627e+01    0.2782193    0.1313981 -71.22  0.001380902    3.410    0.707
        81  -9.7433    115.1972    200.3906   1.2586188545e+02   2.0784926973e+01     0.165171    0.1499583  88.10 0.0001440056    1.238    0.192
        82 -10.1592    120.8441    199.8387   1.2473663566e+02   2.0058841797e+01    0.4945138    0.1715874  52.67  0.002025459    3.459    0.711
        83  -9.9854    149.6521    204.3272   1.1991655830e+02   1.5068198421e+01    0.2362649    0.1732315  11.70  0.001064461    1.715    0.417
        84 -10.4704    103.3044    203.0575   1.2836726328e+02   2.2018931211e+01    0.2994184    0.1873972  52.44  0.001305993    1.344    0.256
        85  -9.9637    100.5060    198.4293   1.2841660087e+02   2.3134698482e+01    0.2223229    0.1853048  -9.08  0.001556752    1.838    0.456
        86 -10.6230     99.1904    195.0355   1.2831333899e+02   2.3864606578e+01    0.2816788    0.2284935  12.04 0.0003345153    1.716    0.417
        87  -9.8107     75.5379    203.4967   1.3350900817e+02   2.5495756783e+01    0.2783977    0.1665894  30.56  0.001793772    1.875    0.467
        88  -9.3930    224.9599    202.6503   1.0628710055e+02   3.2738505629e+00    0.1665329    0.1133128  30.36 0.0004067557    1.132    0.117
        89  -9.7694    166.7247    203.2910   1.1664396012e+02   1.2530698912e+01    0.1758169    0.1218701  37.90            0    1.138    0.121
        90 -10.3276    169.8022    200.2543   1.1564943472e+02   1.2441335046e+01    0.2039184    0.1604971  28.85 0.0003590052    1.087    0.080
        91  -9.8669    133.1266    202.8838   1.2279722134e+02   1.7789057036e+01    0.1683516    0.1318869  55.79 0.0002783146    1.209    0.173
        92 -10.7598    134.0866    197.8484   1.2199424877e+02   1.8395573249e+01     0.266289    0.2029116 -78.14 0.0002998981    1.745    0.427
        93 -10.6042    196.9074    200.7215   1.1082603189e+02   7.9873338100e+00    0.3567196    0.1753009  45.89  0.001887039    1.865    0.464
        94 -13.8726     45.6106    247.7377   1.4115908195e+02   2.2178602649e+01     1.422678    0.6181312  34.29  0.009620783    2.308    0.567
        95  -8.6256    158.6545    199.7097   1.1763079732e+02   1.4299887168e+01    0.1192396   0.08173671  18.77 0.0004151932    1.658    0.397
        96 -10.0474     86.0955    197.2337   1.3101020668e+02   2.5219657506e+01    0.3265469       0.1485 -66.27  0.001186759    2.478    0.596
        97 -10.2502     83.3422    193.4362   1.3117363727e+02   2.6201838208e+01    0.3158531    0.2087171  14.63 0.0007898433    2.594    0.615
        98  -9.5873    192.0346    197.9956   1.1127033563e+02   9.1116324353e+00    0.1795134    0.1420332  28.28 0.0003134836    1.028    0.027
        99 -12.0325     70.7704    194.5071   1.3364148562e+02   2.7555075051e+01    0.3737363    0.2572998 -47.20   0.00198241    2.043    0.510
       100 -11.9964     75.4457    187.9187   1.3217258118e+02   2.8124615668e+01    0.2696119    0.2327221  58.24 0.0006644891    1.111    0.100
       101  -9.4124    113.0826    195.7173   1.2573506007e+02   2.1823166237e+01    0.2452298    0.1006131  49.43  0.001214206    2.197    0.545
       102  -9.6655    113.0572    192.1240   1.2532490574e+02   2.2405159829e+01     0.175588     0.169153  -2.07 0.0008173418    1.307    0.235
       103  -9.4588    107.2225    195.9606   1.2688067980e+02   2.2610836452e+01    0.1719364    0.1307577  63.41 0.0007400705    1.241    0.194
       104 -10.5867    248.5393    194.2125   1.0097194138e+02   4.3033723436e-01     0.304484    0.1478882  15.21  0.001021381    2.255    0.557
       105 -10.3330    159.5615    194.0484   1.1665937606e+02   1.4948180706e+01     0.284907    0.1918048  54.47 0.0009005247    1.580    0.367
       106 -10.6734    120.5866    193.5860   1.2404526810e+02   2.1074787159e+01    0.3132204    0.2637376  52.68  0.002250501    1.049    0.047
       107 -10.8919     38.6513    192.7005   1.3942456475e+02   3.1331746233e+01    0.2304794    0.1642368 -71.13  0.001798781    1.513    0.339
       108  -9.4157     42.4860    189.4113   1.3851786505e+02   3.1520736329e+01    0.2000137    0.1288327  37.70  0.001339046    1.549    0.355
       109  -9.4542     46.3570    187.3867   1.3766336732e+02   3.1482090030e+01    0.2607456    0.1473089  31.03  0.001692884    1.972    0.493
       110 -12.6248     42.0232    236.8000   1.4120178997e+02   2.4064339956e+01    0.4141803     0.170947  51.94  0.001095042    1.695    0.410
       111 -10.0086    172.8621    192.5109   1.1393423126e+02   1.2983203603e+01    0.2317551    0.1714866 -16.99  0.001059888    1.643    0.391
       112  -9.7160     47.2590    192.9126   1.3787424781e+02   3.0429567329e+01    0.1347336    0.1185641  89.26 0.0004756602    1.266    0.210
       113 -14.5199     27.6765    247.6184   1.4377590516e+02   2.3929009167e+01    0.9614363    0.6368034  41.81  0.007271474    1.442    0.306
       114 -10.4787    191.3242    191.4877   1.1036505106e+02   1.0041401086e+01     0.261142     0.183936  22.49 0.0007358615    1.268    0.212
       115  -9.5349    135.3405    190.1487   1.2075375482e+02   1.9381430703e+01    0.1531828    0.1388591  54.76 0.0005526117    1.123    0.110
       116 -11.3361    249.5750    187.5997   9.9633113419e+01   9.1154754789e-01    0.3291302    0.2196848   7.92  0.002117492    1.249    0.199
       117  -9.2395     54.8077    188.7058   1.3617462457e+02   3.0360301021e+01    0.1485325   0.07312996  45.39 0.0002693765    1.678    0.404
       118  -9.8800    175.8614    186.9629   1.1250583647e+02   1.3241432182e+01    0.1855663    0.1521717  29.72 0.0004004446    1.018    0.018
       119  -9.3210     67.6377    186.8399   1.3358164715e+02   2.9244164716e+01    0.1721665    0.1375518  16.85 0.0007851338    1.765    0.433
       120  -8.6181    161.2644    185.7016   1.1509230775e+02   1.5870396724e+01    0.1122838   0.09068482  64.21 0.0001925224    1.514    0.339
       121  -8.9727    154.4961    185.4470   1.1636345655e+02   1.7029630308e+01    0.1244306    0.1024894  35.61 0.0001291271    1.022    0.021
       122 -10.5406    140.8785    183.6938   1.1877463685e+02   1.9515966647e+01    0.3775457    0.1956897  54.05  0.001297095    2.108    0.526
       123  -9.5335     87.2203    183.4207   1.2942449020e+02   2.7425001202e+01    0.3490698    0.1255516  36.56  0.001651963    2.573    0.611
       124  -9.6864     37.5632    184.2447   1.3909594092e+02   3.2913695653e+01    0.1930009    0.1174167  42.83  0.001372011    1.487    0.327
       125  -9.4313    217.3174    183.0992   1.0427368797e+02   6.6758186587e+00    0.1649405    0.1349658  11.10 0.0003602538    1.110    0.099
       126 -12.3138    248.2229    101.7212   8.1489240959e+01   1.0879765413e+01    0.8978347    0.4237955 -21.85  0.003928141    1.966    0.491
       127 -11.4766    249.0429    150.0429   9.2403735526e+01   4.9760356907e+00    0.6666442    0.3500552 -27.78  0.003432173    1.882    0.469
       128 -12.9736    248.2110    172.1544   9.6984217995e+01   2.7036520651e+00    0.9860756    0.4274552 -26.68  0.004918316    2.324    0.570
       129 -12.2098    245.0008    162.4391   9.5609820346e+01   4.2931521103e+00    0.4881918    0.3210227 -22.70  0.002877004    1.528    0.346
       130 -12.4391    244.1682    155.3734   9.4315192799e+01   5.2303827517e+00     1.211637    0.9161099 -64.94   0.00595048    3.272    0.694
       131 -11.9544    248.4275    114.1333   8.4458574215e+01   9.3227134141e+00    0.7421111    0.4834477 -23.31  0.003930255    1.413    0.293
       132 -11.5591    248.2450    141.3629   9.0681258513e+01   6.1122395807e+00    0.9267079     0.252049  39.42  0.003339965    3.404    0.706
       133 -12.4227    248.3224    134.6066   8.9184859487e+01   6.8878753689e+00    0.8890125    0.7362919  -1.96  0.005388068    1.114    0.102
       134 -10.4127    135.3302    178.3037   1.1910424415e+02   2.1271299804e+01    0.3388826    0.2387295 -15.99  0.001741081    2.206    0.547
       135  -9.9422    104.1072    180.7791   1.2574687590e+02   2.5586111511e+01    0.1715235    0.1507802  72.23 0.0003307113    1.109    0.098
       136 -11.5737    247.8977    123.0804   8.6639658191e+01   8.3419480654e+00    0.6738323    0.5404964  82.87  0.003557322    2.330    0.571
       137  -9.6290    175.8687    179.9160   1.1135669407e+02   1.4225192189e+01    0.1889175    0.1504385  17.14 0.0004434082    1.209    0.173
       138  -9.0483     81.8253    183.8696   1.3053797787e+02   2.8039321985e+01    0.1527147    0.1079037  63.76  0.000316167    1.278    0.218
       139  -9.3729    114.7940    179.9828   1.2348827631e+02   2.4169510185e+01    0.1523079    0.1260053  76.35  0.001019367    1.280    0.219
       140  -9.6996    115.2694    176.6608   1.2295647314e+02   2.4667499405e+01     0.251494    0.1774983  88.73 0.0008087455    1.840    0.456
       141 -10.2109    181.8316    177.2211   1.0975910197e+02   1.3568683805e+01    0.3347264    0.1818872  35.63  0.001559088    1.575    0.365
       142  -9.2510    179.0029    174.9916   1.0991811540e+02   1.4380017598e+01    0.1666398    0.1432531  52.01  0.001053885    1.329    0.248
       143 -11.7168     84.5039    176.0398   1.2918299261e+02   2.9091017949e+01    0.4010857    0.2717612  54.89  0.001271029    1.300    0.231
       144  -9.9902     77.1890    175.7405   1.3064171168e+02   3.0075455704e+01    0.1747559    0.1419279 -88.97  0.000573097    1.196    0.164
       145 -12.3671     70.9295    174.1480   1.3175520896e+02   3.1132869663e+01    0.3358625    0.2708746  16.34 0.0006124713    1.700    0.412
       146 -10.9622     68.9388    167.4637   1.3149385825e+02   3.2616287240e+01    0.2972758    0.1624802 -64.06 0.0009746165    1.844    0.458
       147 -10.5931     30.2377    177.4584   1.4004788382e+02   3.4820470796e+01    0.3801792    0.1035272  40.94  0.001972737    2.778    0.640
       148  -9.6956    109.0411    176.3318   1.2419020635e+02   2.5648012211e+01    0.2055846    0.1492772  77.21 0.0007393286    1.589    0.371
       149  -9.6779    154.4064    172.8278   1.1440912682e+02   1.8984876759e+01    0.3137921    0.1995231  14.72   0.00110486    2.222    0.550
       150  -9.6845    138.9533    173.2206   1.1760995837e+02   2.1517521144e+01    0.1936198    0.1516975  56.97 0.0005512057    1.294    0.227
       151 -10.9511     80.7433    163.4791   1.2855384262e+02   3.1906668990e+01    0.2326978    0.1903952  66.15 0.0002210021    1.088    0.080
       152 -12.7872     90.0615    166.9937   1.2698373362e+02   3.0013211921e+01    0.7522051    0.5610807 -67.74  0.004921705    1.403    0.287
       153  -9.6269     84.9634    165.2348   1.2785745295e+02   3.1024132195e+01    0.1673869     0.155564  81.07 0.0003111779    1.114    0.103
       154 -11.6089     37.0331    143.7465   1.3612087794e+02   4.0680482658e+01    0.3084717    0.1796782 -78.46  0.001659572    1.513    0.339
       155  -9.7055     31.5161    171.5694   1.3942662248e+02   3.5782444321e+01    0.1401007   0.08191589  84.84 8.045119e-05    1.512    0.339
       156 -12.7953     24.9500    165.6174   1.4033399011e+02   3.7478654195e+01    0.8515116    0.3674492  80.02  0.004712238    2.368    0.578
       157 -13.2752     32.5162    143.4974   1.3711127164e+02   4.1141168677e+01     0.873407     0.328887 -72.96  0.004503955    2.305    0.566
       158  -9.8602     32.8847    154.1232   1.3789817308e+02   3.8987276533e+01    0.1622463    0.1343988  84.34 0.0003256343    1.068    0.064
       159 -11.9845      2.0056    169.0519   1.4491730193e+02   3.8655218232e+01    0.6827419    0.1121161 -81.24  0.002650671    5.365    0.814
       160  -9.1911    100.6348    170.7586   1.2522155004e+02   2.7852853163e+01    0.1537849    0.1088746 -78.29 0.0008389444    1.597    0.374
       161 -12.4491     23.9523    149.4867   1.3945207086e+02   4.0677373635e+01    0.4458646    0.2713297  76.76  0.002560563    1.431    0.301
       162  -8.9185    167.2090    170.0305   1.1137331592e+02   1.7191704152e+01    0.1554636     0.104841 -38.25 0.0008622366    1.701    0.412
       163 -11.0200     43.9051    169.0558   1.3678672335e+02   3.5062470653e+01    0.2614968    0.2182278 -42.29  0.001264177    1.686    0.407
       164 -10.3871     47.6838    168.3133   1.3596188908e+02   3.4817851601e+01    0.2384732    0.1403953 -87.48 0.0006234472    1.616    0.381
       165  -9.3668     36.2310    170.4366   1.3842251085e+02   3.5553061235e+01    0.1460838   0.07854705  49.10 0.0006235165    1.598    0.374
       166  -9.5019     48.1598    179.8446   1.3677518503e+02   3.2639569685e+01    0.1586859    0.1099467  61.04 0.0004809719    1.189    0.159
       167  -9.6755    107.1313    168.3248   1.2353458417e+02   2.7351464434e+01    0.1716977    0.1342274  49.76 0.0004978642    1.131    0.116
       168  -9.4958     58.7606    167.7774   1.3364245473e+02   3.3731060946e+01    0.1526676    0.1341935  81.87 0.0005541477    1.111    0.100
       169  -9.1964    175.9346    166.4473   1.0900701979e+02   1.6174742055e+01     0.168909    0.1075289  60.93  0.000370931    2.256    0.557
       170  -9.6261    136.3452    165.6284   1.1696380394e+02   2.3226025874e+01    0.2196131    0.1923359 -89.85 0.0008793871    1.350    0.259
       171  -9.4448    183.4273    171.2388   1.0840436046e+02   1.4131215504e+01    0.1563201    0.1257796 -45.36 0.0006852646    1.578    0.366
       172  -9.9937     65.9972    181.9851   1.3347474245e+02   3.0294291305e+01    0.1588965    0.1315961  63.38            0    1.041    0.040
       173  -8.9911    124.5147    165.2393   1.1940351705e+02   2.5227929509e+01    0.1540706    0.1206178 -38.12 0.0002224594    1.517    0.341
       174  -9.8154     47.0254    163.4385   1.3568899185e+02   3.5812282250e+01    0.1637781    0.1247491  86.68 0.0004751781    1.139    0.122
       175 -10.0951     37.0847    162.8358   1.3769302651e+02   3.6907919353e+01    0.1664654     0.116247  67.55 0.0005263904    1.208    0.172
       176  -9.7843    123.2635    160.7792   1.1898527619e+02   2.6223984805e+01    0.2010687    0.1825382  22.55 0.0002265161    1.183    0.155
       177 -10.7280     33.7097    159.8999   1.3816648271e+02   3.7787372667e+01    0.2913217    0.1953559 -39.46   0.00131599    2.301    0.565
       178 -10.1232     38.5266    158.0481   1.3701790550e+02   3.7694770651e+01    0.1573022    0.1220486  85.36 0.0004521791    1.081    0.075
       179 -11.2968     96.0506    158.8893   1.2464725355e+02   3.0707181063e+01    0.3047006    0.2522834 -62.15  0.002009587    1.283    0.220
       180  -9.9394     71.9755    156.6738   1.2966918063e+02   3.4322859142e+01    0.2831906    0.1949318   0.83  0.001446354    2.734    0.634
       181 -10.1625     79.0295    158.9378   1.2838776128e+02   3.2997645938e+01    0.1753507    0.1514894  67.47 0.0004022589    1.015    0.015
       182  -9.3859     52.3930    158.2714   1.3409268219e+02   3.6251812147e+01    0.1435222    0.1246573  69.28 0.0007381352    1.087    0.080
       183  -9.4203     47.4013    157.7034   1.3510796483e+02   3.6884095230e+01    0.1848589     0.105993  66.70 0.0009246434    1.688    0.408
       184  -9.9076    132.1046    152.3068   1.1566248317e+02   2.6288691970e+01    0.2158271    0.1994419  74.02 0.0003577771    1.160    0.138
       185  -9.1031    134.6817    149.3510   1.1457336686e+02   2.6381387923e+01    0.2043983       0.1396 -56.47 0.0005845648    1.679    0.404
       186 -11.4232    133.4018    141.6410   1.1344753341e+02   2.8023399500e+01     0.655706    0.3524642 -49.17  0.003096936    2.008    0.502
       187  -9.6849    134.3979    155.7672   1.1575421142e+02   2.5276342629e+01    0.1739639    0.1698055 -18.53  0.000382693    1.129    0.114
       188 -11.4737     14.1846    154.1002   1.4179513746e+02   4.0555222948e+01    0.2044899    0.1579474  79.38  0.001040392    1.015    0.015
       189 -13.0467     46.6524    228.3588   1.4006643511e+02   2.4826410071e+01    0.3340138    0.3050979 -68.58 0.0009467269    1.600    0.375
       190  -9.6641     62.0957    152.8374   1.3142298849e+02   3.6251358789e+01    0.2647462     0.141585 -76.18 0.0009075326    1.878    0.467
       191 -10.6980    112.7323    152.4149   1.1999067323e+02   2.9444169608e+01    0.3089874    0.2294625  47.69 0.0006982193    1.243    0.195
       192 -11.0587    102.4014    151.0933   1.2211584326e+02   3.1278478569e+01    0.3084807    0.2892587 -89.17  0.001405003    1.080    0.074
       193 -10.1451    104.9993    146.0374   1.2073940920e+02   3.1869614622e+01    0.2223807    0.1820349 -51.10  0.001365731    1.309    0.236
       194 -10.9647     73.9586    159.5035   1.2956025307e+02   3.3527574650e+01    0.2868659    0.2130279 -64.51 0.0004020555    1.381    0.276
       195 -10.5078     90.7582    150.2210   1.2463439895e+02   3.3130252624e+01    0.1981542    0.1878447  68.90 0.0003314076    1.082    0.076
       196 -11.5214     55.9477    148.7872   1.3236073739e+02   3.7749752505e+01    0.4800111    0.3749916  68.37  0.003329627    1.145    0.127
       197 -13.1273     67.4454    144.2584   1.2921138175e+02   3.7352597343e+01    0.7245917    0.4796526  82.11  0.004279993    1.611    0.379
       198 -12.2535     74.2004    138.8531   1.2691563957e+02   3.7630816186e+01    0.6102408    0.4475282  71.03  0.003736528    1.389    0.280
       199  -9.1908    141.7704    147.8186   1.1272732738e+02   2.5409056314e+01    0.2235864    0.1448913   1.35 0.0009520249    2.806    0.644
       200 -12.9995     25.9423    156.1786   1.3950657866e+02   3.9197795815e+01    0.6436481    0.3626352  31.27  0.004212613    1.962    0.490
       201 -14.8296     55.2170    217.0951   1.3803118051e+02   2.5638204073e+01     1.796303     1.440275  40.49   0.01524289    1.379    0.275
       202 -15.3550      5.9299    243.7270   1.4674613581e+02   2.6382813499e+01     1.206177    0.5573655 -86.50  0.009831734    2.022    0.505
       203 -12.3761      2.9887    138.9860   1.4327049880e+02   4.4315604259e+01    0.7349293    0.1549034  45.57  0.003480492    3.595    0.722
       204 -11.7878     59.5627    135.8989   1.3003700508e+02   3.9994082915e+01     0.605432    0.2643678 -78.40  0.002728185    2.709    0.631
       205 -12.7977     45.7940    131.8477   1.3287761378e+02   4.2303443497e+01    0.5537243    0.3821842  58.36  0.002890944    1.403    0.287
       206  -9.4877     53.6772    140.0678   1.3192648080e+02   3.9774096289e+01    0.2157016    0.1356462  55.00  0.000493764    1.533    0.348
       207 -11.3219     48.0287    138.1933   1.3304368319e+02   4.0752141036e+01    0.4175165    0.2153228  20.45  0.002141903    2.791    0.642
       208 -11.1533     25.9822    139.6529   1.3825636465e+02   4.2484010369e+01    0.1936192    0.1425265  20.71  0.001357113    1.780    0.438
       209 -10.0777    118.9984    138.3899   1.1617438789e+02   3.1121842705e+01    0.2701087    0.2090496 -11.00  0.001453758    1.771    0.435
       210 -11.0011    112.8652    136.3563   1.1725611021e+02   3.2534140427e+01    0.4567062    0.2988765  48.72  0.002153904    1.495    0.331
       211  -9.8493     13.4935    137.5027   1.4088674094e+02   4.3890749206e+01    0.1073026   0.08363708  85.59 0.0001748316    1.013    0.013
       212 -10.3268    130.1989    180.1174   1.2039698773e+02   2.1789122053e+01    0.3929959     0.190781  54.72  0.001858009    2.338    0.572
       213 -11.9383      2.5493    131.2365   1.4292064490e+02   4.5899093402e+01    0.3961434    0.1839842 -82.47  0.002427521    1.707    0.414
       214 -11.2423      2.0047    120.4857   1.4237397744e+02   4.8136493643e+01    0.2463587    0.1133193 -85.23  0.001454574    1.743    0.426
       215  -9.3473    106.9988    129.8530   1.1749125408e+02   3.4787035485e+01    0.2238012    0.1370737  59.80 0.0006975773    1.975    0.494
       216 -11.9017     66.6133    128.0608   1.2726200081e+02   4.0828431810e+01    0.4336785    0.3726736  65.04  0.001535322    1.124    0.110
       217 -12.8016     31.0253    126.5943   1.3590643914e+02   4.4774056915e+01     0.499073    0.2377019  38.16  0.002841959    2.117    0.528
       218 -12.1620      9.4918    127.4991   1.4110018526e+02   4.6214355529e+01    0.2463765    0.1903221 -74.74  0.001880124    1.195    0.163
       219 -11.6070      8.7050    124.3276   1.4105871868e+02   4.6922854971e+01    0.2019137    0.1291125  53.16  0.001273031    1.517    0.341
       220  -9.9751    117.8298    128.9451   1.1467424165e+02   3.3179013258e+01    0.2212851    0.1530434 -22.97  0.001070405    2.022    0.505
       221 -10.4704    209.7871    125.9067   9.3923257321e+01   1.5588052337e+01    0.2762595    0.2162184 -11.00 0.0005570014    1.222    0.182
       222  -8.8041    114.7281    123.0091   1.1425829196e+02   3.4900473166e+01    0.1654538    0.1183984 -51.97 0.0002826309    1.423    0.297
       223  -9.7338     50.3520    122.8997   1.3067169622e+02   4.3748793075e+01    0.1968775    0.1317465  86.11  0.001165242    1.504    0.335
       224  -9.3471    238.5840    122.1899   8.7951731590e+01   1.0262233066e+01    0.1989681    0.1182982 -10.21 0.0009483991    1.691    0.409
       225  -9.0203    143.4873    121.5111   1.0695550771e+02   2.9930958108e+01    0.1408358    0.1349925  43.30 0.0008093415    1.075    0.070
       226 -12.2441     31.4603    117.5866   1.3486395289e+02   4.6662542947e+01    0.4243082    0.2646153 -59.29  0.002123215    1.497    0.332
       227  -8.6961     93.2762    127.6525   1.2050052990e+02   3.7351569918e+01    0.1319775   0.09657166  79.76 0.0007004788    1.632    0.387
       228  -8.6557    130.6868    119.2725   1.0952675604e+02   3.2800335960e+01    0.1364273    0.1104113  75.65 0.0002218475    1.555    0.357
       229  -9.7688     85.8332    126.7477   1.2221779047e+02   3.8610666044e+01    0.2347601    0.1906054   0.51  0.001272045    1.667    0.400
       230 -11.0195    168.1912    113.4209   9.9392914341e+01   2.6351634112e+01    0.3388077    0.3003257 -79.18 0.0008759099    1.501    0.334
       231  -9.3839     72.7400    115.0437   1.2364590675e+02   4.2874186771e+01    0.1737359    0.1547769 -67.59 0.0003440224    1.057    0.054
       232  -8.7821     82.0223    114.2486   1.2102236885e+02   4.1811176952e+01    0.1546062    0.1103992  36.81 0.0002152782    1.474    0.322
       233 -10.8066      2.3708    110.1818   1.4156802657e+02   5.0275546606e+01    0.2030358    0.1048248  82.42  0.001221026    1.710    0.415
       234  -9.1723    203.6683    111.6572   9.1635059659e+01   1.8965479150e+01    0.1597677    0.1041394  14.24 0.0007050938    1.753    0.429
       235 -10.1755     70.0067    111.2485   1.2373338390e+02   4.4048907677e+01    0.1699195     0.157697  72.96 0.0004198639    1.088    0.081
       236 -11.4662     57.5480    110.6533   1.2703478187e+02   4.5649830310e+01    0.4564725    0.2568544  24.49  0.002372908    2.208    0.547
       237 -10.6968     31.7087    110.7976   1.3403145315e+02   4.8116654979e+01    0.2244281    0.1465901  45.17    0.0008431    1.617    0.382
       238 -10.9133     62.4614    106.5629   1.2501045545e+02   4.5994326978e+01    0.3052195    0.1356526 -56.07   0.00142963    1.991    0.498
       239 -10.3692    134.5715    104.7650   1.0516168350e+02   3.4900208273e+01    0.3572238    0.1407461 -45.60  0.001297976    2.603    0.616
       240 -10.4536     28.2403    106.1690   1.3441862136e+02   4.9411861946e+01    0.1732343    0.1389559 -61.29 0.0007092409    1.206    0.171
       241  -8.6361     42.6834    103.6948   1.3010184776e+02   4.8713874610e+01    0.1204955   0.08303975 -42.44 0.0004201297    1.626    0.385
       242  -8.8671    106.1898    103.1279   1.1218375116e+02   4.0470840363e+01    0.1797362    0.1580199  81.09 0.0002342192    1.290    0.225
       243  -9.9702     62.8771     99.8762   1.2371022593e+02   4.7431155860e+01    0.1982485    0.1603929 -44.04 0.0004959691    1.278    0.217
       244  -8.9163    136.7070     94.3001   1.0191284270e+02   3.6506307736e+01    0.1423049    0.1202241 -84.94 0.0002775096    1.568    0.362
       245 -10.4031     46.8109     90.0947   1.2671813034e+02   5.1363913139e+01    0.3226916     0.180309  16.03  0.001306877    2.485    0.598
       246 -10.1475      1.6913     88.8697   1.3998358435e+02   5.4899401772e+01    0.2331631   0.06429425 -69.41  0.001080954    2.493    0.599
       247  -9.1519    155.3500     76.3121   9.2142550442e+01   3.5731714913e+01     0.165541    0.1159318  14.94 0.0007045756    1.720    0.419
       248  -9.1503    168.9947    249.2859   1.2189159504e+02   6.7501562134e+00     0.132192   0.06702937  39.83 0.0003996613    1.382    0.276
       249  -9.7938    199.5934    245.7570   1.1659102424e+02   2.7965773569e+00    0.1070993    0.1015455 -19.00 0.0004079911    1.593    0.372
       250 -12.3898    248.8723    239.9401   1.0812618463e+02  -3.5678214040e+00    0.4424472    0.2948247   6.99  0.003427916    1.301    0.231
