#   1 NUMBER                 Running object number                                     
#   2 MAG_AUTO               Kron-like elliptical aperture magnitude                    [mag]
#   3 X_IMAGE                Object position along x                                    [pixel]
#   4 Y_IMAGE                Object position along y                                    [pixel]
#   5 X_WORLD                Barycenter position along world x axis                     [deg]
#   6 Y_WORLD                Barycenter position along world y axis                     [deg]
#   7 A_WORLD                Profile RMS along major axis (world units)                 [deg]
#   8 B_WORLD                Profile RMS along minor axis (world units)                 [deg]
#   9 THETA_WORLD            Position angle (CCW/world-x)                               [deg]
#  10 FWHM_WORLD             FWHM assuming a gaussian core                              [deg]
#  11 ELONGATION             A_IMAGE/B_IMAGE                                           
#  12 ELLIPTICITY            1 - B_IMAGE/A_IMAGE                                       
         1 -10.9681     37.0615     39.4330   1.0789117839e+02   6.3604258299e+01    0.7602456     0.540127 -25.56  0.001148944    1.177    0.151
         2 -10.9112     16.4469     66.5632   1.2414777590e+02   6.0631882849e+01     1.381397    0.1036054 -54.15  0.004341686    5.076    0.803
         3 -10.3509     45.5029     29.2409   1.0078654512e+02   6.4097475442e+01    0.4091572     0.378675 -42.83  0.002689455    1.596    0.373
         4 -10.3293     50.8672     15.4080   9.3203179530e+01   6.5102778243e+01    0.8244376    0.4206102  11.21  0.004024846    2.666    0.625
         5 -10.9644     21.8539     53.7135   1.1858381331e+02   6.2641949978e+01     0.922661    0.5648281 -79.22  0.003995479    4.419    0.774
         6 -11.3227     23.9665     32.1247   1.1064595802e+02   6.6077968275e+01     1.509261    0.5879425 -31.58  0.004924628    2.464    0.594
         7 -10.5114      7.1845     28.4537   1.1665822866e+02   6.8020094687e+01    0.4604344    0.3623434  38.41  0.002441599    1.955    0.488
         8 -10.2184     75.3523     32.5545   9.1427225130e+01   5.9171887401e+01    0.6169581    0.4271042  24.84  0.001401639    1.341    0.254
         9  -9.2275     68.0324      9.3024   8.4780357326e+01   6.3035957672e+01    0.2411316    0.1568749  44.61 0.0005746387    1.432    0.302
        10  -9.6811     62.9962     21.3089   9.1251450338e+01   6.2588936535e+01    0.3987724    0.2448944 -46.54  0.001579038    2.438    0.590
        11 -10.2945     64.5877     13.3389   8.7529044727e+01   6.3209733849e+01    0.4185625    0.2661722  38.53    0.0019829    1.393    0.282
        12  -8.9355    128.4318     25.0119   7.4818288253e+01   4.9359214121e+01    0.3995058    0.2286973 -15.94  0.001587443    2.222    0.550
        13  -9.7973    119.0971     21.7496   7.5772951831e+01   5.1784757873e+01    0.2413499    0.2189932 -60.20 0.0007242361    1.325    0.245
        14  -9.1594     73.4415     19.7359   8.7186309192e+01   6.1036019645e+01    0.2547827     0.192443 -35.31 0.0009546441    1.575    0.365
        15  -9.1818     73.7899     13.2487   8.4550265920e+01   6.1655667604e+01    0.4586865    0.2044165  -7.45  0.001862369    3.809    0.737
        16  -9.7412     10.7001     18.4336   1.1136585928e+02   6.9254991735e+01    0.5515004    0.2356974  -9.17  0.002405972    4.023    0.751
        17  -8.9612    112.1871     15.8351   7.5350969773e+01   5.3876114809e+01    0.2659201    0.1670892 -21.54  0.001282822    1.801    0.445
        18  -9.6163    133.6006     12.0288   6.9780159352e+01   4.9494046557e+01    0.3767084    0.2009425 -63.79  0.001582003    3.320    0.699
        19  -9.1961    125.1868      5.4864   6.9308114580e+01   5.1962144340e+01    0.2543375    0.1697411  32.21  0.001473348    1.564    0.360
        20  -9.8143    125.0882     13.7277   7.1931670730e+01   5.1254615856e+01    0.2840461    0.2575441 -19.42  0.001241629    1.267    0.211
        21  -9.5557    126.7913      9.1710   7.0163435395e+01   5.1288661242e+01    0.2672622    0.1456233  43.69 0.0005425643    1.678    0.404
        22  -8.6063     96.7817     12.3848   7.7815830901e+01   5.7399935644e+01    0.3717461    0.1842378  10.92  0.001549023    3.424    0.708
        23 -10.9758    248.8864     10.9454   5.5662661906e+01   2.3218824795e+01    0.5893802    0.3285731 -34.03  0.003367718    2.081    0.520
        24 -10.8340     37.1505     10.1071   9.6293475172e+01   6.7562992748e+01    0.6906354    0.2825521 -39.37  0.002421672    2.899    0.655
        25  -9.6075     19.8122      8.8021   1.0319367236e+02   6.9699361645e+01    0.3266948    0.2477093   8.92  0.001810609    1.209    0.173
        26 -10.3360     18.0840      3.9380   1.0183018178e+02   7.0453303602e+01    0.7926813    0.6583986 -78.21  0.004466857    4.676    0.786
        27 -10.3762      6.0835      5.0280   1.0802952807e+02   7.1427588271e+01      0.46024    0.2788805   6.28  0.001425839    1.443    0.307
        28  -9.1450      2.4941      3.0480   1.0894054492e+02   7.1964177852e+01    0.2202503    0.1181926 -32.89   0.00153743    1.516    0.341
        29  -9.4035     85.1438     13.0618   8.1149345534e+01   5.9604268549e+01    0.3376078    0.2366712 -54.22  0.001394987    2.283    0.562
        30  -8.2119     80.7014     12.5092   8.2201501566e+01   6.0485311658e+01    0.2295647    0.1324189 -38.50  0.001264499    2.160    0.537
        31  -9.8078     31.2468     12.3232   9.9697850151e+01   6.8025878266e+01    0.3209944    0.2263477 -41.34  0.001637322    1.907    0.476
        32  -9.0564    114.0282      9.9952   7.2993750520e+01   5.4020572390e+01    0.2463814    0.1449075  44.78 0.0004065696    1.455    0.313
        33  -9.1114    102.0400      8.7457   7.5245525066e+01   5.6657585810e+01    0.2607978    0.1571686 -36.27 0.0008247189    1.979    0.495
        34 -10.0572    114.5566      4.3619   7.1015596101e+01   5.4383717504e+01    0.4758734    0.1766002  58.54  0.001837734    2.177    0.541
        35  -8.4855     85.2239      6.3248   7.8583811816e+01   6.0202295187e+01    0.2991146    0.1186253  26.76  0.001138618    3.877    0.742
        36  -9.0789     78.1806      3.9258   7.9599779786e+01   6.1722901592e+01    0.3767725    0.1961892  -8.36  0.001696344    2.260    0.557
        37  -9.2123     96.4926      4.3793   7.5007256520e+01   5.8155570277e+01    0.3168834    0.1845771 -42.16  0.001738685    2.281    0.562
        38  -8.5654     89.3161      3.8195   7.6573569112e+01   5.9623719343e+01    0.3620289     0.167724 -38.57  0.001799024    2.805    0.643
        39  -9.6488     63.7444      2.8124   8.3492097074e+01   6.4352007012e+01    0.2806596    0.2213475 -52.10  0.001800393    2.110    0.526
        40  -9.5714    210.9498      4.1039   5.7522474681e+01   3.2248853049e+01    0.2516419    0.1279911  75.85  0.001331769    1.670    0.401
        41  -7.8075    143.2820      4.6984   6.5954298519e+01   4.7926277299e+01    0.1200097   0.08941063 -75.34 0.0001917902    1.550    0.355
        42  -8.8062    104.6332      2.2003   7.2375929932e+01   5.6660143499e+01    0.2385431    0.1572417  44.02 0.0006509476    1.253    0.202
        43  -9.6972      2.2899     14.5324   1.1380385275e+02   7.0441232146e+01    0.3744342    0.1796798 -52.81  0.002045761    2.770    0.639
        44  -8.4591    136.5137      1.5272   6.6118738542e+01   4.9737237269e+01    0.1246587    0.1043838  65.47 0.0003873301    1.043    0.042
        45  -9.7788    139.7165     99.4827   9.4375202670e+01   3.4924976058e+01     0.462441      0.32996  40.20  0.001749702    1.450    0.310
        46 -12.6906     40.4792    247.0513   1.4288101834e+02   1.8073728828e+01     2.539087    0.5225788  41.22   0.01026744    3.704    0.730
        47 -10.7882    127.4825    102.6339   9.8360719981e+01   3.6952700567e+01    0.8214636    0.5830745 -72.99  0.002925503    1.937    0.484
        48 -10.0454     91.8602    113.0841   1.1102703769e+02   4.1552265231e+01    0.5487865     0.374943 -85.68  0.001541119    2.314    0.568
        49 -10.2163     78.0548    113.0813   1.1509428340e+02   4.3793689547e+01    0.5073364    0.3162345 -73.92  0.002173834    2.209    0.547
        50 -10.5783     63.1159     96.5168   1.1565353616e+02   4.9655234838e+01    0.7946693    0.4204678 -62.14  0.002011081    2.160    0.537
        51 -10.1919     67.2443    103.9179   1.1618333745e+02   4.7454987384e+01    0.6618623    0.3895031 -10.58   0.00257064    3.214    0.689
        52  -9.7375     59.1387    109.6875   1.2003314312e+02   4.7227772398e+01    0.3096408    0.2393701  89.44 0.0007919883    1.638    0.389
        53  -9.4713     14.1101    111.5208   1.3401573557e+02   5.1229584715e+01    0.3569316     0.200823  81.62  0.001684427    2.597    0.615
        54  -7.9002    158.7818    111.7934   9.3066941537e+01   2.8024432188e+01    0.2127088    0.1818178 -82.89 0.0003714956    1.303    0.232
        55  -8.8672     35.6343    111.2044   1.2753374888e+02   4.9505904418e+01    0.1901522   0.09665895 -53.18 0.0007158426    1.608    0.378
        56  -8.3623     40.4915    107.4826   1.2530653158e+02   4.9872724055e+01    0.2136852    0.1175142 -70.88  0.000540225    1.991    0.498
        57 -11.0656     44.6757    102.5009   1.2294014884e+02   5.0557830926e+01    0.7523366    0.4511243  72.96  0.003130469    3.364    0.703
        58  -7.6781    194.0354    106.0003   8.4163327797e+01   2.0971160542e+01    0.1795137    0.1705675 -75.42 0.0009649397    1.011    0.011
        59  -7.4882    167.6275    114.2842   9.1699683195e+01   2.5459260134e+01    0.1628406    0.1230286 -89.87 0.0007016471    1.707    0.414
        60 -10.7680     21.4164    102.0395   1.3015950636e+02   5.2813851045e+01    0.9350953    0.4599357 -81.20  0.003612773    2.993    0.666
        61  -9.5412     15.5658     94.3090   1.3054522217e+02   5.4946015341e+01     0.452842    0.1648749 -54.73  0.002157131    2.001    0.500
        62  -9.8136    149.3197    102.8000   9.2930149032e+01   3.2066443058e+01    0.5482753    0.2804216 -53.79 0.0009725653    2.265    0.558
        63  -8.0048     14.3285    105.2898   1.3291635183e+02   5.2613366678e+01    0.1257865   0.07417671 -40.57 0.0002422096    1.619    0.382
        64  -9.4973      6.2194    103.9857   1.3514081505e+02   5.3433723321e+01    0.3308743    0.2512279  61.45  0.001661716    1.648    0.393
        65  -8.7356    165.8287    103.9504   8.9445823564e+01   2.7996588717e+01    0.2742551    0.2040791 -50.40 0.0004260011    1.347    0.258
        66  -8.5698     93.2023    103.1638   1.0810340314e+02   4.3541127105e+01    0.4825299    0.2526095  17.08   0.00152234    4.175    0.761
        67 -10.3041     65.4488    111.0769   1.1842199804e+02   4.6077624735e+01    0.5898169     0.446115  76.70  0.002426949    1.776    0.437
        68  -8.4823    158.9809    101.4158   9.0313432222e+01   3.0110605520e+01    0.2824967    0.2070518 -60.10 0.0004313265    1.500    0.333
        69  -9.4627     81.3410    100.2723   1.1091467292e+02   4.6158502854e+01    0.3394877    0.2519418 -75.40   0.00109596    1.769    0.435
        70  -9.3848     94.3169     97.3606   1.0622079301e+02   4.4600811581e+01    0.3019147    0.2468122 -60.39 0.0007537422    1.319    0.242
        71  -9.3102    130.4127     96.7080   9.5974636293e+01   3.7550091940e+01    0.4282302    0.2347158  31.66  0.001612532    2.385    0.581
        72  -9.3355    242.4898     96.4961   7.3933230310e+01   1.1966724061e+01    0.2341687    0.1238535  46.15  0.001037367    2.324    0.570
        73  -8.7723    164.3102     94.6458   8.7333155395e+01   3.0192956808e+01    0.2697432    0.1808024 -53.13 0.0005456149    1.568    0.362
        74 -10.1126    139.1795     92.4044   9.2562149960e+01   3.6468675011e+01    0.6237109    0.3802272 -52.06  0.001866072    1.782    0.439
        75 -10.0712     20.5522     84.6474   1.2692611585e+02   5.6652347274e+01    0.4591941    0.1832669 -53.03  0.002243932    1.893    0.472
        76 -10.9094     25.5292     78.2605   1.2374900893e+02   5.7587686971e+01    0.6459497     0.484313  81.20  0.001958581    2.059    0.514
        77 -10.0577     36.5808     81.3130   1.2065026783e+02   5.5962085329e+01    0.5976089    0.2902931 -19.04  0.002386648    3.556    0.719
        78 -10.5038    150.2924     88.9026   8.8929474543e+01   3.4596756597e+01    0.6370205    0.4596035 -55.83  0.002180872    1.505    0.336
        79 -10.2678    150.2363     81.7026   8.6941924400e+01   3.5956566992e+01    0.6596686    0.3070666 -55.76  0.002158748    3.128    0.680
        80 -10.0802    123.1560     91.4250   9.6403721184e+01   4.0180136172e+01    0.4718728    0.4058526  25.03 0.0009973029    1.235    0.190
        81 -10.2148      4.3968     90.2788   1.3338219187e+02   5.6520507750e+01    0.4932683    0.2863149 -81.72  0.002191905    1.996    0.499
        82  -8.6951     95.9291     91.0379   1.0398908244e+02   4.5638512061e+01    0.4171097    0.2573971  -7.13  0.001549616    3.092    0.677
        83  -8.6651    157.4829     91.1055   8.7892142556e+01   3.2488896713e+01    0.2354741    0.1505404 -41.75  0.001028029    1.578    0.366
        84  -9.2869    112.8756     89.0084   9.8519173017e+01   4.2797003241e+01    0.3647668    0.2950086  22.15  0.001859228    1.353    0.261
        85  -8.4806    163.5194     87.5173   8.5597669682e+01   3.1736842467e+01    0.2665533    0.1354377 -50.70 0.0006899684    2.161    0.537
        86 -10.1592     85.2992     86.7294   1.0599935739e+02   4.8376072051e+01    0.4113201    0.3241574 -76.99 0.0008889304    1.755    0.430
        87  -9.6931     88.2938     78.5476   1.0268111466e+02   4.9487621401e+01    0.7250183     0.352533  25.61  0.002515784    2.970    0.663
        88 -10.4962     47.8516     84.7666   1.1767436849e+02   5.4053681654e+01     0.516417    0.3753197 -80.78   0.00177387    2.002    0.500
        89  -8.9158     65.4396     85.5834   1.1202516829e+02   5.1661437200e+01    0.5157447    0.2731298   1.34  0.001628448    5.092    0.804
        90  -8.3120     28.2901     87.3034   1.2490226452e+02   5.5464720120e+01    0.1285099    0.0777182 -35.20 0.0002347584    1.569    0.363
        91  -8.5769    126.1318     83.6753   9.3398763179e+01   4.1053762499e+01    0.4504589    0.2679453  14.38  0.001500565    3.622    0.724
        92 -10.3055    103.8259     82.6194   9.9235031821e+01   4.5846096317e+01    0.5099759    0.2701004 -49.32 0.0009126467    2.016    0.504
        93  -9.5425    105.2762     72.0546   9.5632657007e+01   4.7539517061e+01    0.7169917    0.4819506  13.05  0.003254762    2.031    0.508
        94 -10.0551    157.6736     83.3084   8.5722692057e+01   3.3906691295e+01    0.6812569    0.2258912 -35.91  0.002115766    3.403    0.706
        95  -9.5922    157.6718     63.5263   8.0219078982e+01   3.7309516185e+01    0.2821958    0.2671398  79.58 0.0009042174    1.027    0.026
        96 -10.1812    156.8589     75.2960   8.3684108960e+01   3.5534485048e+01    0.5815388    0.2802519 -28.79  0.001913276    2.690    0.628
        97 -10.4229    156.7124     69.4410   8.2079398109e+01   3.6570447637e+01     0.685628    0.3383723 -23.60  0.002418474    3.153    0.683
        98 -10.1679    140.3673     81.9981   8.9341304749e+01   3.8190194098e+01    0.6298197    0.3603155 -29.96  0.001702495    2.055    0.513
        99  -9.0163    139.9539     75.9322   8.7698872651e+01   3.9386221404e+01    0.3433672    0.2443081 -72.54  0.001046694    1.953    0.488
       100  -8.5647    179.0850     83.1821   8.1270217900e+01   2.8797168244e+01     0.225371    0.2064084  21.64 0.0006298614    1.285    0.222
       101  -8.4027     63.4219     82.2236   1.1176158818e+02   5.2628889891e+01    0.1858112     0.122748 -58.19 0.0009421289    1.665    0.399
       102  -8.7368    118.9813     80.4964   9.4366055953e+01   4.3185488722e+01    0.3052032    0.1973848 -50.66 0.0007512527    1.691    0.409
       103  -8.0500    119.8382     76.1338   9.2840700552e+01   4.3810871445e+01    0.2039332    0.1704537   8.15 0.0005344932    1.344    0.256
       104  -9.0688     73.9658     80.3373   1.0775790867e+02   5.1479756236e+01    0.2766761    0.1874661 -60.47 0.0006722721    1.807    0.446
       105  -9.7482      5.2134     79.2194   1.3100828583e+02   5.8798206219e+01    0.4402727    0.2013171 -25.63  0.002230259    2.619    0.618
       106  -9.5276    166.1009     79.1833   8.2803240641e+01   3.2636895199e+01    0.2658615    0.2145741 -39.50 0.0009563122    1.279    0.218
       107  -8.5423    184.3819     77.8875   7.8898654053e+01   2.8455512516e+01    0.2348138     0.199151  80.64 0.0005274974    1.170    0.145
       108  -8.6431     58.7825     77.6774   1.1204031359e+02   5.4165572859e+01    0.2766263    0.2236044  89.77  0.001536747    1.895    0.472
       109  -9.4370     49.2489     76.8672   1.1508739506e+02   5.5509482734e+01    0.4527453    0.2413805 -32.75  0.002195018    1.925    0.481
       110  -8.5852     53.9688     76.0000   1.1321241110e+02   5.5113303980e+01    0.2681457    0.1519472  29.19  0.001149471    1.912    0.477
       111  -8.8256     42.3840     76.5197   1.1738675379e+02   5.6347434348e+01     0.217335    0.1059363 -50.73  0.001062436    1.776    0.437
       112  -9.4932    127.3831     75.2618   9.0608933409e+01   4.2335241772e+01    0.3392927    0.2587349 -69.29 0.0005635087    1.704    0.413
       113 -10.0498    234.9306     73.7609   6.9999790349e+01   1.7418354671e+01    0.2710254    0.2365724  71.85 0.0005217458    1.211    0.174
       114 -10.2466    239.0311     69.9151   6.8632554194e+01   1.7148590097e+01    0.3172375    0.2372925 -72.77 0.0007955739    1.266    0.210
       115 -10.1465     49.7681     53.8024   1.0793303533e+02   5.9749381842e+01    0.5396305    0.3026892 -56.19  0.002409894    2.463    0.594
       116  -7.8565    153.2894    115.6673   9.5346851639e+01   2.8460523263e+01    0.1605076    0.1239232 -81.20 0.0002361423    1.627    0.386
       117  -9.4295     55.8066     43.5948   1.0221790945e+02   6.0624642663e+01    0.6082194    0.3216855  -1.59  0.002472344    3.493    0.714
       118  -9.6613     51.0383     37.1885   1.0166739727e+02   6.2238473851e+01    0.4848099    0.3580173  59.11  0.002746677    2.490    0.598
       119  -9.9937    199.4782    248.5047   1.1245328342e+02  -7.1544240344e+00    0.2759793    0.1080937  38.78   0.00122583    2.217    0.549
       120 -10.7581    108.8886    101.3506   1.0308221034e+02   4.1031579200e+01     1.017895     0.718163 -76.55  0.004428984    2.092    0.522
       121 -11.9495    247.2375    237.0717   1.0162790254e+02  -1.2723984397e+01    0.2348272    0.2077162   4.84 0.0002073292    1.210    0.174
       122 -11.4081    120.8255    110.8238   1.0231304965e+02   3.6582944011e+01     1.368412     0.534185 -48.94  0.003174757    2.574    0.612
       123  -9.4261     12.7726    235.3309   1.4686861442e+02   2.3603971936e+01    0.2034059    0.1552639 -73.22 0.0005207299    1.445    0.308
       124  -9.9414     14.3887     44.8967   1.1893147911e+02   6.4786598097e+01    0.3751989    0.2032443 -26.37  0.001211028    1.680    0.405
       125 -10.3646      8.4152     47.0656   1.2202316374e+02   6.4818380532e+01    0.6047016    0.2065864  26.43  0.003047587    3.231    0.690
       126 -10.3137      5.0854     42.2581   1.2199540417e+02   6.5872383667e+01    0.5650684    0.2714978 -61.06  0.003064965    2.432    0.589
       127  -9.8317      6.7966     32.6610   1.1825611870e+02   6.7375276887e+01    0.2739227    0.1591358 -12.02 0.0009283997    1.653    0.395
       128  -9.4239    188.1988    233.8818   1.1227995472e+02  -2.9707111037e+00    0.2500209    0.1876731 -58.57  0.001290969    1.743    0.426
       129 -10.3256    162.4198     71.6263   8.1497937758e+01   3.4833361865e+01    0.6092884    0.2401638 -44.19  0.002024452    2.622    0.619
       130  -9.2230    114.8343     72.8609   9.3204987046e+01   4.5454621366e+01    0.4026211     0.247037 -35.04  0.001558295    1.681    0.405
       131 -10.1567     81.0422     72.8015   1.0322421020e+02   5.1809473375e+01    0.4862023    0.3878181  24.88  0.001379883    1.266    0.210
       132  -9.5247     84.0845     64.4400   9.9631907634e+01   5.2811739974e+01    0.6254131    0.3441544  16.10  0.002467108    2.999    0.667
       133 -10.7122     55.4301     71.0992   1.1128987791e+02   5.5886597387e+01    0.6008695    0.3738836  54.07  0.001463798    2.582    0.613
       134  -9.7181     54.9081     63.1876   1.0907535456e+02   5.7436033022e+01     0.479318    0.2647703  22.61  0.002420494    2.018    0.505
       135 -10.0270     72.9579     59.2343   1.0156557901e+02   5.5545853981e+01    0.4713787     0.247117 -48.74 0.0009565545    2.166    0.538
       136 -10.3851     62.9751     60.7904   1.0547715768e+02   5.6772098548e+01    0.9416186    0.2569886  34.57  0.002653546    3.948    0.747
       137  -9.3211     76.6728     50.4075   9.7368871402e+01   5.6391881301e+01    0.6243724    0.2666467  35.04   0.00270398    2.409    0.585
       138  -9.2668     79.9080     46.6205   9.5008481810e+01   5.6425948698e+01    0.2628326    0.1866466   8.52  0.000648969    1.517    0.341
       139 -10.8367    169.2964     69.7787   7.9616170111e+01   3.3484167727e+01    0.7136744    0.2655373 -34.95  0.002485226    2.933    0.659
       140  -9.4765    146.9545     69.3479   8.4177543565e+01   3.8899598928e+01    0.3618217    0.2609411 -61.81 0.0009480627    1.658    0.397
       141 -10.0100    130.8578     66.9281   8.7249008248e+01   4.3008450073e+01    0.6392155    0.5300416   5.89  0.003370583    1.401    0.286
       142  -9.5556    129.8984     57.0718   8.4491272455e+01   4.4809933763e+01    0.5323529    0.2431093 -40.79  0.001210499    2.311    0.567
       143  -9.8570     94.7355     68.3357   9.7575047134e+01   5.0222474873e+01    0.4086966    0.2567298 -45.90 0.0008036522    1.678    0.404
       144 -10.8047     31.8864     64.5944   1.1789135856e+02   5.9737657465e+01    0.7595974    0.3168072 -27.45   0.00306028    3.405    0.706
       145  -9.7570    138.0524     66.4527   8.5377357731e+01   4.1452890936e+01    0.3393063    0.2181748 -50.01 0.0007200605    1.736    0.424
       146  -9.5424    120.9874     66.6367   8.9661026953e+01   4.5231495004e+01    0.3603799    0.2991823 -47.57 0.0009542243    1.298    0.230
       147  -9.5518    109.7724     63.8072   9.1795417181e+01   4.8066543624e+01    0.3759898    0.2318259 -45.07 0.0006855706    1.752    0.429
       148  -8.8314    110.6351     58.0977   8.9746378383e+01   4.8819741185e+01     0.375801    0.2214798  27.48  0.001401499    2.091    0.522
       149 -10.4320     34.2671     91.1455   1.2377515335e+02   5.4104671786e+01     0.621031    0.2602582 -60.30  0.002430251    2.184    0.542
       150  -9.8808    237.0562     63.6416   6.7524540154e+01   1.8566928927e+01    0.2496796    0.1628609 -54.61  0.001327885    1.373    0.272
       151  -7.6859    230.3000     63.3263   6.8304931449e+01   2.0105191044e+01    0.1239533    0.1091851  20.89 0.0004982431    1.636    0.389
       152  -9.5359    164.2568     61.4441   7.8323325122e+01   3.6053503696e+01    0.2965796    0.1837601 -20.86  0.001284642    2.179    0.541
       153  -8.2092    122.6227     60.7029   8.7410325698e+01   4.5853213571e+01    0.2238354    0.1633435  16.31 0.0008633041    1.687    0.407
       154  -9.1732     96.6771     58.9334   9.3983598961e+01   5.1460298528e+01    0.5809687     0.326278  -2.29  0.001982007    4.109    0.757
       155 -10.5057    146.9253     57.0878   8.0629116597e+01   4.0875371090e+01    0.7169636    0.2788098 -29.48  0.002517113    3.223    0.690
       156  -9.0494      9.6370     59.8407   1.2500468018e+02   6.2387945949e+01    0.1888031    0.1344693 -22.18 0.0007898851    1.302    0.232
       157  -9.1934     87.3231     58.3632   9.6638430220e+01   5.3278224781e+01    0.2851695    0.2162848 -52.97 0.0008642562    1.626    0.385
       158  -9.5064    156.1920     57.3655   7.8781423638e+01   3.8627685831e+01    0.4045713    0.2522091  74.03    0.0012923    1.896    0.473
       159  -9.2025    152.4926     54.4976   7.8714119005e+01   3.9944802117e+01     0.275967    0.2336857 -73.28 0.0008028525    1.300    0.231
       160  -9.8071    138.9334     57.0108   8.2366653126e+01   4.2755734465e+01    0.4744426    0.2102316 -42.39  0.001246046    2.410    0.585
       161  -9.2577    118.2406     55.4414   8.6884851082e+01   4.7628746763e+01    0.3421168    0.2301096 -55.45  0.000750459    1.920    0.479
       162  -9.4064    120.9038     47.7436   8.3766227138e+01   4.8187687984e+01      0.48204    0.2723595 -18.24  0.001323557    2.348    0.574
       163  -9.9583    173.1640     51.7345   7.4039485651e+01   3.5363250474e+01    0.4644285    0.3067407 -60.33  0.001951878    1.711    0.415
       164 -10.3265    167.8281     49.8746   7.4481693440e+01   3.6926758550e+01    0.4559158    0.3140838 -53.57  0.001434245    1.562    0.360
       165  -9.2927    105.4151     51.9066   8.9174485831e+01   5.0846511960e+01    0.5289423    0.2643356 -29.74  0.002325473    2.191    0.544
       166  -8.8628    111.7312     46.9971   8.5859343214e+01   5.0261748347e+01    0.2768638    0.2432078  22.37  0.000418979    1.085    0.079
       167  -9.0932     43.9990     53.9568   1.1013066563e+02   6.0414839905e+01    0.1890006    0.1536762 -20.38 0.0003857504    1.017    0.017
       168 -10.3017     85.1211     48.2035   9.3905137369e+01   5.5275190848e+01    0.3474607    0.2907631 -72.84  0.001019037    1.833    0.454
       169  -9.1934    157.2412     48.9752   7.6198324577e+01   3.9610947232e+01    0.2912517    0.1827997 -49.15  0.001240377    1.749    0.428
       170  -9.6591    141.9546     49.0333   7.9319059732e+01   4.3230004361e+01     0.317113    0.2049809 -38.81 0.0007917738    1.651    0.394
       171 -10.2740    149.7955     47.5588   7.7256909645e+01   4.1589554555e+01    0.5539895    0.1753988 -34.41  0.001943614    3.318    0.699
       172  -8.9016    130.0845     48.0129   8.1654355365e+01   4.6106310460e+01    0.2626127    0.1922641 -39.23 0.0004676461    1.472    0.321
       173  -8.9606    130.3074     44.3111   8.0454120994e+01   4.6569338302e+01    0.6011371    0.3200718  -3.26  0.001965766    4.633    0.784
       174  -8.1684    209.6945     44.9200   6.6801170861e+01   2.7566436196e+01    0.1830411    0.1557878 -65.15 0.0003945345    1.102    0.093
       175  -9.8103     69.2627     42.2390   9.6982363840e+01   5.8834476324e+01    0.4873762    0.2497739 -48.15  0.001490458    2.614    0.617
       176 -11.7897     51.2441    225.7652   1.3911838569e+02   2.1040699109e+01     1.378666    0.6162359  60.60  0.006598196    2.213    0.548
       177  -9.2207     72.5223     25.9285   8.9857739557e+01   6.0480485121e+01    0.3741853    0.2126964  27.45  0.002011988    1.732    0.423
       178  -9.5815     79.5193     23.9269   8.6892345300e+01   5.9496026089e+01    0.4978887    0.2216005  28.16  0.001836142    2.835    0.647
       179  -9.1969     84.7078     21.9709   8.4608786567e+01   5.8768511164e+01    0.2517692     0.204957  38.80 0.0009794065    1.148    0.129
       180  -9.4697    104.9963     40.3177   8.5426492919e+01   5.2578206224e+01    0.5190766    0.2527404 -27.38  0.002209106    2.283    0.562
       181  -9.4012    110.2353     33.6385   8.1812084970e+01   5.2344336230e+01    0.4140111    0.2436519 -34.44  0.001414395    1.843    0.457
       182  -8.6439    190.9890     41.8139   6.8631429620e+01   3.2442638316e+01    0.2014261    0.1711203  48.82 0.0005919001    1.315    0.240
       183  -9.3817    153.1871     41.2659   7.4776718768e+01   4.1637307744e+01    0.2933947    0.2126395 -57.42 0.0007116967    1.573    0.364
       184 -10.2599    163.1059     52.1921   7.5985211743e+01   3.7734662502e+01    0.6163514    0.2615877 -26.63  0.002238079    3.198    0.687
       185  -9.5076    139.2411     40.5350   7.7344050074e+01   4.5021175828e+01    0.3168665    0.2216404 -81.42 0.0009759198    2.002    0.501
       186 -10.4987     89.1746     37.9961   8.9103723060e+01   5.5985368579e+01    0.7045066    0.2515717  39.84  0.002812498    2.731    0.634
       187  -8.7999    219.1371     37.5936   6.3970530361e+01   2.6385930855e+01    0.2176085    0.2130776  89.09 0.0006985614    1.296    0.228
       188  -9.2411    143.9818     36.5044   7.5171785829e+01   4.4429177396e+01    0.2373856    0.1819431 -54.91 0.0004452354    1.490    0.329
       189  -9.0547    132.8131     35.8882   7.7286400029e+01   4.7094914236e+01    0.2371957    0.1959814 -34.15 0.0005409551    1.333    0.250
       190 -10.4653    133.9680     31.0588   7.5551421629e+01   4.7414311199e+01    0.2406318    0.2132728  50.76  0.001476365    1.010    0.010
       191  -7.8819    136.2261     27.0197   7.3855065887e+01   4.7359429943e+01    0.1747541    0.1518614 -68.59 0.0005485368    1.322    0.243
       192  -8.7732    118.8708     34.7820   8.0080275281e+01   5.0350367072e+01     0.262355     0.179353 -33.51 0.0008603893    1.596    0.373
       193  -9.4691    100.9429     32.7776   8.3937359803e+01   5.4366341250e+01     0.441018    0.1888946 -30.77  0.001294077    2.486    0.598
       194  -8.9037     10.1771    207.6132   1.4545829291e+02   2.9640211546e+01    0.3165767    0.2095514   8.42  0.001804108    3.022    0.669
       195  -9.4112     60.2466     33.8836   9.7063632357e+01   6.1409525882e+01    0.3924332    0.2010145 -42.97  0.001600003    2.261    0.558
       196  -9.0410     64.0503     26.5954   9.2951897446e+01   6.1784011637e+01    0.4389458    0.1874206  40.69  0.002121143    2.194    0.544
       197 -10.1140    159.9935    215.3304   1.1497701736e+02   5.4200777204e+00    0.2258156    0.2032946 -51.29 0.0002303525    1.211    0.174
       198  -8.4293     21.6556    203.9405   1.4296249726e+02   2.9279289902e+01      0.24322    0.1368265 -44.76    0.0012453    2.788    0.641
       199  -8.1485    173.2823     32.0281   6.8781365673e+01   3.7979077525e+01    0.1853004    0.1723149 -75.90 0.0009509975    1.110    0.099
       200  -8.7707    177.9770     29.9696   6.7536813211e+01   3.7099505237e+01    0.2957831    0.1732231 -71.17   0.00135974    2.158    0.537
       201  -9.6640    172.7608     26.5476   6.7420386264e+01   3.8760235701e+01    0.4093186    0.2595067 -74.44  0.001508079    1.881    0.468
       202  -9.1100    190.4978     28.5609   6.5430849254e+01   3.4268554456e+01    0.4666002    0.2236412 -81.90  0.001692365    3.540    0.718
       203  -7.6572    148.4709     29.5249   7.2265982844e+01   4.4215475695e+01    0.1348034    0.1194111  78.24 0.0008073448    1.104    0.094
       204 -10.1050    192.4700    195.3148   1.0444159839e+02   3.2119274811e+00    0.9232338    0.4761395 -64.44  0.002866956    4.690    0.787
       205  -9.0127     91.2481     26.0645   8.4232637558e+01   5.7072127897e+01    0.3028623    0.2133436 -46.94  0.001533561    1.878    0.467
       206  -8.7982     92.2577     20.7927   8.2042409491e+01   5.7458557201e+01    0.4641252    0.1709173  44.26  0.002038443    2.326    0.570
       207  -9.2899    228.2799     25.1183   6.0291630062e+01   2.5940439210e+01    0.2564872    0.2106977 -41.97 0.0009694825    1.385    0.278
       208  -8.3155    144.4597     26.0020   7.1973041502e+01   4.5560353481e+01    0.1835374      0.13186 -31.57 0.0008722699    1.566    0.361
       209  -9.1047    102.9564     21.4961   7.9488337692e+01   5.5242597345e+01    0.2666507    0.1727387 -34.09 0.0007424999    1.740    0.425
       210  -8.0294    161.5086    200.5700   1.1204832149e+02   8.0924954015e+00    0.1446459    0.1348888  48.07 0.0008062528    1.028    0.028
       211  -9.7111    199.2073     19.9380   6.2287411900e+01   3.3228406298e+01    0.4260315    0.3106604  83.47  0.002530098    1.188    0.158
       212  -8.3191    111.7878     22.0126   7.7521772206e+01   5.3338292658e+01    0.1995767    0.1412663 -58.91   0.00107313    2.011    0.503
       213  -8.2442    230.4633    168.4021   9.1483609278e+01   1.1479526611e+00    0.2672397     0.121244 -50.11  0.001032895    2.522    0.604
       214  -8.5930    178.2761    165.5942   1.0137348515e+02   1.2089676264e+01    0.2116245    0.1446694  34.28 0.0005238955    1.567    0.362
       215  -7.9407    250.6775    158.8056   8.5959481024e+01  -7.5376697231e-01    0.1852501    0.1103854 -45.08 0.0009071432    1.562    0.360
       216  -9.6928    132.8437     17.2916   7.1533473904e+01   4.9162223336e+01    0.3517933    0.2112392  61.21  0.001488772    1.453    0.312
       217  -8.8679    108.1053    158.0383   1.1655286652e+02   2.7977509923e+01    0.2167236    0.2038288 -79.45 0.0002869837    1.012    0.012
       218  -8.2516    230.5021     17.5130   5.8504952115e+01   2.6378249407e+01    0.1260827   0.09937615 -80.14 -0.0001507131    1.009    0.009
       219  -7.9691    192.3210    153.6291   9.5739525196e+01   1.1650346940e+01    0.1591929    0.1209408 -81.05 0.0007034045    1.801    0.445
       220  -8.6815    174.0494    152.9825   9.9529076790e+01   1.5701139024e+01     0.222423    0.2181479 -55.04            0    1.009    0.009
       221  -9.4842     40.8723     20.9777   9.9343507490e+01   6.5785278351e+01    0.2590174    0.1406595 -31.05 0.0005131165    1.706    0.414
       222  -9.2827    133.8058    147.1835   1.0773823639e+02   2.5576193359e+01    0.8260003     0.211603 -54.36  0.001981118    5.148    0.806
       223 -10.3046    220.5048    147.4824   8.8826488818e+01   7.0311590396e+00    0.2600215    0.2497486 -68.04 0.0001769124    1.105    0.095
       224  -8.5776     95.8672     17.0525   7.9727722650e+01   5.7132989730e+01    0.1824892    0.1649132  30.89 0.0004325116    1.099    0.090
       225  -9.7397     66.9299    144.1442   1.2474350780e+02   3.8000772377e+01    0.4300554    0.3368242  66.54  0.002121541    1.393    0.282
       226  -8.5680    237.6816    144.6628   8.5163000227e+01   4.1849590278e+00    0.1430681    0.1082101  -5.35 0.0007049146    1.704    0.413
       227  -9.3363    189.9382     15.6464   6.2375847543e+01   3.5890068727e+01    0.3590568    0.2047036  86.39  0.001318885    1.755    0.430
       228  -8.4333    112.1809    134.0666   1.1035848596e+02   3.2968915598e+01    0.3030282    0.1969364  68.85  0.001112953    2.177    0.541
       229  -9.9063    134.9396    131.5239   1.0381686889e+02   2.8971600441e+01    0.7265366    0.4226648 -41.35  0.002605191    1.779    0.438
       230  -9.7629    135.0098    121.7892   1.0140595760e+02   3.1163635334e+01    0.5361671    0.2728531 -47.86  0.001661021    1.943    0.485
       231  -9.9184    130.4042    118.8050   1.0183730026e+02   3.2813085062e+01    0.4208487    0.3097208  88.81  0.001027624    1.912    0.477
       232  -9.7745     98.5174    128.7322   1.1285894870e+02   3.6748498400e+01    0.6304604    0.3974472  79.09  0.002360723    2.860    0.650
       233  -9.4465    239.1616    129.1455   8.1558809535e+01   6.7669220300e+00    0.2235889     0.202831 -40.58 0.0003142024    1.040    0.039
       234  -8.0780    225.1143    129.5021   8.4000821353e+01   9.5472092946e+00    0.3036409    0.1564246 -47.81  0.001270767    1.854    0.461
       235  -7.4449    167.5871    130.4290   9.5710607737e+01   2.2034216661e+01    0.1549649    0.1507235 -66.89 0.0001156574    1.005    0.005
       236  -8.1900    141.5165     12.4839   6.8514423373e+01   4.7635377964e+01    0.1290308    0.1100356  62.25 0.0001135139    1.010    0.010
       237 -10.1094     58.1854    124.6946   1.2349312698e+02   4.3844662693e+01    0.6087103     0.366967  79.82  0.002310072    2.828    0.646
       238  -9.9627     71.1376    125.9819   1.2001267212e+02   4.1793616905e+01    0.5192189    0.3524587 -78.93  0.001567121    1.772    0.436
       239  -9.3988     66.2353    127.6084   1.2175885337e+02   4.2091642258e+01    0.3360548     0.264908  46.39  0.001846995    1.396    0.284
       240  -8.2126    160.3172    127.6650   9.6702135444e+01   2.4273739032e+01    0.1641515    0.1251687 -84.92 0.0004546229    1.696    0.410
       241 -10.1295    116.9828    125.5547   1.0705995979e+02   3.4028223580e+01    0.5198177    0.3551595 -83.91  0.001526158    2.226    0.551
       242  -7.4878    172.2526    125.6634   9.3507770212e+01   2.1999063565e+01    0.1574851    0.1210029 -74.12 0.0003325153    1.567    0.362
       243  -9.1843     41.4139    122.1570   1.2787662116e+02   4.6382094884e+01    0.4574517     0.223995 -77.53  0.001874684    2.689    0.628
       244  -9.5174     27.5609    123.1801   1.3203260171e+02   4.7480700197e+01    0.5215445    0.2702729  68.97  0.002087001    3.369    0.703
       245 -10.1628    140.4026    117.3819   9.8927167115e+01   3.0970230113e+01    0.8074371    0.3259891 -50.80   0.00173662    2.650    0.623
       246  -9.9022    108.5875    114.6820   1.0666090485e+02   3.8151491127e+01    0.5473165    0.3562718 -81.60  0.001516427    2.659    0.624
       247 -10.8748    133.8470    109.4978   9.8541808507e+01   3.4117482668e+01    0.9183826    0.3726788 -48.47  0.003154543    2.520    0.603
       248  -9.8191    139.2420    104.4787   9.5841541886e+01   3.3996753282e+01    0.4398874    0.3347246  81.39 0.0008659966    1.709    0.415
