#   1 NUMBER                 Running object number                                     
#   2 MAG_AUTO               Kron-like elliptical aperture magnitude                    [mag]
#   3 X_IMAGE                Object position along x                                    [pixel]
#   4 Y_IMAGE                Object position along y                                    [pixel]
#   5 X_WORLD                Barycenter position along world x axis                     [deg]
#   6 Y_WORLD                Barycenter position along world y axis                     [deg]
#   7 A_WORLD                Profile RMS along major axis (world units)                 [deg]
#   8 B_WORLD                Profile RMS along minor axis (world units)                 [deg]
#   9 THETA_WORLD            Position angle (CCW/world-x)                               [deg]
#  10 FWHM_WORLD             FWHM assuming a gaussian core                              [deg]
#  11 ELONGATION             A_IMAGE/B_IMAGE                                           
#  12 ELLIPTICITY            1 - B_IMAGE/A_IMAGE                                       
         1 -16.0055    140.1726    123.7628   1.0083539468e+02   2.9873895135e+01     3.714139      2.59137  77.99  0.009350414    2.036    0.509
         2 -18.9862    205.5971    113.3122   8.4048424035e+01   1.7087916706e+01     8.694608     7.309075 -34.25   0.04520713    1.226    0.184
         3 -11.5037    131.0636     24.0404   7.3913523125e+01   4.9097957497e+01    0.3914621    0.2660156  15.48  0.001778547    1.886    0.470
         4 -12.7670    189.5108     19.6453   6.3439377792e+01   3.5705454603e+01    0.3343121    0.2670268 -55.57 0.0005342457    1.270    0.213
         5 -10.0939    247.7714     16.8275   5.7003481503e+01   2.2832195557e+01    0.2735898    0.1241863 -47.23   0.00138079    1.892    0.471
         6 -10.2675    134.7704     12.0072   6.9467422126e+01   4.9440643418e+01    0.2096523    0.1566274  60.79 0.0002909637    1.143    0.125
         7  -9.6428    219.5447     11.3048   5.8323687804e+01   2.9647625133e+01    0.1370855    0.1218488 -31.48 0.0005421484    1.473    0.321
         8 -10.1417     23.3649     10.9340   1.0226652184e+02   6.9414369057e+01    0.1619927     0.126173  11.99 0.0004093111    1.247    0.198
         9 -10.2766    238.5418      9.7419   5.6365907214e+01   2.5632132840e+01    0.3056879    0.1636523  57.14  0.001663942    2.129    0.530
        10 -10.0951    167.7281      7.5033   6.3136335496e+01   4.2135355813e+01    0.2547644    0.1751068  -8.08 0.0008306195    2.035    0.509
        11 -10.0288    234.1646      6.9200   5.6160676885e+01   2.6896313422e+01    0.1783989    0.1427492 -83.98 0.0005504172    1.070    0.065
        12 -10.2571    192.9786      7.1294   6.0043488121e+01   3.6212355044e+01    0.2434211     0.150043  67.39 0.0005207425    1.394    0.283
        13  -9.7355     66.3474      6.4420   8.3862715903e+01   6.3869907501e+01    0.1442822    0.1020135  48.30 0.0009294985    1.448    0.310
        14  -9.9719    216.2802      5.2403   5.7334410554e+01   3.1041092500e+01    0.1730473    0.1396805  82.10 0.0008465928    1.131    0.116
        15  -9.3912     19.9278      7.4746   1.0228022985e+02   7.0192520982e+01    0.1421681   0.08866672  21.38 0.0003533003    1.471    0.320
        16  -9.9271    141.3571      3.0762   6.5685109879e+01   4.8698181994e+01    0.2153174    0.1415108  56.75 0.0004885964    1.268    0.211
        17 -11.3769    222.1783      1.4118   5.6028580894e+01   3.0121099614e+01     0.215971    0.1056983  76.94 0.0003416487    1.737    0.424
        18 -10.2146    166.5659      1.8225   6.1803135185e+01   4.2921827525e+01    0.2586541    0.1453605  60.89  0.001405354    1.490    0.329
        19  -9.8437    130.9396      2.2818   6.7145552845e+01   5.1139529654e+01    0.1816855    0.1341931  62.62  0.001122349    1.137    0.120
        20  -9.0734     20.7005      1.7139   9.9275494584e+01   7.0766490364e+01    0.1074411   0.06298136   0.30 0.0002198916    1.554    0.356
        21 -12.3821    175.9900    220.2523   1.1280038448e+02   1.8326020783e+00    0.4581675    0.3495968  47.08 0.0003677516    1.261    0.207
        22 -13.0006    229.6324    250.1462   1.0745856139e+02  -1.1745159727e+01    0.7644849    0.3337786  26.37  0.003560357    2.457    0.593
        23  -9.1513     83.4703    250.4561   1.3559973522e+02   1.1809111426e+01     0.123752   0.09960268  65.10 0.0001160732    1.037    0.036
        24 -10.3661    233.9320    220.8109   1.0155368307e+02  -8.1601487050e+00    0.3133916    0.1881843  28.19  0.001139114    1.622    0.383
        25 -10.2440    130.1710    218.8961   1.2223364314e+02   1.0421998512e+01    0.2692661    0.1812549 -61.99 0.0008732089    1.626    0.385
        26 -11.0987     59.5032    216.9700   1.3684875181e+02   2.2149746452e+01    0.3543064    0.3175785 -36.75  0.001156075    1.650    0.394
        27 -10.7695    123.2788    216.0761   1.2328622922e+02   1.2230816830e+01     0.357414    0.2862286  10.42  0.001890142    1.757    0.431
        28 -10.4196    143.0439    215.9877   1.1902293213e+02   8.6873448863e+00    0.2113915    0.1950122  55.14 0.0004915681    1.018    0.017
        29  -9.7446     24.9958    214.8119   1.4343715642e+02   2.6880708438e+01    0.1590636    0.1361699 -30.22  0.001068232    1.953    0.488
        30  -9.7381    236.0234    214.5220   1.0000817832e+02  -7.5140554308e+00    0.1888296     0.118029  34.01  0.001019967    1.559    0.359
        31 -11.9813    195.6087    213.4046   1.0758165419e+02  -4.7318438755e-01    0.3857478    0.2469691  51.29  0.001719403    1.734    0.423
        32  -9.5729      1.7326    214.4148   1.4770186590e+02   2.9335233020e+01    0.1233988    0.1085184  36.59 0.0009428812    1.632    0.387
        33  -9.9566    213.8890    210.7944   1.0348220122e+02  -3.2407010868e+00    0.2378949    0.1724648 -22.29  0.001293957    1.430    0.301
        34 -10.5585    184.3683    210.9685   1.0942864943e+02   2.0140613883e+00    0.2551482    0.1319185 -52.86  0.001084215    2.332    0.571
        35 -10.6425    222.7779    208.3708   1.0131955232e+02  -4.3512843138e+00    0.3368833    0.2208185 -45.04  0.001082476    1.659    0.397
        36 -10.9104    164.7765    209.4411   1.1326406621e+02   5.9574835220e+00    0.3072368    0.2714593  14.65  0.001432247    1.215    0.177
        37 -11.1698    159.0210    207.9221   1.1422865447e+02   7.3428544026e+00    0.4405162    0.3132985   6.97 0.0009999195    2.098    0.523
        38 -10.7721    242.1084    207.9179   9.7661511300e+01  -7.4357250014e+00    0.1909796    0.1651771  11.41 0.0002861899    1.096    0.088
        39 -14.6432    188.8197    200.6740   1.0659065016e+02   3.1201289503e+00     1.912583       1.0427  40.24  0.004258068    1.763    0.433
        40 -11.3076    132.3011    246.6886   1.2572321863e+02   4.6861325477e+00    0.2364114     0.191007  58.06 0.0003187653    1.110    0.099
        41 -15.7526    193.0392    166.4870   9.8753798558e+01   9.0687460118e+00     3.862659     1.745228  35.49  0.007457023    2.676    0.626
        42 -14.9884    171.3928    157.2334   1.0138379625e+02   1.5587771457e+01     2.267654     1.459861  23.05  0.006211275    2.213    0.548
        43 -14.9765    169.3078     80.3665   8.2642739032e+01   3.1877063484e+01     1.552617     1.261413 -48.94  0.004321707    1.235    0.190
        44 -14.9886    196.9469    148.2352   9.3905170024e+01   1.1991730115e+01     1.142554    0.9583013 -56.52  0.005848327    1.220    0.180
        45 -15.5368    219.9257    136.6150   8.6858275686e+01   9.4330759605e+00      2.17713    0.9408574  49.25  0.006770547    2.483    0.597
        46 -15.3140    174.8277    100.1740   8.6766631194e+01   2.6845252642e+01     2.028172    0.7495992  57.14  0.006485539    3.052    0.672
        47 -15.0864    177.2255     85.0462   8.2318368478e+01   2.9121045554e+01     1.584987     1.007541 -10.65  0.003421482    2.933    0.659
        48 -10.7372     20.0826    244.7045   1.4643946971e+02   2.1278305868e+01    0.3033348    0.1151289 -67.65  0.001156384    2.445    0.591
        49 -10.8829    147.4941    198.4996   1.1507871448e+02   1.1484195446e+01    0.3022056    0.2099792  57.77 0.0008924704    1.513    0.339
        50  -9.5849    233.8969    171.9726   9.1994824659e+01   5.2809769153e-02     0.195862    0.1654128 -71.68 0.0005469249    1.552    0.356
        51 -10.6777     79.8837    170.9380   1.2623162426e+02   2.9887038650e+01    0.3677478    0.1905873 -60.57 0.0008852885    1.788    0.441
        52 -10.2322     70.0141    168.6883   1.2830576181e+02   3.1899053109e+01    0.1895195    0.1701357  67.12  0.000334979    1.126    0.112
        53 -11.8403    246.0456    166.2659   8.8680526069e+01  -1.0987805606e+00    0.2286529    0.1999931 -36.63 0.0003312496    1.087    0.080
        54 -11.1194    144.2814    195.6334   1.1528171544e+02   1.2714353103e+01    0.3166052    0.2518059 -69.95  0.000940262    1.382    0.276
        55 -12.1476     28.1844    166.1514   1.3805509952e+02   3.7602668477e+01    0.2402358    0.2092364 -74.95 0.0003316244    1.150    0.130
        56 -10.8845     22.6450    165.4852   1.3926908079e+02   3.8301695578e+01     0.266624    0.2006087  87.50  0.000192774    1.147    0.128
        57 -10.4378    236.1642    163.5859   8.9835881581e+01   1.1572748418e+00    0.4054477    0.2775673  -6.65  0.001776462    1.983    0.496
        58 -10.9837    242.1007    162.3329   8.8537665140e+01   3.0132734689e-01     0.344434    0.2169956 -24.42  0.001033882    1.725    0.420
        59 -12.9247    114.7062    151.9751   1.1388099554e+02   2.8504024778e+01    0.6367761     0.460374 -27.89  0.002656806    1.828    0.453
        60 -11.3164    121.4313    161.7930   1.1421212675e+02   2.4870293305e+01    0.2904571    0.2349514 -50.11    0.0010443    1.246    0.197
        61 -12.4561    118.5476    158.3564   1.1423156288e+02   2.6243301039e+01    0.6892994    0.3753155 -40.22  0.002704622    2.166    0.538
        62 -12.6456    140.6805    192.1388   1.1546252221e+02   1.4167112374e+01    0.6943018      0.52416 -27.74  0.002631459    1.713    0.416
        63 -10.3438    118.9984    169.7907   1.1639086289e+02   2.3436027172e+01    0.2375138    0.1930409  74.99 0.0006044375    1.306    0.234
        64  -9.7365     42.1567    157.8870   1.3362251982e+02   3.8087539702e+01    0.2061144    0.1587056  86.24   0.00100777    1.223    0.183
        65  -9.7732     31.7771    158.2630   1.3623271959e+02   3.9110485182e+01    0.1791045    0.1437128 -89.83 0.0003420688    1.102    0.093
        66 -10.5024     15.7762    154.1398   1.3960726925e+02   4.1580479710e+01    0.3484475   0.09799432 -63.99  0.001178137    2.567    0.610
        67 -10.0968    250.5978    153.7049   8.5307162909e+01   3.1276679622e-01    0.1727346    0.1166517 -45.11 0.0002284241    1.366    0.268
        68  -9.7677     90.4452    152.4777   1.2027758547e+02   3.2703382973e+01    0.2456662    0.2117144 -61.46  0.000761708    1.096    0.088
        69 -10.1835     90.9947    149.0596   1.1946609357e+02   3.3446028589e+01    0.2317059    0.2097372 -74.50 0.0005552061    1.024    0.024
        70 -10.8928    120.8327    149.2797   1.1173921844e+02   2.7966743615e+01    0.2697643    0.2050645 -64.86  0.000780221    1.347    0.257
        71  -9.1383     34.3003    150.2933   1.3454167323e+02   4.0756375609e+01    0.1266139    0.0880577 -45.28  0.000342423    1.569    0.362
        72 -10.0421     80.5888    148.2347   1.2206847776e+02   3.5319704286e+01    0.2846533    0.1345439 -63.26  0.001129438    2.096    0.523
        73  -9.7444     25.4764    149.4390   1.3665397828e+02   4.1823250862e+01    0.2088923    0.0980404  44.33 0.0005936295    2.341    0.573
        74 -10.9554    244.2625    145.9182   8.4701507513e+01   2.8648208193e+00    0.5028288    0.3638411  68.39  0.002308276    1.852    0.460
        75 -16.2277    186.7990     89.3323   8.1596277818e+01   2.6032815101e+01      1.61391     1.348932   0.55  0.006865326    1.600    0.375
        76  -9.9111     22.0338    145.8571   1.3705608580e+02   4.2983553574e+01    0.1866501    0.1448395  83.35 0.0003513309    1.241    0.194
        77 -10.5760     92.3321    141.5039   1.1757488736e+02   3.5059491514e+01    0.3421295     0.206335 -28.89  0.001334578    2.586    0.613
        78  -9.3667    249.4911    195.1095   9.3887257087e+01  -6.5555477685e+00    0.1794066    0.1152789 -34.10 0.0003768464    1.414    0.293
        79 -10.0216    233.8212    193.7700   9.6427153541e+01  -3.7595443793e+00    0.3890067    0.1596662 -41.16  0.001361927    2.341    0.573
        80 -13.1468    227.2746    191.0416   9.7098698032e+01  -2.1582780097e+00    0.4936402    0.3498503   1.91  0.001934916    1.699    0.412
        81  -9.8002     30.8719    140.1889   1.3398774173e+02   4.3509837907e+01    0.1876862    0.1490611 -89.54 0.0003125969    1.201    0.167
        82  -9.7744     39.2033    139.3988   1.3164673704e+02   4.2857527116e+01    0.1622685    0.1187473  49.35 0.0003113457    1.525    0.344
        83 -10.7081     31.2255    136.0838   1.3328054755e+02   4.4451567444e+01    0.2014636    0.1850596 -22.08 0.0005720494    1.334    0.250
        84 -11.5357    109.9438    133.7755   1.1112339402e+02   3.3757602744e+01    0.3756414    0.2180328 -48.22  0.001100824    1.665    0.399
        85 -10.1993     72.1589    133.9178   1.2157178038e+02   4.0066329134e+01     0.213168    0.1798628 -84.36 0.0003435994    1.214    0.176
        86 -11.2795    100.9350    134.4362   1.1370983246e+02   3.5263354430e+01     0.298281    0.2191158 -54.07 0.0004989764    1.291    0.226
        87  -8.7943     41.6837    130.7293   1.2953811885e+02   4.4666328502e+01    0.1293887   0.09155658 -37.78 0.0004234682    1.558    0.358
        88 -10.2018     74.1082    129.0941   1.2002811775e+02   4.0941864279e+01    0.2129604    0.1801377 -41.69 0.0003236105    1.195    0.163
        89 -11.5863    101.3361    127.1711   1.1193392893e+02   3.6915949877e+01    0.3935815    0.3347898  -9.69  0.001367226    1.434    0.303
        90 -11.8201    129.9808    192.1466   1.1790333609e+02   1.6201733887e+01    0.2591015     0.232069 -85.49 0.0002888428    1.119    0.107
        91 -10.7180     80.1692    125.6985   1.1756488795e+02   4.0834407326e+01    0.2816663    0.1687908 -34.77 0.0008565855    2.027    0.507
        92 -12.8165    103.6688    118.4543   1.0918250931e+02   3.8518110196e+01    0.5465335     0.448953 -10.90  0.002721934    1.499    0.333
        93 -13.1630    101.9102    113.2678   1.0837600419e+02   4.0027541177e+01    0.7675833    0.4959397  12.13  0.003057757    2.550    0.608
        94 -11.6964     91.5766    116.5917   1.1216315789e+02   4.1107153841e+01    0.3551808    0.3036092 -81.08  0.001341738    1.303    0.233
        95  -9.9267     57.0000    114.9568   1.2203048655e+02   4.6617380310e+01    0.2379932   0.06988201 -57.65 0.0008098496    2.994    0.666
        96  -9.6823     44.1562    112.8153   1.2546795006e+02   4.8610599543e+01    0.1858642    0.1329711 -44.36 0.0006281335    1.288    0.224
        97 -11.0288     69.9982    116.6169   1.1850369443e+02   4.4490408439e+01    0.3325931    0.1981767  48.43   0.00135431    1.962    0.490
        98 -11.3019    128.4399    188.5037   1.1761294065e+02   1.7311372998e+01    0.3413484    0.2884482  29.48  0.001259432    1.319    0.242
        99 -13.1033    100.9411    105.1694   1.0654799577e+02   4.2013991596e+01    0.7190188    0.4360109 -49.92  0.001894398    1.600    0.375
       100  -9.9937     72.6348    103.2903   1.1452874789e+02   4.7151776040e+01    0.1389147    0.1094117  76.31 0.0007025763    1.704    0.413
       101  -9.6522      2.5081    103.5666   1.3641588764e+02   5.4108921701e+01    0.1188256    0.0915428 -60.86 0.0001171953    1.011    0.011
       102 -11.2857     94.1704    101.0013   1.0740908028e+02   4.4152806363e+01    0.3717016    0.2687827  -7.90  0.001716257    1.899    0.474
       103 -11.2477     78.2933    100.2910   1.1201582658e+02   4.6956829804e+01    0.2572966    0.2358303 -10.48 0.0003747021    1.127    0.113
       104 -10.4427     82.4704     95.5449   1.0946532697e+02   4.7320156410e+01    0.2399687     0.217539 -36.53 0.0008810221    1.024    0.023
       105  -9.7917     47.5445     95.0102   1.2047238951e+02   5.2245464199e+01    0.1984675    0.1137219 -53.97 -1.790408e-05    1.512    0.339
       106 -11.5122    103.0252     89.5010   1.0160251462e+02   4.4934700937e+01    0.2864214    0.2123604 -41.95 0.0003594576    1.313    0.238
       107 -10.8930     68.2080     89.7515   1.1239217139e+02   5.0733273103e+01    0.2353171    0.2023472 -23.75 0.0002718175    1.122    0.108
       108 -11.0892     87.6659     88.2150   1.0581977245e+02   4.7987398545e+01    0.3573831    0.2475545 -26.04   0.00120937    1.598    0.374
       109 -11.1268     52.1324     88.0918   1.1723407750e+02   5.3200018531e+01    0.2485675    0.1884314 -54.61 0.0002952314    1.248    0.199
       110  -9.3308      3.6346     88.6838   1.3355549523e+02   5.7271592682e+01    0.1273166   0.06490415 -39.99 0.0007039427    1.772    0.436
       111 -11.0827    118.0177    191.0896   1.2047427514e+02   1.8655537252e+01    0.4724993    0.2392799 -57.57   0.00158235    2.021    0.505
       112 -11.1112     74.2892     85.3337   1.0920216307e+02   5.0749352193e+01    0.2613178    0.1748036  13.71  0.001271381    1.873    0.466
       113 -11.2419    101.1313     82.9159   1.0022529133e+02   4.6606038399e+01    0.2476387    0.1950137 -51.83 0.0004377542    1.346    0.257
       114 -11.9804    102.1753     79.0828   9.8770064445e+01   4.7143195481e+01    0.4155273    0.3046495  67.03  0.001713226    1.856    0.461
       115 -10.5097     85.2968     82.7474   1.0496440640e+02   4.9494716101e+01    0.2361365    0.1936123  25.24 0.0008480633    1.262    0.208
       116 -10.2581     52.4995     81.0407   1.1523140981e+02   5.4622222831e+01    0.1870492    0.1673341 -17.44 0.0004471526    1.085    0.079
       117 -11.8278    109.2918     77.4239   9.6228268115e+01   4.6048510859e+01    0.3593816    0.2670568 -27.15  0.001806032    1.418    0.295
       118 -12.1670     67.0047     77.5414   1.0933174016e+02   5.3396625976e+01    0.2587177     0.225286 -32.96  0.001571425    1.051    0.048
       119 -10.8884     94.6925     77.7145   1.0057229318e+02   4.8812928070e+01    0.2558288    0.2130541 -12.38 0.0008626512    1.250    0.200
       120 -10.5764     85.3178     76.9877   1.0323327868e+02   5.0615093109e+01    0.2009421    0.1768976 -31.08 0.0005897536    1.077    0.072
       121 -11.1684    113.7414     75.4092   9.4377903323e+01   4.5507645998e+01    0.2702034    0.2000082 -38.79 0.0006702644    1.359    0.264
       122 -11.1154     96.7912     72.3027   9.8273252256e+01   4.9429538194e+01    0.2488231    0.2357531  17.26 0.0003019458    1.057    0.054
       123 -11.9486    101.2789     70.6294   9.6425315843e+01   4.8873962895e+01    0.3282017    0.2335515 -21.50  0.001263446    1.553    0.356
       124 -12.1084    110.5231     69.3960   9.3409546359e+01   4.7244485375e+01    0.4669432    0.3124999  10.53  0.001836372    2.161    0.537
       125 -11.0864     88.4789     70.9090   1.0036589805e+02   5.1201167085e+01    0.2299746    0.1850205   3.81 0.0009080125    1.327    0.247
       126 -12.4402    119.0281     68.0837   9.0701422335e+01   4.5683863037e+01    0.5280381    0.3735774 -38.72  0.002409224    1.447    0.309
       127 -10.4767     32.0129     66.9792   1.1860946190e+02   5.9626764487e+01    0.1832305    0.1492974 -32.22 0.0003411781    1.011    0.011
       128 -10.2821     10.8585     65.9046   1.2619826416e+02   6.1511063267e+01    0.1814961    0.1204255 -38.22 0.0003623727    1.216    0.178
       129 -12.9315    111.6265     58.6858   8.9705500162e+01   4.8801809788e+01    0.3503118    0.3083274 -14.54 0.0005740447    1.157    0.136
       130 -10.6613    115.9768     56.0162   8.7691214318e+01   4.8299366452e+01    0.2771097    0.1881709 -37.34 0.0003386381    1.536    0.349
       131  -9.7720     17.7488     61.9703   1.2258858912e+02   6.1792887695e+01    0.1511058   0.08181167 -51.16 0.0002536323    1.501    0.334
       132 -11.3689     88.4925     60.5707   9.7028511034e+01   5.3008616881e+01    0.4158863    0.2239329  31.31   0.00151072    2.037    0.509
       133 -10.4637     89.9782     57.7526   9.5635367276e+01   5.3204570899e+01    0.1910986    0.1660552  18.55 0.0003704524    1.084    0.078
       134 -10.8434     95.5745     58.9941   9.4358595768e+01   5.1958317636e+01    0.2543561    0.1913993  38.64 0.0001806317    1.291    0.226
       135 -10.8210    155.4584    203.3965   1.1419993001e+02   8.9379822681e+00    0.3938015     0.249684  20.60  0.001680232    2.232    0.552
       136  -9.7752      7.2468     57.7516   1.2551602080e+02   6.3306115888e+01    0.1586318    0.0993665 -34.41 0.0004320832    1.309    0.236
       137 -10.5858    140.0567     56.3883   8.1997710150e+01   4.2837090461e+01    0.2235991    0.1990215  -0.32 0.0004248633    1.258    0.205
       138 -11.7295    128.5651     55.4963   8.4378039882e+01   4.5610575833e+01    0.2661015    0.2346381  24.62 0.0007035298    1.159    0.137
       139 -11.2754    122.3659     53.4059   8.5230659720e+01   4.7306956414e+01    0.2909487    0.2437008  76.82  0.001233795    1.402    0.287
       140 -10.7797    125.2347     49.1451   8.3176416306e+01   4.7291990646e+01    0.2899323    0.1798081   6.95  0.001200581    2.687    0.628
       141 -10.2401     95.0994     52.8307   9.2439752136e+01   5.3026616817e+01    0.2688907    0.1709607 -60.32  0.001193027    2.638    0.621
       142 -10.1042     24.9694     52.7076   1.1711371489e+02   6.2923230862e+01    0.1580325    0.1294928 -15.45 0.0003705371    1.114    0.102
       143 -10.8159    105.8558     49.8701   8.8381804992e+01   5.1342842336e+01    0.3105285    0.1451308 -40.17  0.001339342    2.276    0.561
       144 -10.4129     68.6967    202.0683   1.3322872542e+02   2.4192328224e+01     0.470276    0.2365701  74.29  0.001921835    2.742    0.635
       145  -9.3164     49.0000    190.9498   1.3621125251e+02   2.9411771569e+01    0.2132097   0.06510089 -67.74 0.0007985643    2.916    0.657
       146 -11.5252    156.4772     44.5467   7.5147837690e+01   4.0628447309e+01    0.4408586    0.3351869  -1.02  0.002281414    1.766    0.434
       147 -11.4290    139.0717     44.2381   7.8525339950e+01   4.4806853056e+01    0.3118373    0.2409101 -77.65 0.0008546793    1.616    0.381
       148 -10.7495    134.9295     52.9489   8.2104084195e+01   4.4539959824e+01    0.2085941     0.195048  46.12 0.0003072081    1.010    0.010
       149 -10.3258     94.9964     44.7758   8.9710792571e+01   5.4237509851e+01    0.2235039     0.136267  22.81  0.001065813    1.947    0.486
       150 -10.9670     64.0997     43.6209   9.9203959430e+01   5.9748768914e+01    0.2883484    0.1866797 -41.71  0.001226854    1.649    0.394
       151 -10.3434    151.8184     43.6448   7.5771493889e+01   4.1869570817e+01    0.2228087    0.1914268  -9.29 0.0006330897    1.373    0.272
       152 -11.2435    156.0734     38.4348   7.3470313466e+01   4.1529890891e+01     0.513779    0.1886078  58.24   0.00176601    2.369    0.578
       153 -10.7271    206.0795    202.3252   1.0340701052e+02  -3.7771805086e-01    0.2296767    0.1960028 -41.72 0.0002558889    1.241    0.194
       154 -11.6022    145.8770     36.0462   7.4676874546e+01   4.4264943928e+01    0.5607448    0.2175368  61.19  0.002207327    2.391    0.582
       155 -10.5266    133.8701     32.8958   7.6116568572e+01   4.7453720106e+01     0.238642    0.2173509 -14.00 0.0007396575    1.216    0.178
       156 -10.6592    235.3707     29.9974   6.0748132900e+01   2.3857764137e+01    0.3980013    0.1846041 -69.82  0.001739283    2.568    0.611
       157 -10.2060    150.2326     30.9923   7.2373341668e+01   4.3840717537e+01    0.1770216    0.1679794  72.19 0.0003158716    1.068    0.063
       158 -10.6134     36.9030     29.9890   1.0436544959e+02   6.5386035167e+01    0.1765213    0.1409647   1.91            0    1.100    0.091
       159 -10.3967     69.5666     27.7441   9.1372330257e+01   6.1056023556e+01    0.3678299    0.1964998  -0.08  0.001617331    2.978    0.664
       160 -11.7797    225.6778     23.1377   6.0253972427e+01   2.6881380534e+01    0.4431131    0.3205904 -82.58  0.002062299    1.183    0.155
       161 -10.8034    241.5114     24.4807   5.9044961377e+01   2.3223041032e+01     0.409618    0.2363289 -68.82  0.002262132    1.595    0.373
       162 -12.1404    166.1956    194.4733   1.1021646882e+02   8.7041048402e+00    0.5138608     0.363467 -81.57   0.00229063    2.129    0.530
       163 -11.5704    215.2676    243.5809   1.0902528195e+02  -8.6550901553e+00    0.2733275     0.228375  33.39 0.0004899308    1.200    0.167
       164 -10.5470     83.8421     23.3730   8.5226624304e+01   5.9055065024e+01    0.2145178    0.1996757   1.81 0.0007278281    1.185    0.156
       165 -10.4726    244.0090    184.8291   9.2815606989e+01  -3.9597427864e+00    0.2499818    0.1853561  29.30  0.001054594    1.411    0.292
       166  -9.7967     43.6836     22.9728   9.8852976481e+01   6.5499483695e+01    0.1578228    0.1236936 -11.17 0.0003799704    1.096    0.087
       167 -10.5608    239.0648    183.4319   9.3412300441e+01  -2.8821855692e+00    0.3554735    0.2223884   3.20   0.00158453    2.424    0.588
       168 -11.3049     17.5042     21.8232   1.0946397757e+02   6.8553797908e+01    0.1875466    0.1466745  -7.63 0.0002577586    1.109    0.099
       169 -11.4165      1.4496     21.2951   1.1668145741e+02   6.9882728435e+01    0.1736232   0.09337314 -42.81 0.0002722935    1.524    0.344
       170 -10.3736    128.5006    200.1968   1.1961957905e+02   1.4694511466e+01    0.2518148    0.1896597  46.57 0.0003683345    1.250    0.200
       171  -9.8995    121.0751    243.7169   1.2756382740e+02   7.1168135538e+00    0.2318976    0.1629526  76.85  0.001026585    1.613    0.380
       172 -10.3358    158.1786     20.4793   6.8025461791e+01   4.3118064991e+01    0.3105895    0.2249238  34.02  0.001730321    1.615    0.381
       173 -12.6775    155.9255    194.7615   1.1252672699e+02   1.0647947578e+01    0.6413364    0.4828197  74.26  0.002177637    1.658    0.397
       174 -10.5084    174.5900     19.1988   6.5267063340e+01   3.9323804240e+01    0.2422877    0.1619102  69.79 0.0006737468    1.294    0.227
       175  -9.1349      2.3188    243.3013   1.4928140231e+02   2.3445252269e+01    0.0926887   0.07463176 -69.39 0.0006861493    1.623    0.384
       176 -10.6844    167.9848     23.0177   6.7220740109e+01   4.0493335980e+01    0.2838092    0.1982689 -13.73 0.0008393485    1.907    0.476
       177 -12.6221    149.8506    195.3560   1.1398599982e+02   1.1700669137e+01     1.229298     0.673278 -78.56  0.003581236    5.068    0.803
       178  -9.2923     83.1191     16.3616   8.2769894434e+01   5.9931097643e+01    0.1530643    0.1069511  56.16 0.0001541296    1.553    0.356
       179 -10.6314     24.0585     15.7750   1.0404930935e+02   6.8734127970e+01    0.1796977    0.1423489 -12.32 0.0003415899    1.150    0.131
       180 -10.1363     33.1909    177.1524   1.3816297125e+02   3.4488861563e+01    0.2242415    0.1388351 -64.26 0.0006359591    1.425    0.298
       181 -10.1804     66.1668    242.2005   1.3804219409e+02   1.5941776499e+01    0.1783742    0.1146239  68.10 0.0005723983    1.340    0.254
       182  -9.6682     56.8751    241.8684   1.3973842058e+02   1.7291518399e+01    0.1672796    0.1432267  85.29 0.0005528926    1.215    0.177
       183  -9.5122    182.5116     11.4882   6.2288870868e+01   3.8240298753e+01    0.1289947    0.1080233  78.15 8.195345e-05    1.039    0.038
       184  -9.8606    236.4261    176.8895   9.2554581308e+01  -1.2783427020e+00    0.2018964    0.1811061  47.78  0.000440121    1.288    0.223
       185 -11.3668    123.0800    176.1769   1.1661763613e+02   2.1161605482e+01    0.2712479    0.2168513 -81.17 0.0006228141    1.341    0.254
       186 -10.0812     32.8113    242.4057   1.4410331248e+02   2.0254916575e+01    0.1402798    0.1048111  37.68 0.0006345447    1.687    0.407
       187 -11.0989    236.0359    235.3775   1.0377618429e+02  -1.0637285577e+01    0.3083231    0.1842822   9.99  0.001258265    1.959    0.490
       188 -10.8761    247.9629    233.0446   1.0122554960e+02  -1.2044306607e+01    0.3394262    0.1702887  23.47  0.001705366    2.145    0.534
       189  -9.6435     56.6344    233.7262   1.3905344219e+02   1.8979488375e+01    0.1036595   0.09835146 -27.23 0.0004940942    1.668    0.400
       190  -9.9379      7.1743    231.2856   1.4779613597e+02   2.5329122804e+01    0.2181693   0.09731525  75.05  0.000819512    1.989    0.497
       191  -9.4252    153.4890    230.4959   1.1912058589e+02   3.9871359524e+00    0.1355988    0.1206252  41.50 -2.93488e-05    1.031    0.030
       192  -9.7906     69.1985    230.2260   1.3628796790e+02   1.7956305208e+01    0.1759772    0.1563292  73.60 0.0005031834    1.187    0.157
       193 -11.5521     29.7570    228.9007   1.4365020435e+02   2.3360342011e+01    0.2188385     0.172697  85.33 0.0003877383    1.122    0.108
       194 -11.4050    159.8124    226.8081   1.1723416919e+02   3.5430063757e+00     0.238629    0.2258141 -23.29 0.0003349211    1.182    0.154
       195 -10.2397    149.7843    226.6500   1.1929022037e+02   5.3722860196e+00    0.2337828    0.2092987  10.54 0.0009123061    1.282    0.220
       196 -10.9726    203.3589    225.7734   1.0826018669e+02  -3.9475344765e+00    0.3623954    0.2077037  44.92  0.001202167    1.740    0.425
       197 -12.6247    179.7622    223.1284   1.1252089107e+02   6.3266469509e-01    0.5755318    0.2617561  36.27 0.0006335077    2.108    0.526
