#   1 NUMBER                 Running object number                                     
#   2 MAG_AUTO               Kron-like elliptical aperture magnitude                    [mag]
#   3 X_IMAGE                Object position along x                                    [pixel]
#   4 Y_IMAGE                Object position along y                                    [pixel]
#   5 X_WORLD                Barycenter position along world x axis                     [deg]
#   6 Y_WORLD                Barycenter position along world y axis                     [deg]
#   7 A_WORLD                Profile RMS along major axis (world units)                 [deg]
#   8 B_WORLD                Profile RMS along minor axis (world units)                 [deg]
#   9 THETA_WORLD            Position angle (CCW/world-x)                               [deg]
#  10 FWHM_WORLD             FWHM assuming a gaussian core                              [deg]
#  11 ELONGATION             A_IMAGE/B_IMAGE                                           
#  12 ELLIPTICITY            1 - B_IMAGE/A_IMAGE                                       
         1 -12.9730    201.0993     33.9599   5.7832388689e+01   3.0361539025e+01     1.060251    0.8232791  29.81    0.0052884    1.443    0.307
         2 -13.6660    219.0422     15.3661   5.0132351580e+01   2.7858662079e+01     1.321433    0.9405265  28.62   0.00520583    1.695    0.410
         3 -13.1743      2.1825     16.4076   1.1149710596e+02   7.1737271832e+01     2.118929    0.1200461 -56.37  0.007378385    4.366    0.771
         4 -11.6458    179.0365    243.9924   1.0747857701e+02   4.0658506018e+00    0.3059395    0.1780764  42.64  0.001369892    1.273    0.214
         5 -11.2353    184.2497    249.6411   1.0732094075e+02   2.6908747029e+00    0.3370757    0.1395677  44.30  0.001950893    1.793    0.442
         6 -10.2820    175.0399    250.3686   1.0883511746e+02   3.9595364633e+00    0.2543564   0.07457643  43.09  0.001249988    2.474    0.596
         7 -10.7970    169.0440    248.9299   1.0961224671e+02   4.9946096970e+00    0.2665504    0.1562376  32.37 0.0005687903    1.549    0.354
         8 -11.3618    170.5769    243.9048   1.0880791698e+02   5.3340964523e+00    0.3006567    0.1449222  49.50  0.001109525    1.747    0.428
         9 -10.8140    164.9669    242.2329   1.0951237219e+02   6.3625293721e+00    0.2438682    0.1156055  48.28  0.001459334    1.685    0.407
        10 -10.5424    162.4917    250.3873   1.1079605511e+02   5.7877332260e+00     0.294304    0.1048148  44.34 0.0008128597    2.040    0.510
        11 -10.6847    143.2281    249.2488   1.1370550533e+02   8.7102866136e+00    0.3013389    0.1385173  56.08  0.001730151    2.195    0.544
        12 -13.0457    118.6615    236.7323   1.1644763845e+02   1.3859047298e+01    0.8641809    0.6285089  30.77   0.00625658    1.627    0.386
        13 -12.5084    135.6414    234.5652   1.1344601881e+02   1.1691453886e+01     1.470949    0.5659445 -47.89  0.007834939    3.530    0.717
        14 -10.9959    109.8178    247.7661   1.1883639187e+02   1.3585722566e+01    0.3599541    0.2464202  78.58  0.002743179    1.583    0.368
        15 -11.5670    122.8897    245.6623   1.1658704227e+02   1.2057172416e+01    0.6810469    0.2731805  59.25   0.00336342    3.103    0.678
        16 -11.1439    125.8651    243.1313   1.1587925816e+02   1.1969591495e+01    0.2779685    0.2204113  78.65  0.001031416    1.382    0.276
        17 -11.6491     99.9708    247.7403   1.2037869313e+02   1.4912374895e+01    0.6373837    0.2380679  47.55  0.003757889    1.908    0.476
        18 -12.2956    102.2119    239.0621   1.1932485709e+02   1.5820115016e+01     0.556086    0.4051379  81.70  0.004338148    1.415    0.293
        19 -11.5861     98.9135    222.9423   1.1847036760e+02   1.8658581137e+01    0.5265788     0.267239  61.66  0.002776372    1.891    0.471
        20 -10.6904     83.7696    241.1148   1.2243076704e+02   1.7960105894e+01    0.3679699    0.1777345  54.76  0.001744355    1.558    0.358
        21 -10.7528     97.1748    239.0863   1.2013776006e+02   1.6496138956e+01    0.3010599    0.1631888  66.53  0.001626489    1.830    0.454
        22 -11.5762    113.4637    230.7444   1.1674317750e+02   1.5445806724e+01    0.4627868    0.2940539  30.80  0.002585938    1.920    0.479
        23 -11.7848    105.1684    228.6315   1.1793184462e+02   1.6926194964e+01     0.597437    0.2508118  40.44  0.003326231    2.048    0.512
        24 -10.4055     91.9372    241.4793   1.2116282662e+02   1.6848349596e+01    0.2232974    0.1697087  45.37  0.001379324    1.303    0.233
        25 -11.6162     87.6908    236.8387   1.2148718541e+02   1.8077230609e+01    0.5238294    0.2266843  53.39  0.003206682    1.775    0.437
        26 -10.5291     84.2717    230.1290   1.2152539819e+02   1.9528502339e+01    0.2294131    0.1775197 -69.37   0.00182104    1.574    0.365
        27  -9.9445     81.5785    248.1861   1.2326792791e+02   1.7228445908e+01    0.2814471    0.1131044 -76.85  0.001614535    3.347    0.701
        28 -10.0320     91.2426    250.1949   1.2191823159e+02   1.5718305102e+01    0.1799261    0.1485962  75.94  0.001233705    1.267    0.211
        29 -11.2471     86.5832    248.3952   1.2250977986e+02   1.6565138807e+01    0.3158709    0.2106525  45.37 0.0009583025    1.302    0.232
        30 -11.5413     59.8178    245.7022   1.2644506752e+02   2.0227296493e+01    0.3869994    0.2604561  50.94  0.001984292    1.229    0.186
        31 -13.3830     13.9456    214.7713   1.3204192896e+02   2.9991650972e+01     1.721872    0.7460867  68.96  0.008570714    1.783    0.439
        32 -12.6113     41.5482    207.0046   1.2707342050e+02   2.8492188215e+01     1.341446    0.4944302  69.85  0.006636737    3.064    0.674
        33 -12.8527     26.4928    247.5766   1.3147884342e+02   2.3598076343e+01    0.7212137    0.5432165  39.62  0.005942002    1.730    0.422
        34 -12.7493     38.5320    240.6740   1.2940222551e+02   2.3366497231e+01     0.906423    0.3178781 -71.68  0.003999027    2.922    0.658
        35 -12.7590     25.3459    225.7793   1.3072704921e+02   2.7068307878e+01    0.3134384    0.2635172  41.70 0.0008030093    1.662    0.398
        36 -14.0372     31.6898    218.8800   1.2938828221e+02   2.7539965604e+01    0.9541472    0.7088368  80.83  0.008091118    1.185    0.156
        37  -9.5963     53.8538    240.8134   1.2707905225e+02   2.1641232674e+01    0.1374333     0.107287  61.41 0.0007151224    1.221    0.181
        38  -9.2440     66.5987    239.5762   1.2502881415e+02   2.0324377245e+01    0.1940591   0.08598287  63.57 0.0009329843    2.003    0.501
        39  -9.9620     66.7631    243.8262   1.2526959303e+02   1.9677346658e+01    0.1942716    0.1327552  26.73  0.001258123    2.362    0.577
        40  -9.6153     48.4424    237.3256   1.2771986746e+02   2.2783740667e+01    0.1982533   0.08442578  47.78  0.001315826    1.702    0.412
        41 -10.4581    158.9653    244.0326   1.1066991952e+02   7.0417067792e+00    0.1605364    0.1099985  25.26 0.0005893553    1.642    0.391
        42 -10.9512    129.3750    235.2057   1.1454300889e+02   1.2525009615e+01    0.2681455    0.1736377  71.52  0.001753333    1.801    0.445
        43  -8.5938     70.8235    235.1651   1.2407152506e+02   2.0470960867e+01    0.1237384    0.1035108  57.86 0.0008407309    1.298    0.230
        44  -9.3939     54.6102    235.3202   1.2664696459e+02   2.2386470332e+01    0.1658235   0.08123048  64.43  0.001118132    1.648    0.393
        45  -9.6200    156.6392    232.4792   1.0975331977e+02   8.8078147890e+00    0.1481343    0.1071619 -49.83 0.0007741776    1.814    0.449
        46  -8.5128     92.4703    232.5125   1.2036921698e+02   1.8085990591e+01    0.1062382   0.07872382  58.35 0.0001336813    1.020    0.019
        47 -10.1219    250.2392    230.9915   9.4747682275e+01  -5.1187212102e+00    0.1232505   0.08046305 -16.51 0.0008886884    1.636    0.389
        48 -12.4243     45.0704    243.6588   1.2856513259e+02   2.2206071679e+01    0.6421696    0.3012365  73.04  0.001700122    1.898    0.473
        49 -10.2364     56.8595    228.5210   1.2587766100e+02   2.3181613310e+01    0.1931105    0.1308255  83.80  0.001515769    1.313    0.239
        50 -10.9405     79.2777    225.3708   1.2198192983e+02   2.0912753045e+01     0.329664    0.2195815  86.76  0.001635365    1.481    0.325
        51  -9.4318     77.0658    220.6906   1.2198769358e+02   2.1940590771e+01    0.1488402    0.1050925  56.48  0.000354486    1.093    0.085
        52  -9.3370     92.4921    226.4653   1.1986321643e+02   1.8996660319e+01    0.1097166   0.07938007  60.26  6.58772e-05    1.047    0.045
        53  -9.3048     51.4070    225.5929   1.2657729546e+02   2.4280803804e+01    0.1493725    0.1221339  72.30 0.0005943759    1.238    0.192
        54  -9.8274    117.3644    224.4643   1.1547562609e+02   1.5800170259e+01    0.1952248    0.1755841  31.98 0.0007637866    1.403    0.287
        55  -9.4948     65.0127    224.2215   1.2426389436e+02   2.2887490252e+01    0.2448346    0.1443713 -54.42  0.001628063    2.460    0.594
        56 -10.6139    244.1933    242.8101   9.7339349217e+01  -5.2721853759e+00    0.2319551    0.1064861   1.32  0.001080123    4.232    0.764
        57  -9.1678    164.3174    224.0237   1.0745850436e+02   8.6995126797e+00    0.1449516    0.1265394  46.18 0.0003553648    1.131    0.115
        58 -11.7523    116.0217    249.7029   1.1802504649e+02   1.2481728673e+01    0.7533843    0.2324315  42.65  0.003927713    2.415    0.586
        59  -9.4961     87.4300    223.7239   1.2048327768e+02   2.0100555385e+01    0.2194029    0.1216597  62.08 0.0009672127    1.560    0.359
        60 -10.9187     70.9643    219.8738   1.2295564619e+02   2.2849355791e+01    0.4361244    0.2300327  82.04   0.00269784    2.061    0.515
        61 -10.6030    141.8130    219.5551   1.1074976893e+02   1.2825689663e+01    0.3018833    0.2196542 -56.64  0.001285352    1.718    0.418
        62  -9.7249    246.0000    219.9868   9.3715253370e+01  -3.5291429844e+00    0.1555791   0.05837491 -28.32 0.0008077216    2.979    0.664
        63  -9.4064     89.7130    219.2372   1.1971225697e+02   2.0501147822e+01    0.2597133    0.1066806  67.08  0.001125703    3.764    0.734
        64  -8.7550     99.2947    218.3015   1.1797702259e+02   1.9328161148e+01   0.09364326    0.0837728  25.10 0.0003197523    1.574    0.365
        65  -8.6882     80.6139    216.7979   1.2106759823e+02   2.2107944277e+01    0.1369698   0.08665933  86.37 0.0001246699    1.601    0.375
        66  -9.8704    111.4790    215.2964   1.1555884126e+02   1.8051900090e+01    0.2315465    0.1645465  31.26   0.00133059    1.676    0.403
        67  -9.9142    118.0335    214.7518   1.1435079250e+02   1.7166550064e+01    0.1684806    0.1552411  88.48 0.0003788728    1.258    0.205
        68  -9.5692     88.0865    212.7747   1.1942044764e+02   2.1766100990e+01    0.2025252    0.1304534  85.82 0.0009192001    1.616    0.381
        69 -10.4110     62.4759    208.4913   1.2355203556e+02   2.5800983510e+01    0.4024684    0.2158529 -74.50  0.001869857    1.877    0.467
        70 -10.4099     63.9714    205.2744   1.2303995167e+02   2.6171067963e+01    0.2707452     0.158496 -86.19   0.00128381    1.670    0.401
        71 -10.5589     56.0362    209.2046   1.2472447736e+02   2.6455285709e+01    0.4375417    0.1829786 -82.24  0.002415431    2.609    0.617
        72  -9.1903     51.9951    205.4944   1.2516441491e+02   2.7570953582e+01    0.2666712   0.09373067  54.50  0.001414431    2.320    0.569
        73  -8.9565    134.3698    207.7592   1.1064553712e+02   1.5730014516e+01    0.1372478      0.11021 -43.10 0.0008284774    1.611    0.379
        74  -9.3642    111.8297    207.7197   1.1469327372e+02   1.9202415478e+01    0.2536017    0.1412982  75.60  0.000987793    2.520    0.603
        75  -8.5309     74.4323    208.4923   1.2145112035e+02   2.4294760860e+01    0.1116461   0.08223313  66.35 0.0003910003    1.048    0.046
        76 -10.4558    106.9657    203.6342   1.1512984154e+02   2.0593863977e+01    0.2103106    0.1673193 -77.15 0.0002728086    1.363    0.266
        77  -9.4102     90.6787    204.9291   1.1822339486e+02   2.2717046727e+01     0.329176    0.1362882  34.12  0.001156097    3.008    0.668
        78 -10.1703     83.8151    201.5441   1.1914501130e+02   2.4241339785e+01    0.1937488    0.1478761  79.90 0.0002638624    1.174    0.148
        79  -9.9769    250.2864    200.7303   8.9935901767e+01  -2.3232483476e+00    0.2273933    0.1178026  -1.52  0.001171378    2.507    0.601
        80  -9.7323     42.9504    200.3196   1.2639741319e+02   2.9510639807e+01    0.2308051    0.1588328 -54.92  0.001382548    2.066    0.516
        81  -9.3846     75.1631    200.0741   1.2058844956e+02   2.5653514684e+01    0.1523164    0.1331442  72.57 0.0002743019    1.208    0.172
        82  -8.3886    130.6166    199.2449   1.1026601711e+02   1.7662647314e+01     0.123819   0.07696952  61.91 0.0006940529    1.649    0.394
        83 -14.1031      7.0623    244.1327   1.3413367334e+02   2.6001341590e+01     1.396071    0.8523475  81.75            0    1.301    0.231
        84 -11.8486     54.8913    193.8793   1.2377847706e+02   2.9298355575e+01    0.3604236    0.2702094 -60.31  0.001091931    1.686    0.407
        85 -12.3276      9.7920    206.6761   1.3237232583e+02   3.1750346789e+01     1.022825    0.5340093  25.47  0.006415363    3.154    0.683
        86  -8.3918     97.7197    196.2916   1.1604044640e+02   2.3198352161e+01    0.1167564   0.07439349  68.62 0.0002376986    1.528    0.346
        87  -9.8896    249.7181    193.9029   8.8847965602e+01  -1.5429838687e+00     0.274119    0.1405298  21.68   0.00145946    2.021    0.505
        88  -9.7544     21.5414    192.7834   1.2971358101e+02   3.3096444864e+01    0.2557545    0.1287066  74.09  0.001075464    1.617    0.382
        89 -10.6357     30.6577    193.0870   1.2811494067e+02   3.2129173533e+01    0.1940321    0.1524637 -80.96 0.0006766681    1.356    0.263
        90 -10.0917     26.4630    192.3371   1.2881728744e+02   3.2692048675e+01    0.2897971    0.2424389 -11.99  0.002155217    2.401    0.583
        91  -9.3746    191.5391    191.5073   9.8069400973e+01   8.4860476365e+00     0.206236    0.1749407  33.06 0.0006062551    1.022    0.021
        92 -11.2260    198.1913    245.9912   1.0472294960e+02   1.0224612150e+00    0.2442169    0.1347291  35.82  0.001443869    1.364    0.267
        93 -10.2068    250.1888    187.8973   8.7712365784e+01  -9.9071220904e-01     0.264288    0.1438256 -16.01  0.001483215    1.923    0.480
        94  -9.0699     76.8069    188.0318   1.1914135752e+02   2.7602935860e+01    0.2107524    0.1333267  86.38   0.00130251    1.578    0.366
        95 -10.1552     10.5030    188.4971   1.3143386783e+02   3.4909315566e+01    0.1725441     0.117226  74.03  0.001358887    1.030    0.030
        96 -10.1519      8.9558    185.4777   1.3156065582e+02   3.5601636681e+01    0.1590212    0.1026512  81.18 0.0006716675    1.135    0.119
        97  -9.3453     83.5086    186.7749   1.1772298506e+02   2.6921362678e+01     0.187218     0.136731  55.52 0.0004233304    1.163    0.140
        98 -10.0423     71.1106    187.0614   1.2013782156e+02   2.8534586676e+01    0.2403949    0.1305157  46.89 0.0004293476    1.595    0.373
        99 -11.5843     61.4763    185.8918   1.2187306510e+02   2.9975604296e+01    0.2157634    0.1965092  89.68 0.0004934203    1.321    0.243
       100 -11.1002      3.7007    185.8312   1.3250399894e+02   3.5992019689e+01    0.3782264    0.1930601  73.39  0.001879329    1.474    0.322
       101 -10.5894      3.9947    179.1550   1.3214623637e+02   3.7204471278e+01    0.2520711     0.167223  37.02  0.001270666    1.758    0.431
       102  -9.4241     24.4558    184.1307   1.2868897390e+02   3.4408815220e+01    0.1803546    0.1259613  56.73 0.0007568762    1.246    0.197
       103  -8.8493     30.1808    183.4111   1.2758619273e+02   3.3971637437e+01    0.1488993    0.0746183  52.25 0.0009406531    1.639    0.390
       104  -8.6938     36.3336    182.3208   1.2636028338e+02   3.3538188932e+01   0.09504069    0.0799365 -55.19   0.00070496    1.701    0.412
       105  -8.2018     86.2563    180.2915   1.1647546377e+02   2.7742948500e+01    0.0985882   0.09306144 -41.97            0    1.489    0.328
       106  -9.0224     27.1636    179.8107   1.2791337663e+02   3.4957654733e+01    0.1331362    0.1032403 -79.89 0.0002539822    1.318    0.241
       107  -8.6920     12.3931    178.7577   1.3059604465e+02   3.6551472957e+01    0.1395821   0.07646839 -74.37 0.0009445901    1.643    0.391
       108  -8.5195    103.0098    176.0104   1.1260006148e+02   2.6070250632e+01    0.1428141    0.1231121  82.91 0.0009514609    1.091    0.083
       109 -10.8396     72.8244    173.8955   1.1845965056e+02   3.0813148869e+01    0.2168074    0.1885032  75.52  0.000425309    1.127    0.113
       110  -8.8921     64.9313    176.0000   1.2026517539e+02   3.1428880323e+01    0.1792315   0.05919958  38.37 0.0007977388    2.910    0.656
       111 -10.0244     19.1346    173.8477   1.2905142561e+02   3.6874763945e+01    0.3593164     0.144511  73.34 0.0009134994    2.400    0.583
       112 -11.7915    248.1891    171.8256   8.5044471025e+01   1.1032418799e+00    0.5349737    0.3627428 -11.78  0.003259136    1.409    0.290
       113 -10.7890     58.3800    173.1760   1.2130133426e+02   3.2794755299e+01    0.2615139     0.222978  44.66 0.0005840153    1.389    0.280
       114 -10.4477     12.4803    154.0106   1.2909381022e+02   4.1398935368e+01    0.3239942    0.1197045  88.53  0.001591414    2.575    0.612
       115 -10.8324      3.0200    172.8915   1.3202411395e+02   3.8469100121e+01    0.2531834    0.1433684  67.50 0.0009432062    1.343    0.255
       116 -11.1138     10.5153    158.0018   1.2975193268e+02   4.0759235299e+01    0.3508634    0.1524626  75.80   0.00141759    2.075    0.518
       117 -10.8959     12.4785    167.4904   1.2994262928e+02   3.8711402539e+01    0.2923052    0.1906022  30.44  0.002069113    1.973    0.493
       118 -11.9383      6.1087    166.5872   1.3111786156e+02   3.9429594846e+01     0.595987    0.3831473  13.89 0.0009034547    2.782    0.641
       119  -9.4539     12.7675    172.6197   1.3018577348e+02   3.7689910458e+01    0.2094025    0.1132914 -84.25   0.00140492    1.488    0.328
       120 -10.1245     27.4327    171.5669   1.2730326968e+02   3.6522558250e+01    0.2410236    0.1548391 -64.22 0.0005565972    1.684    0.406
       121  -9.1048     51.8062    170.9696   1.2241727893e+02   3.4014734597e+01    0.1580565    0.1362936  88.13 0.0005715166    1.198    0.165
       122  -9.3232    166.9372    170.3651   9.9014958118e+01   1.6063074584e+01    0.1781086    0.1436614  41.97 0.0004157542    1.104    0.095
       123  -8.5850     96.0677    169.1584   1.1312304992e+02   2.8434672969e+01    0.1691982    0.1199854  65.25  0.001008945    1.306    0.235
       124 -11.4846     80.4284    165.9114   1.1597501565e+02   3.1348942957e+01    0.4653783    0.3547109  37.98  0.002962056    1.477    0.323
       125 -10.3760     82.0339    158.3088   1.1467105291e+02   3.2653813299e+01     0.345147      0.21044 -72.47 0.0007707077    1.612    0.380
       126 -10.0504     66.9974    161.6275   1.1830775245e+02   3.4020054785e+01    0.2172122    0.1504525 -69.48 0.0004229746    1.382    0.277
       127 -10.2416     68.2976    166.2912   1.1855811392e+02   3.2910293253e+01    0.2091754    0.1587726  74.62 0.0003165278    1.116    0.104
       128 -10.3556     44.9148    164.8522   1.2326191864e+02   3.6022626130e+01    0.2911082    0.2062369 -40.46  0.001804288    2.287    0.563
       129  -8.9302     43.2442    161.0304   1.2325928540e+02   3.6981346750e+01    0.1588652    0.1203754  83.84  0.001107959    1.047    0.045
       130 -11.1667    241.1341    150.5619   8.1908674845e+01   4.9075248941e+00    0.3304796    0.2169773  10.09     0.001574    1.629    0.386
       131 -11.3004    245.1903    162.3154   8.3659210522e+01   2.7305611599e+00     0.314494    0.2359094  32.19  0.001389623    1.217    0.179
       132 -10.5894    249.5833    161.2965   8.2765822311e+01   2.0854504855e+00    0.2637833    0.2089226 -38.05  0.001509983    1.572    0.364
       133 -11.4350    245.7698    156.4524   8.2386647209e+01   3.3364791561e+00     0.658945    0.3791554  60.36  0.003096478    2.756    0.637
       134 -10.1147     29.4782    161.6391   1.2615805513e+02   3.8293728581e+01     0.327105    0.1425845  67.13 0.0009015533    2.266    0.559
       135  -9.7580     24.0042    161.9746   1.2729740009e+02   3.8756242895e+01    0.1665873    0.1240745  80.01 0.0003547825    1.005    0.005
       136  -9.5344     46.4139    156.3042   1.2213712061e+02   3.7599368757e+01    0.1873196    0.1565929  73.39 0.0001819591    1.118    0.105
       137  -8.6029    228.3565    155.2466   8.4970110819e+01   6.6708112554e+00    0.1709867    0.1152057 -36.34 0.0004728051    1.613    0.380
       138 -11.0337     25.2389    155.1055   1.2652203639e+02   4.0033116972e+01    0.4909057   0.09350489  37.22     0.002088    4.047    0.753
       139  -9.3703     32.6404    153.8636   1.2485454358e+02   3.9567306469e+01    0.1647374    0.1457677  60.45 0.0005575269    1.304    0.233
       140 -10.8166    249.5498    150.9552   8.0663113028e+01   3.3315409987e+00    0.3887962    0.2363699 -23.58  0.002128369    1.559    0.359
       141 -12.8837    248.3988    113.9712   7.2637048540e+01   8.2872460865e+00     1.216864    0.6327471 -18.88  0.005477673    1.973    0.493
       142 -12.8708    247.3759    101.6486   6.9838732062e+01   1.0144236967e+01    0.9680904      0.67977  -8.87  0.005061327    1.427    0.299
       143 -12.7166    248.0516    134.4131   7.7350812054e+01   5.6798767127e+00     1.133082    0.6892704 -19.01  0.005896562    1.575    0.365
       144 -12.1188      9.4928    142.4298   1.2892761266e+02   4.4025401480e+01    0.5447163    0.1614393 -75.66  0.002618401    2.613    0.617
       145 -12.5293      4.8998    142.6557   1.2993379031e+02   4.4335656284e+01    0.5047041    0.3479273 -68.05  0.002118452    1.437    0.304
       146 -10.0648     94.6030    150.1529   1.1074909988e+02   3.2461177125e+01    0.2558279    0.1976805  57.21 0.0008865743    1.204    0.170
       147  -9.8966     86.9967    151.0348   1.1257876703e+02   3.3429029353e+01    0.1871767    0.1591972  81.50            0    1.027    0.026
       148 -10.3445     82.7528    149.2945   1.1328082752e+02   3.4411306137e+01    0.2087433     0.187542 -83.65 0.0002965439    1.125    0.111
       149 -10.8717     21.6708    149.3617   1.2682398297e+02   4.1548067149e+01    0.3504025    0.1504568  49.68  0.001981433    2.107    0.525
       150 -11.9249     68.3388    144.3136   1.1587123333e+02   3.7455134403e+01    0.6203089    0.3841641  78.49  0.002368253    1.728    0.421
       151 -10.4274     57.6263    147.3201   1.1869158282e+02   3.8172046767e+01     0.317949    0.2091768  31.25  0.001873596    1.881    0.468
       152  -9.6803    235.8488    145.8976   8.1778826251e+01   6.4952703665e+00    0.2063266    0.1577768  11.58 0.0004881303    1.237    0.192
       153  -9.0059     40.7897    147.4159   1.2247393341e+02   4.0072238441e+01    0.1351207    0.1132104  32.56 0.0006427591    1.550    0.355
       154 -10.0695    133.1994    141.0791   1.0056239614e+02   2.7671169486e+01    0.2893018    0.2224634 -68.32 0.0008946113    1.426    0.299
       155 -10.9748     16.8976    140.2887   1.2713907559e+02   4.3865378821e+01    0.2860953    0.1584056  61.89  0.001407736    1.638    0.390
       156  -8.6487     97.5710    146.4574   1.0950630232e+02   3.2761223893e+01    0.1282304    0.1164312  83.75 1.971755e-05    1.050    0.047
       157  -9.5054    107.6577    135.7106   1.0534735220e+02   3.3347962938e+01     0.322279    0.2230675 -22.97  0.001494144    2.500    0.600
       158  -8.8505     56.2876    135.6763   1.1754542662e+02   4.0839416921e+01    0.1280425   0.08102805  76.07            0    1.605    0.377
       159 -13.0600      2.9198    123.0905   1.2898387331e+02   4.8601384682e+01    0.6962402    0.5297807 -66.82   0.00521727    1.336    0.252
       160  -9.0959     94.1908    133.1157   1.0806484050e+02   3.6113099046e+01    0.1867604    0.1706936 -49.15 0.0004551944    1.258    0.205
       161  -9.6270     44.4781    129.9928   1.1966216839e+02   4.3435369853e+01    0.1835255    0.1018791 -73.37 0.0005398423    1.540    0.351
       162  -9.6116     33.7765    128.1787   1.2204827498e+02   4.4936279314e+01    0.2195401   0.09625326  69.33 0.0009689265    2.926    0.658
       163 -11.5360     13.0413    127.8608   1.2698266658e+02   4.6830338355e+01    0.2301635    0.1858425  38.29  0.001142386    1.528    0.345
       164  -9.8146     48.0379    126.0250   1.1827598957e+02   4.3920215551e+01    0.1824441    0.1500867 -89.66  0.000368761    1.020    0.019
       165 -11.0625      3.6585    151.2317   1.3073149110e+02   4.2676461252e+01    0.2568181    0.2276043  23.03  0.001835852    1.681    0.405
       166 -11.4676     17.1880    122.3321   1.2547999129e+02   4.7698369992e+01    0.2908119    0.1442557  68.50  0.001589329    2.060    0.515
       167 -10.3463    238.9356    121.1369   7.5761609129e+01   9.2233867236e+00    0.4382773    0.1958613 -13.84  0.001517282    3.500    0.714
       168 -10.5408     32.0005    116.9966   1.2117159999e+02   4.7581810445e+01    0.3589881   0.08117859 -59.52  0.001398482    3.340    0.701
       169 -10.6212    232.0252    116.5021   7.5769681852e+01   1.1286902888e+01    0.2819786     0.200925 -25.74 0.0006431413    1.322    0.243
       170 -12.7374     15.1829    100.4928   1.2364614259e+02   5.2688207954e+01    0.5846077    0.2969615 -52.42  0.003301586    1.947    0.486
       171 -13.0997      9.1550    113.1275   1.2659737200e+02   5.0325048966e+01    0.7761682    0.2439799 -74.17  0.003063112    2.401    0.583
       172  -8.6722    203.4909    111.5263   7.9434262343e+01   1.8211655965e+01    0.1471585    0.1357451   6.99 8.359079e-06    1.036    0.034
       173  -8.6010     71.7135    100.2719   1.0762650047e+02   4.6764563057e+01    0.1295146   0.09641469  82.11 0.0001909617    1.505    0.336
       174 -10.7395     19.0178    105.7573   1.2322682359e+02   5.1217919930e+01    0.2236366    0.1584945  76.32 0.0007220924    1.320    0.242
       175  -9.5959    167.5288    112.8265   8.6804538552e+01   2.6033575094e+01    0.2718385    0.2250623  87.14 0.0009156806    1.504    0.335
       176 -11.8769    247.6170    142.5085   7.9179825214e+01   4.7308555760e+00    0.6629411    0.4805283  38.02   0.00387583    1.345    0.257
       177 -11.3633      2.2319     77.5413   1.2459683334e+02   5.8648668513e+01    0.5653613   0.03997432 -70.99  0.001619283    6.158    0.838
       178 -11.9269    149.6891    247.2430   1.1248344188e+02   8.0188500062e+00    0.3954137    0.2319697  52.73  0.002712604    1.428    0.300
       179 -11.1909     74.0956    243.3537   1.2410336184e+02   1.8852231151e+01    0.3247274    0.2192451 -65.85  0.002568757    1.861    0.463
