#   1 NUMBER                 Running object number                                     
#   2 MAG_AUTO               Kron-like elliptical aperture magnitude                    [mag]
#   3 X_IMAGE                Object position along x                                    [pixel]
#   4 Y_IMAGE                Object position along y                                    [pixel]
#   5 X_WORLD                Barycenter position along world x axis                     [deg]
#   6 Y_WORLD                Barycenter position along world y axis                     [deg]
#   7 A_WORLD                Profile RMS along major axis (world units)                 [deg]
#   8 B_WORLD                Profile RMS along minor axis (world units)                 [deg]
#   9 THETA_WORLD            Position angle (CCW/world-x)                               [deg]
#  10 FWHM_WORLD             FWHM assuming a gaussian core                              [deg]
#  11 ELONGATION             A_IMAGE/B_IMAGE                                           
#  12 ELLIPTICITY            1 - B_IMAGE/A_IMAGE                                       
         1 -14.2371    245.4061     15.8840   5.3435027772e+01   2.4074865865e+01     7.947556     1.397872 -36.21   0.02661325    6.099    0.836
         2 -11.2697    233.7986      5.9633   5.2528460605e+01   2.7541385706e+01    0.6046992    0.3883842 -60.76  0.002456619    1.310    0.236
         3 -14.3951    154.1388     24.2166   6.5338710796e+01   4.3120575809e+01     4.283391     2.984999  17.54   0.02314895    2.152    0.535
         4 -10.7043    105.0117     51.6524   8.3673068016e+01   5.0579985138e+01    0.3984568    0.2094634 -34.70  0.001873161    2.022    0.506
         5 -11.5286      9.3644     23.4908   1.0786407111e+02   6.8701184146e+01    0.8377317      0.35036 -16.41  0.003730428    3.637    0.725
         6 -11.5626     19.6445      3.9445   9.4988474337e+01   7.0091118198e+01    0.7993513    0.4149442  15.76  0.004989497    1.831    0.454
         7 -11.8074      2.9526     10.2585   1.0562339029e+02   7.1010715111e+01    0.8638477    0.4272646 -36.49  0.005676313    1.781    0.438
         8  -8.9340    225.4284     51.6653   6.2213099382e+01   2.3477951703e+01    0.1958483    0.1402523  53.89 0.0006080412    1.666    0.400
         9 -11.7880    232.5675    250.2427   1.0099797271e+02  -1.2613725927e+01    0.2298883    0.1590698  26.08  0.001449028    1.339    0.253
        10 -10.9616      2.5212    242.5596   1.4552796460e+02   2.2358055552e+01    0.8178791    0.3501493 -85.68  0.004449137    2.003    0.501
        11 -10.1230     13.0151    248.8618   1.4408624718e+02   1.9966300207e+01     0.281352    0.1979056  70.45  0.001965287    1.080    0.074
        12  -9.8483      9.6594    246.6852   1.4453575690e+02   2.0771188050e+01     0.208817    0.1607906  34.38  0.001469553    1.706    0.414
        13 -10.2977      4.2952    227.5404   1.4427177883e+02   2.5337988012e+01    0.3516145    0.2132807 -82.53  0.001781541    1.331    0.249
        14 -10.1027      2.5604    218.7664   1.4400425184e+02   2.7412182866e+01    0.3223097    0.2585151  62.41  0.002317146    1.240    0.194
        15  -9.9326    144.5998    226.9602   1.1485202663e+02   5.3009780484e+00    0.2404624    0.2365163  -5.19 0.0003717745    1.088    0.081
        16 -10.0876     10.6545    225.5961   1.4295245363e+02   2.5117369820e+01    0.2422776    0.1648565  74.79  0.001408312    1.174    0.148
        17  -8.7737     11.0193    216.9827   1.4224899924e+02   2.6976735771e+01    0.1929626    0.1476813  85.42  0.001304245    1.020    0.019
        18 -10.1326     29.2202    211.6230   1.3812317923e+02   2.6243161912e+01    0.2587861    0.1524365  63.17  0.001417269    1.593    0.372
        19  -7.8919     20.6707    211.6919   1.3989398452e+02   2.7167684471e+01    0.1155971   0.08775987 -50.86 0.0007039456    1.661    0.398
        20  -7.9450    124.0130    206.0136   1.1603978784e+02   1.3448586110e+01    0.1637349    0.1558293  76.24            0    1.020    0.020
        21  -8.6800     12.3299    204.3382   1.4098037474e+02   2.9705051627e+01    0.2338327    0.1708458  33.07  0.001311547    1.674    0.403
        22  -9.5551    204.0400    197.9944   9.7011787847e+01   5.8020936434e-01    0.2322075    0.1665991  -4.22 0.0006523185    1.728    0.421
        23 -11.7578     35.5741    193.5328   1.3490583822e+02   2.9772655125e+01    0.5695028     0.402146   9.89  0.003063621    2.209    0.547
        24 -11.1041     31.4756    182.1727   1.3456689029e+02   3.2976306181e+01    0.4042071    0.2492033  41.18  0.002194097    1.721    0.419
        25  -8.4199    250.2645    177.9652   8.4591100558e+01  -3.3483711496e+00    0.1963666    0.1583101 -51.70 0.0007019314    1.324    0.245
        26 -10.3538    213.9394    175.5977   9.0588099557e+01   3.1935907231e+00    0.3129769    0.2277064  27.74  0.001591298    1.548    0.354
        27 -10.4544    101.0111    176.0060   1.1637320603e+02   2.4666501749e+01    0.2130507    0.1990909 -86.63  0.001158715    1.006    0.006
        28  -8.6120    238.9155    173.8179   8.5690420018e+01  -7.8685197282e-01    0.1960459    0.1755551 -32.70 0.0004862151    1.048    0.045
        29 -10.0501    223.4269    172.2097   8.8119063183e+01   2.1594604839e+00    0.2496934    0.1993043  38.20 0.0009171934    1.375    0.273
        30 -10.4828     40.5124    170.5858   1.3091780741e+02   3.4812787769e+01    0.2738192    0.2212366 -36.94  0.001056753    1.504    0.335
        31  -8.7352    239.7316    168.9615   8.4580175905e+01  -2.6365355558e-02    0.2045409    0.1927925   8.78 0.0005392258    1.165    0.142
        32  -8.2352     94.5634    167.0803   1.1638213024e+02   2.7987864132e+01     0.216807    0.1967148  48.68 8.550901e-05    1.143    0.125
        33  -8.3356    239.7450    164.0336   8.3587534158e+01   8.8508331636e-01    0.1901059    0.1563136 -35.86 0.0002182472    1.059    0.056
        34  -9.8477    207.9743    161.7090   8.8837170134e+01   7.0792599049e+00    0.2750207    0.2600141  42.29 0.0004738811    1.146    0.127
        35 -10.0895     53.4896    160.5118   1.2608719687e+02   3.5756211305e+01    0.3081565     0.125309 -63.80  0.001218212    2.191    0.544
        36  -9.9143    227.3754    144.2119   8.1599860366e+01   6.8628364875e+00    0.2448678    0.2311634 -59.37  0.000214833    1.087    0.080
        37 -10.6651     94.4951    125.3514   1.0755846408e+02   3.8240899376e+01    0.4535253    0.2789944 -26.14   0.00180175    2.329    0.571
        38  -9.4758    247.2210    122.2044   7.3912159970e+01   7.3041171149e+00    0.1913284    0.1415294 -63.41 0.0009519926    1.344    0.256
        39 -11.0714     16.6970    240.4614   1.4287596435e+02   2.1297241710e+01    0.4782874    0.2559977 -80.58  0.002821373    1.599    0.375
        40 -11.1522    101.5406    103.8228   1.0007305833e+02   4.1820651032e+01     0.458216    0.2886914 -42.15  0.002080019    1.559    0.359
        41 -11.5972     98.9311    111.9262   1.0295412081e+02   4.0530332512e+01    0.6232197     0.376961  32.37  0.002713607    1.827    0.453
        42 -11.6335     82.1276    106.9262   1.0666488971e+02   4.4581971134e+01     0.633677    0.3931791 -14.08  0.002507912    2.692    0.629
        43 -11.2798     90.5103     73.6268   9.4697198234e+01   4.9849016259e+01    0.6509648    0.2687893 -35.02  0.002494509    2.696    0.629
        44 -11.6876     98.2800     90.4727   9.7339056368e+01   4.5207213364e+01     0.470923    0.4002878  31.94  0.002509425    1.184    0.155
        45 -10.9634     95.3919     84.8420   9.6573437452e+01   4.6856067824e+01    0.4311807    0.3015614  33.97  0.002157071    1.456    0.313
        46 -11.7141     88.7729     81.4083   9.7561559651e+01   4.8725537590e+01    0.6217553    0.4193055 -51.64  0.003082542    1.624    0.384
        47 -12.0054     83.1171     98.4566   1.0412858924e+02   4.6261854565e+01    0.8278583    0.3833765 -34.35  0.003078718    2.680    0.627
        48 -11.3533     89.4853     90.0355   9.9841489650e+01   4.6907318636e+01    0.5161843    0.3744253  49.55  0.002612245    1.527    0.345
        49 -10.7953     83.2097     74.7516   9.7290505078e+01   5.0949567694e+01    0.5004421    0.2840053 -48.83  0.002329567    1.909    0.476
        50 -11.4098     85.9403     66.9940   9.4041340690e+01   5.1839433644e+01    0.6960469    0.3009957 -37.39  0.002905734    2.365    0.577
        51 -11.2135    114.2794     99.4182   9.5300621217e+01   4.0246490305e+01    0.6012599    0.3120559  44.48  0.002461365    1.942    0.485
        52 -11.4422     95.1679     97.3548   1.0017981047e+02   4.4378407720e+01    0.5050745    0.3410816  24.20  0.002353359    1.730    0.422
        53 -10.8010     75.9738     96.5886   1.0585842822e+02   4.7824560282e+01    0.4047566    0.2106867 -48.69  0.001779641    1.823    0.452
        54 -10.1158    123.7598     91.3692   9.0554058433e+01   3.9886470470e+01    0.2969603     0.270393  60.12  0.001538048    1.127    0.113
        55  -9.6480    225.4459     89.1517   7.0120260483e+01   1.7491721889e+01    0.2313204    0.2051207 -81.42 0.0002912776    1.080    0.074
        56  -9.8234     69.6990     88.4996   1.0565819082e+02   5.0483285884e+01    0.2765765    0.2204864 -77.74   0.00146202    1.746    0.427
        57 -10.8141    106.4902     87.5294   9.4138996313e+01   4.4197797192e+01    0.3110639    0.3008237  20.25  0.001792625    1.023    0.023
        58 -11.4380    120.6555     80.6879   8.8338534142e+01   4.2565109580e+01    0.4786414    0.4111671  34.90  0.002604338    1.164    0.141
        59 -10.7668     81.4111     84.2746   1.0068830270e+02   4.9452919052e+01    0.3951679    0.2883629 -30.80  0.001986919    1.364    0.267
        60  -9.8042     75.9873     89.6783   1.0395433671e+02   4.9262731495e+01    0.1954909    0.1802543  12.45 0.0006807436    1.093    0.085
        61 -11.5756    104.7184     79.7285   9.2372618490e+01   4.6025723597e+01    0.4813392    0.3950015 -64.08  0.002421575    1.472    0.321
        62 -10.3730    112.3295     82.9016   9.1188753737e+01   4.3900228302e+01    0.3004059      0.20915  38.67  0.001463995    1.439    0.305
        63 -10.2886     14.3719    232.4902   1.4274635898e+02   2.3238562768e+01    0.2999423    0.1794812  81.73  0.001401152    1.386    0.279
        64 -10.4948     75.5054     78.6791   1.0093186864e+02   5.1511592803e+01    0.4565641    0.2382173 -31.94  0.001990084    2.129    0.530
        65  -9.8713    130.2661     78.7991   8.5383311648e+01   4.0818683835e+01    0.2590832    0.1958679  61.92  0.001002843    1.391    0.281
        66 -11.2703    116.3467     72.7084   8.7133960171e+01   4.4893611875e+01    0.4333516    0.2916627 -36.19  0.002136444    1.545    0.353
        67 -11.2838    107.3014     71.1980   8.9107896880e+01   4.7026465341e+01    0.5086581    0.2970625  28.56  0.002208775    2.121    0.529
        68 -11.3844     97.1809     73.9739   9.2818594019e+01   4.8536987865e+01    0.4393114     0.333289  50.12   0.00233655    1.391    0.281
        69 -11.0108    130.5176     71.8312   8.3336194233e+01   4.1971251982e+01    0.4863688    0.3134004  14.31  0.001973096    2.690    0.628
        70 -11.1474    148.2834     68.0104   7.8282187022e+01   3.8573926914e+01    0.5403996    0.3838707  22.75   0.00254795    1.973    0.493
        71  -9.5900     76.7521     68.8526   9.7529774382e+01   5.3108111670e+01      0.32875    0.1843693 -52.55  0.001501296    2.209    0.547
        72  -8.6036     29.1435    241.6366   1.4066924165e+02   1.9631872109e+01    0.2213952    0.1343454  87.45 0.0009954999    1.430    0.301
        73  -9.2437      2.4597     50.9443   1.1999447857e+02   6.4795991678e+01    0.3340388   0.07542046 -40.71  0.001376028    3.309    0.698
        74 -11.9002     83.3308    117.3050   1.0889419502e+02   4.2026803236e+01    0.7815033    0.3540704  46.07  0.002992974    2.521    0.603
        75 -12.4040    123.7838     55.6501   8.0199382952e+01   4.6015979883e+01    0.9619852     0.538408  49.12  0.004553587    1.645    0.392
        76  -9.7034    221.4795     40.5977   6.0373044595e+01   2.5877475531e+01    0.3204263    0.2072253 -44.64  0.001745789    1.515    0.340
        77 -10.1879     10.3382     39.3251   1.1306289464e+02   6.6223916248e+01    0.3618615     0.162608 -16.94  0.001751866    2.843    0.648
        78 -10.3383     99.4544     56.9679   8.6879217156e+01   5.0909127785e+01    0.2764155     0.219836 -46.32   0.00139759    1.423    0.297
        79 -11.5930    110.3652     55.8458   8.3583427088e+01   4.8860301593e+01    0.4783132    0.4151528  26.39  0.002834964    1.124    0.110
        80  -9.1863    250.1491    239.6180   9.6020317811e+01  -1.3359669222e+01    0.2110376    0.1438862 -24.14 0.0005580632    1.270    0.213
        81  -9.5644     16.2508     32.0322   1.0793571102e+02   6.6857222649e+01    0.2936318    0.1471549  -5.80  0.001524231    2.519    0.603
        82 -10.3520      5.7607    236.2357   1.4456922390e+02   2.3342581870e+01    0.2778175    0.1951869  86.60  0.001919633    1.096    0.088
        83 -10.7854     94.5121     64.9881   9.0831082218e+01   5.0591237975e+01    0.3596704    0.2454014 -39.73  0.001876609    1.513    0.339
        84 -10.9447    103.6930     62.3608   8.7396161966e+01   4.9221045875e+01    0.3579636    0.2421899  24.72  0.001775531    1.692    0.409
        85  -8.2682     39.6762    232.6729   1.3790902195e+02   2.0277702340e+01    0.1135579   0.09327406 -47.09 0.0007049042    1.692    0.409
        86 -10.9733     25.3043    229.7608   1.4047000118e+02   2.2623096919e+01    0.4318169    0.2355803 -77.30  0.002441129    1.595    0.373
