#   1 NUMBER                 Running object number                                     
#   2 MAG_AUTO               Kron-like elliptical aperture magnitude                    [mag]
#   3 X_IMAGE                Object position along x                                    [pixel]
#   4 Y_IMAGE                Object position along y                                    [pixel]
#   5 X_WORLD                Barycenter position along world x axis                     [deg]
#   6 Y_WORLD                Barycenter position along world y axis                     [deg]
#   7 A_WORLD                Profile RMS along major axis (world units)                 [deg]
#   8 B_WORLD                Profile RMS along minor axis (world units)                 [deg]
#   9 THETA_WORLD            Position angle (CCW/world-x)                               [deg]
#  10 FWHM_WORLD             FWHM assuming a gaussian core                              [deg]
#  11 ELONGATION             A_IMAGE/B_IMAGE                                           
#  12 ELLIPTICITY            1 - B_IMAGE/A_IMAGE                                       
         1 -15.7720    154.1226    147.2635   1.1337399817e+02   2.2952011524e+01     2.027898     1.279469 -76.21  0.007899914    3.656    0.726
         2 -14.5745    147.0326     58.9457   9.2212358389e+01   4.0400849949e+01     1.361215     1.096719  -9.28  0.003415617    1.374    0.272
         3 -14.7647    157.4377     43.9506   8.5005916722e+01   4.0094458126e+01     1.439045     1.019279 -27.27  0.003937324    1.417    0.294
         4 -14.7365    169.5470     11.2990   7.1775502110e+01   4.0866794015e+01     1.532452     1.063515  54.51  0.005755677    1.404    0.288
         5 -12.2762    189.8596     14.6499   7.0391262639e+01   3.5180715314e+01    0.4478282     0.248648 -37.10    0.0015896    1.707    0.414
         6 -11.9227     58.7113      4.0168   9.5547708760e+01   6.8677731750e+01    0.1960349    0.1634065 -13.75  0.001184299    1.083    0.076
         7 -10.6213     12.4315    243.4419   1.5163140436e+02   2.5453883831e+01   0.09348831   0.06308766  56.64 0.0001177329    1.028    0.027
         8 -13.3560    188.8609    249.4691   1.2219427938e+02   3.5305751160e+00    0.4992535    0.1883457  30.30   0.00269595    2.281    0.562
         9 -19.9361     93.7878    232.7496   1.3698619796e+02   1.8266311657e+01     7.159412     4.975662  52.26   0.04792646    1.144    0.126
        10 -14.2819    207.5706    178.0096   1.0865426417e+02   8.8733314798e+00    0.8654124    0.5484229 -35.64  0.004015178    1.793    0.442
        11 -10.9786    150.9477    240.6683   1.2756936983e+02   9.6119834304e+00    0.1681641    0.1507464  63.09  0.001236485    1.428    0.300
        12 -12.1655    203.0885    172.3406   1.0843971494e+02   1.0347008341e+01    0.3555823    0.2676834  -9.25  0.001601984    1.337    0.252
        13 -12.9222    185.7472    167.8314   1.1082201675e+02   1.3942313835e+01    0.4366079    0.2540071 -40.29  0.002172968    1.956    0.489
        14 -12.2134    230.2117    167.0623   1.0282685992e+02   6.5198226665e+00    0.3407801    0.1455326 -39.48   0.00158666    2.866    0.651
        15 -12.1223    201.2915    165.1415   1.0744383917e+02   1.1614636508e+01    0.3353262    0.2645395 -58.72  0.001276072    1.992    0.498
        16 -10.9663    159.9740    247.7982   1.2678727504e+02   7.5612296975e+00    0.2753444        0.127  33.86  0.001436557    1.638    0.389
        17 -11.2751    222.6231    162.0026   1.0312782040e+02   8.3816278780e+00    0.2759339    0.1933177 -49.99  0.001072844    2.225    0.551
        18 -10.4427      3.6726    158.2170   1.5041155744e+02   4.1165592115e+01    0.2758686    0.1376217 -54.54  0.001580701    2.548    0.608
        19 -13.2241    198.5593    223.2010   1.1726163800e+02   4.9352576935e+00    0.3280987    0.2131661  12.90  0.001207958    1.508    0.337
        20 -10.2135     23.0907    156.1351   1.4582117204e+02   4.0017180687e+01    0.1567234    0.1395123  88.37 0.0005007507    1.200    0.167
        21 -11.5766    191.7811    154.0616   1.0708347425e+02   1.4866465983e+01    0.3382794     0.233967  -9.30  0.001823809    1.648    0.393
        22 -11.1120     17.8647    154.1400   1.4692686670e+02   4.0883300472e+01    0.1984239     0.158759 -56.44 0.0004177639    1.533    0.348
        23 -12.0329     18.3512    149.2447   1.4650446910e+02   4.1867207844e+01     0.345659    0.2147655  43.31  0.002231917    1.477    0.323
        24 -14.4428    143.5228    143.8044   1.1504079473e+02   2.5543788389e+01    0.9970903    0.5227821 -58.06  0.004223205    2.619    0.618
        25 -10.5029    182.8513    149.7911   1.0795543602e+02   1.7154598264e+01    0.1703988    0.1595896  65.68 0.0004473513    1.336    0.251
        26 -13.3541    174.0679    148.2843   1.0940198735e+02   1.9036937618e+01    0.4622207    0.3566804 -58.23  0.001598129    1.728    0.421
        27 -12.8094     31.6508    219.8270   1.4749977045e+02   2.7345597000e+01    0.3182638    0.1807261  89.39 0.0006865336    1.733    0.423
        28 -12.3294     27.7878    144.9191   1.4387078454e+02   4.1963024327e+01    0.3757082    0.3197241  53.32  0.002080435    1.176    0.150
        29 -10.8095     26.4430    138.8364   1.4372272109e+02   4.3402050949e+01     0.202749     0.183777 -64.03  0.000667423    1.299    0.230
        30 -12.3462    176.5866    142.9297   1.0781013666e+02   1.9418812233e+01    0.2667007    0.1944921  47.66  0.000830711    1.367    0.269
        31 -14.5343    134.0511    146.5640   1.1771567634e+02   2.6766057114e+01     1.443423      0.50458 -56.98  0.004627871    4.575    0.781
        32 -11.3851      2.8359    135.1269   1.4951358223e+02   4.6046062293e+01    0.1725313    0.1629498 -55.42 0.0008907707    1.374    0.272
        33 -12.2150    156.1592    132.8322   1.0999116730e+02   2.5107775684e+01     0.279631    0.1861642  42.21 0.0006403466    1.404    0.288
        34 -13.8037    160.6357    128.2645   1.0802068719e+02   2.5027593612e+01    0.5929083     0.444038  48.29  0.002697811    1.313    0.238
        35 -12.9999     36.3768    124.4310   1.3966273362e+02   4.5683250150e+01    0.5468106    0.2683112  20.78  0.002649254    2.608    0.617
        36 -12.0211    141.9329    121.2180   1.1068221743e+02   3.0080004942e+01    0.3985347    0.2194394  60.57  0.001566221    2.528    0.604
        37 -11.1258    167.8481    112.7090   1.0286177245e+02   2.6259434655e+01    0.2753898     0.192714 -65.28  0.001234773    2.118    0.528
        38 -12.0288     28.7001    218.3141   1.4796908192e+02   2.7883567914e+01    0.1796198     0.145415  69.34 0.0009779319    1.183    0.154
        39 -10.8389    205.4394    110.1854   9.4979031966e+01   1.8697868757e+01     0.307223    0.1876546  38.88  0.001040397    1.629    0.386
        40 -10.2787     28.3858    240.0081   1.4889134453e+02   2.4487695303e+01    0.1526108   0.08347078  55.85  0.001161938    1.277    0.217
        41 -12.2064    139.6314    148.9088   1.1688261927e+02   2.5324843350e+01    0.3196943    0.2594107  54.49  0.000607335    1.241    0.194
        42 -14.2562    135.9139    127.8320   1.1355951566e+02   2.9989959998e+01     1.832149    0.3382663 -50.05  0.004176245    7.619    0.869
        43 -12.1300     29.9616    104.9079   1.3926671242e+02   5.0781589157e+01    0.3769801    0.2365295   2.12 0.0009028059    2.391    0.582
        44 -11.7283     16.3257    250.0434   1.5118747996e+02   2.4135054248e+01    0.1233038   0.08528887  69.65 0.0009747829    1.220    0.181
        45 -11.0323     18.2134    221.3343   1.4996885406e+02   2.8375897363e+01    0.1350897     0.101964  82.75 0.0004940581    1.295    0.228
        46 -11.8757     62.0241     93.5506   1.2701472840e+02   4.9932266362e+01    0.2157388    0.1694482 -65.10 0.0002819276    1.182    0.154
        47 -12.2745     51.8154     91.7827   1.3006262361e+02   5.1625657903e+01    0.3040161    0.2697229 -34.65 0.0008648459    1.272    0.214
        48 -11.5342     41.9644     92.2659   1.3348098484e+02   5.2605530345e+01    0.2466426    0.1745347 -79.27 0.0007035685    1.325    0.245
        49 -12.1071     23.7354    217.4494   1.4883392808e+02   2.8501814694e+01    0.1651627    0.1271764  65.90 0.0005869712    1.117    0.104
        50 -13.0958    134.6047    109.0890   1.0961694002e+02   3.3918343374e+01     1.260588    0.1765711 -44.80  0.002748057    7.361    0.864
        51 -10.8672    142.1465     80.3624   1.0004177010e+02   3.7804543759e+01    0.2536168    0.2080649 -22.35 0.0005938113    1.291    0.225
        52 -11.3716     21.8975    238.3674   1.4992048560e+02   2.5352477286e+01    0.1268162   0.09781913  58.64 0.0005614175    1.164    0.141
        53 -13.1021     11.8752    205.9351   1.5057815569e+02   3.1529553726e+01    0.4672148    0.2224682  27.36  0.002940252    2.300    0.565
        54 -13.1425    161.2707     34.9697   8.1224312926e+01   4.0333215210e+01     0.445884    0.4115772 -33.28 0.0008378931    1.086    0.079
        55  -9.9620     21.5980     60.1641   1.3521837038e+02   6.2011994820e+01    0.1756452   0.09403211 -57.49 0.0002661429    1.539    0.350
        56 -11.0708     13.3911     59.8581   1.3864086756e+02   6.2639750741e+01    0.1825088    0.1599762  61.63 0.0004833871    1.273    0.214
        57 -19.0908     78.1365     94.9464   1.2212364563e+02   4.7297407327e+01     17.22599    0.8138052 -56.09   0.02400566   18.978    0.947
        58 -11.6708    167.9141    240.3236   1.2461928450e+02   7.3270439854e+00    0.1537143    0.1284516  37.79   0.00027525    1.231    0.188
        59 -13.9733    195.7677    171.3201   1.0958174089e+02   1.1724092013e+01    0.7244608    0.4311385 -46.86  0.002518967    2.259    0.557
