#   1 NUMBER                 Running object number                                     
#   2 MAG_AUTO               Kron-like elliptical aperture magnitude                    [mag]
#   3 X_IMAGE                Object position along x                                    [pixel]
#   4 Y_IMAGE                Object position along y                                    [pixel]
#   5 X_WORLD                Barycenter position along world x axis                     [deg]
#   6 Y_WORLD                Barycenter position along world y axis                     [deg]
#   7 A_WORLD                Profile RMS along major axis (world units)                 [deg]
#   8 B_WORLD                Profile RMS along minor axis (world units)                 [deg]
#   9 THETA_WORLD            Position angle (CCW/world-x)                               [deg]
#  10 FWHM_WORLD             FWHM assuming a gaussian core                              [deg]
#  11 ELONGATION             A_IMAGE/B_IMAGE                                           
#  12 ELLIPTICITY            1 - B_IMAGE/A_IMAGE                                       
         1 -14.9258    161.9772     43.8899   8.0006154690e+01   3.9276664475e+01     1.506643     1.126999  -8.84  0.003455009    1.369    0.269
         2 -13.1470    189.8783     14.4216   6.5037364132e+01   3.5416695478e+01     1.062034    0.3485084 -24.94  0.003646822    2.806    0.644
         3 -13.5048    173.4707     15.9897   6.7998299432e+01   3.9657462687e+01    0.8574156    0.5379951  87.66   0.00287284    2.107    0.526
         4 -14.6143    176.7562      9.7936   6.5313640134e+01   3.9380135050e+01     1.197479    0.9966736  83.88  0.004094393    1.317    0.241
         5 -10.7673    160.4519    242.1091   1.2250580554e+02   8.7258503460e+00    0.1218753    0.1060004 -34.54  0.001023359    1.580    0.367
         6 -20.0963     76.2872    175.8307   1.3083424522e+02   3.0171071438e+01     13.89494     5.813845 -68.57   0.07142117    2.570    0.611
         7 -11.7360    120.6372    183.3178   1.2274646062e+02   2.2733565109e+01    0.2596606    0.1799489  66.12  0.001498152    1.624    0.384
         8 -11.7693    117.3221    180.6521   1.2306440364e+02   2.3678454946e+01    0.2743288    0.1925582  60.54  0.001360115    1.440    0.306
         9 -11.4526    199.7943    162.0473   1.0356019315e+02   1.2444972977e+01    0.5063924    0.3577487  52.56  0.002778171    1.657    0.396
        10 -13.8854    204.4133    176.2988   1.0536952157e+02   9.7303762115e+00    0.9510789    0.5927988 -47.64  0.005009837    2.409    0.585
        11 -11.8091     30.8212    182.3558   1.4023536070e+02   3.3886870383e+01    0.1925308    0.1536845  48.02 0.0004568394    1.284    0.221
        12 -11.5851     27.7442    179.9464   1.4066675152e+02   3.4598097978e+01    0.2333391    0.1931187 -31.54  0.001831041    1.963    0.491
        13 -11.2170    202.3213    170.3148   1.0465747648e+02   1.0875774706e+01    0.2053193    0.1588007  17.26 0.0006367224    1.128    0.113
        14 -12.2598    199.0413    178.5718   1.0676283714e+02   1.0377645244e+01    0.5202633    0.3598009 -70.91  0.002262664    4.157    0.759
        15 -13.2589    195.4556    168.7890   1.0565982529e+02   1.2313621535e+01     0.411815    0.3486359   8.22 0.0005853897    1.115    0.103
        16 -12.4598    193.0057    164.2798   1.0528017822e+02   1.3382225705e+01    0.4564576    0.2613074  32.71  0.002063478    1.560    0.359
        17 -10.5935    188.3001    175.6319   1.0825175648e+02   1.2653136853e+01    0.1173106     0.101358  75.55 0.0007032486    1.736    0.424
        18 -12.2597    173.4340    175.1959   1.1103289720e+02   1.5327317710e+01    0.2526424    0.1564165  39.39 0.0006409216    1.364    0.267
        19 -13.9817    144.9667    169.5074   1.1579325192e+02   2.1126610949e+01    0.8810149    0.5272796  66.36  0.004028003    2.735    0.634
        20 -11.7963    141.4667    174.4850   1.1729103164e+02   2.0895799584e+01    0.2562332    0.1871729  45.58 0.0007840244    1.202    0.168
        21 -13.2368    138.0853    171.2077   1.1747854433e+02   2.1994571502e+01    0.6035537    0.3632016  45.71  0.002474652    1.470    0.320
        22 -12.3661    177.1151    170.0828   1.0942559931e+02   1.5424950471e+01    0.2624699    0.1873002 -39.91  0.001339414    1.639    0.390
        23 -11.3488     26.0969    172.7640   1.4055213500e+02   3.6049272868e+01    0.2321571    0.1634902  74.96  0.001188182    1.124    0.110
        24 -10.6122    163.0700    250.3329   1.2295098378e+02   7.4616587935e+00    0.1557455    0.1060431  32.35 0.0004724301    1.180    0.152
        25 -11.7628    126.0090    172.0081   1.2009559535e+02   2.3811907141e+01    0.2634377     0.234397 -83.61  0.001006907    1.266    0.210
        26 -10.3824    165.5229    172.1134   1.1206542232e+02   1.7170887842e+01    0.1735848    0.1283628 -39.24   0.00102323    1.565    0.361
        27 -12.2184    230.1528    166.9485   9.9017585092e+01   6.3546994765e+00    0.3221315    0.1709237 -39.67  0.001587008    2.492    0.599
        28 -11.7501     21.7248    238.0900   1.4430474061e+02   2.5805148952e+01    0.1134134   0.09144075  75.90 0.0009425366    1.297    0.229
        29 -11.6375    122.4852    165.7592   1.1991298685e+02   2.5459410536e+01    0.3834126    0.1765302  52.92 0.0007898599    2.389    0.581
        30 -11.6660    131.0882    235.2240   1.2666930238e+02   1.3643451857e+01    0.1552185    0.1397621 -89.06 0.0006964172    1.410    0.291
        31 -11.1939    160.4478    247.4520   1.2307270496e+02   8.1356116901e+00    0.3102809    0.1443861  29.16  0.001298676    2.245    0.555
        32 -10.2237     17.5203    158.9942   1.4140989636e+02   3.9353247653e+01    0.2031504    0.1482048  16.61 0.0008768369    1.953    0.488
        33 -11.3206     17.7489    154.5681   1.4109270783e+02   4.0186371661e+01    0.3060183    0.1819784 -79.71  0.002122198    1.429    0.300
        34 -10.8571    191.3710    157.8450   1.0435496440e+02   1.4599534364e+01    0.3705576    0.1739687  29.48  0.001548301    2.368    0.578
        35 -12.6403    162.9803    154.9453   1.0951428867e+02   2.0334306705e+01    0.3362907    0.2965184 -30.39  0.001339586    1.251    0.200
        36 -12.2264    160.3196    152.3110   1.0957320576e+02   2.1258358904e+01     0.308909    0.2397389  -3.33  0.001204425    1.522    0.343
        37 -13.9315    134.0397    145.8963   1.1409248803e+02   2.7124233013e+01     1.280863    0.3894853 -56.01  0.003743203    5.673    0.824
        38 -11.7183    205.2681    169.0066   1.0386713385e+02   1.0519179689e+01    0.3972246    0.2612099 -34.99  0.001908522    1.754    0.430
        39  -9.9772    145.0400    234.9164   1.2429873954e+02   1.1742784420e+01    0.1056531   0.09723279  46.41 0.0003028527    1.256    0.204
        40 -10.5401    140.4691    229.6989   1.2452353830e+02   1.3039122141e+01    0.2222229    0.1266808  55.24  0.001405223    1.766    0.434
        41 -11.7306    174.3192    148.5237   1.0591427847e+02   1.9241826295e+01    0.3070097    0.2581436 -56.34  0.001085276    1.541    0.351
        42 -11.5258     27.4272    145.6567   1.3841359586e+02   4.1148343140e+01    0.2452601    0.1708331 -72.49  0.001008082    1.314    0.239
        43 -10.6621    139.7207    249.9867   1.2665712519e+02   1.0685576415e+01    0.2742416    0.1832963 -71.24  0.002037331    2.357    0.576
        44 -12.1391    134.5489    105.7685   1.0541594743e+02   3.4708349440e+01    0.4752008    0.1409196 -44.15  0.001511816    3.416    0.707
        45 -14.0692    135.6923    127.6804   1.1013680145e+02   3.0242930742e+01     1.446967    0.3600398 -50.17  0.004158631    4.942    0.798
        46 -13.8777    143.7779    143.8820   1.1154071663e+02   2.5752690004e+01    0.8204283    0.4233608 -59.25  0.003398918    2.863    0.651
        47 -10.5001     17.1839    224.0677   1.4448979007e+02   2.8264587735e+01   0.09741519   0.05630517 -88.04 0.0003871471    1.586    0.370
        48  -9.4428    133.7030    248.2609   1.2746410753e+02   1.1692141764e+01    0.1374843    0.1144069 -80.32 0.0002269414    1.637    0.389
        49 -10.5944    130.8075    213.5182   1.2445884408e+02   1.6593490463e+01    0.1611785    0.1304343  76.94 0.0006649197    1.459    0.315
        50 -10.5365     22.9765    156.0991   1.4011479013e+02   3.9464043820e+01    0.1554923     0.124654  79.44 0.0004278719    1.042    0.040
        51 -12.4184    160.7103    127.8926   1.0445131447e+02   2.5365395254e+01    0.3642195    0.3261063 -70.91  0.001853827    1.409    0.290
        52 -10.6266     16.3690    208.9250   1.4404782314e+02   3.0686587629e+01    0.1235389   0.07345813 -77.93 0.0009760238    1.660    0.398
        53 -12.1915    140.3126    120.6100   1.0750415728e+02   3.0716479249e+01    0.2878159    0.2299109  79.25 0.0006210367    1.686    0.407
        54 -11.0288    167.5023    112.6720   9.9360162481e+01   2.6628248692e+01    0.2863397     0.232042  78.39  0.001164481    1.750    0.429
        55 -12.9263     11.4320    206.0543   1.4473951970e+02   3.1565706238e+01    0.3636251     0.201021  36.27  0.002203593    1.793    0.442
        56 -11.8041    134.5038    244.2197   1.2696218937e+02   1.2066672655e+01    0.2112955    0.1530034 -37.32  0.001637899    2.034    0.508
        57 -10.7912    205.3273    110.2279   9.0960190454e+01   1.8817879597e+01    0.3133081    0.1892831  39.95 0.0009727489    1.566    0.362
        58 -11.1386    139.9357    200.2957   1.2120304754e+02   1.7140251690e+01    0.3176295    0.1736007  37.83 0.0008239108    1.527    0.345
        59 -11.9372    138.1503    242.1559   1.2617012032e+02   1.1820097076e+01     0.280223    0.2273777  73.37  0.001424778    1.510    0.338
        60 -10.2846     22.4816    205.3140   1.4289098047e+02   3.0733122436e+01    0.1031238   0.07738417 -85.87 0.0007426027    1.335    0.251
        61 -11.1611    126.9494    250.6280   1.2875384399e+02   1.2303561898e+01     0.135724   0.06989195  41.82 0.0001917558    1.379    0.275
        62 -10.1681    151.1665    241.3699   1.2395279190e+02   1.0114155769e+01     0.144495    0.0970523  40.92 0.0006126934    1.073    0.068
        63 -11.2645     28.6725    239.8045   1.4334096630e+02   2.4924051496e+01      0.12111   0.07443596  62.91  0.000422977    1.145    0.127
        64 -10.5749    143.7308     80.9478   9.6359768281e+01   3.7532924662e+01    0.2156215    0.1939909 -26.19 0.0004319862    1.094    0.086
        65 -14.4919    150.7377     58.2908   8.7461956493e+01   3.9872081318e+01     1.318825     1.070438   3.32  0.002360015    1.270    0.212
        66 -10.1676     15.5720    246.8459   1.4547716601e+02   2.5127168414e+01    0.1377453   0.05987264  80.68  0.001037847    2.065    0.516
        67 -13.1174    165.7725     35.3578   7.6241785849e+01   3.9453948719e+01    0.4855765    0.4107777   2.96 0.0008032406    1.159    0.137
        68 -11.0584     13.5096     59.9607   1.3250190960e+02   6.0713748828e+01    0.1829867    0.1516265  63.07 0.0004138177    1.422    0.297
        69 -10.4458    144.8625     34.0880   8.0189915332e+01   4.4989026944e+01    0.2201232    0.2082305 -57.50 0.0003060532    1.243    0.196
        70 -13.5074    125.1546    241.2885   1.2822033116e+02   1.3680141891e+01    0.3860047    0.1542841 -53.53  0.002295533    3.354    0.702
        71 -10.8184     12.8977    242.5072   1.4572703318e+02   2.5961009558e+01    0.1197152    0.1024241 -84.11  0.001082955    1.587    0.370
