#   1 NUMBER                 Running object number                                     
#   2 MAG_AUTO               Kron-like elliptical aperture magnitude                    [mag]
#   3 X_IMAGE                Object position along x                                    [pixel]
#   4 Y_IMAGE                Object position along y                                    [pixel]
#   5 X_WORLD                Barycenter position along world x axis                     [deg]
#   6 Y_WORLD                Barycenter position along world y axis                     [deg]
#   7 A_WORLD                Profile RMS along major axis (world units)                 [deg]
#   8 B_WORLD                Profile RMS along minor axis (world units)                 [deg]
#   9 THETA_WORLD            Position angle (CCW/world-x)                               [deg]
#  10 FWHM_WORLD             FWHM assuming a gaussian core                              [deg]
#  11 ELONGATION             A_IMAGE/B_IMAGE                                           
#  12 ELLIPTICITY            1 - B_IMAGE/A_IMAGE                                       
         1 -13.8667    170.6250     35.6284   7.5395989176e+01   3.8183838190e+01     1.263236     0.976577   3.78  0.004279413    1.575    0.365
         2 -13.0179    187.5239      4.1912   6.3597895087e+01   3.7306284784e+01    0.8971778     0.538804  71.06  0.004028408    1.507    0.337
         3 -12.5063    100.9402      4.5840   7.8063613096e+01   5.8564220781e+01    0.8105363    0.4183158  43.96  0.003972085    1.712    0.416
         4  -9.7100      3.6471    225.5815   1.5057838942e+02   2.8065064036e+01   0.09235004   0.06733766 -56.25 0.0006878596    2.089    0.521
         5 -18.5451     62.2167    244.2576   1.4199488119e+02   1.8306186898e+01     5.232407     4.135048  47.17   0.03239946    1.361    0.265
         6 -10.4194     11.6094    205.9908   1.4827104425e+02   3.0948315015e+01    0.1893431    0.1445732  43.40  0.001235915    1.518    0.341
         7 -12.2396    193.3752    193.1605   1.1075477948e+02   5.8450730733e+00    0.7746433    0.4874004 -56.16  0.003281368    2.285    0.562
         8 -13.0286    137.5408    198.5682   1.2278540727e+02   1.5074433589e+01    0.6984581    0.3073741  49.68  0.003040346    2.142    0.533
         9 -19.2020     52.6049    106.8893   1.2777024242e+02   4.8426357608e+01     17.43965     1.177732 -60.87   0.02954467   13.770    0.927
        10 -10.0103    180.1731    192.8997   1.1326913486e+02   8.3200242172e+00    0.2022598    0.1769044  65.92 0.0009935243    1.336    0.251
        11 -11.0532    157.1726    191.9029   1.1770508927e+02   1.2748052957e+01    0.2036778    0.1749363  67.35 0.0004927157    1.252    0.202
        12 -11.6855     38.3171    183.6588   1.4160094374e+02   3.2702985056e+01    0.2182572    0.1681064  83.43 0.0004027348    1.031    0.030
        13 -11.5330    209.5337    180.6327   1.0533404429e+02   4.8276520281e+00    0.6569387    0.4095024  10.35  0.003029246    2.209    0.547
        14 -11.7269    197.8527    175.3116   1.0650822285e+02   7.8959058053e+00    0.4538175    0.3291055 -45.73  0.001492313    1.554    0.357
        15  -9.7333     35.0218    177.9863   1.4177586623e+02   3.4258151930e+01    0.1509916    0.1343115 -44.76  0.000393999    1.587    0.370
        16  -9.2190    185.4660    174.5302   1.0879067031e+02   1.0431763686e+01     0.138872    0.1282612  29.39 0.0001491189    1.022    0.022
        17 -12.6726    137.2988    171.3944   1.1834726000e+02   2.0354946676e+01    0.6210209    0.3473949  52.22  0.002810304    1.788    0.441
        18 -11.1168    203.4310    167.3034   1.0381585479e+02   8.1424754401e+00    0.4370295    0.3379023  41.20  0.002232586    1.247    0.198
        19 -12.0307    126.0312    172.7957   1.2108546763e+02   2.2145899749e+01      0.33533    0.2762443  87.89  0.001876245    1.309    0.236
        20  -9.7355     27.0650    179.9172   1.4357901670e+02   3.4678295067e+01    0.1322791    0.1190555  53.96 0.0006852933    1.359    0.264
        21 -10.8667    164.0371    156.8106   1.0965799713e+02   1.7990893307e+01    0.2563085    0.2161248 -42.24    0.0006433    1.240    0.193
        22 -12.8884    132.8640    145.2362   1.1428581991e+02   2.6657864219e+01    0.8244126    0.5203931 -58.99  0.003589963    1.724    0.420
        23  -9.8720      1.7805    145.8268   1.4624903633e+02   4.4193941716e+01    0.1646493    0.1252405 -72.79  0.000596454    1.207    0.172
        24 -10.3905     24.4182    156.6072   1.4209361365e+02   3.9957930903e+01    0.4109673    0.1409966  44.37  0.001960268    2.744    0.636
        25 -12.1571    114.7087    138.9895   1.1738879009e+02   3.1493846256e+01    0.4902381    0.3182652 -38.38  0.002251581    1.794    0.443
        26 -12.4248    104.6877    139.2415   1.1994687545e+02   3.3240827546e+01     0.494703    0.2987539  53.77 0.0006411109    1.761    0.432
        27 -10.2551     17.9547    141.5776   1.4211340763e+02   4.3874434105e+01      0.14887    0.1151837  34.64 0.0006487036    1.570    0.363
        28 -12.5846      2.8834    126.3945   1.4429041356e+02   4.8398495585e+01     1.321022    0.3208474 -81.11  0.004440136    4.732    0.789
        29 -11.8707    106.1239    130.8124   1.1784789508e+02   3.4892400589e+01    0.4023426    0.3385434 -69.26  0.001248458    1.172    0.147
        30 -11.5578    119.3638    129.9693   1.1428507862e+02   3.2622068211e+01    0.3430035    0.2794919 -50.50 0.0008665709    1.215    0.177
        31 -10.8601    108.0649    125.8306   1.1626224276e+02   3.5667358267e+01    0.2868099    0.2620565 -12.94 0.0004809187    1.287    0.223
        32  -9.8352      9.6354    210.7962   1.4887443267e+02   3.0220432085e+01    0.1269957   0.07094095  79.59 0.0005526346    1.385    0.278
        33 -10.8603    126.1353    128.2082   1.1218792042e+02   3.1685360885e+01    0.2916565    0.2093658  65.50  0.001027844    1.635    0.388
        34 -11.8126      5.3324    112.2598   1.4216390904e+02   5.1400037056e+01    0.4369419    0.2300377   8.43  0.002411369    2.921    0.658
        35 -10.8774    135.4045    122.2730   1.0849026066e+02   3.1080606827e+01    0.5307429    0.1405874 -50.83  0.001402444    4.473    0.776
        36 -10.3752    113.5272    118.9935   1.1326448161e+02   3.6182469381e+01    0.2214563    0.2008257  49.47 0.0004368412    1.130    0.115
        37  -9.9560    168.0924    113.7705   9.8728729886e+01   2.5608098888e+01    0.2870533    0.2150681 -64.37 0.0009533048    1.617    0.381
        38 -11.5773     94.1784    110.2371   1.1643576888e+02   4.1659088786e+01    0.3016397    0.2509638 -25.93  0.001105635    1.387    0.279
        39 -10.3031     85.3601    111.2922   1.1916992622e+02   4.2876059024e+01    0.1417981     0.110016 -18.59 0.0007029012    1.697    0.411
        40  -9.9552    205.8494    110.1725   9.0221267165e+01   1.7548564173e+01    0.2230989    0.2066346 -68.86 0.0004970197    1.186    0.157
        41 -11.5063    164.4544    205.4402   1.1846864502e+02   9.0976120611e+00    0.3365177    0.2394902 -55.29 0.0008196648    1.704    0.413
        42  -9.5175     93.5080     79.4705   1.0838663161e+02   4.8504452370e+01    0.1435394    0.1347148 -37.32 0.0008098451    1.016    0.015
        43  -9.4864     13.5145     59.8714   1.3082756201e+02   6.2444413288e+01    0.1771418   0.09374838 -60.65 0.0004379763    1.496    0.331
        44 -12.8142    159.0976     51.3674   8.2501361608e+01   3.8935687265e+01     0.681396    0.5245324 -87.13  0.001362352    1.582    0.368
        45 -11.5285     13.6480    248.5906   1.5001164203e+02   2.3120509455e+01    0.1453021    0.1066391  73.00 0.0006982184    1.148    0.129
        46 -12.4480    175.0066     27.9749   7.2318448622e+01   3.8003230417e+01    0.5877827    0.4420578  -5.60  0.001603733    1.595    0.373
        47 -10.7799    189.6957     14.9511   6.6429667856e+01   3.5683496445e+01    0.1938082    0.1771633 -53.88 0.0007141531    1.109    0.098
        48 -10.2455     30.9589    207.5016   1.4488675651e+02   2.8694946261e+01    0.1840155    0.1095022  23.03   0.00103809    2.742    0.635
