#   1 NUMBER                 Running object number                                     
#   2 MAG_AUTO               Kron-like elliptical aperture magnitude                    [mag]
#   3 X_IMAGE                Object position along x                                    [pixel]
#   4 Y_IMAGE                Object position along y                                    [pixel]
#   5 X_WORLD                Barycenter position along world x axis                     [deg]
#   6 Y_WORLD                Barycenter position along world y axis                     [deg]
#   7 A_WORLD                Profile RMS along major axis (world units)                 [deg]
#   8 B_WORLD                Profile RMS along minor axis (world units)                 [deg]
#   9 THETA_WORLD            Position angle (CCW/world-x)                               [deg]
#  10 FWHM_WORLD             FWHM assuming a gaussian core                              [deg]
#  11 ELONGATION             A_IMAGE/B_IMAGE                                           
#  12 ELLIPTICITY            1 - B_IMAGE/A_IMAGE                                       
         1 -14.7787     68.6185    144.3574   1.0563870443e+02   3.7334292011e+01     4.836101     2.426778  66.78    0.0083889    3.551    0.718
         2 -14.3016    214.4290     24.6707   4.0465418926e+01   2.9218998869e+01     1.246371    0.9575286  30.92  0.007048292    1.756    0.431
         3 -14.4707    201.8837     37.3981   4.5182266949e+01   3.0620990052e+01     2.192674     1.480998  29.38   0.00828073    2.096    0.523
         4 -11.8451      2.8088     24.3097   1.0147240242e+02   7.0531913912e+01    0.3555825     0.324208 -59.00  0.002175658    1.472    0.321
         5 -11.9081      2.6375      6.0853   9.3963682587e+01   7.3654086217e+01    0.8119198    0.1627489 -47.14  0.003350614    3.666    0.727
         6 -11.0576     58.1277      6.8738   6.6307236248e+01   6.6809818389e+01    0.2064984    0.1716221  51.46 0.0008802189    1.590    0.371
         7 -12.2859    239.1240      2.4729   3.3228787414e+01   2.6130585925e+01      0.67653    0.2593953  77.22  0.003181766    2.509    0.601
         8 -10.3132     17.0020      2.0000   8.3340667972e+01   7.3035250376e+01    0.1657582    0.0572106  29.25 0.0005530232    2.925    0.658
         9 -11.6343    193.1005    194.8226   8.5018923764e+01   4.8417594377e+00      1.05869    0.5566472 -63.17  0.002933022    7.092    0.859
        10 -10.2190    140.0003    249.7534   1.0432946816e+02   4.3361508185e+00    0.1949164    0.1586213 -86.29  0.001284187    1.622    0.383
        11 -15.1505     49.6489    220.2438   1.1906759841e+02   2.2386802676e+01     2.096943      1.92389  84.20   0.01552709    1.250    0.200
        12 -14.7253     85.9429    228.1181   1.1256096528e+02   1.6123832623e+01     1.960539      1.38156 -81.40  0.006879568    1.504    0.335
        13 -15.9333      6.3216    172.4476   1.2439854065e+02   3.7039295158e+01     6.343536     1.357452 -73.97   0.02445186    3.489    0.713
        14 -15.5181      9.1748    208.0944   1.2604573684e+02   2.9098668390e+01     2.476689     1.342754 -47.86   0.01381588    2.853    0.650
        15 -14.2944     41.0607    203.0832   1.1939145052e+02   2.6955040011e+01     1.156786    0.6170335 -83.22  0.003155903    1.758    0.431
        16 -14.7734     50.8243    193.0876   1.1639898655e+02   2.8021075506e+01     1.707887     1.230306  75.64   0.01041277    1.250    0.200
        17 -10.6675    208.6778    196.9427   8.2312560261e+01   1.8144474094e+00    0.1911467    0.1607435 -16.85 0.0005089955    1.133    0.117
        18  -9.0690    159.8274    196.8949   9.2421873121e+01   1.0346765212e+01    0.1805445    0.1636687  73.09 0.0004019623    1.312    0.238
        19 -15.9197     57.9932    247.1843   1.1955331721e+02   1.6218882513e+01     9.422271     2.941242  27.52  0.005512745   11.992    0.917
        20  -8.8126     92.4660    184.4665   1.0581159958e+02   2.4342771243e+01    0.1376752    0.1239341  73.34 0.0001543683    1.024    0.024
        21  -9.0898     70.5188    184.5728   1.1098739378e+02   2.7462497960e+01    0.1334397    0.1148562  75.83 6.264478e-05    1.037    0.035
        22 -10.7082    145.3004    181.1659   9.2830784558e+01   1.6110099686e+01    0.3267019    0.2706497 -70.99  0.001419362    1.417    0.295
        23 -10.0486     99.3514    180.6936   1.0360858998e+02   2.4129578822e+01    0.2660514    0.2311002  31.25 0.0008276058    1.241    0.194
        24 -12.2852     66.5807    176.7968   1.1093724626e+02   2.9781506012e+01    0.4416099    0.2885841 -47.79  0.002303113    1.745    0.427
        25 -12.2567     71.3651    171.6421   1.0908914488e+02   3.0355276244e+01    0.3520957    0.3233655 -47.19 0.0006679019    1.255    0.203
        26  -9.4854    204.3664    176.2104   7.9059104921e+01   6.1046964221e+00    0.1993241    0.1274052 -46.24 0.0009503993    1.728    0.421
        27 -10.9452    140.2976    172.3843   9.2342523467e+01   1.8898607180e+01     0.465294    0.3332576 -83.24  0.001941977    2.044    0.511
        28 -12.5211     87.1468    155.4858   1.0255607838e+02   3.1956838137e+01    0.7349567    0.5252209 -20.90  0.002586558    2.055    0.513
        29 -13.7157     80.7702    162.3370   1.0534801427e+02   3.1254058614e+01      2.50816    0.6134759  48.30  0.001237582    5.941    0.832
        30 -13.7075     67.8779    158.0502   1.0801421140e+02   3.4080074451e+01     0.573948    0.4454408 -48.39  0.001363862    1.369    0.270
        31  -9.2910    173.3236    242.6772   9.6935519010e+01   3.3074701028e-01    0.1941974    0.1569461 -58.99 0.0009597072    1.710    0.415
        32 -12.1873     54.1669    147.8349   1.1011842259e+02   3.8289716719e+01    0.5603647     0.322163 -56.43  0.002777438    1.587    0.370
        33 -10.3011    174.3669    148.5261   7.9382675667e+01   1.7253393549e+01     0.367012    0.2730329 -74.96   0.00161836    2.007    0.502
        34 -13.2888     10.0538    188.2755   1.2468093845e+02   3.3224264592e+01    0.3892848    0.3360066  47.83 0.0007087918    1.353    0.261
        35 -10.9041    101.6836    140.2968   9.5750162709e+01   3.3287681218e+01    0.5939776    0.3604082 -25.38  0.002277052    2.657    0.624
        36 -12.3463     88.7461    140.4321   9.9347767168e+01   3.5376579122e+01    0.2988847     0.246987 -48.58 0.0003406632    1.191    0.160
        37 -10.6425     81.5189    141.4702   1.0155510534e+02   3.6226022322e+01    0.3413171    0.2378638  68.70 0.0006103049    1.744    0.427
        38  -9.7907     34.2933    139.1974   1.1429415970e+02   4.2510951084e+01    0.2801797    0.1459267  61.67 0.0009697273    2.363    0.577
        39  -9.7791    152.5539    197.8267   9.4172333595e+01   1.1451699223e+01    0.3178406    0.1398205 -51.60   0.00128573    2.565    0.610
        40 -11.1798     26.3404    137.6074   1.1625197673e+02   4.3612009739e+01    0.3355721    0.1753518  45.15  0.001353111    2.079    0.519
        41 -10.3952     34.5173    171.5285   1.1794782971e+02   3.4736836467e+01    0.2570679    0.1815648  71.00 0.0008042748    1.312    0.238
        42 -10.2166    110.7095    130.8471   9.1196117851e+01   3.3957808603e+01    0.3544537    0.2602064  -1.07  0.001012426    1.954    0.488
        43 -10.4985    105.9784    130.4120   9.2412675135e+01   3.4917538842e+01    0.4095974    0.3033769 -59.24  0.001952522    1.346    0.257
        44 -11.1005    135.7044    127.8386   8.3767921410e+01   2.9781813578e+01    0.6633968    0.1410014 -49.37  0.001558628    5.184    0.807
        45 -11.1743     45.1003    129.3927   1.0982577471e+02   4.3848296175e+01    0.3041354    0.2416394  -1.86  0.001738202    1.637    0.389
        46 -10.3627    160.3202    128.0529   7.7718969550e+01   2.4520345453e+01    0.3260659    0.2957428 -55.74  0.001665684    1.155    0.134
        47 -13.4518     27.8794    215.2229   1.2292599560e+02   2.5826389931e+01    0.9527699    0.3907475  83.96  0.002522922    2.695    0.629
        48 -10.9010     98.2240    126.6899   9.3765409627e+01   3.7169499455e+01    0.3038114    0.2494777 -10.38 0.0005744672    1.486    0.327
        49  -9.9665    116.9910    124.7842   8.8028927009e+01   3.4212355048e+01    0.2498718    0.1806193   3.29   0.00105781    1.994    0.499
        50  -9.4002     91.6029    124.2427   9.5130479334e+01   3.8871916651e+01    0.2502626    0.1752247  52.33 0.0006032099    1.605    0.377
        51  -9.9900    107.5191    119.2386   8.9336889374e+01   3.7298752635e+01    0.2329667    0.2101122  36.38 0.0004155854    1.159    0.137
        52 -10.1626    158.2949    161.1319   8.5834171189e+01   1.7862029777e+01    0.3513293    0.2690796 -72.51  0.001341271    1.734    0.423
        53  -9.7699     37.7546    161.6063   1.1612063711e+02   3.6748682062e+01    0.2155847    0.1293574  22.82 0.0009914465    2.112    0.527
        54  -9.7403    168.2166    113.0980   7.2049115600e+01   2.5898291995e+01    0.3539078    0.2374219 -70.88  0.001376796    2.330    0.571
        55 -10.6813    134.8793    112.6242   8.0084074936e+01   3.3363923146e+01    0.4765129   0.09929294 -44.26  0.001154259    4.687    0.787
        56  -9.9089    233.5062    113.0000   5.9522349817e+01   1.1698598770e+01    0.2905799   0.08255778  52.00 0.0009386322    3.966    0.748
        57 -10.1516    205.3897    110.1038   6.3650200308e+01   1.8133085471e+01    0.3147052    0.2266124  42.46 0.0009644203    1.490    0.329
        58  -9.4393    114.5027    110.0013   8.4977064820e+01   3.8121944257e+01    0.2433725    0.1485229 -46.32  0.001026858    1.574    0.365
        59 -10.9589     33.2832    156.4151   1.1664888199e+02   3.8434808575e+01    0.3296152    0.2637762  72.09  0.002062726    1.186    0.157
        60 -10.9564     23.2528    108.0152   1.1302700671e+02   5.1054252478e+01    0.3202377    0.2060139 -75.09  0.001234649    1.380    0.275
        61  -9.4931    140.4727    107.1525   7.7146743189e+01   3.3349856538e+01      0.29376    0.2107998 -89.16  0.001169023    2.266    0.559
        62 -10.0425    134.6330    106.0190   7.8357554635e+01   3.4863400350e+01    0.3694254    0.1472357 -43.82  0.001241814    2.446    0.591
        63 -10.0068    119.4950    103.4801   8.1790350796e+01   3.8596917201e+01    0.1548433    0.1500674 -48.92 0.0001220532    1.054    0.051
        64 -10.8553    246.9901    102.4961   5.5051871891e+01   1.0775756422e+01    0.1947285    0.1381986  53.44  0.001044768    1.627    0.385
        65 -11.2835    241.2758    100.1035   5.5320150359e+01   1.2295718164e+01    0.3988258    0.1037863 -37.37  0.001303128    3.224    0.690
        66  -9.8128     41.1579     98.2146   1.0536262931e+02   5.1870979659e+01    0.1833757    0.1538223  82.15 0.0007017289    1.386    0.278
        67 -11.1213    133.5704    143.9515   8.8099155065e+01   2.6537237275e+01     1.156048    0.2928362 -54.06  0.002718902    5.617    0.822
        68  -9.5312    128.1841     95.2160   7.7027635516e+01   3.8568844351e+01    0.2086227    0.1874349  83.16 0.0006952147    1.310    0.237
        69 -10.5169     41.4987     91.7799   1.0385396953e+02   5.3367253047e+01    0.2442485    0.2128241 -50.49 0.0004359674    1.033    0.032
        70 -10.1587     53.0432     90.6793   9.9551938424e+01   5.2381696753e+01     0.286396     0.176432 -47.60  0.001136007    1.400    0.286
        71  -8.8748    116.2095     85.3816   7.7450076897e+01   4.3162885391e+01    0.2169162    0.1456874  54.60 0.0009463897    1.711    0.415
        72  -9.2723     74.9857     84.9897   9.0402316785e+01   5.0736902586e+01    0.2107339    0.1934299 -30.29 0.0003408575    1.025    0.024
        73  -9.6994     69.9276     81.7611   9.1220033947e+01   5.2207467267e+01    0.2005284    0.1853115  75.35 0.0008775247    1.344    0.256
        74  -9.5484    158.9815     81.5239   6.5313422019e+01   3.4231668410e+01    0.2327304    0.1529816  52.58 0.0004984738    1.545    0.353
        75 -10.5381     13.5281     59.9378   1.0704413170e+02   6.2796546123e+01    0.2414219    0.1747879 -53.92 0.0004270569    1.120    0.107
        76  -9.6684    171.3526    239.1193   9.6804815944e+01   1.1724589043e+00    0.2259553    0.1811767 -65.77  0.001347384    1.803    0.445
        77 -12.4501    192.7304     43.6573   4.8123250015e+01   3.2010817444e+01    0.6748209    0.4915432  50.77  0.001004505    1.429    0.300
        78 -11.5949     72.5973    229.1391   1.1531729923e+02   1.7740565192e+01    0.4543298    0.3694791  83.82  0.002641489    1.157    0.135
        79  -8.6455     37.2800     56.6750   9.6115856839e+01   6.1588311276e+01     0.115409    0.1008283 -83.75 0.0002784026    1.592    0.372
        80  -9.6367     12.9132     52.5275   1.0538970871e+02   6.4408610531e+01    0.1579161    0.1147398   4.54  0.001017548    1.549    0.354
        81 -11.0865    141.2972     46.6015   5.8294784447e+01   4.4306356337e+01    0.3875485    0.2799846 -84.85 0.0008795116    1.939    0.484
        82 -10.3803    144.3673     41.2598   5.5855548606e+01   4.4310706727e+01    0.2740496    0.2282467 -81.70 0.0002777116    1.412    0.292
        83 -10.8562    188.3110     31.0996   4.5278285706e+01   3.4715337603e+01    0.2736521    0.1964425  77.68 0.0008399351    1.367    0.268
        84 -14.6300     30.9979    248.5231   1.2437712447e+02   1.9092066780e+01      1.09218    0.5621606  35.83  0.005494667    1.948    0.487
        85  -9.3926    189.5233     14.9879   4.0715029117e+01   3.6245620651e+01    0.1872035    0.1297458 -29.39 0.0006744327    1.549    0.354
        86 -16.5365      8.9291    240.7055   1.2770531212e+02   2.2765615027e+01     1.842279     1.591065  89.63   0.01558196    1.382    0.276
        87  -9.1971    131.1382    214.1790   1.0141033350e+02   1.1935553962e+01    0.1721839    0.1445722  69.55 0.0003427533    1.293    0.227
        88  -9.5841    113.8845    207.9218   1.0425788995e+02   1.5955345069e+01    0.2161276    0.1476506  68.87 0.0009201427    1.717    0.418
