#   1 NUMBER                 Running object number                                     
#   2 MAG_AUTO               Kron-like elliptical aperture magnitude                    [mag]
#   3 X_IMAGE                Object position along x                                    [pixel]
#   4 Y_IMAGE                Object position along y                                    [pixel]
#   5 X_WORLD                Barycenter position along world x axis                     [deg]
#   6 Y_WORLD                Barycenter position along world y axis                     [deg]
#   7 A_WORLD                Profile RMS along major axis (world units)                 [deg]
#   8 B_WORLD                Profile RMS along minor axis (world units)                 [deg]
#   9 THETA_WORLD            Position angle (CCW/world-x)                               [deg]
#  10 FWHM_WORLD             FWHM assuming a gaussian core                              [deg]
#  11 ELONGATION             A_IMAGE/B_IMAGE                                           
#  12 ELLIPTICITY            1 - B_IMAGE/A_IMAGE                                       
         1 -15.3394      8.9308    156.3773   1.4175614698e+02   4.0760728246e+01     9.500393     3.164204  63.63   0.04693026    2.986    0.665
         2 -13.4696    193.6362     28.9370   6.8405121170e+01   3.3086964256e+01     1.634673     1.347606 -13.48  0.007245441    1.196    0.164
         3 -13.6649    208.6655     10.4129   6.0714616483e+01   3.1120661242e+01     1.465375     1.015344  23.21  0.007213381    1.645    0.392
         4 -11.7894      2.3446      5.3860   1.2115654256e+02   7.3493382633e+01    0.7048874    0.1655914 -58.04  0.002966134    2.995    0.666
         5 -10.0584     46.8148    249.0360   1.3996074011e+02   2.1662546891e+01    0.1966562   0.08569551  61.22    0.0012141    1.828    0.453
         6 -11.9030    245.7174    246.6355   1.0866744611e+02  -3.9074465795e+00    0.3278728    0.2190429   5.53  0.002164111    1.343    0.255
         7 -11.3716    139.7183    249.9480   1.2557402613e+02   1.0341519541e+01    0.3732522    0.1187606  42.12  0.002000547    2.240    0.554
         8 -11.5043     97.8418    247.2278   1.3199979736e+02   1.6113546147e+01     0.309866    0.2108795 -87.87  0.002228755    1.768    0.434
         9 -10.9467    101.1604    246.1228   1.3139039332e+02   1.5846409168e+01    0.2008218    0.1608525  70.00 0.0005309894    1.247    0.198
        10 -10.2517     29.9776    250.3513   1.4248652085e+02   2.3153137341e+01    0.2253411    0.1353584  79.34  0.001393926    1.435    0.303
        11 -11.4341     35.3856    245.3516   1.4149540410e+02   2.3329274489e+01    0.4246103    0.2763155 -77.40  0.003726998    1.712    0.416
        12 -10.7654      2.6874    248.7054   1.4629872073e+02   2.5840119397e+01    0.2644027    0.1623347  86.70  0.002145553    1.457    0.314
        13 -10.3621      1.6812    240.7329   1.4623603116e+02   2.7055151734e+01    0.3036852   0.09263976 -83.30  0.001963797    3.047    0.672
        14 -10.8168    106.7296    247.3930   1.3060417995e+02   1.4979837139e+01    0.2475004    0.1294314  67.04  0.001553966    2.384    0.581
        15 -10.1573     17.6584    248.1807   1.4417889918e+02   2.4604136655e+01    0.1319902   0.07542597  58.10  0.001146928    1.157    0.135
        16  -9.8113    198.9940    246.4919   1.1578906485e+02   2.4888277600e+00    0.1391531   0.07432918  52.93 0.0008090791    2.428    0.588
        17 -10.1887     22.8806    245.1832   1.4332508256e+02   2.4548133082e+01     0.189681   0.07607733  59.70     0.001008    1.781    0.438
        18 -11.3748     11.2781    239.1155   1.4481015980e+02   2.6467706375e+01    0.3516202   0.09783446  56.70   0.00145873    2.381    0.580
        19 -10.8531    234.9476    239.1552   1.0925973190e+02  -1.8509779872e+00    0.1931215    0.1392543 -42.97  0.001386633    2.476    0.596
        20  -8.7384     57.3083    240.3057   1.3791878130e+02   2.1784344932e+01   0.07716664     0.071687  33.14 0.0007018439    1.610    0.379
        21  -9.4521    185.6754    239.3151   1.1703313599e+02   5.1020435411e+00    0.1002471   0.07230221  54.91  0.000251901    1.666    0.400
        22 -10.8599    120.1064    238.3554   1.2767440664e+02   1.4418080246e+01    0.2258136    0.1351829 -89.52  0.001401123    2.770    0.639
        23 -11.2597    124.7555    249.6877   1.2793026933e+02   1.2363980594e+01    0.4539252   0.06964396  40.23  0.001684604    4.822    0.793
        24  -9.0334     92.3901    214.5292   1.3025338593e+02   2.1485011367e+01    0.1837119    0.1030508  73.08  0.000995725    2.161    0.537
        25  -9.0216    152.6644    212.9024   1.1934626465e+02   1.3176847495e+01    0.1444118    0.1257092  45.86 0.0003570427    1.126    0.112
        26  -9.6111     34.7191    202.4505   1.3952034621e+02   3.0053167451e+01    0.1580255    0.1218574  77.94 0.0002220582    1.118    0.105
        27 -11.7041     63.1792    197.9355   1.3412230874e+02   2.7784714316e+01    0.2622415    0.2140116 -41.39  0.001185763    1.858    0.462
        28 -10.1275    193.4085    195.6503   1.0962698296e+02   8.9670690234e+00    0.6052818    0.3296651 -61.35  0.001955421    8.067    0.876
        29 -10.6974    230.6295    231.8694   1.0890297816e+02  -6.1306369635e-01    0.1968386    0.1717853 -26.33  0.001077135    1.703    0.413
        30 -11.9265     68.9237    190.0516   1.3238821392e+02   2.8481752604e+01    0.2190273    0.1961399 -77.31 0.0004535596    1.299    0.230
        31 -10.2557    228.4109    228.1631   1.0871906480e+02   4.0573949643e-02    0.2184717    0.1832666 -48.09  0.001632456    2.146    0.534
        32  -9.5420    153.6602    228.6973   1.2107084460e+02   1.0969632569e+01     0.107326   0.07359353  20.62 0.0007038664    1.673    0.402
        33 -13.2312     65.6238    175.4242   1.3168800192e+02   3.1537910216e+01    0.3968852    0.2452216 -46.70  0.001536991    2.226    0.551
        34 -10.9692     78.6723    177.4134   1.2924952449e+02   2.9556750677e+01    0.2024548    0.1764039  70.66 0.0002646209    1.061    0.057
        35  -8.9795    100.1191    176.7827   1.2481685995e+02   2.6768105319e+01    0.1826626    0.1318287  63.09 0.0005880153    1.324    0.244
        36 -11.9302     86.1427    168.0719   1.2665107751e+02   3.0322428729e+01    0.5387148    0.4590515  54.75  0.003757152    1.093    0.085
        37 -13.4273      9.0302    207.1134   1.4406571276e+02   3.1617958412e+01     0.926984    0.6092581 -73.43   0.00412337    1.648    0.393
        38 -10.1662     98.6878    152.1065   1.2177203003e+02   3.1637209282e+01    0.2875059    0.2575594 -46.28  0.000910616    1.281    0.219
        39  -9.1084    101.4925    148.0291   1.2051408952e+02   3.2022923984e+01    0.1720265    0.1564704 -73.72 0.0003851491    1.111    0.100
        40 -11.9932     87.1658    151.3671   1.2426208378e+02   3.3441452021e+01    0.2476002    0.2200623 -50.84 0.0005896987    1.290    0.225
        41 -12.8358     66.6757    143.2384   1.2788286341e+02   3.7784933288e+01     1.047761    0.5407174  73.62  0.003097758    2.731    0.634
        42  -8.5933    192.0470    144.0375   1.0036209807e+02   1.6432606388e+01    0.1623752    0.1433979  14.32  0.000371333    1.019    0.019
        43 -12.7825     36.9471    232.1265   1.4067282402e+02   2.5101080125e+01    0.2427614    0.1998249  73.50 0.0007987128    1.257    0.205
        44  -9.7330    109.9192    137.0988   1.1672563767e+02   3.2887125001e+01    0.3301067     0.220918 -16.90  0.001421918    2.715    0.632
        45 -10.0668    173.4547    222.4980   1.1695529505e+02   8.7978110013e+00    0.2467103   0.08691783  41.06  0.001216701    2.185    0.542
        46 -10.5860     97.2374    134.4525   1.1928661085e+02   3.5426934329e+01    0.2303137    0.2081288 -40.43 0.0004923813    1.247    0.198
        47 -10.7743     34.8906    133.3841   1.3425880839e+02   4.3281009326e+01    0.2351872    0.1740158  59.43  0.000459544    1.287    0.223
        48  -9.9225     81.4483    132.9900   1.2288591947e+02   3.8022755908e+01    0.2150633    0.1727795  50.12 0.0003142648    1.233    0.189
        49 -14.3007     42.7892    223.8226   1.3933153018e+02   2.5776171178e+01     1.022851    0.8217292  42.92  0.005704875    1.412    0.292
        50  -9.2295    106.9279    123.8519   1.1495988539e+02   3.6093071348e+01    0.1796734    0.1741798  10.33 0.0002849851    1.137    0.120
        51 -11.1905     53.8840    120.6585   1.2798881611e+02   4.4114699855e+01    0.4713171    0.1764748 -75.88  0.001820507    3.322    0.699
        52 -10.2777    167.9765    113.0226   9.8172904060e+01   2.6467803155e+01    0.3180994    0.2763042 -84.35 0.0007596916    1.512    0.339
        53  -9.3432    203.4893    111.0819   9.0559523962e+01   1.9125767495e+01    0.2218853    0.1377836 -26.62  0.001027007    1.585    0.369
        54  -9.8361    242.6630     86.6736   7.7837540891e+01   1.4085123738e+01    0.1505026   0.09805761  16.07 0.0007051625    1.724    0.420
        55 -10.0282     70.4603     84.6553   1.1660581734e+02   5.0152877219e+01    0.3334329    0.2051385  59.24  0.001377753    2.176    0.541
        56  -8.6857    184.7045     77.6152   8.5088887048e+01   2.8628780184e+01    0.1646534    0.1135541  11.76 0.0007016918    1.768    0.434
        57  -9.0917    156.7049     76.6589   9.0688374201e+01   3.5420032272e+01    0.1598983    0.1172698   8.70 0.0005405894    1.659    0.397
        58 -10.8576      2.2492     65.0373   1.3546432736e+02   6.0707313039e+01    0.3981472   0.09057123 -77.93   0.00133014    4.630    0.784
        59  -9.3562     33.7914     62.6032   1.2376561683e+02   5.9182949920e+01      0.15501    0.1126623  44.21 0.0008018391    1.665    0.399
        60 -10.4819     26.2910     59.7934   1.2589279051e+02   6.0425552145e+01    0.3726793    0.1670941  40.43  0.001435794    2.733    0.634
        61 -10.7096     20.5162     57.5018   1.2755996261e+02   6.1357454741e+01    0.3360627    0.1639646  43.67  0.001740127    2.612    0.617
        62  -9.7883     88.8117    248.8483   1.3353432204e+02   1.6999156208e+01    0.1370925   0.08421284  58.69 0.0004099053    1.313    0.238
        63 -10.7960     82.4065    248.7157   1.3452285467e+02   1.7777595598e+01    0.2120488    0.1418586  31.00   0.00162992    1.744    0.426
