#   1 NUMBER                 Running object number                                     
#   2 MAG_AUTO               Kron-like elliptical aperture magnitude                    [mag]
#   3 X_IMAGE                Object position along x                                    [pixel]
#   4 Y_IMAGE                Object position along y                                    [pixel]
#   5 X_WORLD                Barycenter position along world x axis                     [deg]
#   6 Y_WORLD                Barycenter position along world y axis                     [deg]
#   7 A_WORLD                Profile RMS along major axis (world units)                 [deg]
#   8 B_WORLD                Profile RMS along minor axis (world units)                 [deg]
#   9 THETA_WORLD            Position angle (CCW/world-x)                               [deg]
#  10 FWHM_WORLD             FWHM assuming a gaussian core                              [deg]
#  11 ELONGATION             A_IMAGE/B_IMAGE                                           
#  12 ELLIPTICITY            1 - B_IMAGE/A_IMAGE                                       
         1 -12.4619    105.6833     19.9928   1.4551010493e+01   5.6750869180e+01    0.4489041    0.3030871 -73.92 0.0003363397    1.564    0.361
         2 -12.3571     58.1076     29.7730   3.4472358981e+01   6.7189715610e+01    0.5475488    0.3675408 -23.24  0.001191258    1.885    0.469
         3 -11.5223     20.3853     22.1613   5.4621527449e+01   7.5292083462e+01    0.5441666    0.3204302 -38.77  0.001842848    1.745    0.427
         4 -11.6382     35.4206     17.9202   4.0296873993e+01   7.3733163470e+01    0.5551172    0.3530961 -30.59  0.002694807    1.759    0.432
         5 -10.9592      5.7991      9.2265   6.1608748719e+01   7.9477902233e+01    0.2676675    0.2100787 -76.16 0.0007646465    1.608    0.378
         6 -11.1241     13.0388      8.6170   5.2931980397e+01   7.8826494841e+01    0.3061318    0.2489521 -67.31  0.001501323    1.576    0.366
         7 -12.2092     22.9577     10.9996   4.5064432673e+01   7.7014252188e+01    0.5593441    0.3670675   4.25  0.002809875    2.055    0.513
         8 -11.2379     17.1502     10.8160   5.0320515636e+01   7.7893766574e+01    0.3234558     0.233955 -44.62  0.001099535    1.418    0.295
         9 -12.0666    165.2218     17.7991   5.5925112795e+00   4.1509949641e+01    0.5128042    0.2977222  49.41  0.002291454    2.228    0.551
        10 -11.4788     86.3575     13.3687   1.5827571255e+01   6.2606135730e+01     0.618907    0.3564642   7.61  0.002458067    3.106    0.678
        11 -10.3890     89.3644      8.4911   1.2707551136e+01   6.2333073688e+01    0.2884243    0.1887216 -31.68  0.001291539    1.653    0.395
        12 -10.8796    127.1346     16.7987   9.6302063859e+00   5.1411946412e+01    0.5099083    0.2962895   1.12  0.002048307    3.138    0.681
        13 -11.8540    134.8285     15.0891   7.9807004023e+00   4.9570335144e+01     0.836821    0.1729222  65.16  0.002649976    3.697    0.729
        14 -11.7493    104.6668     12.9868   1.1733029955e+01   5.7814830286e+01    0.4133833    0.3517988  -1.01    0.0015788    1.487    0.327
        15 -12.1796     49.2043     13.0143   2.8875785393e+01   7.1694297061e+01    0.6325877    0.2629564  53.74  0.002625749    2.194    0.544
        16 -11.3078    192.8648      7.5633   7.3420400787e-01   3.6106572657e+01     0.339944    0.1660495 -11.53  0.001402472    3.680    0.728
        17 -11.9665    212.1532      9.7229   2.3263664116e-01   3.1709714152e+01    0.4479845    0.2829477 -24.22  0.002221986    1.791    0.442
        18 -11.8522    168.8438      9.7565   2.9223062490e+00   4.1498857021e+01    0.3286644    0.2574084  70.42   0.00128837    1.374    0.272
        19  -9.9747     64.3894      6.7287   1.8509368476e+01   6.8894311509e+01    0.3239569    0.1925676  87.23 0.0009586995    2.140    0.533
        20 -11.2789    227.8700     15.2204   7.0651285293e-01   2.7958749383e+01    0.3839607    0.1597699 -66.53  0.001555826    2.234    0.552
        21  -9.9585      1.0000      8.8405   6.7311501438e+01   7.9927250863e+01     0.311549   0.06624542 -64.99  0.001025506    4.703    0.787
        22 -10.8783    156.9312      7.7238   3.2609183306e+00   4.4652812320e+01    0.1966778    0.1555426 -81.83  0.001160457    1.082    0.076
        23 -11.7158    184.7017      6.2701   8.7368071042e-01   3.8097899854e+01     0.330786    0.1321496 -58.80   0.00149614    2.137    0.532
        24  -9.5415     78.0171      7.5241   1.4913794301e+01   6.5381479612e+01    0.1963193    0.1093331 -81.61 0.0008077662    2.384    0.581
        25 -11.1949     64.1677     10.0813   2.0631646407e+01   6.8582139708e+01    0.4007569    0.2514844 -61.45  0.001882557    2.076    0.518
        26 -11.6646    137.8642      4.1550   3.7995150448e+00   4.9883436428e+01    0.5224501    0.2308051  68.59 0.0004232857    2.029    0.507
        27 -11.8610    133.1953      2.4973   3.6705345249e+00   5.1255986679e+01    0.3485673     0.286717  72.44  0.001328706    1.214    0.176
        28 -10.8104     41.8357      3.7750   2.6123436285e+01   7.4468275263e+01    0.3931014    0.2174141  27.83  0.001767895    2.371    0.578
        29 -10.2879    233.7711      2.8624   3.5777227100e+02   2.8125469268e+01    0.2975098   0.04539265 -46.13   0.00125071    2.965    0.663
        30 -11.0262    114.3382      2.5024   5.8004422853e+00   5.6247355193e+01    0.4039756    0.2128277 -73.85   0.00180015    1.957    0.489
        31 -10.4201    223.8961      2.8190   3.5813149512e+02   3.0042015142e+01    0.1974826    0.1286782 -45.12 0.0004127187    1.193    0.162
        32 -10.3443    218.8776      3.4939   3.5848415019e+02   3.0977156247e+01    0.1644409    0.1015471 -88.68 0.0009690953    1.556    0.358
        33 -10.4913      2.0770      2.0691   6.1482897333e+01   8.1203831875e+01    0.2494625    0.1623658 -31.62  0.001058796    1.466    0.318
        34  -9.6569     64.4284      2.2479   1.5711464316e+01   6.9327138766e+01    0.1614123    0.1265011 -41.39 0.0004044971    1.405    0.288
        35  -9.5931    245.7825      1.3108   3.5704571368e+02   2.6065819581e+01    0.1254518   0.08850022  86.75 0.0002848187    1.561    0.359
        36  -9.6036    204.3142      1.3406   3.5860154428e+02   3.4226635318e+01    0.1065792    0.0924661  42.11 0.0005949979    1.702    0.412
        37  -9.6241    152.4304      1.4644   1.6523593378e+00   4.6392182301e+01    0.1361443    0.1091879 -71.31 7.136198e-05    1.014    0.014
        38 -10.0405    105.0365      1.5380   6.6617163440e+00   5.8811138979e+01    0.2183266    0.1207292  77.24 0.0008131452    1.580    0.367
        39 -11.9867     15.0340     15.7393   5.5724197745e+01   7.7228888484e+01    0.2893033    0.2742186  14.74 0.0005456979    1.115    0.103
        40 -10.7237     35.6068    102.7557   7.0180403142e+01   5.3357047370e+01    0.6682622    0.3270581  -5.00  0.002008605    4.370    0.771
        41  -9.8641    249.4821    250.0564   4.1683942444e+01  -5.2899085751e+00     0.133399   0.07140788 -26.28   0.00102011    1.555    0.357
        42 -12.2644     26.0870    107.0938   7.5044596511e+01   5.3146400624e+01    0.7689556    0.5710333 -73.48    0.0032435    1.277    0.217
        43 -11.5690     22.2995    114.1631   7.7560852797e+01   5.1512138576e+01    0.5326034     0.306426  -4.75  0.001876111    2.388    0.581
        44 -11.3506     28.3550    112.9400   7.4867596167e+01   5.1284204702e+01    0.4089735    0.3000621  30.91  0.001374451    1.367    0.269
        45 -10.2361      7.4924    114.5096   8.3777115759e+01   5.2535881690e+01     0.286333    0.2267461  51.05 0.0009832453    1.199    0.166
        46 -12.1154      2.3418    111.6577   8.5730637191e+01   5.3624824023e+01    0.5569589    0.3009088  87.53  0.001487416    1.709    0.415
        47 -11.7441      5.0535    107.4264   8.4282104788e+01   5.4648608212e+01    0.6044983    0.3157302  80.84  0.002008884    1.850    0.460
        48  -9.7686     48.9634    112.0043   6.6192360634e+01   4.9099539164e+01    0.1920371    0.1740305  49.08 0.0006118325    1.081    0.075
        49 -11.3781     16.6274    109.8623   7.9491635655e+01   5.3191475750e+01    0.2625124     0.228177  58.60  0.000172021    1.095    0.087
        50 -11.8596     80.0530    108.0159   5.3442451190e+01   4.5101136547e+01    0.3732765     0.338686  29.32 0.0007533136    1.197    0.165
        51 -10.1612     85.7673    103.2535   5.0245343208e+01   4.5220762285e+01    0.2094389    0.1910853 -14.32 0.0005765566    1.325    0.245
        52 -11.1221     51.3405    100.2638   6.2852000985e+01   5.1986332737e+01     0.457716    0.2910401 -34.48   0.00188958    2.048    0.512
        53 -12.1276    247.4137     95.9116   1.6269073132e+01   1.4276460477e+01    0.4159538    0.2815524  -5.40  0.002436931    2.226    0.551
        54 -10.5407     16.9756    100.7615   7.8301144131e+01   5.5711328228e+01    0.2446718     0.196425 -86.45 0.0003970446    1.162    0.140
        55 -10.3851    210.1643     98.3376   2.1076464928e+01   2.0143248190e+01    0.1991448    0.1534595 -33.68  0.000387454    1.183    0.155
        56 -12.0137     79.0566     93.0304   4.9921315931e+01   4.9106222341e+01     1.060596    0.4708828 -57.40  0.003746724    2.340    0.573
        57 -12.7420     75.6486     79.3446   4.7170484253e+01   5.3143242177e+01    0.7821144    0.5213219  71.10  0.003213676    1.958    0.489
        58 -12.2110     67.4122     94.8797   5.4912613522e+01   5.0813637963e+01    0.5087892    0.3382972  42.24  0.001156803    1.466    0.318
        59 -11.5961      8.7470     96.9008   8.1697463609e+01   5.7356360269e+01     0.412861    0.3017653  36.62 0.0004141715    1.377    0.274
        60 -10.7206     30.0104     96.8387   7.1696368410e+01   5.5618963211e+01    0.2626902    0.2016239 -69.99 0.0004056058    1.243    0.196
        61 -12.0362    126.0146     94.5558   3.5745806148e+01   3.8571164107e+01    0.2700197    0.2457245 -65.87 0.0001946128    1.061    0.058
        62 -10.3717     39.6983     89.7153   6.5763544764e+01   5.6456589221e+01     0.267667    0.2164683 -26.27 0.0007823138    1.447    0.309
        63 -11.4814     23.2174     94.3973   7.4498962716e+01   5.6961628395e+01    0.3317133    0.2698792 -33.53  0.001735892    1.366    0.268
        64 -11.2741    240.7512     91.7488   1.6109625496e+01   1.5891665195e+01    0.3645784    0.1156579 -51.56  0.001306892    4.292    0.767
        65 -11.8115     43.1104     90.9458   6.4441694902e+01   5.5675696384e+01     0.474559    0.2552781 -64.76  0.000366786    1.800    0.444
        66 -10.3115     35.4109     92.3076   6.8329037240e+01   5.6272416993e+01    0.2734982    0.1837926 -84.05  0.001246118    1.552    0.356
        67 -10.4669     98.2333     91.0017   4.2701136373e+01   4.5606210909e+01    0.2596626    0.2181915  56.09 0.0003552761    1.159    0.137
        68 -11.4079      6.3717     88.5554   8.1998452905e+01   5.9799908391e+01    0.5423113    0.2972805  20.27   0.00234855    1.899    0.473
        69 -10.3220      9.4936     86.5015   8.0189179297e+01   6.0186468109e+01    0.2648374    0.2044909 -84.51  0.000699478    1.208    0.172
        70 -10.0442     67.1276     88.1757   5.3218977618e+01   5.2591536208e+01    0.2343636    0.2182401 -28.71 0.0006703368    1.216    0.177
        71 -11.0626     27.7048     84.9767   7.0649299178e+01   5.9128810109e+01    0.4813571    0.3105832   5.88  0.001622607    1.858    0.462
        72 -10.7166     52.0539     87.0412   5.9406135273e+01   5.5429258746e+01    0.2274886    0.2173728 -87.13 0.0003624688    1.020    0.020
        73 -10.9804     18.6767     86.3226   7.5476617875e+01   5.9586239618e+01    0.3962526    0.2468394  -0.09  0.001803218    1.934    0.483
        74 -10.2521     90.1717     85.4138   4.3719319377e+01   4.8663688658e+01    0.3422497    0.2418455 -84.28  0.001435284    1.837    0.456
        75 -11.5454     45.2582     84.3225   6.1862515326e+01   5.7158689667e+01    0.4189538    0.3344928 -40.38  0.001008012    1.362    0.266
        76 -10.3056     37.4057     85.8017   6.5997056672e+01   5.7806709870e+01    0.2829375    0.2008529  27.89  0.001208679    1.444    0.307
        77 -10.0991    143.2240     84.2384   2.8809511613e+01   3.6685314939e+01    0.2094857    0.1980945 -49.88 0.0005245305    1.117    0.105
        78 -11.2259    247.8545     82.5399   1.3558627407e+01   1.6019217936e+01    0.2554377     0.108682 -46.80  0.001331483    1.913    0.477
        79 -10.4365     67.6109     81.1501   5.0975761248e+01   5.4270557428e+01    0.3160646    0.2460061 -21.65  0.001438026    1.708    0.415
        80 -10.9192     89.2966     77.6444   4.1585037870e+01   5.0648532950e+01    0.4346162    0.3043166  51.06  0.001203808    1.393    0.282
        81 -10.5590     94.5061     76.1554   3.9334982063e+01   4.9814967653e+01    0.3308978    0.2548199  54.72 0.0008260261    1.263    0.208
        82 -12.2669    247.6889     76.7882   1.2414010496e+01   1.6812871251e+01    0.3225016    0.2555236 -74.79  0.002312748    1.410    0.291
        83 -10.8250     53.6289     76.6534   5.5802400986e+01   5.7870194967e+01    0.3379699    0.2414572 -67.32  0.001571428    1.448    0.309
        84 -10.1565     58.0534     77.3174   5.3963970242e+01   5.6954960788e+01    0.2152907    0.1954583  48.39 0.0004308019    1.085    0.078
        85 -11.0648     13.6993     74.8084   7.6271818063e+01   6.3103033169e+01    0.3521954    0.2791326  78.67   0.00190038    1.281    0.219
        86  -9.8339     46.5554     74.9772   5.8718186359e+01   5.9413505261e+01    0.2304934    0.1438236 -58.87 0.0007611875    1.571    0.363
        87 -10.8927     39.5251     73.4890   6.1867809553e+01   6.0802186485e+01    0.4713641    0.2620781  17.69  0.001216359    2.173    0.540
        88 -12.1739     40.8864     69.0580   5.9885469737e+01   6.1753708193e+01    0.6595418    0.3746507  12.04 0.0004636797    2.456    0.593
        89  -9.9625     25.4827     74.5082   6.9653693811e+01   6.2183637723e+01     0.296781    0.2854808  40.08  0.001137198    1.070    0.066
        90 -10.7624     28.3326     72.3528   6.7586887421e+01   6.2460935078e+01    0.2681935    0.2180244 -35.02  0.001151192    1.307    0.235
        91 -10.9112     80.7956     72.7881   4.3050477859e+01   5.3604639457e+01     0.326924    0.2165958 -59.56  0.001418236    1.605    0.377
        92 -10.1668    122.5724     68.7163   2.8856082200e+01   4.4646186775e+01    0.3217951     0.173105  45.98   0.00107767    2.042    0.510
        93 -10.6995      1.8529     71.2926   8.2535606430e+01   6.4704324820e+01    0.3578771    0.1830538 -74.32  0.001634182    1.755    0.430
        94 -11.6013     92.3531     62.5711   3.5356792070e+01   5.3204308351e+01    0.4314585    0.2979904  64.01 0.0009178971    1.498    0.333
        95 -12.5190      6.6667     61.1254   7.8168290526e+01   6.7175057194e+01    0.8100755    0.4799711 -34.35  0.003098502    1.762    0.433
        96 -10.0521     14.0399     56.4575   7.2420872218e+01   6.7916220609e+01    0.2344171    0.1693328 -41.25 0.0004599488    1.364    0.267
        97  -9.7932    158.9758     62.9863   1.9743823052e+01   3.6741908021e+01    0.2039652    0.1735565  32.81 0.0004075396    1.538    0.350
        98 -10.2863    104.9785     63.5187   3.1789292501e+01   4.9979772606e+01    0.2357918    0.1486809  56.28 0.0004903386    1.537    0.349
        99 -11.9968     41.9526     59.0011   5.6061732142e+01   6.4092754117e+01    0.8186577    0.5252143  63.11  0.003556861    2.056    0.514
       100 -12.1338     46.4139     59.2208   5.3713677146e+01   6.3341049567e+01    0.7937967    0.3105719  47.70  0.002694384    2.984    0.665
       101  -9.8761    113.5189     60.9675   2.8555282033e+01   4.8357858594e+01    0.2348535    0.1509947 -42.12 0.0009753083    1.586    0.369
       102 -11.3396     25.6307     55.6542   6.4670073351e+01   6.7050803603e+01    0.3712226    0.2351939 -49.14  0.001133469    1.529    0.346
       103 -10.1751     29.5062     59.5838   6.3467206693e+01   6.5626624624e+01    0.4168842    0.2656342  81.64  0.001819951    2.154    0.536
       104 -11.6586     76.7451     52.9785   3.7258876273e+01   5.8752249382e+01    0.5568669    0.3494409 -29.25  0.001278642    2.110    0.526
       105 -11.5837     72.7002     47.1621   3.6425889116e+01   6.0807022101e+01    0.8621849    0.3222956 -53.37  0.002470989    3.666    0.727
       106 -10.2423    124.5872     56.2787   2.4265719985e+01   4.6413383696e+01    0.1994757    0.1492124 -30.19 0.0006865267    1.545    0.353
       107 -10.3492    118.6276     56.3830   2.5686628666e+01   4.7906905605e+01    0.2949254     0.138864  73.77 0.0008536331    3.108    0.678
       108 -10.6710     88.4514     55.0964   3.3852642562e+01   5.5619072780e+01    0.3723775    0.1501563 -31.05  0.001032278    4.521    0.779
       109 -11.1580     61.3642     46.5456   4.1074940916e+01   6.3375773439e+01    0.4338079    0.2332958 -37.79  0.001779706    2.130    0.531
       110 -10.7527     31.5225     53.2542   6.0182979768e+01   6.6941040176e+01    0.4392646    0.1961594  19.13  0.001628566    2.790    0.642
       111 -11.3011    154.9884     48.9530   1.6239172962e+01   3.9931933280e+01    0.2805715    0.2028459 -31.06 0.0004462602    1.511    0.338
       112 -11.7875    116.5250     47.4975   2.3024328854e+01   4.9964430957e+01    0.7485774    0.4073693  41.14  0.002910253    2.426    0.588
       113 -11.6767    120.1542     40.7961   1.9770090401e+01   5.0085765111e+01    0.3684266    0.2616402  47.84 0.0007028513    1.558    0.358
       114 -11.6417    118.9995     36.9783   1.8597123859e+01   5.0958912191e+01    0.3575595    0.3188843 -76.82  0.001046936    1.042    0.040
       115  -9.7784     10.7448     51.5794   7.3505576089e+01   6.9392417598e+01    0.1706436    0.1248034  29.19 0.0002899644    1.417    0.294
       116  -9.6028     55.4539     50.4330   4.5601587392e+01   6.3738454941e+01    0.1449969    0.1408195  38.02 0.0001135569    1.029    0.029
       117 -10.7774     46.9741     48.7219   4.9333171565e+01   6.5655907044e+01    0.2057672    0.1866011  41.01 0.0004682732    1.082    0.076
       118  -9.7251      1.8572     48.8293   7.9275204742e+01   7.0565415856e+01    0.1822507    0.1498997  53.44  0.001065597    1.324    0.245
       119  -9.9262     52.0608     48.4571   4.6495551318e+01   6.4801360435e+01    0.2164477    0.1404944  39.22 0.0004135688    1.509    0.337
       120 -11.2350     20.7893     45.9276   6.4783027099e+01   6.9946961109e+01    0.3333976    0.2525161 -34.21 0.0008086863    1.339    0.253
       121 -10.1822     13.0255     46.1486   7.0455454820e+01   7.0586088853e+01    0.2168315    0.1687156 -29.66 0.0009475182    1.287    0.223
       122 -11.4993    117.1609     43.9985   2.1597945175e+01   5.0366198770e+01    0.4440589    0.3063277 -75.86  0.002044629    1.612    0.380
       123 -11.7708     42.9747     44.1113   4.9621871719e+01   6.7345725889e+01    0.5931029    0.2785572  34.81 0.0008918251    2.139    0.533
       124 -10.6303     31.0339     44.4846   5.7221961953e+01   6.9074260113e+01    0.2179264    0.1347812  29.88  0.001037247    1.605    0.377
       125 -10.0388    156.2859     42.2994   1.4028838152e+01   4.0589834921e+01    0.2452181    0.1765447 -23.83  0.001229704    1.671    0.402
       126  -9.4265    140.5002     43.5356   1.6870688211e+01   4.4399233366e+01    0.1509325      0.12887 -75.77 3.159975e-05    1.045    0.043
       127 -11.0533    110.6763     40.8452   2.1906738933e+01   5.2547214541e+01    0.4766153    0.4118562 -40.30  0.002547008    1.245    0.197
       128 -10.8781     26.1384     42.7831   5.9869465761e+01   7.0093773118e+01    0.2323792    0.1897083 -74.71 0.0006346725    1.355    0.262
       129 -10.5273     98.1359     41.5242   2.5413451044e+01   5.5666303770e+01    0.2748163      0.21278 -78.29 0.0003740993    1.395    0.283
       130 -10.0927     57.2009     42.0470   4.1030114819e+01   6.5125874797e+01    0.2673979    0.1774016  55.93  0.001243588    1.590    0.371
       131 -11.4226     78.6423     35.4167   2.8888869221e+01   6.1518504238e+01    0.7255377    0.4458143 -37.06  0.003316136    1.747    0.428
       132  -9.3170     18.3035     40.6636   6.4754363307e+01   7.1450456419e+01    0.1377008    0.1011289  61.80 0.0007038339    1.667    0.400
       133 -11.0537      4.0867     35.9419   7.4640167616e+01   7.3648775902e+01    0.3437081    0.2684852  -1.11   0.00142556    1.299    0.230
       134 -10.8027     60.7385     36.5932   3.6730264233e+01   6.5422229371e+01    0.3322029    0.2730568 -22.21  0.001142919    1.413    0.292
       135 -10.4562     23.4367     37.2775   5.9574773704e+01   7.1677519482e+01    0.4519624    0.1442122  40.53  0.001578606    3.354    0.702
       136 -10.4992    153.2809     35.8857   1.2469314641e+01   4.2238906265e+01    0.2545419    0.1912826  70.38 0.0006442791    1.314    0.239
       137 -11.0441    175.1629     34.1365   9.3199021536e+00   3.7108430490e+01    0.4670258    0.2253412 -26.83  0.002031023    2.330    0.571
       138 -10.8006    131.8399    240.8758   6.1051136818e+01   7.9786227286e+00    0.1807981    0.1386775   7.93 0.0006341661    1.212    0.175
       139 -12.5123    104.1696     32.6172   2.0181281971e+01   5.5481728069e+01    0.7743303    0.3418474  49.91 7.831884e-05    2.335    0.572
       140 -12.3421    114.8079     24.8659   1.4765404218e+01   5.3724996095e+01    0.8754681    0.2971087  58.17  0.002635334    2.615    0.618
       141 -10.2949    217.0117     32.0573   5.1679874174e+00   2.8168503599e+01    0.1898883    0.1408317 -54.72 0.0003302242    1.031    0.030
       142  -9.9928     67.4959    241.0372   7.5251658248e+01   1.5634015865e+01    0.1538244    0.1216145 -75.02 0.0009489628    1.567    0.362
       143 -11.5567     48.9944     30.4375   3.9470964222e+01   6.8968450113e+01    0.6235278    0.2917191  40.30  0.002077733    2.122    0.529
       144 -11.6643     26.5726     28.0745   5.2829661145e+01   7.3260112906e+01     0.472093    0.3043555 -63.77  0.002254936    1.868    0.465
       145 -11.0272      9.7007     30.3881   6.7966620324e+01   7.4596489739e+01    0.4640288     0.267048   5.16  0.002301029    1.867    0.464
       146 -11.0090    158.3735     29.4157   9.8200540491e+00   4.1812702295e+01    0.4572527    0.2156124  79.38  0.000929385    2.146    0.534
       147 -11.7031    164.3020     27.6576   8.6160054205e+00   4.0562949764e+01    0.4020106    0.2541219 -57.73 0.0004876202    1.399    0.285
       148 -11.7074    125.7511     28.0627   1.4015342500e+01   5.0413995060e+01    0.5209893    0.3712363 -88.59  0.002625753    1.344    0.256
       149 -11.4206    188.7183     27.1973   6.1460715335e+00   3.4830981799e+01    0.3191432    0.1978009  55.55  0.001534309    1.977    0.494
       150 -10.9054    230.8129     26.9519   3.1306723197e+00   2.6072372234e+01    0.1918781      0.15761 -86.88 0.0006514374    1.322    0.244
       151 -11.6009    183.2994     25.7981   6.2376292966e+00   3.6244991728e+01    0.3339123    0.1619665 -54.18  0.001589785    1.772    0.436
       152 -10.6888    146.2840     26.4261   1.0376406617e+01   4.5258463468e+01    0.2049663    0.1222059 -89.26  0.000949819    1.664    0.399
       153 -11.0479     75.8094    240.6120   7.3321740117e+01   1.4753824432e+01    0.1873959   0.08383996  36.73 0.0009486377    1.655    0.396
       154  -9.9053    170.8249     23.3671   6.6957044040e+00   3.9493964169e+01     0.176753    0.1141008  68.49  0.000398708    1.576    0.365
       155 -10.1315     13.9397     22.6719   6.0691553223e+01   7.5927741016e+01    0.1822957    0.1524878  17.59  0.000370218    1.169    0.144
       156  -9.2303    224.2867     22.2987   2.4742029432e+00   2.7868794323e+01   0.09831743   0.09308401   5.68 0.0001804917    1.553    0.356
       157 -10.8906    178.8454     20.6891   5.2212843781e+00   3.7893028994e+01    0.3425198    0.2137284  44.59  0.001703893    2.317    0.568
       158 -10.9173    134.4064     22.0965   1.0515471791e+01   4.8878421377e+01    0.3261227    0.1785269  80.63  0.001465288    1.745    0.427
       159 -10.4490     38.6426     21.8524   4.0665048461e+01   7.2471687298e+01    0.2353247    0.1919742  40.91 0.0005129566    1.164    0.141
       160 -10.8421    147.2408    239.2171   5.7705698976e+01   6.3879368338e+00    0.1551089    0.1247722  39.39   0.00107353    1.380    0.275
       161 -10.8595    247.8720    223.0038   3.8190914034e+01  -2.2911776228e+00     0.209232    0.2031131   3.64  0.001844827    2.015    0.504
       162  -9.1849    164.3276    211.6846   5.0609734088e+01   8.5154077799e+00    0.1128111   0.09270115  53.70 0.0007044562    1.674    0.403
       163 -10.8848      9.4605     19.6254   6.3483000479e+01   7.7003932654e+01    0.4979573    0.2370349  -4.12  0.001093791    3.076    0.675
       164  -9.8692    171.4295    208.7707   4.8783378873e+01   8.0522173793e+00    0.1602771    0.1031724 -27.62 0.0005643673    1.581    0.367
       165  -9.8999    232.5481    191.0021   3.5522348002e+01   3.1384313941e+00    0.1676409    0.0884854 -33.63  0.001033262    1.605    0.377
       166 -10.7826     68.2140     19.2956   2.4490152668e+01   6.6455084582e+01    0.3354572    0.2913059  76.69  0.001909599    1.142    0.124
       167  -9.8128     46.5051     20.4533   3.5079016973e+01   7.1170329710e+01    0.1363951    0.1265858  39.51 0.0001045515    1.010    0.010
       168  -9.6560     15.3369    189.6684   8.5364439979e+01   3.2132228183e+01    0.1527431   0.07193144  53.20 0.0007052074    1.737    0.424
       169 -12.4628      4.5416    183.6938   8.8157988850e+01   3.4480551850e+01    0.5813448    0.3538359  78.25  0.002981058    1.490    0.329
       170 -10.0867    190.7854    170.9794   3.8901602749e+01   1.1453918060e+01    0.1889103    0.1469614 -66.79  0.001082883    1.968    0.492
       171  -9.5878    199.2921     17.6535   2.9010403146e+00   3.3588529696e+01    0.1406789   0.06932777 -56.65 0.0004402582    1.664    0.399
       172 -12.0699      8.9117    166.8879   8.6251620468e+01   3.8319600889e+01    0.4231809    0.1699906  32.26   0.00183379    2.062    0.515
       173 -12.9096     13.2444    159.9432   8.4557618999e+01   3.9764142457e+01    0.6197865    0.3678995 -60.39  0.002634521    1.840    0.457
       174 -10.2089    211.0253     16.0363   1.7864481546e+00   3.1260416440e+01    0.1873286    0.1389229 -55.62 0.0003303311    1.027    0.027
       175 -10.7200    186.3478     14.9996   3.0966449460e+00   3.6790255816e+01    0.1837405    0.1392262 -52.87 0.0004361341    1.106    0.096
       176 -10.7651    205.1195    163.6453   3.5099995898e+01   1.0552272697e+01    0.2070388    0.1535196 -40.22 0.0007797137    1.307    0.235
       177 -10.3412    227.0000    156.9766   3.0499557434e+01   8.5202056716e+00      0.19424    0.0558286 -38.18 0.0007991317    2.920    0.657
       178 -11.6407     47.7182    147.3493   7.2000594330e+01   3.9554586807e+01    0.7315171    0.3476222 -63.31  0.002942508    2.079    0.519
       179 -12.7178     22.7543    148.7203   8.0676935944e+01   4.1913026325e+01     0.619113    0.3369186 -43.95  0.001521608    2.344    0.573
       180 -11.0604     16.7192    147.9584   8.2685175212e+01   4.2654585368e+01    0.3039345    0.1998498  65.15 0.0004148542    1.374    0.272
       181 -10.4020    240.6086    152.7992   2.7863148995e+01   7.3267216392e+00    0.1624816   0.08648558 -41.72 0.0009455644    1.682    0.406
       182  -9.5910     55.5855    152.7816   7.0064566504e+01   3.7085346408e+01    0.1985499    0.1384101  88.73 0.0006083845    1.504    0.335
       183 -10.4239      4.5179    153.5024   8.7070647235e+01   4.2125240221e+01    0.1414277    0.1163889  62.74 -4.308547e-06    1.022    0.022
       184 -10.5920     33.0485    144.4640   7.6735205503e+01   4.2041696863e+01    0.2872397    0.2119791 -85.62 0.0007833601    1.308    0.236
       185 -11.9976      3.4258    142.2283   8.6946747277e+01   4.5198622268e+01    0.5905704    0.2712331  41.08  0.002164254    1.881    0.468
       186 -10.6148     40.6875    139.2742   7.3458230788e+01   4.2604686485e+01    0.4680706    0.1838975 -69.89  0.001717714    2.445    0.591
       187 -11.2421     80.4884    138.7706   5.9752655755e+01   3.7024899217e+01    0.2718696    0.2398786  44.66 0.0002766714    1.087    0.080
       188 -11.6719     23.3152    137.3070   7.9523609996e+01   4.4972644708e+01    0.3605013    0.3034452  29.78  0.001103265    1.226    0.184
       189 -10.3258     20.4868    134.5000   8.0313961798e+01   4.6001596247e+01    0.2611733    0.2169192  12.64  0.001084668    1.360    0.265
       190 -11.5522     12.8653    135.6195   8.3204485972e+01   4.6321452637e+01    0.4779983    0.3252439 -49.10  0.002384126    1.668    0.401
       191 -10.7664     30.3008    132.5572   7.6473420765e+01   4.5604076510e+01    0.3176334    0.2506838 -35.62 0.0009660313    1.525    0.344
       192 -10.4562     25.9849    131.6743   7.7997684608e+01   4.6278099119e+01    0.2864551    0.1713895  46.25 0.0004740924    1.542    0.352
       193  -9.6661     23.1462    126.8011   7.8587055323e+01   4.7899459428e+01    0.1890684    0.1659111 -40.70 0.0003758645    1.309    0.236
       194 -10.0845     33.4487    125.9997   7.4507086719e+01   4.7097045862e+01    0.2271244    0.1406976 -77.26 0.0007004474    1.562    0.360
       195 -10.2200     10.7812    126.5795   8.3348510891e+01   4.8966488137e+01    0.2019138    0.1168829  36.70 0.0009398189    1.616    0.381
       196 -12.6436    246.2182    120.7111   2.1221542378e+01   1.1028342813e+01     0.683416    0.2698143 -45.30  0.003370953    2.303    0.566
       197 -10.0790      5.2858     22.3557   6.8949497997e+01   7.6732460168e+01    0.2081405     0.103452  28.74  0.001007092    2.007    0.502
       198 -11.0917    104.4223    122.5591   4.8934785716e+01   3.6745846613e+01    0.3201743    0.2896008  59.65   0.00088351    1.069    0.064
       199  -9.3400     13.3297    122.3454   8.2025910489e+01   4.9955129611e+01    0.1521343   0.09880809 -44.58 0.0007050285    1.755    0.430
       200  -9.9233     43.1989    116.1804   6.9243398437e+01   4.8698913432e+01    0.2197064     0.164382  63.13 0.0004712262    1.326    0.246
       201  -9.4531     78.5398    115.4389   5.5701970677e+01   4.3449730421e+01    0.1597245    0.1477891  70.46 0.0002653463    1.021    0.020
