#   1 NUMBER                 Running object number                                     
#   2 MAG_AUTO               Kron-like elliptical aperture magnitude                    [mag]
#   3 X_IMAGE                Object position along x                                    [pixel]
#   4 Y_IMAGE                Object position along y                                    [pixel]
#   5 X_WORLD                Barycenter position along world x axis                     [deg]
#   6 Y_WORLD                Barycenter position along world y axis                     [deg]
#   7 A_WORLD                Profile RMS along major axis (world units)                 [deg]
#   8 B_WORLD                Profile RMS along minor axis (world units)                 [deg]
#   9 THETA_WORLD            Position angle (CCW/world-x)                               [deg]
#  10 FWHM_WORLD             FWHM assuming a gaussian core                              [deg]
#  11 ELONGATION             A_IMAGE/B_IMAGE                                           
#  12 ELLIPTICITY            1 - B_IMAGE/A_IMAGE                                       
         1 -10.8767     59.5577     24.2030   6.0545279937e+01   6.3943862003e+01    0.4042679    0.2799473 -22.24  0.002398454    1.507    0.336
         2 -11.0429     61.5884     15.4316   5.5964488374e+01   6.4550590359e+01    0.4942022    0.2125847  33.98  0.001948081    2.255    0.557
         3 -11.1797      1.9117     20.7634   8.8148876669e+01   7.1905820389e+01    0.2899337    0.1876314 -41.79  0.001224369    1.456    0.313
         4 -11.4266     14.0654     15.6865   7.8507381495e+01   7.1605594671e+01    0.3278854    0.2424245 -51.13  0.001372767    2.143    0.533
         5 -11.7923    125.3106     17.2134   4.0197516208e+01   5.0662195551e+01    0.2705154     0.231311  52.57 0.0002176904    1.098    0.089
         6 -11.1564    125.9327     10.9769   3.8152197670e+01   5.1088471366e+01    0.2442486    0.2046237 -85.03            0    1.242    0.195
         7 -11.1394    123.7888      6.8092   3.7218860433e+01   5.1937229723e+01    0.2903503    0.1736501 -35.30  0.001399164    1.919    0.479
         8 -10.8171     67.9018     17.4545   5.4631384899e+01   6.3139764485e+01    0.2507027    0.1742342 -45.75  0.001187537    2.014    0.504
         9 -11.4460    234.9614     14.9154   2.7309694771e+01   2.6772542908e+01    0.2524394     0.175783  76.09  0.000785647    1.421    0.296
        10 -10.9161    207.9934     13.1667   2.8999852026e+01   3.2370364638e+01    0.1944079    0.1591145 -48.67 0.0004044853    1.304    0.233
        11 -11.4331     83.4106     15.2257   4.8933504466e+01   6.0219606566e+01    0.3672668    0.2036764  26.85 0.0009732481    2.026    0.506
        12 -11.1775     35.0099     12.4950   6.5714287843e+01   6.9354802323e+01    0.3022951    0.2253592  48.37 0.0009726632    1.852    0.460
        13 -11.6182     29.8094      7.7279   6.5881003199e+01   7.0655903810e+01    0.3845586    0.2508137   8.93  0.002448699    1.342    0.255
        14  -9.8397    108.8073     11.8456   4.1609442246e+01   5.4945775534e+01    0.1619513     0.137292 -87.98 0.0003791946    1.321    0.243
        15 -11.0783     85.9918     10.4570   4.6370702604e+01   6.0103698942e+01    0.2360726    0.1832386  19.82 0.0005548957    1.314    0.239
        16 -12.1634    117.6806      9.5634   3.9146808320e+01   5.3114594310e+01    0.4663971    0.2849022 -63.77  0.001922552    2.218    0.549
        17 -11.3681    191.4692     10.1631   2.9790322016e+01   3.6207232025e+01    0.2701907    0.1537203 -85.26 -0.0001541599    1.648    0.393
        18  -9.7407     64.5854     10.7377   5.2855247934e+01   6.4441890089e+01    0.1492803     0.113267 -29.49 0.0007703562    1.571    0.364
        19 -11.4428     45.1986      9.8782   5.9819496191e+01   6.8028653404e+01    0.2221894    0.1695385  11.87   0.00027407    1.109    0.098
        20 -10.4123     22.9470      9.1738   7.0224310684e+01   7.1424333517e+01     0.341327    0.1649115  19.89  0.001804308    2.037    0.509
        21 -10.7139     56.0045      8.2445   5.4764049192e+01   6.6289449130e+01    0.2515539    0.1619204  -7.74  0.001505334    1.664    0.399
        22  -9.6243     11.1822      1.1998   7.2765526140e+01   7.3803961956e+01    0.1595254   0.07180586  37.86  0.000468431    2.505    0.601
        23 -10.5297     15.6449      8.4716   7.3985329452e+01   7.2403221610e+01    0.2859476    0.1584803   4.25  0.001645682    1.798    0.444
        24 -12.1124     19.1570      2.5560   6.8821447718e+01   7.2682155012e+01    0.4175202     0.174053  30.09  0.001224474    2.070    0.517
        25  -9.3981      8.9802      9.4965   7.8523526137e+01   7.2983634725e+01    0.1274215   0.08979942  39.40 0.0008002545    2.169    0.539
        26  -9.7651    165.3035      7.6981   3.1843168567e+01   4.2279775257e+01    0.1250456   0.07909349 -71.44            0    1.592    0.372
        27  -9.8192     98.2111      7.1333   4.2197875375e+01   5.7717605516e+01    0.1838132    0.1378031  42.98 0.0003738245    1.172    0.147
        28 -10.5708      2.9734      6.2697   8.0698734317e+01   7.3991955716e+01    0.2358058    0.1375475  19.39 0.0007922262    1.539    0.350
        29 -10.9045    199.1879      4.9832   2.8009143867e+01   3.5064877750e+01    0.2180452    0.1551726 -27.82 0.0009314158    1.777    0.437
        30 -10.0366     39.0585      5.1128   6.0144313251e+01   6.9517599264e+01    0.2105733    0.1880997 -31.63  0.001238548    1.619    0.382
        31 -10.9413    104.7159      3.8359   3.9679915949e+01   5.6521786759e+01    0.2621207     0.208398   9.20 0.0008040442    1.479    0.324
        32 -10.3477     53.5790      3.0318   5.3222857434e+01   6.7198026683e+01    0.1978219    0.1642745  40.75 0.0004712883    1.214    0.176
        33  -9.9447    241.1468      2.6762   2.4703747794e+01   2.6925464116e+01    0.1492351    0.1071335 -82.05 0.0006425547    1.127    0.113
        34 -10.8078    237.0433      2.0000   2.4821876609e+01   2.7764770563e+01    0.1996569    0.1258255  88.12 0.0007569275    1.352    0.260
        35  -9.7007     59.1917      3.1850   5.1305521583e+01   6.6137253744e+01    0.1544789    0.1342146  54.64  0.001068897    1.349    0.259
        36 -10.5577    162.7679      2.5513   3.0836719264e+01   4.3316441626e+01    0.2433042   0.09356342  68.30  0.001153548    2.092    0.522
        37 -11.1089    115.1710      1.4008   3.6948995312e+01   5.4335164790e+01    0.6076438    0.1119283  67.83   0.00180331    5.098    0.804
        38  -9.9503     80.8337      1.4340   4.4142088103e+01   6.1917486355e+01    0.1751667    0.1005062  58.33 0.0004195288    1.465    0.318
        39 -10.1012     29.8720      1.3337   6.2499351854e+01   7.1318779902e+01    0.2088339   0.09108797  42.03 0.0009850044    2.074    0.518
        40  -9.5652     52.9018    141.8625   9.8340256666e+01   4.0162492550e+01    0.1969516    0.1673729  75.69            0    1.297    0.229
        41 -10.1066    109.8415    250.6723   9.9100231569e+01   5.9025698914e+00    0.1934864   0.09905186  39.85 0.0005101491    1.685    0.406
        42 -11.1988     28.6457    250.4646   1.1656913344e+02   1.6289358280e+01    0.3439715   0.09451659  32.32  0.001433183    3.099    0.677
        43 -11.9948     18.1187    248.9968   1.1858419218e+02   1.7696383774e+01    0.3383562    0.2664579 -35.61  0.002177054    1.917    0.478
        44 -11.8542      3.3199    248.0066   1.2140903062e+02   1.9344669657e+01    0.8107999    0.3167822  45.82   0.00436203    1.986    0.497
        45 -12.8684     11.4497    243.9479   1.1962465598e+02   1.9409009609e+01    0.5339358    0.4557239  67.35  0.003898143    1.124    0.110
        46 -12.4583      4.5913    240.9777   1.2082288344e+02   2.0684296250e+01    0.6246121    0.3476988  26.45  0.003643657    2.021    0.505
        47 -11.6153      9.2084    237.5928   1.1972814764e+02   2.0968563926e+01    0.3428977     0.219354  14.87  0.001998191    2.180    0.541
        48  -9.6220    236.0801    138.4883   5.1957988691e+01   7.8314895041e+00    0.1720739     0.134498  44.32  0.001016842    1.543    0.352
        49  -9.9750     96.1924    133.7955   8.2846237972e+01   3.5769958976e+01      0.30666    0.2081732 -45.85 0.0007112609    1.426    0.299
        50  -9.3828    212.8087    133.6403   5.4741114910e+01   1.2755595351e+01     0.180132    0.1344566  61.25 0.0007830307    1.667    0.400
        51  -9.9413     61.7746    130.8010   9.3294593215e+01   4.1940937710e+01    0.2208799     0.192872 -35.71 0.0004754958    1.120    0.107
        52 -10.9515     12.5963    130.4832   1.0967880138e+02   4.6964633417e+01    0.2533716     0.203425 -89.93 0.0004793507    1.242    0.195
        53  -9.7863     44.9227    129.7556   9.8768454830e+01   4.4287123821e+01    0.1904161    0.1803715 -60.14 0.0002184199    1.054    0.051
        54 -11.7527     28.4840    128.0289   1.0403831982e+02   4.6373151896e+01     0.240472    0.2200348 -55.25  0.000386896    1.049    0.047
        55  -9.0922    226.3352    124.6869   5.0606835124e+01   1.1978985000e+01    0.1363746   0.09885868 -68.48  0.000561918    1.686    0.407
        56 -10.5738     20.7250    120.9727   1.0555408832e+02   4.8840090820e+01    0.1892091    0.1614531 -59.30 0.0006169431    1.011    0.011
        57 -11.1117     10.4511    121.3777   1.0914363062e+02   4.9448747298e+01    0.3462631    0.2227361  21.64  0.001361343    1.798    0.444
        58 -10.0572     69.1257    116.8779   8.7687561723e+01   4.4468558396e+01    0.2174587    0.2060564  85.65  0.001171782    1.192    0.161
        59 -10.6851      1.7240    114.0098   1.1111825603e+02   5.1808350166e+01    0.2285706    0.1521699 -71.92 0.0003593235    1.283    0.220
        60 -10.9025      3.6916    109.7084   1.0982455583e+02   5.2787382392e+01    0.2624173    0.1863123  -3.24 0.0008955219    1.638    0.390
        61 -11.8388      1.5999    104.8652   1.0986846485e+02   5.4095460651e+01    0.3447553    0.1370001 -66.62 0.0004682522    1.986    0.496
        62 -10.8981     25.0883    111.8305   1.0242910805e+02   5.0833200611e+01    0.2021028    0.1827032 -87.79 0.0005303288    1.219    0.180
        63 -12.0154     13.3411    109.3690   1.0629017404e+02   5.2314112545e+01    0.4526458    0.2099785 -62.28  0.002076505    1.738    0.425
        64 -10.4489     22.5224    102.9592   1.0170690721e+02   5.3262828617e+01    0.2114757    0.1192542 -61.63 0.0006221711    1.538    0.350
        65 -10.7298    246.9821    101.6793   4.3019868746e+01   1.2345423222e+01    0.1687938    0.1492534 -57.03 0.0005696429    1.108    0.097
        66  -9.3424    186.9775    102.4858   5.2236735528e+01   2.3816438988e+01    0.2042585    0.1439127  53.31 0.0005092142    1.511    0.338
        67 -12.2092     20.5136     92.9664   1.0045950128e+02   5.5857312327e+01     1.009442    0.4307046  -7.47  0.003666095    3.724    0.731
        68 -10.8874      7.2501     90.9420   1.0538624042e+02   5.7202213148e+01     0.263116     0.188656 -54.56   0.00050912    1.134    0.118
        69 -10.1879      3.5528     95.7252   1.0769015599e+02   5.6240603084e+01    0.1826453      0.11389 -80.27 0.0009499465    1.674    0.403
        70  -9.7131     99.9774     94.4625   7.1313238851e+01   4.4351038326e+01    0.2328219    0.2138227 -83.44 0.0007248709    1.295    0.228
        71 -11.1241    125.1343     93.1876   6.3584602071e+01   3.9342891375e+01    0.2511231    0.2471601 -51.32  0.001365588    1.045    0.043
        72  -9.8117     66.4462     91.7699   8.2082720038e+01   5.0882992061e+01    0.1989103    0.1310977 -38.49 0.0002971429    1.452    0.311
        73 -11.3260     57.9261     91.5061   8.5229486907e+01   5.2190493033e+01    0.3448307     0.222913 -22.75 0.0009044465    1.750    0.429
        74 -11.5530     10.6529     93.5976   1.0452723940e+02   5.6369823858e+01     0.283508    0.1917543 -51.64 0.0004043175    1.198    0.165
        75 -12.2830      6.4086     85.0225   1.0459522171e+02   5.8651592695e+01    0.4350458    0.3715105   5.04    0.0014722    1.322    0.243
        76  -8.9260    104.2973     87.3155   6.7848790840e+01   4.4975097811e+01     0.154231    0.1180168  -0.65 0.0002467294    1.607    0.378
        77  -9.8940    250.4080     80.7696   3.8521252450e+01   1.5076126985e+01    0.1663722    0.1020208 -36.10 0.0006134841    1.587    0.370
        78 -10.0414     89.3036     80.6880   7.0610188819e+01   4.9297026885e+01     0.236548    0.2079846 -59.76 0.0004854168    1.336    0.252
        79  -9.9808     86.2032     78.6438   7.1012280855e+01   5.0294908157e+01    0.2507715    0.1950052  45.64 0.0003728126    1.358    0.263
        80  -9.4761     80.5548     79.7477   7.3321758553e+01   5.1114292769e+01    0.1874558    0.1420381 -52.86 0.0002883883    1.485    0.326
        81  -9.9760    135.0241     78.9030   5.6928192810e+01   3.9863189152e+01    0.2228024    0.2104694  45.73 0.0004276674    1.040    0.039
        82  -9.3348    124.4388     79.2609   5.9699604823e+01   4.2194887182e+01    0.1919701    0.1424081 -52.24 0.0003761726    1.473    0.321
        83 -11.0912     48.9682     78.6561   8.5086785504e+01   5.6261441527e+01    0.5389143    0.2935309   7.18 0.0009581135    2.477    0.596
        84 -10.9517     55.1415     75.0554   8.1468242555e+01   5.6191539582e+01    0.3363734    0.2417829  23.31  0.001366578    1.386    0.279
        85 -10.7381     15.8264     77.4450   9.8928988640e+01   5.9826579562e+01    0.3497826    0.2229438  79.50  0.001602465    2.846    0.649
        86 -10.3799     22.3327     76.3899   9.5817504257e+01   5.9571952318e+01    0.2725432     0.219339  70.16  0.001191778    1.811    0.448
        87  -9.9722    165.1898     75.3027   4.9455138338e+01   3.3532846999e+01    0.1867334    0.1682607 -79.93 0.0003177933    1.091    0.083
        88 -10.2061     69.9277     74.3037   7.5450908022e+01   5.4059594003e+01    0.3773755    0.2166067  39.11  0.001713196    1.768    0.434
        89  -9.7033     36.6999     74.6839   8.9083663781e+01   5.8582710753e+01    0.2654928    0.1756252 -80.10  0.001183967    2.661    0.624
        90 -10.0195    174.9340     72.3315   4.6921859236e+01   3.1796148268e+01    0.1898428    0.1694737  75.28 0.0003804827    1.093    0.085
        91 -10.1531     19.1066     72.0314   9.6118308050e+01   6.0796856503e+01    0.2014325    0.1614078 -35.15 0.0003198077    1.022    0.021
        92  -9.2494    217.0396     71.7350   4.0543754431e+01   2.2781945617e+01    0.1406934    0.1085345  75.96 0.0003123281    1.341    0.254
        93  -9.6208    117.9287     71.3031   5.9008811129e+01   4.5082639644e+01    0.2014042    0.1237642  40.48 0.0003007809    1.619    0.382
        94  -9.3991    105.9512     71.8157   6.2543198067e+01   4.7606876373e+01    0.1976449    0.1083831  45.29 0.0004453844    1.748    0.428
        95  -9.6549     92.5979     71.3461   6.6526833460e+01   5.0455243952e+01     0.213046     0.179405  82.80 0.0009547012    1.645    0.392
        96  -9.1187    181.7133     70.6657   4.5365927951e+01   3.0532300907e+01    0.1315628     0.110957  14.40 0.0007015447    1.625    0.385
        97  -9.2698    158.3506     70.2966   4.9429969643e+01   3.5947120022e+01    0.1444103    0.1109935  26.03 0.0007034221    1.684    0.406
        98  -9.4430     38.9438     70.4830   8.6856940780e+01   5.9230240935e+01    0.1961159    0.1282328  20.94 0.0007750434    1.551    0.355
        99 -10.8594      9.6593     67.3211   9.9219610271e+01   6.2484019822e+01    0.2399166    0.1388181  36.91  0.001246765    2.221    0.550
       100 -11.4949      5.7668     69.9883   1.0165183652e+02   6.2121812041e+01    0.2836909    0.1294193 -67.02 0.0009650995    2.210    0.547
       101 -10.5130      5.0239     66.4823   1.0116249396e+02   6.2933252334e+01    0.3147319    0.1383948 -25.62  0.001138519    2.310    0.567
       102 -11.0412      8.1918     63.3031   9.8880034051e+01   6.3441540596e+01    0.2340559    0.1342234 -45.78 0.0006554581    1.378    0.274
       103 -13.1095     80.7431     67.2716   6.9177699989e+01   5.3498777587e+01    0.3400784    0.2999114  -2.28 0.0005183617    1.075    0.069
       104  -9.6534     44.8845     69.0055   8.3826689364e+01   5.8821434983e+01    0.2723287    0.1381757 -48.48  0.001238218    1.875    0.467
       105  -9.9564     59.2785     67.3745   7.7304998401e+01   5.7135298293e+01    0.2400295    0.1885319  -8.14 0.0007983313    1.237    0.192
       106 -13.9523     20.4003     58.7644   9.1749332876e+01   6.3509029725e+01    0.5966175    0.3322954 -34.53  0.001080571    1.550    0.355
       107  -8.8639     88.6604     67.3216   6.6488609043e+01   5.1971612155e+01    0.1409085    0.1180533  85.22 0.0005215413    1.718    0.418
       108 -10.4701     51.8401     65.9078   7.9865770028e+01   5.8515943218e+01    0.2492396    0.1934473 -20.05 0.0007915107    1.191    0.160
       109 -10.0742     39.9690     65.4803   8.4836018522e+01   6.0144722390e+01     0.188675    0.1800994 -17.21 0.0003981473    1.232    0.188
       110  -9.8957     38.6441     61.7928   8.4221451861e+01   6.1042051187e+01    0.2083229    0.1623645 -12.31 0.0003657153    1.149    0.130
       111 -10.1711     64.2501     60.6693   7.3021351485e+01   5.7609791073e+01     0.504516    0.3109102   6.27  0.002251608    2.150    0.535
       112 -10.4585      2.6638     59.9751   1.0067180789e+02   6.4457890222e+01    0.2791681     0.187872  59.26  0.001501787    2.494    0.599
       113 -10.0808      4.3477     57.3204   9.9158819120e+01   6.4927978185e+01     0.183282    0.1054791 -18.17 0.0008959824    1.649    0.394
       114  -9.5971    145.4980     59.4536   4.8967659526e+01   4.0670187879e+01    0.1411823    0.1314401  75.68 -0.0007233524    1.021    0.021
       115 -12.9227     86.2488     54.4957   6.2866963392e+01   5.4636216006e+01    0.3977996      0.32526  10.39 0.0004448114    1.229    0.186
       116 -10.4710     57.9108     59.0066   7.4970266074e+01   5.8928590987e+01    0.2041947    0.1780337   0.66            0    1.022    0.021
       117  -9.9934     48.9190     59.2311   7.8823277590e+01   6.0212234587e+01    0.1958235    0.1858022  27.67  0.001094469    1.314    0.239
       118  -9.2111    177.9725     58.7421   4.2985737278e+01   3.3222964157e+01    0.1640117    0.1114196  64.21 0.0002741013    1.426    0.299
       119 -10.5393     71.8874     56.2905   6.8542692037e+01   5.7065226678e+01    0.2309749    0.1822899 -24.33  0.000440691    1.255    0.203
       120 -13.4895    114.6756     53.2175   5.4119398337e+01   4.8747954057e+01    0.3571377    0.3200137  35.07 0.0007101917    1.068    0.064
       121 -11.0245    119.6714     48.4821   5.1347708396e+01   4.8295934535e+01    0.4121049    0.2980133 -37.95   0.00217903    1.498    0.333
       122 -10.2400    103.7028     56.0287   5.8027676804e+01   5.0750642512e+01    0.1898464    0.1803305   8.59 0.0005354065    1.066    0.062
       123 -10.5098     32.8324     55.7510   8.4854607473e+01   6.2890172253e+01    0.2504255    0.1693515 -20.14 0.0008270541    1.370    0.270
       124  -9.3330    127.9310     55.0032   5.1454880197e+01   4.5445999169e+01    0.1658304    0.1541958  54.64 0.0003060542    1.001    0.001
       125  -9.5240    156.8137     54.1493   4.5316088981e+01   3.8800695352e+01    0.1695334    0.1537522  41.55 0.0003153751    1.215    0.177
       126  -8.8178    200.5047     53.5621   3.8588308700e+01   2.8960769684e+01    0.1298895    0.1121468 -75.62 5.544387e-05    1.010    0.010
       127 -10.1873    149.0515     52.4929   4.6286554937e+01   4.0863484116e+01    0.2463389    0.1820863 -56.15 0.0005402076    1.449    0.310
       128 -12.2584    106.0635     50.3178   5.5443015972e+01   5.1098690976e+01    0.3097154    0.2903293  56.26 0.0003090501    1.111    0.100
       129 -12.0597     66.9177     52.4913   6.9030140604e+01   5.8582889734e+01    0.4453179    0.2300006  31.77  0.001464899    1.906    0.475
       130 -10.7582     76.8803     49.4732   6.4244012222e+01   5.7255698350e+01    0.5222765    0.3716427 -88.62  0.002157623    3.451    0.710
       131  -9.8908     45.2818     52.0496   7.7838729163e+01   6.2034363654e+01    0.2736602     0.149753   2.42  0.001053905    2.641    0.621
       132 -10.7874     52.1871     48.3705   7.3447629602e+01   6.1675502284e+01    0.5075371    0.3454897   1.23   0.00270549    1.554    0.356
       133 -11.4331     38.2396     48.6975   7.9804234598e+01   6.3559248147e+01    0.3334337    0.2951715   8.95  0.002151858    1.201    0.167
       134  -9.5858     33.3209     50.9349   8.2937407448e+01   6.3744950075e+01    0.3117347    0.1309101  41.33  0.001037344    3.307    0.698
       135 -11.3558      9.7467     47.3235   9.3485751171e+01   6.6610749620e+01    0.5012633    0.2752062  21.30  0.002632202    1.900    0.474
       136  -8.8061    189.2947     49.2969   3.9045488432e+01   3.2021414668e+01    0.1200764    0.1014889  34.48 0.0002116727    1.565    0.361
       137  -9.8685    155.5808     46.0443   4.3309342793e+01   4.0222198022e+01    0.3030539    0.2758918 -24.06  0.001843232    1.277    0.217
       138 -10.9963    136.5874     46.4205   4.6967877979e+01   4.4644367759e+01    0.3767225     0.222515  70.71  0.001741701    1.837    0.456
       139 -10.1145     79.5559     45.3618   6.1788730839e+01   5.7364555278e+01    0.2411183    0.1823967  33.16 0.0004144291    1.189    0.159
       140  -9.5480     68.8786     46.5490   6.6055920619e+01   5.9191618095e+01    0.1914804    0.1208367  35.51 0.0002683858    1.455    0.313
       141 -10.1801     25.8308     44.6083   8.4289613639e+01   6.5720952310e+01    0.2590419    0.1948689 -53.89  0.001551477    1.661    0.398
       142  -9.4395     30.6205     44.1375   8.1735702532e+01   6.5281863752e+01    0.1825972   0.09956875 -33.56 0.0005460483    1.668    0.400
       143 -10.5355     16.0801     42.9740   8.8701531228e+01   6.6943785265e+01    0.2792045    0.2429396  74.99  0.001291203    1.994    0.498
       144  -9.9237     18.3143     40.3138   8.6559895105e+01   6.7229256134e+01    0.1967211      0.16791  14.92 0.0009203961    1.336    0.251
       145  -9.3977      1.3133     44.3008   9.6990176868e+01   6.7724506324e+01     0.130427   0.06716153 -30.29 0.0006521348    1.610    0.379
       146 -10.5011     37.1635     41.6439   7.7607000148e+01   6.4914999851e+01    0.3072384    0.2626441 -60.00  0.001876963    1.780    0.438
       147 -10.3858    184.4484     41.1832   3.7740890081e+01   3.4196112345e+01    0.3180135    0.2138614 -89.99  0.001375363    1.496    0.331
       148  -9.3888     61.1100     42.2232   6.7378021794e+01   6.1218991553e+01    0.1609084    0.1501488  24.87 0.0006646246    1.252    0.201
       149 -10.6956      5.1420     41.6686   9.4091464709e+01   6.8004106605e+01    0.1707285    0.1344088  14.46 0.0007519385    1.406    0.289
       150 -10.1994    170.9017     40.3005   3.9374485184e+01   3.7402495147e+01     0.197282     0.161952 -68.00 0.0001872515    1.170    0.146
       151  -9.0437    141.7142     41.7065   4.4571461453e+01   4.4061506568e+01    0.1423927    0.1247159  88.97 0.0002927808    1.138    0.121
       152  -9.2494    139.5056     39.5559   4.4356612305e+01   4.4856642064e+01    0.2056653    0.1354099 -32.33 0.0006435975    1.682    0.406
       153  -9.5521     82.9365     41.5345   5.9230009330e+01   5.7243755784e+01    0.1998798    0.1205796  43.77 0.0004875693    1.491    0.329
       154  -9.4053     90.3141     40.3626   5.6477239573e+01   5.5888782223e+01    0.1448413   0.09658494  18.57 0.0007041187    1.759    0.431
       155  -9.9284     44.6915     40.0434   7.3475514991e+01   6.4148093485e+01    0.1770388    0.1430742  -8.54  0.000256487    1.076    0.071
       156  -9.1307    133.7193     39.6946   4.5521450994e+01   4.6200349238e+01    0.1335022   0.09902044  31.66 0.0002243553    1.555    0.357
       157 -12.1348    121.0152     37.2246   4.7418157835e+01   4.9473164258e+01    0.3996031    0.3823863  25.78  0.001535451    1.116    0.104
       158  -9.3718    128.4170     38.4822   4.6229153532e+01   4.7595158706e+01    0.1344465    0.1218397  57.32 9.018996e-05    1.020    0.020
       159 -10.4065     21.5524     37.8090   8.3905642335e+01   6.7358423096e+01    0.1834356    0.1539867  16.66  0.001224003    1.329    0.248
       160  -9.5874    133.0706     35.6546   4.4423745136e+01   4.6852608552e+01    0.3221366    0.1776013   6.22 0.0009370009    4.553    0.780
       161 -11.2323      3.7823     34.5010   9.2384148051e+01   6.9419592667e+01    0.3531163    0.2905772  38.45  0.002402048    1.774    0.436
       162  -9.5328     38.0276     35.0303   7.4510233483e+01   6.5867135395e+01    0.3527492    0.1394963  37.08  0.001575049    2.518    0.603
       163 -10.1583     28.2017     33.4124   7.8686588150e+01   6.7365813388e+01    0.2258922    0.1330133 -21.84 0.0008085795    1.617    0.382
       164  -9.3625    219.7072     33.7012   3.2203070545e+01   2.7568579751e+01    0.1030144   0.09277964  45.03 0.0001900261    1.565    0.361
       165 -11.4636    144.5320     31.6032   4.1142145917e+01   4.4635286434e+01    0.3062603    0.2328291 -47.08  0.001267455    1.413    0.292
       166 -10.0399     49.8781     33.2181   6.8361340769e+01   6.4394628823e+01    0.1772224    0.1563779   9.71 0.0004563603    1.163    0.140
       167 -12.6011     10.2749     29.5793   8.6819876326e+01   6.9797771512e+01    0.4919022    0.2394108  36.02  0.002516766    2.714    0.632
       168  -9.9124    227.3347     31.0418   3.0989514908e+01   2.6366482218e+01     0.160529     0.122262 -62.05 0.0003954436    1.084    0.077
       169 -10.1133    129.1911     31.3070   4.3849148423e+01   4.8274675855e+01    0.1973907    0.1592918  49.08  0.001160089    1.162    0.139
       170 -10.0529     38.9315     30.8863   7.2322425031e+01   6.6368516593e+01    0.1912946     0.153085   4.51 0.0005709337    1.013    0.013
       171  -8.7273    237.3297     29.6592   2.9903321756e+01   2.4591793227e+01    0.1269519   0.06601912 -65.18 0.0003749653    1.742    0.426
       172 -10.0814    135.8721     29.0786   4.1917157581e+01   4.6960695782e+01    0.1969281    0.1715066  55.21 0.0004221348    1.092    0.084
       173 -10.0403    164.9984     28.3061   3.7120513923e+01   4.0224287665e+01      0.18045    0.1473888  80.10 0.0004126674    1.070    0.065
       174 -10.4309     80.9524     27.9113   5.4646476203e+01   5.9391105555e+01    0.1973191    0.1691397  37.71 0.0004851245    1.066    0.061
       175 -10.7361     69.6948     26.1951   5.7672695210e+01   6.1823852763e+01    0.4217537    0.2391122 -21.23  0.002175845    1.967    0.492
       176 -10.6446     91.3348     31.8194   5.3028059914e+01   5.6761092813e+01    0.2928647    0.2590521  42.75  0.001057658    1.070    0.066
       177  -9.4950     94.0431     27.2781   5.0594120401e+01   5.6705512855e+01    0.1890378    0.1463691  49.19 0.0005137067    1.130    0.115
       178 -10.9912     46.2263     26.2745   6.6961320778e+01   6.5928225033e+01    0.2389986    0.1924804 -12.02 0.0003495988    1.189    0.159
       179 -10.4094    216.8340     26.0865   3.0903287326e+01   2.9082619231e+01    0.1905659    0.1284412 -67.50 0.0005187154    1.264    0.209
       180  -9.5126    113.7618     26.2189   4.5409302053e+01   5.2416681066e+01    0.1884059    0.1104753  -7.00 0.0006257549    2.476    0.596
       181  -9.6154    224.8183    247.2228   7.4356122848e+01  -9.0681328907e+00    0.1731046    0.1132927  -8.38 0.0008370971    1.310    0.237
       182  -9.9829    171.1338    246.7216   8.5057282974e+01  -2.1146403867e+00    0.2433513    0.1565719  10.39 0.0009486321    1.553    0.356
       183 -10.4918     35.2270     22.8615   7.0536676476e+01   6.8020753511e+01    0.3332252    0.1796159  -1.04  0.001578907    2.489    0.598
       184  -9.4361    116.1793    246.5507   9.7164744009e+01   5.7966772389e+00    0.1753222    0.1169801  21.64 0.0009192445    1.480    0.324
       185 -10.2891      7.5541     18.9911   8.3927042413e+01   7.1737489522e+01    0.3449026    0.1621239  -9.80  0.001684115    2.531    0.605
       186  -9.1375    108.7382     22.2895   4.5193355476e+01   5.3973999581e+01    0.1188252   0.09721387 -77.78 0.0002413928    1.494    0.331
       187  -9.4486     92.0509     22.7598   4.9455283311e+01   5.7626156506e+01    0.1689635   0.09693559  55.11 0.0002590326    1.532    0.347
       188 -10.4731     74.7935     21.8432   5.4178561021e+01   6.1318291421e+01    0.1782843    0.1566514 -84.55  0.000470845    1.649    0.394
       189 -11.3946     76.3473     18.3997   5.2285099211e+01   6.1367802779e+01    0.4322721    0.2220092  56.83  0.001183704    1.916    0.478
       190 -11.1645     15.1699     21.1542   8.0414720649e+01   7.0692796579e+01    0.3563474    0.2251022  30.97  0.002201319    1.758    0.431
       191  -9.0085     86.6843    245.2890   1.0366412640e+02   1.0208167601e+01    0.1352648   0.08761087  57.39 0.0004717243    1.591    0.371
       192  -9.9463     85.0927     21.0856   5.0746828146e+01   5.9284497142e+01    0.2058016    0.1468088  32.88 0.0004640287    1.275    0.216
       193 -10.2258     88.8590     18.8484   4.8839002296e+01   5.8711954108e+01    0.2165804    0.1430101  44.09 0.0002841569    1.273    0.215
       194  -9.3054    132.1756     20.6275   4.0032245236e+01   4.8726705018e+01    0.1857209   0.09981761  55.97 0.0006265276    1.585    0.369
       195 -10.1254    213.1434     18.1664   2.9600166756e+01   3.0754191617e+01    0.1666943    0.1079401 -70.51  0.001039845    1.329    0.248
       196  -9.5304    154.4686     18.0772   3.5866905935e+01   4.3772317943e+01    0.1647278    0.1263327 -31.10 0.0006381058    1.517    0.341
       197  -9.6574     52.0274    244.8217   1.1126941610e+02   1.4789354799e+01    0.1908436    0.1436853  -4.51  0.001077939    2.006    0.501
       198  -9.8881    146.5208    244.5077   9.0081128250e+01   1.7794333995e+00    0.1343557    0.1148719  15.78 0.0008102434    1.013    0.013
       199 -10.9941     30.0165    240.9942   1.1566080006e+02   1.8126362794e+01    0.2810526    0.1228772  22.99 0.0008721605    2.850    0.649
       200  -9.9966    118.6740    239.5314   9.5672811187e+01   6.8191097926e+00    0.2568704    0.1947957  69.27  0.001054439    1.694    0.410
       201 -10.5447    238.2826     16.7108   2.7413510752e+01   2.5937123121e+01    0.1746182    0.1358616 -74.35 0.0001631178    1.067    0.063
       202  -9.4244     61.1709    240.6749   1.0890145476e+02   1.4540372411e+01      0.17566    0.1131378  23.28 0.0004986874    1.717    0.418
       203 -11.0600    203.7802     16.4925   3.0056379298e+01   3.2898017289e+01    0.3030137    0.1622209 -89.85  0.001660583    1.792    0.442
       204 -10.3598     35.6206    240.0835   1.1441320554e+02   1.7706135047e+01    0.2121752    0.1410105  49.82 0.0005287974    1.283    0.220
       205  -9.1938    148.6857    237.6594   8.8574117561e+01   2.7367901541e+00    0.1408388    0.0974503  -7.77 0.0007047434    1.702    0.413
       206 -10.0750     39.5128     15.0253   6.4819318550e+01   6.8378326250e+01    0.1650821    0.1085977 -22.02 0.0003902898    1.518    0.341
       207 -12.0653     23.9528    235.9271   1.1659143932e+02   1.9861984844e+01    0.3721437    0.2039649  28.25  0.001760747    1.927    0.481
       208 -11.9627      4.1295    232.6812   1.2049053287e+02   2.2497386600e+01    0.3317184    0.2292282  64.97  0.002170477    1.175    0.149
       209  -9.9467    105.7362     13.9275   4.2968472647e+01   5.5456272376e+01    0.1841876    0.1448873  43.28 0.0001823677    1.149    0.130
       210 -13.1589      4.4950    225.2685   1.2001619161e+02   2.4090431764e+01      1.00342    0.4294493  55.84  0.005076077    2.053    0.513
       211 -10.7017    175.4348     12.9509   3.2019918312e+01   3.9479063431e+01     0.205208     0.141021  77.31   0.00125369    1.240    0.194
       212  -9.5250    249.4961    233.4774   6.7609133141e+01  -9.8290434971e+00    0.1203933   0.08803313 -12.87 0.0002240511    1.001    0.001
       213  -9.3024    204.2768    235.3008   7.6335621594e+01  -4.6952483362e+00    0.1298954    0.0837362  -8.43 0.0002906859    1.539    0.350
       214 -10.2138    220.3034     11.3458   2.7673410764e+01   3.0042705629e+01    0.1004882     0.085148  48.87 0.0004492894    1.689    0.408
       215  -9.7652    174.2938    235.6906   8.2625814005e+01  -6.4080962473e-01    0.1196302    0.1049253  55.40 0.0002373403    1.588    0.370
       216  -9.8339     47.5269    230.0716   1.1099407874e+02   1.8534173709e+01    0.1944785    0.1768327  -0.59 0.0009314975    1.409    0.290
       217  -9.4880    243.0555    230.0000   6.8134772537e+01  -8.6077790651e+00    0.1712063   0.06234603  30.45 0.0005844607    2.848    0.649
       218  -9.7601    209.7725    229.5808   7.4266073324e+01  -4.4786618688e+00    0.1612216    0.1126381  33.18 0.0004586106    1.561    0.359
       219 -10.8382    140.0891    227.8797   8.9024693043e+01   5.9374891220e+00    0.3253269    0.2142306 -66.97  0.001552183    2.128    0.530
       220  -9.9740     18.1385    227.8246   1.1729135440e+02   2.2236904701e+01    0.1500556     0.140138 -69.94 0.0004277337    1.299    0.230
       221  -9.6340    223.4292    226.5468   7.1107565705e+01  -5.7377746253e+00    0.1278089   0.09937023 -10.52 7.568211e-05    1.010    0.010
       222 -10.2989     26.7035    223.9810   1.1515918829e+02   2.2233198863e+01    0.1786567    0.1410869  81.75 0.0004734407    1.108    0.097
       223  -9.4050    167.4678    221.4614   8.1735950387e+01   2.9970560691e+00    0.1395956    0.1222239   3.90 0.0001915222    1.008    0.008
       224 -11.0785      8.2664    218.7825   1.1883976585e+02   2.5210953984e+01    0.2881261    0.1760335 -64.21  0.001510241    1.651    0.394
       225  -9.2979     85.5763    215.3978   1.0034776903e+02   1.6908434643e+01     0.137067    0.1285806  46.28 1.878073e-05    1.030    0.029
       226  -9.5386    205.5635    212.2580   7.2016450087e+01  -9.4406991249e-01    0.1873623    0.1108695 -29.25 0.0009406946    1.574    0.365
       227  -9.1235    229.6874    209.3210   6.6862171895e+01  -3.7251299093e+00    0.1111504    0.1022444 -57.16 0.0007038336    1.652    0.395
       228  -9.6462     20.2819    209.4671   1.1551948013e+02   2.6253947894e+01    0.1773322    0.1006731  46.11  0.000934694    1.622    0.383
       229  -9.9151    193.8024    202.2027   7.2547505070e+01   2.6383381327e+00    0.1987652    0.1841353 -13.49  0.001199997    1.161    0.139
       230 -10.9671      4.1060    201.6420   1.1868138920e+02   2.9565520545e+01    0.2208743    0.1453698  84.03 0.0007359487    1.303    0.233
       231  -9.7062     22.1782    199.5262   1.1427647870e+02   2.8464745528e+01    0.3632285    0.1464142 -84.29  0.001476529    2.597    0.615
       232  -9.3112     14.3406    192.6989   1.1561827749e+02   3.0861889223e+01    0.1395535   0.08137545  62.43 0.0007037282    1.671    0.402
       233  -9.2634      6.3186    191.6838   1.1747939161e+02   3.1787646202e+01    0.1366476   0.07892165  64.25 0.0007039658    1.655    0.396
       234  -9.7227      1.0000    190.9089   1.1869121157e+02   3.2394310848e+01    0.2049806   0.06121574 -77.60 0.0007883416    2.846    0.649
       235  -9.2776      1.6484    153.3220   1.1554671150e+02   4.1773387578e+01    0.1390645   0.08464588  64.21 -6.857911e-05    1.750    0.429
       236  -9.6254      6.1725    144.8104   1.1338915562e+02   4.3676654117e+01    0.1865475    0.1329031 -53.18 0.0005512248    1.300    0.231
