#   1 NUMBER                 Running object number                                     
#   2 MAG_AUTO               Kron-like elliptical aperture magnitude                    [mag]
#   3 X_IMAGE                Object position along x                                    [pixel]
#   4 Y_IMAGE                Object position along y                                    [pixel]
#   5 X_WORLD                Barycenter position along world x axis                     [deg]
#   6 Y_WORLD                Barycenter position along world y axis                     [deg]
#   7 A_WORLD                Profile RMS along major axis (world units)                 [deg]
#   8 B_WORLD                Profile RMS along minor axis (world units)                 [deg]
#   9 THETA_WORLD            Position angle (CCW/world-x)                               [deg]
#  10 FWHM_WORLD             FWHM assuming a gaussian core                              [deg]
#  11 ELONGATION             A_IMAGE/B_IMAGE                                           
#  12 ELLIPTICITY            1 - B_IMAGE/A_IMAGE                                       
         1 -11.4958    216.4993     13.8116   4.0524957704e+01   2.9324117578e+01    0.2889691    0.2813067  72.98 0.0009692369    1.209    0.173
         2 -13.2252    185.6408      6.7890   4.1925660566e+01   3.7675652361e+01    0.8082749    0.4962494 -79.96  0.003986393    1.752    0.429
         3 -11.0361     57.3483      7.5403   7.0696385888e+01   6.6850489135e+01    0.3427529    0.2084758 -16.75  0.001733553    1.552    0.356
         4 -11.7368     43.9037      8.0571   7.6625857276e+01   6.8841988180e+01    0.2319361    0.1945821  -4.67 0.0005711807    1.151    0.132
         5 -10.3648    109.5097      8.5195   5.5089805182e+01   5.6356612603e+01    0.1331207    0.1189975  38.75 0.0001531793    1.038    0.036
         6 -10.0675     13.0028    227.7255   1.2826078534e+02   2.5439799394e+01    0.1491598    0.1027794  67.27 0.0004600541    1.064    0.060
         7 -10.2871    104.3665    225.1985   1.1106342848e+02   1.4314463607e+01    0.1641979    0.1116704 -81.97  0.000948728    1.688    0.408
         8 -10.9306     95.8279    225.0275   1.1273119432e+02   1.5637454507e+01    0.3199215     0.123548  52.28  0.001407673    2.430    0.588
         9 -10.8169    149.3349    222.9030   1.0178097798e+02   7.4393075400e+00     0.226393    0.1223632 -60.14  0.001088622    2.502    0.600
        10 -10.8867    226.7920    221.5831   8.6705690587e+01  -5.1415735259e+00     0.168688    0.1045947  42.89 0.0009493319    1.687    0.407
        11 -10.9839    239.6867    215.8604   8.3415517926e+01  -6.3554704475e+00    0.2832797   0.09535058 -42.80  0.001095289    4.147    0.759
        12 -11.1994    223.6744    212.8990   8.5757133662e+01  -3.4770084668e+00     0.393177    0.2138852  15.96  0.001864034    2.270    0.559
        13 -10.8279    115.8891    209.5897   1.0679747095e+02   1.5448552201e+01     0.257956    0.1706171 -86.16  0.001330477    1.949    0.487
        14 -10.3962     56.7096    205.9644   1.1864639994e+02   2.4840510595e+01    0.2314981   0.08387808  61.12 0.0008921782    3.444    0.710
        15 -10.2625     98.5024    205.0083   1.0987079358e+02   1.9134129694e+01    0.1868932    0.1046494  86.69  0.000810614    2.655    0.623
        16 -10.7212     48.8966    201.6134   1.1983802514e+02   2.6710980422e+01    0.2612591    0.1352844  84.13  0.001346349    2.014    0.503
        17 -10.7169    149.4780    198.9651   9.8094903487e+01   1.1701128202e+01    0.1864894    0.1216794 -80.92 0.0008101354    2.630    0.620
        18 -10.6500    112.4913    197.9794   1.0593184393e+02   1.8321759301e+01    0.1894474     0.112568  89.95 0.0008104985    2.599    0.615
        19 -12.3330    160.0226    192.0295   9.4667673286e+01   1.1082556138e+01    0.6565666    0.4754942  79.63  0.002815877    2.104    0.525
        20 -10.1521    215.4602    193.9629   8.3810512317e+01   6.7447961201e-01    0.1746841     0.116306 -59.42 0.0008093311    2.622    0.619
        21 -10.2790     66.3187    194.6594   1.1553054461e+02   2.5975141052e+01    0.1374938   0.08108423  69.34 0.0007049453    1.713    0.416
        22 -11.0032     34.5521    187.2939   1.2155982427e+02   3.1409939036e+01    0.2316833    0.1016303 -80.77  0.001138248    2.110    0.526
        23 -10.3671    109.8032    186.2344   1.0481587269e+02   2.1227322295e+01    0.2455328    0.1362624  71.35 0.0009624167    2.829    0.646
        24 -10.2911     94.6721    186.3555   1.0825875834e+02   2.3656839343e+01    0.1466746    0.0937914  71.61 0.0007045509    1.777    0.437
        25 -10.7174    183.2160    183.6141   8.8223293086e+01   8.2806525991e+00    0.3943127    0.2343283 -44.35  0.001863123    1.817    0.450
        26 -10.4215    224.3069    183.6687   8.0152075035e+01   7.3755019201e-01    0.1214562    0.1100751 -77.55 0.0004104887    1.663    0.399
        27  -9.7688    133.3211    195.6809   1.0104772528e+02   1.5217785621e+01    0.1414211     0.101187  70.34 0.0005176417    1.667    0.400
        28 -10.6323    191.6812    178.3453   8.5447914784e+01   7.6153790087e+00    0.2120927     0.176501  82.41  0.001094878    1.737    0.424
        29 -10.0834     12.6414    176.3186   1.2528780031e+02   3.5944655927e+01    0.1272834   0.06564634  66.53 0.0007044201    1.760    0.432
        30 -11.3305     34.6383    173.6385   1.2032219312e+02   3.4424857712e+01    0.3339508    0.1428559  55.65  0.001586442    2.335    0.572
        31 -11.2521     44.9603    171.9767   1.1783108775e+02   3.3670492512e+01    0.3268417    0.1505348  67.72  0.001419537    2.649    0.622
        32 -11.3860    121.0007    168.8077   9.9350941088e+01   2.3073767415e+01    0.3435573    0.2022251 -74.50  0.001404077    2.399    0.583
        33 -11.1415     55.6045    167.9411   1.1490408179e+02   3.3332913392e+01    0.4254778    0.2212866  89.22  0.001926947    2.261    0.558
        34 -10.2474    138.4964    164.0158   9.4310561983e+01   2.0845202319e+01    0.2107452    0.1313012 -77.15 0.0008103654    2.621    0.618
        35 -11.7499    106.6796    158.0882   1.0091287953e+02   2.8040916177e+01    0.6733772    0.3945729  67.88  0.002720822    2.422    0.587
        36 -10.3557     92.6692    160.3566   1.0479459950e+02   2.9850628012e+01    0.1531014    0.1024034  75.03 0.0007043938    1.788    0.441
        37 -10.7062     22.5931    159.7007   1.2174815011e+02   3.8777403934e+01    0.2863903    0.1239471  61.58  0.001333971    2.527    0.604
        38 -11.4239    167.6820    157.2927   8.6218803765e+01   1.6408924740e+01    0.4054027    0.3061656  81.61  0.001735618    1.925    0.481
        39 -11.2136    119.2747    157.1860   9.7622761184e+01   2.5995349481e+01    0.4428116    0.2637269  43.72   0.00198449    1.639    0.390
        40 -10.7868    218.4187    156.7030   7.5640514207e+01   6.2583496152e+00    0.2800982    0.1287623 -41.61   0.00114113    2.177    0.541
        41  -9.5266     23.3345    153.6711   1.2099921317e+02   4.0098719733e+01    0.1316138   0.07586426  69.82 0.0003211641    1.724    0.420
        42 -10.8006    189.8900    150.7798   7.9985880919e+01   1.3085790720e+01    0.2851622    0.2020519 -67.56  0.001247986    2.089    0.521
        43 -11.3652    107.4578    145.8911   9.8410637557e+01   3.0746619612e+01    0.5920673    0.3052489  67.08  0.001853571    3.982    0.749
        44 -10.5745    148.6314    145.3594   8.8008635020e+01   2.2864376156e+01    0.3406848    0.2252635  86.92  0.001258488    2.816    0.645
        45 -10.6889     55.8171    145.9891   1.1195192796e+02   3.8490381396e+01    0.2360364    0.1384248  80.01   0.00108988    2.075    0.518
        46 -10.5595    182.0420    142.0562   7.9658471587e+01   1.6447380685e+01    0.2434803    0.1941848 -84.44  0.001134771    1.745    0.427
        47 -10.8101     83.5315    132.3262   1.0214885335e+02   3.7975192012e+01     0.375115    0.1942472  61.25  0.001396683    2.897    0.655
        48 -12.0747     99.3968    128.6129   9.6987814023e+01   3.6260103061e+01    0.6929978    0.4389878  77.77  0.002736094    2.549    0.608
        49 -10.4102    132.2030    131.8058   8.8975480924e+01   2.9268919386e+01    0.2657981    0.1729229  86.05   0.00095292    2.844    0.648
        50 -11.2959     43.4072    122.4824   1.1176089944e+02   4.5578416492e+01    0.7110268    0.3542175  82.50  0.002669758    3.468    0.712
        51 -10.7626     58.9983    124.2970   1.0757942759e+02   4.3351958641e+01    0.2931511    0.1629225  88.73  0.001177767    2.710    0.631
        52 -11.3500     27.1244    120.8185   1.1616463670e+02   4.7525066385e+01    0.6801293    0.2810403  87.25  0.002255242    4.583    0.782
        53 -10.8902     14.3505    121.5623   1.1982892884e+02   4.8350931094e+01    0.3329725    0.2435707   2.76  0.002093892    1.911    0.477
        54 -11.6607    193.4432    118.8523   7.1656825893e+01   1.8463642480e+01    0.5900798    0.4398546 -68.78  0.001818632    1.769    0.435
        55 -11.4449    141.0000    118.0245   8.3363353968e+01   3.0492202176e+01    0.3621299    0.2010591 -55.42  0.001385295    2.047    0.511
        56 -10.8235    108.4288    112.8716   9.0782889778e+01   3.8328347042e+01    0.5593327    0.2768837 -67.24  0.001738719    3.627    0.724
        57 -10.9056     78.5892    112.3819   9.9391428723e+01   4.3539777705e+01    0.4459216    0.2454573 -80.99  0.001557618    3.356    0.702
        58 -12.4614    159.9251    111.1635   7.6959453116e+01   2.7712178954e+01    0.6823402    0.3986717 -58.34  0.002587566    2.200    0.546
        59 -11.0508    174.2287    110.9988   7.3676737792e+01   2.4426922831e+01    0.4080546    0.2668536 -49.69  0.001399948    1.598    0.374
        60 -10.4349     91.5682    110.7687   9.5145009055e+01   4.1845281676e+01    0.3843086    0.1412963 -55.35  0.001312296    2.691    0.628
        61 -11.6841     14.6424    109.7291   1.1825003815e+02   5.1115661248e+01    0.5702646    0.3138387  87.79  0.002961717    1.949    0.487
        62 -12.1327    127.7020    101.1763   8.2345843917e+01   3.7062526130e+01    0.5258365    0.3003919 -60.06   0.00197966    2.275    0.561
        63 -12.8651    141.2891    104.0427   7.9582073207e+01   3.3459247903e+01    0.6662371    0.4826371 -58.84  0.002971103    1.548    0.354
        64 -11.8988    107.5658     98.3926   8.7226766185e+01   4.1796727459e+01    0.6793314    0.4514377 -83.77  0.002598261    2.707    0.631
        65 -11.2286     62.8925     96.0277   1.0051571694e+02   4.9638012129e+01    0.3390688    0.1859697 -79.71  0.001251463    3.231    0.690
        66 -11.0263    170.5110     94.5380   7.0032141743e+01   2.8548565116e+01     0.283887    0.2391225  63.28 0.0005286296    1.255    0.203
        67 -12.3387    170.1161     90.8428   6.9081798425e+01   2.9352549026e+01     0.395107    0.3482525  75.82 0.0008172254    1.234    0.190
        68 -10.9932     34.1998     88.5519   1.0844021901e+02   5.4553373902e+01    0.4645253    0.1686414 -67.40  0.001813386    2.767    0.639
        69 -12.0354     44.4524    100.8225   1.0755230273e+02   5.0674152157e+01    0.6654444    0.3639008 -84.84  0.002827548    2.629    0.620
        70 -11.6832     41.8736     88.4838   1.0580249467e+02   5.3837259668e+01    0.3165355    0.2103923 -13.31  0.001074566    1.992    0.498
        71 -11.2560     86.8791     86.8790   9.0316091267e+01   4.8126850127e+01    0.5080068    0.3440794 -86.76  0.002065704    2.688    0.628
        72 -11.0435     45.5641     81.7806   1.0295158542e+02   5.4993488334e+01    0.2749231    0.1920888 -86.09  0.001208219    1.920    0.479
        73 -11.0278    104.3859     83.1810   8.3772959868e+01   4.5731626194e+01    0.3950382    0.2530538 -70.07  0.001547602    2.532    0.605
        74 -10.2817    140.6063     82.8316   7.3630931806e+01   3.7970511649e+01     0.237005    0.1421174 -49.67 0.0009577533    1.791    0.442
        75 -10.8837     24.5090     81.0255   1.1024860693e+02   5.7089387135e+01    0.3135657    0.1679699  86.89  0.001310629    3.294    0.696
        76 -11.0879     62.4229     70.2971   9.3752504337e+01   5.5482680085e+01     0.382064    0.1157282 -48.98  0.001358809    2.853    0.650
        77 -11.2938     82.2358     73.0021   8.7679171898e+01   5.1898976525e+01    0.4221053    0.2640589 -72.67  0.001634262    3.029    0.670
        78 -10.5062    116.1705     73.0189   7.7118480624e+01   4.5382901773e+01    0.2572027     0.179021 -67.23  0.001090739    2.072    0.517
        79 -12.3757    223.3783     70.8564   5.4131271418e+01   1.9948261727e+01    0.2885447     0.265461 -57.16 0.0003834202    1.016    0.016
        80 -10.4705     94.5799     70.8898   8.2957385499e+01   5.0145554001e+01    0.3482088    0.1319123 -51.41  0.001138245    3.215    0.689
        81 -10.8083     51.9991     70.6976   9.7680076595e+01   5.6730082356e+01    0.2353439    0.1872496 -75.05  0.001139569    1.540    0.351
        82 -10.5720    194.6182     67.7834   5.7830898279e+01   2.7375292992e+01    0.2203687     0.130918 -44.20 0.0009469661    1.644    0.392
        83 -11.1843     29.1431     52.2575   1.0124460333e+02   6.2974304516e+01    0.3374093    0.2228907   1.57  0.001693792    1.745    0.427
        84 -13.1560     28.1980     60.2452   1.0392174657e+02   6.1387873524e+01     1.146842     0.558717  25.03  0.003943963    2.368    0.578
        85 -12.5342    237.7375     63.8652   5.0462381907e+01   1.7744649728e+01    0.5119889    0.3021154  85.70  0.002290601    2.276    0.561
        86 -12.4721    231.0312     58.8030   5.0075068592e+01   2.0016101319e+01    0.4480238    0.3293275 -49.23 0.0004060951    1.243    0.195
        87 -10.3777     41.7944     62.8411   9.9277544063e+01   5.9556949342e+01    0.2202342    0.1604192  56.45 0.0008705495    1.987    0.497
        88 -11.2930      7.7864     55.3673   1.1097952349e+02   6.3816415725e+01    0.4197561    0.2038024 -65.70  0.002262765    1.781    0.439
        89 -10.2589    119.3536     56.6824   7.0752765898e+01   4.7680756705e+01     0.150398    0.1198194 -78.93 0.0007046523    1.744    0.427
        90 -11.6297     19.5209     59.5094   1.0721643680e+02   6.2211294898e+01    0.2515411    0.2106443 -23.41 0.0006762245    1.215    0.177
        91 -11.7447     21.1850     50.9541   1.0422076141e+02   6.3885038465e+01    0.5047147    0.2376301 -56.40  0.002623147    1.754    0.430
        92 -10.7645    149.0025     52.2347   6.1966080578e+01   4.1345094632e+01     0.205852    0.1229381  56.32 0.0005978323    1.630    0.386
        93 -10.1007     10.3221     43.7938   1.0691186645e+02   6.6068776548e+01     0.220927     0.150396  -6.76 0.0009382325    1.607    0.378
        94 -10.7957      5.4393     42.5635   1.0875593033e+02   6.6587708183e+01    0.3338928    0.2250456  89.62  0.001966749    2.259    0.557
        95 -11.7514     71.0027     42.3421   8.0885050114e+01   5.9606753252e+01    0.5420147    0.2896489  52.75  0.002338141    2.767    0.639
        96 -10.9825     42.0283     37.3204   9.0579648571e+01   6.4551587311e+01    0.2692211    0.1843692 -26.34  0.000986274    1.278    0.218
        97 -11.6089    120.6350     34.7705   6.2541639758e+01   5.0761409458e+01    0.2718019    0.2499744  30.91 0.0002452519    1.010    0.010
        98 -10.3388     50.0999     34.6156   8.6055095540e+01   6.4021634944e+01    0.2454886    0.1174755  33.07  0.001190782    2.213    0.548
        99 -10.4316     73.3322     32.3173   7.5970426773e+01   6.0835148258e+01     0.247832    0.1686994  63.96  0.001182331    2.528    0.604
       100 -10.3945    101.4120     28.5863   6.5314905222e+01   5.5894606821e+01    0.3997934    0.1151401 -34.38  0.001377536    3.389    0.705
       101 -10.7221    239.5474     20.6853   4.0034345680e+01   2.3157552114e+01    0.2377912    0.1961959 -80.08 0.0006143572    1.092    0.084
       102 -11.5279     41.5646     20.4549   8.3689923376e+01   6.7417211988e+01    0.4298979    0.2417228  39.75  0.002257505    2.115    0.527
       103  -9.8879     88.3508     17.6641   6.4631060597e+01   5.9978066406e+01    0.1267242    0.1056757 -67.71 0.0007046115    1.787    0.440
       104 -11.3910    220.6674    248.9598   9.2216020004e+01  -7.6382867910e+00     0.274367    0.1303223  43.83  0.001460256    2.121    0.528
       105  -9.8198     32.6789    242.3073   1.2570663091e+02   2.0683441804e+01    0.1161812   0.05654497  64.05 0.0003921768    1.640    0.390
       106  -9.8053      2.5193    240.4743   1.3053557914e+02   2.4129579197e+01    0.1047683   0.06869451  69.85  0.000168146    1.031    0.031
       107 -10.8996     22.3907    239.2325   1.2726121751e+02   2.2357452501e+01    0.1499561   0.07590798  83.27 0.0009497562    1.696    0.410
