#   1 NUMBER                 Running object number                                     
#   2 MAG_AUTO               Kron-like elliptical aperture magnitude                    [mag]
#   3 X_IMAGE                Object position along x                                    [pixel]
#   4 Y_IMAGE                Object position along y                                    [pixel]
#   5 X_WORLD                Barycenter position along world x axis                     [deg]
#   6 Y_WORLD                Barycenter position along world y axis                     [deg]
#   7 A_WORLD                Profile RMS along major axis (world units)                 [deg]
#   8 B_WORLD                Profile RMS along minor axis (world units)                 [deg]
#   9 THETA_WORLD            Position angle (CCW/world-x)                               [deg]
#  10 FWHM_WORLD             FWHM assuming a gaussian core                              [deg]
#  11 ELONGATION             A_IMAGE/B_IMAGE                                           
#  12 ELLIPTICITY            1 - B_IMAGE/A_IMAGE                                       
         1 -13.5502    249.4329     58.4334   2.6016103075e+01   1.8334377196e+01     0.674123    0.1510648 -33.03  0.002710355    3.079    0.675
         2 -12.6037     20.0564     17.9997   7.4132382445e+01   7.4620861920e+01    0.4012279    0.3022301 -43.87  0.002314318    1.254    0.203
         3 -12.1536     51.2154     13.1344   4.9631505856e+01   7.0386365325e+01    0.4315211    0.2297448  34.50  0.001243851    2.018    0.504
         4 -12.8275     56.0331      9.4485   4.4875297731e+01   6.9874439919e+01    0.4623939    0.3322158  29.71  0.001878193    1.414    0.293
         5 -11.5102     45.1165     11.7246   5.2119244920e+01   7.1834535728e+01    0.2535133    0.1976723 -20.06 0.0008763771    1.329    0.248
         6 -11.6068     27.4431     11.7060   6.4283969974e+01   7.4903562991e+01     0.234907    0.1278876 -49.81  0.001113003    1.988    0.497
         7 -10.9523    104.7378     11.0240   3.0240172368e+01   5.7540052722e+01     0.197356     0.190034 -79.16 0.0007544099    1.076    0.070
         8 -11.6881     98.6783      8.3458   3.0306397252e+01   5.9425535506e+01    0.2516016    0.2296021  50.97 0.0005447706    1.078    0.072
         9 -12.9365     34.1856     12.1747   5.9505603393e+01   7.3756464997e+01    0.3935312    0.2978318 -74.70  0.001642776    2.234    0.552
        10 -12.2136      3.1951      8.4838   8.5475915769e+01   7.8103706679e+01    0.2413267    0.2114951 -33.09 0.0008201857    1.038    0.037
        11 -11.7441    123.8536      6.7853   2.5027883330e+01   5.2833077555e+01    0.3424177    0.2317418 -76.35  0.001404526    1.545    0.353
        12 -10.8232     78.4339      8.4435   3.5668565985e+01   6.4662503151e+01    0.1404005    0.1300591  58.75 5.338614e-05    1.035    0.034
        13 -10.5164     68.6845      4.3230   3.6494441342e+01   6.7532230299e+01    0.1392365    0.1060945 -68.29   0.00054844    1.663    0.399
        14 -10.9072    161.8371     12.4112   2.2296197658e+01   4.2317647873e+01     0.267171   0.08850718 -27.25  0.001000793    2.843    0.648
        15 -11.3153     15.6677      4.6691   6.9988497636e+01   7.7783970749e+01    0.1376381   0.08820737 -16.66 0.0004376601    1.723    0.420
        16 -12.1152     85.6169      7.2422   3.2945631643e+01   6.2959334104e+01     0.368618    0.2579326  49.76  0.001879176    1.317    0.240
        17 -12.5523     38.5743      2.5560   4.9634345404e+01   7.4461090000e+01    0.3430914    0.2360316  50.66  0.001534987    1.477    0.323
        18 -11.6138    113.7552      1.9223   2.4563115645e+01   5.5986162201e+01    0.3387837    0.1890725  84.87  0.001171984    1.806    0.446
        19 -10.4711     74.2972    232.3357   9.1398676698e+01   1.8173964708e+01    0.2122337    0.1505959  34.48 0.0006918234    1.069    0.065
        20 -15.1693    246.1060    241.1521   5.9617418202e+01  -2.4657454688e+00     1.311711    0.5385236 -25.40  0.008537041    2.179    0.541
        21 -14.3117    117.9008    248.3291   8.3457200213e+01   1.0639866063e+01     1.632961    0.3780319  29.59   0.00656113    3.209    0.688
        22 -14.9320    109.0009    230.5134   8.3569819348e+01   1.4392762158e+01    0.7494858    0.6166368 -67.18  0.005191411    1.645    0.392
        23 -14.9329    115.2756    238.9536   8.3080815583e+01   1.2324564140e+01     1.850056    0.7546591  22.44  0.008817162    2.321    0.569
        24 -12.8119     90.0549    229.8710   8.7681863349e+01   1.6776877678e+01    0.5483694    0.3219544 -28.75  0.002916815    2.650    0.623
        25 -14.3457     96.1930    227.4292   8.6088061057e+01   1.6453713940e+01     1.306933    0.6152232 -38.21  0.006233585    3.235    0.691
        26 -14.1638    102.8329    247.3504   8.6478012327e+01   1.2518133161e+01     1.032782    0.4839153  37.29  0.005945284    1.613    0.380
        27 -12.6524     90.7138    244.0419   8.8749365836e+01   1.4404400464e+01    0.3864426    0.3261287  35.45  0.002164269    1.147    0.128
        28 -12.4927     65.3604    249.1330   9.4488319967e+01   1.6365196203e+01    0.3426509    0.2513378  36.06   0.00249196    1.011    0.011
        29 -13.5444     17.4447    188.2961   1.0241126919e+02   3.2538860726e+01    0.5861165    0.3078185 -70.66  0.003160308    2.057    0.514
        30 -14.9162     10.2150    176.5911   1.0385212253e+02   3.5693371277e+01     1.072123    0.8506646  28.48  0.006965145    1.240    0.194
        31  99.0000     45.9222    214.5952   9.6714530043e+01   2.4471371130e+01     1.008277    0.7915972 -63.53  0.006800736    1.564    0.361
        32 -15.3117     27.7889    164.3962   9.8258413030e+01   3.7045820814e+01     3.006789     1.125522  62.11   0.01165639    2.977    0.664
        33 -16.5578      9.7390    142.6520   1.0247660287e+02   4.3763025660e+01     3.822162     2.629383 -81.79   0.02156962    1.392    0.281
        34 -14.2902     15.5660    223.0206   1.0411660791e+02   2.5702295712e+01    0.6242604    0.3158191  55.94  0.003764579    1.608    0.378
        35 -15.2166      4.5406    202.9248   1.0610502669e+02   3.0501766688e+01    0.7746853    0.5473078  76.04  0.005230479    1.334    0.250
        36 -16.9511     32.0857    239.9070   1.0109779469e+02   2.1198834858e+01     2.329257      1.19743  27.17   0.01418106    1.565    0.361
        37 -16.9615      4.8591    218.4891   1.0639380904e+02   2.7424244238e+01     2.848693    0.6332861 -88.56   0.01100409    5.044    0.802
        38 -12.9919    234.0350    245.0649   6.1970667573e+01  -1.7042344361e+00    0.1886919    0.1381238   9.00 0.0005156351    1.259    0.206
        39 -11.1656     55.9151    226.2984   9.5121253771e+01   2.1243881527e+01    0.1670393    0.1204253  47.39 0.0007856158    1.158    0.137
        40 -10.7530     80.3440    223.1379   8.9285490315e+01   1.9080861351e+01    0.1834492    0.1467396  79.71 0.0006875008    1.520    0.342
        41 -15.0310    115.3551    219.8751   8.1026865361e+01   1.5327802778e+01     1.274406    0.8601584 -82.99  0.005388874    2.538    0.606
        42 -12.7365     66.3618    214.6130   9.1846440842e+01   2.2255159751e+01    0.3155048    0.2551919 -33.51  0.001704862    1.603    0.376
        43 -11.2214     90.5098    215.0107   8.6176092137e+01   1.9306606051e+01    0.2503392    0.1507246  30.36 0.0006142334    1.329    0.247
        44 -12.1170     95.0005    213.9101   8.5015227745e+01   1.8943648177e+01    0.2575752    0.1874314  37.36  0.001007367    1.135    0.119
        45 -10.6208     78.5329    212.9671   8.8807082689e+01   2.1141658635e+01    0.2141153    0.1231529 -84.95  0.001108552    2.476    0.596
        46 -10.7354     58.8648    214.3705   9.3615040038e+01   2.3139159003e+01    0.1780749   0.06298369  44.52  0.000420048    2.269    0.559
        47  -8.9566     54.9910    213.5613   9.4482889511e+01   2.3715701582e+01    0.4040121    0.2118837 -35.27  0.001860095    3.335    0.700
        48 -10.3141     52.5801    211.5513   9.4922601268e+01   2.4362777973e+01    0.2637122    0.1499618  17.71 0.0001443296    1.819    0.450
        49 -11.7352     32.4912    212.3091   9.9784732022e+01   2.6240836094e+01    0.2085891     0.172204 -83.19  0.001009832    1.393    0.282
        50 -12.1593    110.4831    209.3252   8.0906830368e+01   1.7759321148e+01    0.1868025    0.1812389 -24.59 0.0006107263    1.246    0.198
        51 -11.7957     97.1463    208.9702   8.3985162086e+01   1.9563296595e+01    0.3642444    0.1531207  32.32  0.001705656    1.878    0.468
        52 -10.9409     72.6620    209.2510   8.9882466350e+01   2.2542520572e+01    0.2985348   0.07532652  47.64 0.0009740465    4.336    0.769
        53 -10.4865     61.7720    208.6003   9.2475076684e+01   2.3927261440e+01    0.1129823   0.08943357 -31.71 0.0004786233    1.653    0.395
        54 -12.9348     87.4884    224.4428   8.7769865821e+01   1.8007413750e+01    0.8947188    0.4399728   9.83  0.003814582    3.210    0.688
        55 -13.5121    105.6165    236.3847   8.4882413291e+01   1.3871568711e+01    0.4048526    0.3235164  33.80  0.001382934    1.107    0.096
        56 -11.6549     96.1711    204.4535   8.3718115510e+01   2.0522164300e+01    0.1860706    0.1606018 -82.99  0.001086259    1.440    0.305
        57 -12.4860    108.4007    202.7066   8.0595772058e+01   1.9221090689e+01     0.353821    0.2755785 -31.17  0.001724394    1.517    0.341
        58 -10.9555    112.3876    200.1723   7.9335824657e+01   1.9139586327e+01    0.1794616    0.1602266  32.11 0.0005862414    1.103    0.093
        59 -10.6271     60.5201    204.5205   9.2457383852e+01   2.4871493607e+01    0.1281046    0.1027648  41.27  0.000809943    1.016    0.015
        60 -10.8087     54.1681    198.0920   9.3542155383e+01   2.6881788505e+01    0.2523463    0.1060384  44.45  0.001176103    1.958    0.489
        61 -12.1524     89.7038    189.4794   8.3587016548e+01   2.4283677918e+01    0.3834106    0.1315914 -68.28  0.001333997    4.451    0.775
        62 -10.9535    117.4725    194.4758   7.7379838922e+01   1.9471437986e+01    0.1324816    0.1110127  28.39 0.0001137729    1.024    0.023
        63 -10.5581     94.3065    194.6998   8.3049029692e+01   2.2629990648e+01    0.1336084   0.08809491  53.10 0.0003625714    1.595    0.373
        64 -11.7238     81.5492    193.6847   8.6145113185e+01   2.4506656158e+01    0.3014313    0.2004514  53.77  0.001143695    1.513    0.339
        65 -10.3182     50.5183    193.5433   9.4125896870e+01   2.8228243413e+01    0.2478043    0.1649388 -42.79 0.0009176979    1.960    0.490
        66 -10.6859     41.6350    193.7580   9.6441304387e+01   2.9119799350e+01    0.1545619    0.1069013  74.63 0.0004637864    1.478    0.323
        67 -12.5699    122.5354    190.8424   7.5673010131e+01   1.9413038679e+01    0.2362191      0.21189  11.56 0.0004357239    1.089    0.082
        68 -11.1399     45.6996    190.9873   9.5188584366e+01   2.9286064867e+01    0.3524697    0.1642261  62.22  0.001227308    2.357    0.576
        69 -11.0172     59.4732    186.9317   9.1216155158e+01   2.8625032670e+01    0.2496464    0.1346082  40.67 0.0007403323    1.536    0.349
        70 -11.3007     84.2841    185.9970   8.4571528359e+01   2.5719496984e+01    0.1789693    0.1670677  52.45 0.0004904888    1.115    0.103
        71 -10.7274    128.2831    185.0148   7.3456001782e+01   1.9637885645e+01    0.1794607    0.1643138   9.58 0.0005413062    1.092    0.084
        72 -10.2906     95.3536    185.7223   8.1677563173e+01   2.4270442805e+01    0.1407273   0.08936319  51.98 0.0007009275    1.649    0.394
        73 -10.8679     53.5035    184.9253   9.2633388149e+01   2.9741620674e+01    0.1714367    0.1272136 -82.90  0.000429782    1.480    0.324
        74 -10.7009     87.3178    184.6696   8.3621776158e+01   2.5587070613e+01    0.1413398   0.09085923  56.06 0.0007047241    1.686    0.407
        75 -13.0005     83.3657    238.6828   8.9896921029e+01   1.6091976879e+01    0.4114504    0.2198545  35.52  0.001276333    1.382    0.277
        76 -12.0706     72.5788    181.9065   8.7203590056e+01   2.8106810566e+01    0.4052865    0.1855778  26.39   0.00166307    2.021    0.505
        77 -10.5254    243.3329    180.6617   5.0778662368e+01   4.2234185235e+00    0.0946735   0.08366455 -35.67 0.0005809168    1.744    0.427
        78 -11.2445     51.6350    179.8941   9.2701856748e+01   3.1056326564e+01    0.3016028    0.1510266 -70.81 0.0007441064    2.170    0.539
        79 -11.7708     58.5817    175.1889   9.0333805846e+01   3.1306593405e+01    0.3722194    0.1678715  42.77  0.001067546    1.896    0.473
        80 -12.6696     55.6333    169.9913   9.0644132990e+01   3.2833570928e+01    0.3873132    0.2598254  15.70  0.000526573    1.619    0.382
        81 -11.0733     89.1999    168.1174   8.0945852451e+01   2.8843480808e+01    0.1954693    0.1748835  14.19 0.0004395851    1.150    0.130
        82 -11.2967     45.1689    166.1389   9.3302517822e+01   3.4906342888e+01    0.2312832    0.2123437  49.76  0.001443972    1.061    0.058
        83 -11.7883     49.0050    161.0406   9.1679083686e+01   3.5685539313e+01    0.4251931    0.1705246 -64.31   0.00112602    2.513    0.602
        84 -12.2580     55.8317    158.4810   8.9355036058e+01   3.5500460974e+01    0.4206282    0.2342846 -67.02   0.00110191    1.883    0.469
        85 -12.5386     52.8110    155.1446   8.9898211131e+01   3.6658588563e+01     0.549642    0.3186251 -20.16  0.002220489    2.963    0.663
        86 -10.9194     74.8651    159.8523   8.3868210997e+01   3.2724224625e+01    0.1960771    0.1821177  14.12 0.0002836681    1.143    0.125
        87 -10.2286     78.5265    159.4572   8.2746602772e+01   3.2306182843e+01    0.1413896    0.1282822  38.67  6.60774e-05    1.020    0.020
        88 -12.4603     62.9747    155.1895   8.6800137552e+01   3.5398965741e+01    0.3604658    0.2460212  48.81 0.0005481353    1.369    0.269
        89 -13.8771     38.6492    203.3343   9.7802847051e+01   2.7435138334e+01     1.003224    0.6557602  61.48  0.006058989    1.423    0.297
        90 -11.7010     69.5614    144.8002   8.3340998931e+01   3.7021335297e+01     0.604475    0.2491527  54.32  0.002031442    3.268    0.694
        91 -10.6009    105.1687    138.6306   7.1500858768e+01   3.2888854427e+01    0.2016899    0.1351576  25.48 0.0004698999    1.551    0.355
        92 -13.1447     46.2181    134.9862   8.9632967997e+01   4.2423290063e+01    0.4298243    0.2798327  42.49  0.001073534    1.425    0.298
        93 -11.3780     46.4647    131.4583   8.9094599631e+01   4.3295888038e+01      0.23373    0.1769786  37.78 0.0005638916    1.246    0.198
        94 -11.5106     81.5270    132.2601   7.7466696351e+01   3.8298267833e+01    0.3037223    0.2402579  69.77 0.0004511486    1.410    0.291
        95 -11.1198    108.3878    131.9368   6.9227408907e+01   3.3825237314e+01    0.3694001    0.1849353 -52.46  0.001487408    2.113    0.527
        96 -10.5456    136.8143    132.3810   6.1695324512e+01   2.8460811052e+01    0.1892036    0.1328658  28.86 0.0001508068    1.445    0.308
        97 -10.2141    174.0189    131.2382   5.3100916931e+01   2.1691279092e+01    0.1607388    0.1121166  38.88 0.0002550185    1.439    0.305
        98 -11.1134    249.6662    127.3298   4.0181547316e+01   9.8899503986e+00    0.1094224   0.08098873 -49.41 0.0007052045    1.724    0.420
        99 -10.2086    142.4447    121.4512   5.7836200007e+01   2.9551842564e+01    0.1446896    0.1396075  14.04 0.0001251747    1.023    0.022
       100 -11.7690     52.8768    118.7242   8.4934848079e+01   4.5808153260e+01    0.3930471    0.2559865 -42.05    0.0018104    1.745    0.427
       101 -10.9464     73.8061    119.1150   7.7536920990e+01   4.2744869486e+01    0.2340557    0.1980767  68.56 0.0006040079    1.245    0.196
       102 -13.8832     26.6048    178.2420   9.9464747575e+01   3.3961072022e+01    0.5763716    0.3737954  19.49  0.002354318    1.568    0.362
       103 -15.0612     23.8774    200.4083   1.0131350215e+02   2.9426051944e+01     1.145942    0.6024931  37.08  0.006452139    1.477    0.323
       104 -10.9709     91.7198    116.0402   7.0884168664e+01   4.0499564439e+01    0.2074953    0.1930606 -53.68 0.0004183479    1.115    0.103
       105 -11.0216     79.3761    111.6721   7.4056035082e+01   4.3695280890e+01    0.3427817    0.1948712 -64.40  0.001234888    1.951    0.487
       106 -10.6846    125.9935    110.9689   5.9493102850e+01   3.5011591135e+01    0.1857917    0.1685771 -41.08  0.000600246    1.128    0.113
       107 -14.5418     28.6332    188.1222   9.9482751728e+01   3.1593320818e+01     1.036772    0.4668531  41.47  0.005207208    1.739    0.425
       108 -13.0776      9.9602    102.3123   9.9683104106e+01   5.4141619338e+01    0.4958886    0.2017385 -68.22  0.001767832    2.168    0.539
       109 -10.6112    103.4759     97.2442   6.2463628651e+01   4.2625554218e+01    0.2088221    0.1515611 -63.05 0.0009141254    1.576    0.366
       110 -14.3431      7.5644    189.9397   1.0500371972e+02   3.2972217431e+01    0.6291792    0.3738097 -61.75  0.003634083    1.997    0.499
       111 -15.5195     21.7402    216.5687   1.0249261000e+02   2.6394521607e+01     1.324856    0.5098982  54.38  0.006753928    2.150    0.535
       112 -10.9678    151.6012     94.6545   4.8961414635e+01   3.2764803901e+01    0.2526342    0.1694459  39.43 0.0007760001    1.564    0.360
       113 -10.8616     63.4821     94.9495   7.6147295480e+01   5.0454675326e+01    0.2319455    0.1487487 -61.24  0.001027538    1.578    0.366
       114  -9.9869    173.7074     93.7231   4.4239838302e+01   2.8150081688e+01    0.1374359    0.1082829  10.38 0.0002596317    1.524    0.344
       115 -11.7048    132.1454     92.5887   5.3012699589e+01   3.7462575216e+01    0.2964488    0.2593664 -21.26 0.0005479936    1.225    0.184
       116 -11.3705    107.7437     89.1344   5.8863560652e+01   4.3526194277e+01    0.2950378     0.257496  59.37 0.0009877048    1.178    0.151
       117 -10.5661     13.4836     90.4708   9.6986082470e+01   5.7075708793e+01    0.1364616    0.1263153 -85.20 8.692783e-05    1.003    0.003
       118 -10.7548     95.2648     86.5610   6.2127291382e+01   4.6715368614e+01    0.2055592    0.1490781  31.64 0.0003274821    1.457    0.314
       119 -11.6956    158.7230     80.1725   4.3488512679e+01   3.3731602180e+01    0.2559511    0.2290086  71.95 0.0005124665    1.187    0.157
       120 -11.8551    195.4831     78.8579   3.6847067235e+01   2.5902205605e+01    0.2536149    0.2087813  53.95 -0.0002131111    1.327    0.247
       121 -12.1658     52.7552     77.6476   7.6343460528e+01   5.6446253931e+01    0.6748406     0.271237  42.94   0.00241156    2.599    0.615
       122 -10.8809    215.9635     78.3128   3.3944923065e+01   2.1904754459e+01    0.1642338    0.1565297 -33.68 0.0003477597    1.097    0.089
       123 -11.1675    152.7547     75.3668   4.3322856767e+01   3.5928068294e+01    0.3081298    0.2091747 -23.50  0.001412553    1.675    0.403
       124 -12.2547     91.5213     75.2001   5.9925034355e+01   5.0025098867e+01    0.2788293    0.2547574  42.82 0.0002314437    1.071    0.067
       125 -10.7147     76.7668     71.3926   6.4191006527e+01   5.3868125478e+01    0.2121049    0.1453693  28.80 0.0005966008    1.588    0.370
       126 -11.2677      7.6199     67.8396   9.7071123208e+01   6.3377799393e+01     0.243609    0.1752025  70.12 0.0006287085    1.471    0.320
       127 -10.8686    204.3232     65.8126   3.2373156930e+01   2.5912218207e+01    0.2147974    0.1417482 -47.35 0.0007387409    1.419    0.295
       128 -11.3061    192.0028     65.7270   3.3978292425e+01   2.8528815476e+01    0.1805367    0.1728433 -80.05 0.0003935719    1.096    0.088
       129 -12.9478     92.8698    235.5363   8.7563902320e+01   1.5511184446e+01    0.8779066    0.4225226   9.93  0.003780546    3.344    0.701
       130 -12.4350    118.1171     61.4219   4.7039113038e+01   4.6707030690e+01    0.3612628    0.2904547  63.82 0.0003784238    1.264    0.209
       131 -11.0564     98.8717     60.9337   5.2560201299e+01   5.1373584123e+01    0.2944349    0.2008981 -69.01  0.001221551    2.042    0.510
       132 -12.2959     96.2826     55.8522   5.1540264929e+01   5.2959305185e+01    0.2879375    0.2605183 -51.01 0.0003929906    1.147    0.128
       133 -11.1093     35.7683     60.5362   8.0020347860e+01   6.2981923960e+01    0.3517902    0.2051803 -23.81   0.00146301    2.283    0.562
       134 -12.1659    235.9791     60.4920   2.7662756832e+01   2.0454589540e+01    0.1624334    0.1204804  69.46  0.001040558    1.613    0.380
       135 -11.9927      3.9789     59.5144   9.7973849085e+01   6.5699979890e+01    0.3187018    0.2992721  71.32  0.002020496    1.126    0.112
       136 -10.2334     57.2967     60.2701   6.8897895141e+01   5.9967396534e+01    0.1459441    0.1146526 -12.38 0.0001943513    1.520    0.342
       137 -11.0227    128.3031     58.1706   4.3348130524e+01   4.4777606533e+01    0.2951903    0.2000449 -88.58  0.001227025    2.092    0.522
       138 -14.3436     48.5012    246.1962   9.7886033134e+01   1.8560954555e+01    0.8217794    0.3828911  51.60  0.004831334    1.842    0.457
       139 -10.7744     22.5057     51.5089   8.5170288064e+01   6.6601457125e+01    0.3873928    0.1606904 -34.99  0.001411659    2.983    0.665
       140 -11.3680     94.0415     48.9100   4.9601617245e+01   5.4784025145e+01    0.2170481      0.21232  47.09 0.0002740189    1.017    0.016
       141 -10.7910     95.3597     45.3208   4.7728753912e+01   5.5112790124e+01    0.3042499    0.2143171   0.14 0.0009158289    2.125    0.529
       142 -10.4158     86.9897     49.0305   5.2088522233e+01   5.6400437597e+01    0.1822044    0.1686158  47.10 0.0003438017    1.043    0.042
       143 -11.4939    188.5388     62.4200   3.3587962249e+01   2.9751773850e+01    0.2283362    0.2057576 -46.80 0.0004268218    1.019    0.019
       144 -11.3673      5.2863     46.9080   9.5145920010e+01   6.8875631859e+01    0.3763384    0.1752668 -19.83  0.001626613    2.440    0.590
       145 -10.8742     39.1145     43.6542   7.2408576266e+01   6.6603171799e+01    0.2016684    0.1788204  14.35 0.0007570751    1.122    0.109
       146 -11.2918    119.3920     42.4296   3.9878145888e+01   4.9586825285e+01    0.2761036    0.1863156 -38.23 0.0006491238    1.512    0.339
       147 -10.4571     23.5596     43.4867   8.2112283298e+01   6.8477915607e+01    0.1383618    0.1249761 -35.80 0.0001513803    1.028    0.028
       148 -11.6375      3.7930     42.3320   9.5288071979e+01   7.0085838058e+01    0.2169985    0.1718634  88.28 0.0007034765    1.324    0.245
       149 -10.4119     64.2674     41.9600   5.8371750888e+01   6.2658899198e+01    0.1802514    0.1289125 -44.33 0.0005486772    1.438    0.305
       150 -11.2043     69.2148     39.0828   5.4857498566e+01   6.2197403122e+01    0.2384379    0.2073311  59.43 0.0002258294    1.223    0.182
       151 -10.8777     61.9673     38.0000   5.7659319949e+01   6.3894875203e+01    0.2457061   0.08101109  43.68 0.0008030758    2.947    0.661
       152 -10.6945     82.2262     36.0320   4.8260691488e+01   5.9836354192e+01    0.2012052    0.1957077  -3.45 0.0004037616    1.064    0.060
       153 -11.1434     40.0670     35.9860   6.8608741522e+01   6.8166434256e+01    0.2191397    0.2049374 -11.62 0.0008782353    1.008    0.007
       154 -11.1364    154.0103     32.0244   2.9617632914e+01   4.2104601383e+01    0.1714944    0.1552204  88.26 0.0003847766    1.054    0.051
       155 -10.9654     51.9980     32.6612   6.0155814557e+01   6.6846654574e+01    0.3067158    0.1782941 -18.74  0.001173502    2.812    0.644
       156 -10.7341     48.2697     32.0308   6.1902619270e+01   6.7642889041e+01    0.1988015    0.1810188 -28.62 0.0005716381    1.094    0.086
       157 -11.0913     17.2490     31.7614   8.2514498997e+01   7.1837082412e+01    0.1849518    0.1812184  48.39  0.000951657    1.164    0.141
       158 -11.0004    160.4920     26.8435   2.7046953712e+01   4.1088660290e+01    0.2014148    0.1340875 -30.47 0.0006830666    1.504    0.335
       159 -10.2827    110.3064     24.6712   3.4966259460e+01   5.4469255377e+01    0.1538032    0.1087239 -67.00 0.0007037625    1.656    0.396
       160 -12.4669     87.8753     22.4318   3.9957585993e+01   6.0550659972e+01    0.2925005    0.2679626  52.79 0.0003579161    1.018    0.018
       161 -12.2840     96.4055     22.1575   3.7347679182e+01   5.8417268077e+01    0.2918874    0.2512224  78.50  0.000260755    1.173    0.147
       162 -11.7467     37.9927     22.9599   6.3424547810e+01   7.1153190743e+01    0.2955656    0.2157161 -54.78 0.0005794902    1.570    0.363
       163 -11.7021     35.2333     19.8027   6.3496866152e+01   7.2198933860e+01    0.2065723    0.1831152 -46.56 0.0005525551    1.237    0.191
       164 -10.6111     72.7465     22.5610   4.5289230246e+01   6.4207458206e+01    0.1918052     0.137097  64.62 0.0004999533    1.504    0.335
       165 -11.0340     72.1476    246.4911   9.2881861693e+01   1.6067712225e+01    0.1781287   0.08527464  29.74  0.001016007    1.540    0.351
       166 -11.3603     49.4083     19.2505   5.4347097859e+01   6.9777580863e+01    0.1903809    0.1314917 -47.97 0.0009475847    1.645    0.392
       167 -12.5578     11.3321     18.3353   8.1959764231e+01   7.5380722258e+01    0.3524985    0.1715547 -24.84  0.001540111    2.411    0.585
       168 -11.0636     65.9686     16.5293   4.4736151648e+01   6.6656536740e+01    0.2172557    0.1323495  52.75 0.0004149743    1.537    0.349
       169 -12.8437     76.8768    243.0122   9.1627900897e+01   1.6113029276e+01    0.2886602    0.2343083 -84.83   0.00213257    1.601    0.375
       170 -10.5914    189.4734    241.9794   6.8946849349e+01   3.2237418862e+00    0.1312153   0.09461608 -20.72 0.0003276855    1.438    0.305
       171 -10.7945     62.5496    241.4350   9.4609821007e+01   1.7915332976e+01    0.2110435    0.1426632  -5.96  0.001280983    2.115    0.527
       172 -10.9555     61.4225    220.8052   9.3478136117e+01   2.1652808626e+01    0.1407862    0.1188559 -83.93 0.0003476199    1.417    0.294
       173 -11.7811     64.5859    221.9528   9.2826730734e+01   2.1093397938e+01    0.3558485    0.1631275 -49.93  0.001040577    2.894    0.654
       174  -9.7300     60.5495    224.5343   9.3942725366e+01   2.1066595289e+01    0.2159961    0.1409997  42.31  0.001355768    1.207    0.171
       175 -10.5845     63.4943    234.5732   9.3959486635e+01   1.8976021830e+01    0.1820446    0.1462357  40.62  0.001008937    1.073    0.068
       176 -11.0592     67.0737    232.1302   9.2995639578e+01   1.9009628296e+01    0.2659101    0.2012045   4.87  0.001756501    1.544    0.352
       177 -13.1213     65.6728    227.7268   9.2997741756e+01   1.9934796598e+01    0.2684498    0.2427558  46.89 0.0009156844    1.179    0.152
       178 -10.9561     66.6029    240.4879   9.3670783597e+01   1.7642167225e+01    0.1643042    0.1299501  42.31 0.0001978254    1.100    0.091
       179 -11.4663     66.6239    237.4540   9.3463136774e+01   1.8148257925e+01    0.1844477    0.1529106 -43.62 4.908703e-05    1.603    0.376
       180 -10.6954     52.1488    238.8680   9.6714353843e+01   1.9426300733e+01    0.1324348     0.101517  26.50            0    1.190    0.160
       181 -11.7561     73.2751    237.3256   9.1995992379e+01   1.7443989173e+01    0.1696408    0.1523573  51.42   0.00128541    1.224    0.183
       182 -12.6064     76.5242    227.1348   9.0490187710e+01   1.8820694630e+01    0.2938645    0.2193532 -19.41  0.001859167    1.806    0.446
       183 -11.4362     79.4150    231.9679   9.0229712717e+01   1.7657912664e+01    0.2814452    0.1700665  49.40 0.0007334586    1.538    0.350
