#   1 NUMBER                 Running object number                                     
#   2 MAG_AUTO               Kron-like elliptical aperture magnitude                    [mag]
#   3 X_IMAGE                Object position along x                                    [pixel]
#   4 Y_IMAGE                Object position along y                                    [pixel]
#   5 X_WORLD                Barycenter position along world x axis                     [deg]
#   6 Y_WORLD                Barycenter position along world y axis                     [deg]
#   7 A_WORLD                Profile RMS along major axis (world units)                 [deg]
#   8 B_WORLD                Profile RMS along minor axis (world units)                 [deg]
#   9 THETA_WORLD            Position angle (CCW/world-x)                               [deg]
#  10 FWHM_WORLD             FWHM assuming a gaussian core                              [deg]
#  11 ELONGATION             A_IMAGE/B_IMAGE                                           
#  12 ELLIPTICITY            1 - B_IMAGE/A_IMAGE                                       
         1  -9.7575     56.8241      9.8271   6.8908333807e+01   6.6619420770e+01    0.1578539    0.1477854   4.84  0.001086827    1.371    0.271
         2  -9.9339     35.6613      6.8573   7.6726441640e+01   7.0127202306e+01    0.2890553   0.08910961 -41.53  0.001099876    4.257    0.765
         3  -9.8397     71.5129      6.5251   6.1869415511e+01   6.4367254719e+01    0.2124366    0.1218712  61.17  0.001035678    2.369    0.578
         4 -10.8472    183.4935      4.4549   3.8897130954e+01   3.8452579190e+01    0.1313251    0.1154627  83.84 9.903088e-05    1.009    0.008
         5 -10.0058    161.6766      2.6824   4.0993845276e+01   4.4018728150e+01    0.1396229   0.08829828  41.55 0.0006098032    1.669    0.401
         6 -10.7867    126.1309    220.8311   1.0411400453e+02   1.1483758625e+01    0.1996068    0.1578099  59.70 0.0005663441    1.253    0.202
         7  -9.8249    131.4895    214.4948   1.0210417335e+02   1.1795343297e+01    0.1321498    0.1176567  37.94 1.286699e-06    1.056    0.053
         8  -9.9642     89.1907    199.3985   1.0924517007e+02   2.1522138816e+01     0.290819    0.1231575  55.87  0.001141402    2.817    0.645
         9 -11.3894    173.0237    195.9474   9.0180558484e+01   8.0447656136e+00    0.2679457    0.2645828 -20.92  0.001189525    1.170    0.145
        10  -9.8610    174.0221    192.0084   8.9241175056e+01   8.5851779413e+00    0.1884687    0.1705791  65.33 0.0005524319    1.344    0.256
        11 -10.0013    126.2749    197.8136   1.0074140709e+02   1.5939922053e+01    0.2562307    0.1922777 -31.37  0.001350959    1.666    0.400
        12 -10.4468    139.0757    190.2743   9.6626094187e+01   1.5250857767e+01    0.2073552    0.1809695  43.28  0.001134549    1.070    0.065
        13 -10.2447    156.8382    188.2862   9.2292332329e+01   1.2434700522e+01    0.2315007    0.1737523  52.98  0.001186846    1.422    0.297
        14 -11.4773     97.1947    187.8371   1.0586786326e+02   2.2817715172e+01     0.540841    0.1897738  46.38  0.002022641    2.771    0.639
        15 -10.2566    110.4701    186.9671   1.0265352832e+02   2.0877473736e+01    0.2971909    0.1490039  64.39  0.001032989    3.487    0.713
        16  -9.6939     55.9855    187.6621   1.1527114733e+02   2.8607490521e+01    0.2199991   0.05771903  50.77 0.0007050978    4.371    0.771
        17 -10.6109     13.1365    184.9316   1.2428388910e+02   3.3701943493e+01    0.1850765    0.1688371  82.73  0.001170798    1.262    0.208
        18  -9.9107    212.2349    182.5929   7.9562447490e+01   3.3410294278e+00    0.1950776    0.1206351  27.53 0.0009448937    1.621    0.383
        19 -10.0604    148.4601    181.5338   9.2929336444e+01   1.5333123032e+01    0.1434503    0.1353777  41.36 0.0001392094    1.039    0.038
        20  -9.9748     60.9975    177.9765   1.1301996092e+02   3.0185857929e+01    0.2479671    0.1052875  54.18  0.001025376    2.597    0.615
        21 -10.8214     78.1382    176.5665   1.0876729251e+02   2.8209569721e+01    0.5152431    0.1682349  50.72   0.00172495    3.706    0.730
        22  -9.8162     13.6624    177.3324   1.2362821151e+02   3.5333608134e+01    0.1285828   0.06879748  67.46 0.0007051989    1.741    0.426
        23 -10.0397    204.5072    175.9908   7.9738472407e+01   5.8677108662e+00    0.2087174    0.1156338 -16.20 0.0008106509    2.614    0.617
        24  -9.5726    160.6348    176.3185   8.9167398331e+01   1.4104751117e+01    0.1491043    0.1162179  74.91 0.0007039576    1.778    0.438
        25 -10.2390    106.9942    176.1610   1.0174588064e+02   2.3848011091e+01    0.2528942    0.1511832  62.31  0.001094062    2.077    0.518
        26  -9.9606    135.7634    172.5798   9.4203528548e+01   1.9574048123e+01     0.217111    0.1309575  50.08 0.0009509431    1.717    0.418
        27  -9.6293     45.3471    172.6843   1.1608236834e+02   3.3277570041e+01    0.1381282   0.08256601  67.85 0.0007047805    1.722    0.419
        28 -10.4450    122.6318    170.3756   9.6947680034e+01   2.2450569990e+01    0.3810841    0.2037782  58.73  0.001458375    2.542    0.607
        29 -10.2652     55.8007    170.2226   1.1331111449e+02   3.2634362726e+01    0.2367625    0.1142436  67.17 0.0009563713    2.811    0.644
        30 -10.2801    101.2765    167.1900   1.0164365212e+02   2.6845897065e+01    0.4533553    0.1476704  46.87  0.001489591    3.307    0.698
        31 -10.5108    140.6235    166.1700   9.1799613661e+01   2.0052390717e+01    0.3766724    0.1907015  53.87  0.001415495    2.436    0.589
        32 -10.3593     80.7746    164.9017   1.0641133585e+02   3.0561363425e+01    0.4147209    0.2173944  69.26  0.001554725    3.063    0.673
        33  -9.7066     48.0054    164.5198   1.1450912373e+02   3.4893642921e+01    0.1923812   0.08399681  54.36 0.0008100757    2.565    0.610
        34 -10.1541      9.9889    161.5025   1.2321668165e+02   3.9213633385e+01    0.2623138   0.09782293  69.58  0.001041122    3.514    0.715
        35 -10.3842     93.8950    161.1878   1.0247852213e+02   2.9445040161e+01    0.3692701    0.1684055  47.05  0.001473937    2.270    0.560
        36  -9.7692     24.0140    160.3357   1.1984462678e+02   3.8311033405e+01    0.2035758   0.05046905  48.66 0.0007050291    4.346    0.770
        37 -10.5804    108.0501    159.3025   9.8528273893e+01   2.7546993130e+01    0.5924609    0.1573635  46.37   0.00167075    4.295    0.767
        38  -9.9870    168.9637    158.4844   8.3574999882e+01   1.6097052181e+01    0.2152615    0.1318044  63.90 0.0008101056    2.597    0.615
        39 -10.3748    120.5073    156.4942   9.4820414203e+01   2.5987524908e+01    0.3495786    0.2277031  76.89  0.001388655    2.468    0.595
        40 -10.6698     51.1709    156.1683   1.1266537707e+02   3.6526381523e+01    0.4566031     0.173082  53.22  0.001706556    3.327    0.699
        41  -9.9496    219.1565    156.1523   7.2622149712e+01   6.6103573578e+00    0.1784876     0.170487 -51.24 0.0003812556    1.286    0.222
        42  -9.8890    146.0042    155.8202   8.8365222478e+01   2.1264525280e+01    0.2554527    0.1754044  67.13  0.001078231    2.023    0.506
        43 -10.6572     83.3776    155.8063   1.0427766114e+02   3.2350874841e+01    0.4625715     0.203186  52.31  0.001734887    2.769    0.639
        44 -10.4158     69.5193    154.9256   1.0775133816e+02   3.4532278509e+01    0.3522708    0.1931221  51.81  0.001608801    1.969    0.492
        45 -10.5622    134.5838    154.0296   9.0781123691e+01   2.3898194138e+01    0.3972662    0.2336696  61.11  0.001530713    2.386    0.581
        46 -10.0074    191.2244    151.2260   7.7087408676e+01   1.3016600884e+01    0.2367552     0.120418  53.73 0.0008873508    2.474    0.596
        47 -10.0112     99.7732    151.6047   9.9224423528e+01   3.0768779400e+01    0.2192715    0.1294867  48.88 0.0009572012    1.776    0.437
        48  -9.9553     29.6139    150.8889   1.1748714372e+02   4.0034233221e+01    0.3581272    0.1340779  58.40  0.001334331    3.753    0.734
        49 -10.6930     40.4131    148.3787   1.1441962727e+02   3.9582518150e+01    0.4734117    0.1983462  54.18  0.001948233    2.915    0.657
        50 -11.4732    108.7683    146.4331   9.5829112235e+01   3.0456094563e+01    0.7365969    0.3676166  62.00  0.002323731    3.788    0.736
        51 -11.2661     57.2765    146.6473   1.0972048860e+02   3.8114931436e+01    0.5792456     0.268915  60.75  0.002187843    3.195    0.687
        52 -11.7193    150.5101    146.1320   8.5134361432e+01   2.2473809107e+01    0.6064893    0.3552589  66.11  0.002114197    3.014    0.668
        53  -9.8777     78.9993    147.5137   1.0401521829e+02   3.5005157017e+01    0.2108174    0.1054115  56.27 0.0008103408    2.594    0.614
        54 -10.2426     14.2130    146.8225   1.2091315608e+02   4.2300929602e+01     0.227243    0.1124968  45.34  0.001203349    2.118    0.528
        55 -11.0755    126.6482    144.3438   9.0704998336e+01   2.7638226729e+01    0.5292617    0.3068764  61.89  0.001979891    2.529    0.605
        56 -10.8337     89.7423    144.9330   1.0063842329e+02   3.4003502892e+01    0.4837977    0.2066363  46.96  0.001817819    2.565    0.610
        57 -10.5894    197.2022    143.3452   7.4027801198e+01   1.3301916471e+01    0.2610588    0.1943977 -26.72 0.0007341666    1.325    0.245
        58  -9.8095      3.0376    142.5251   1.2327803207e+02   4.4099884670e+01    0.1682157   0.06985291  52.03 0.0008100205    2.604    0.616
        59 -10.0467    215.0077    141.0622   6.9990349098e+01   1.0098861546e+01    0.2239404    0.2067433 -28.99 0.0009675064    1.099    0.090
        60 -10.8052     24.3274    139.1330   1.1750016025e+02   4.3320333925e+01    0.4450586    0.2089912  64.24  0.001962371    2.749    0.636
        61 -10.3908     39.8436    136.7353   1.1300272742e+02   4.2472552604e+01    0.2701207    0.1385993  42.75  0.001308857    2.100    0.524
        62 -10.2548    181.2690    135.1463   7.5439164821e+01   1.8275512214e+01    0.2992046    0.1879462  55.63  0.001256099    1.866    0.464
        63 -10.8867    114.1811    134.2986   9.1763695344e+01   3.2350254098e+01    0.4400116    0.1997479  52.30  0.001506892    2.824    0.646
        64 -11.3249     85.1592    132.7896   9.9524062155e+01   3.7679901539e+01    0.6390047    0.3050147  52.58  0.002395905    2.712    0.631
        65 -11.0763    144.8972    132.7970   8.3380589876e+01   2.6576574434e+01    0.4640044    0.2753702  56.39  0.001829354    2.052    0.513
        66 -11.6147    133.9249    132.6772   8.6144615882e+01   2.8872229523e+01    0.5258871    0.2933988  53.25  0.002043339    2.089    0.521
        67 -10.4928    169.9890    130.9721   7.6929280229e+01   2.1575257348e+01    0.2486946    0.1998448 -85.73 0.0007318387    1.717    0.418
        68 -10.9540    154.5240    130.5820   8.0467738234e+01   2.5014491948e+01    0.3909425    0.2678278  67.39  0.001604071    2.038    0.509
        69 -11.1971    100.7754    129.3327   9.4354142930e+01   3.5951085812e+01    0.6583805    0.3861176  65.07  0.002454892    2.747    0.636
        70 -10.7303     74.7093    130.6739   1.0209625435e+02   3.9751350559e+01    0.3532168    0.2018376  49.37  0.001570382    1.980    0.495
        71 -10.6518     13.6497    130.3194   1.1933697276e+02   4.6261107739e+01    0.3780947    0.1716805  57.73  0.001752609    2.705    0.630
        72 -11.2581    120.9720    127.4790   8.8327768394e+01   3.2653772294e+01    0.5420235    0.2627602  48.99  0.002004633    2.293    0.564
        73 -11.2820     60.9704    125.6158   1.0514068337e+02   4.2835020076e+01    0.6441778    0.3397925  62.96  0.002495099    3.022    0.669
        74 -11.4148     45.1431    124.1188   1.0954994080e+02   4.5023773277e+01    0.7355654    0.3868343  70.32  0.002921584    3.113    0.679
        75 -11.0436    181.2617    125.9966   7.3183298767e+01   2.0112477913e+01    0.4139011    0.2032791  62.02  0.001304418    3.494    0.714
        76 -11.6137     29.2457    123.0373   1.1403493272e+02   4.6802091439e+01    0.7574862    0.3464363  71.81  0.002711076    4.118    0.757
        77 -11.2134    160.0481    122.3001   7.7053968053e+01   2.5579482153e+01    0.4727168    0.2226783  57.62  0.001538767    2.997    0.666
        78 -11.6353    143.3569    120.2017   8.0611980793e+01   2.9688013962e+01    0.5646586    0.3777361  60.63  0.002221621    1.854    0.461
        79 -10.2846     72.3201    120.9665   1.0083549493e+02   4.2473024090e+01    0.3936374    0.2042522  53.52  0.001574664    2.559    0.609
        80 -10.8958    132.6736    119.8782   8.3297786158e+01   3.2028632985e+01    0.5322044    0.2757778  58.46  0.001816187    2.819    0.645
        81 -10.9142      3.9843    118.3137   1.2065629085e+02   4.9734215528e+01    0.3709774    0.1853114  62.78  0.001858796    2.449    0.592
        82  -9.9751    187.6472    117.3117   6.9625243151e+01   2.0403336966e+01    0.1575162    0.1243157 -78.56 0.0007044885    1.726    0.421
        83 -11.2612    110.8313    115.8271   8.8266567273e+01   3.7324824699e+01    0.5847154    0.3791887  70.77  0.002247737    2.550    0.608
        84 -11.1944     80.8241    114.1688   9.6756575700e+01   4.2882046253e+01     0.601677    0.3668259  63.39  0.002455089    2.491    0.599
        85 -11.4565     95.1246    113.9917   9.2392250778e+01   4.0601623309e+01    0.7419554    0.3086858  44.18  0.002686394    2.624    0.619
        86 -10.8525    124.1889    113.6752   8.3968694542e+01   3.5182651299e+01    0.4907878    0.2726608  48.09  0.001952642    1.924    0.480
        87 -10.4093    176.4025    113.1815   7.0947308710e+01   2.3765833612e+01    0.3065891    0.1172146  46.10  0.001010528    2.675    0.626
        88 -10.3919    160.8340    113.2910   7.4509005209e+01   2.7291775108e+01    0.2540924    0.2087058  71.01  0.001189652    1.463    0.317
        89 -10.8553     68.2279    112.0898   1.0018149208e+02   4.5204941823e+01    0.4421778    0.2606953  53.84  0.001951107    2.183    0.542
        90 -10.9485     15.0584    111.6343   1.1660973757e+02   5.0638036779e+01    0.3887922    0.2215452  69.67  0.001951909    2.202    0.546
        91 -10.2530    134.7558    110.5594   8.0289070558e+01   3.3660767796e+01    0.3720257    0.1483002  52.64  0.001143136    3.189    0.686
        92 -11.7222     47.0229    103.7203   1.0517230702e+02   4.9805812577e+01    0.8206248    0.4247761  63.61  0.003020553    3.802    0.737
        93 -11.6677     23.9569    103.3867   1.1259362027e+02   5.1981657557e+01    0.7641118    0.3740411  65.25  0.003067773    3.581    0.721
        94 -11.4340    142.1741    106.0455   7.7121852582e+01   3.3016342275e+01    0.5224781     0.238842  53.29  0.001789482    2.570    0.611
        95 -11.4372    151.3756    104.3782   7.4353717143e+01   3.1294860039e+01    0.4072227    0.3013204  86.37  0.001698187    2.034    0.508
        96 -11.4405    130.5694    103.4528   7.9449465151e+01   3.6112675084e+01    0.5398652    0.3131092  58.91  0.002049733    2.268    0.559
        97 -10.7513      7.6668    104.0337   1.1781842558e+02   5.2903070444e+01    0.2520164    0.1529961  45.00  0.001453062    1.987    0.497
        98 -11.7948    112.3689    100.9253   8.3844680280e+01   4.0433164075e+01     1.045267    0.4844667  57.60  0.003171752    3.851    0.740
        99 -10.8453    161.2519    102.1262   7.1369983842e+01   2.9479367389e+01    0.3172376    0.1931308  59.07  0.001266062    1.926    0.481
       100 -10.5218     83.1500    100.8378   9.2750798960e+01   4.5693094867e+01    0.4170548    0.2394177  58.55  0.001620529    2.715    0.632
       101 -11.3121     65.7304     97.4942   9.7572108946e+01   4.9042881501e+01    0.6944841    0.3562662  53.76  0.002685627    3.030    0.670
       102 -10.7176     97.0484     98.0754   8.7643952681e+01   4.3971601470e+01    0.5542783    0.2145035  42.64    0.0019415    2.757    0.637
       103 -10.0957    178.4991     94.5027   6.5452908914e+01   2.6897497551e+01    0.1550393    0.1503901 -33.37 -0.0001541384    1.010    0.010
       104 -11.1019    141.2153     93.4671   7.3781145490e+01   3.5858471524e+01    0.5887052      0.27945  53.89  0.002094153    2.396    0.583
       105 -11.2380    127.4470     92.3452   7.7095277038e+01   3.9156999295e+01    0.7728801    0.3372014  51.93  0.002648575    2.653    0.623
       106 -10.9145      7.8458     92.8960   1.1615075025e+02   5.5512334959e+01    0.5685514    0.1817458  30.57  0.002527925    3.527    0.716
       107 -10.0632    158.9910     92.5057   6.9172069243e+01   3.1915723882e+01    0.2211632    0.1437122  77.98 0.0008102254    2.538    0.606
       108 -11.3180     36.0632     90.9256   1.0617240960e+02   5.3942175963e+01    0.4062027    0.2889613  69.88   0.00205597    1.918    0.479
       109  -9.9982    152.2439     90.3858   7.0145870984e+01   3.3921259588e+01    0.2221502    0.1521741  60.30 0.0009479544    1.655    0.396
       110 -11.2366     88.9337     88.3434   8.7436046111e+01   4.7585311158e+01    0.6699013    0.3345312  51.99  0.002502661    2.791    0.642
       111 -11.3146     50.5050     86.0947   9.9954054294e+01   5.3595221547e+01    0.6310266    0.3484844  57.75  0.002552853    3.233    0.691
       112 -11.3455    107.9832     85.0839   8.0493682024e+01   4.4745951328e+01    0.7597236    0.3900574  55.53  0.002768344    2.698    0.629
       113 -10.3308    160.4714     84.3224   6.6450054267e+01   3.3124760417e+01    0.2885851    0.1449342  52.15  0.001091135    2.024    0.506
       114 -10.6403    143.0674     84.1750   7.0540229432e+01   3.7281153128e+01    0.4691917     0.211129  55.43  0.001620765    2.555    0.609
       115 -11.1008     25.9219     81.7659   1.0781006996e+02   5.6928682567e+01    0.4652006    0.2775522  53.71  0.002350665    2.419    0.587
       116 -10.0245    120.9555     81.9499   7.5734236239e+01   4.2696616186e+01    0.2453913    0.1983326 -87.31  0.001136163    1.727    0.421
       117 -10.5175     75.5395     81.5723   8.9909315691e+01   5.1267792016e+01    0.3064588    0.2240283  82.78  0.001373712    2.372    0.578
       118 -10.8747     11.0195     81.6901   1.1317843012e+02   5.7936474406e+01    0.4266633    0.1635874  36.88   0.00194904    3.269    0.694
       119 -10.2470    151.6968     81.4331   6.7612631407e+01   3.5768137534e+01    0.2980987    0.1554668  55.80  0.001130372    2.066    0.516
       120  -9.9413    158.8129     77.3734   6.4753952755e+01   3.4801203549e+01    0.2306022    0.1398394  43.29 0.0009559739    1.699    0.411
       121 -10.9912    130.2486     76.9178   7.1595860609e+01   4.1627363848e+01    0.5520852    0.2636795  56.93     0.001956    2.585    0.613
       122 -10.2387    142.0820     76.3348   6.8371350789e+01   3.8999930446e+01    0.3748305    0.1946882  57.03  0.001418086    2.161    0.537
       123 -10.9859     84.0519     74.0804   8.4680077692e+01   5.1488169342e+01    0.5514626    0.3499564  62.53  0.002254823    2.731    0.634
       124 -10.0713      8.1276     73.5661   1.1270410316e+02   5.9943005900e+01    0.2555983     0.150638  44.33  0.001427979    2.284    0.562
       125  -9.8582    117.1691     73.6779   7.4167699691e+01   4.5140756667e+01    0.3057642    0.1403688  53.90  0.001079885    2.629    0.620
       126 -10.0337    107.4039     73.0764   7.6847780170e+01   4.7305146137e+01    0.3029175    0.2060054  61.58  0.001323869    1.977    0.494
       127 -10.4116     96.4850     72.7038   8.0128321925e+01   4.9528738304e+01    0.3405437    0.2681469  68.54  0.001653985    1.777    0.437
       128 -10.0785     43.4391     73.3395   9.9197123836e+01   5.7254250753e+01    0.2136233    0.1582321  49.87  0.001180563    1.790    0.441
       129  -9.9390    165.6546     72.6786   6.1863048271e+01   3.3958405475e+01    0.1619902    0.1191998  18.99 0.0007049789    1.732    0.423
       130 -10.8058     52.6986     71.0164   9.5016210809e+01   5.6718836710e+01    0.4458221    0.3397721  80.68  0.002289973    2.140    0.533
       131 -10.9192     17.7026     70.7474   1.0846345302e+02   6.0015321159e+01    0.2839893    0.2069344  47.38  0.001690893    1.823    0.451
       132 -10.9655    148.6890     69.1114   6.4518586653e+01   3.8721218511e+01    0.3751263    0.2080985  61.63   0.00146968    2.083    0.520
       133 -10.1840    123.4999     67.4273   7.0331706935e+01   4.4917695846e+01    0.3193946    0.2328458  72.11  0.001424387    1.888    0.470
       134 -10.2352    139.9969     67.2171   6.5989475999e+01   4.1136853198e+01    0.2510093    0.1835266  88.58  0.001074425    2.033    0.508
       135 -10.6325     39.2310     65.5730   9.8643428251e+01   5.9382502473e+01     0.469654    0.2287444  43.12  0.002107074    2.855    0.650
       136 -10.1101     11.2563     66.3221   1.0999541042e+02   6.1391219871e+01    0.2207395    0.1246119  44.85   0.00117366    2.505    0.601
       137 -10.4142    112.0423     64.9437   7.2735037628e+01   4.7878003199e+01    0.4453351    0.2507933  63.63  0.001643682    2.851    0.649
       138 -10.2756    102.1893     62.0412   7.4700134271e+01   5.0455830017e+01    0.3350753    0.2138744  63.50  0.001398587    2.366    0.577
       139 -10.8573     75.9012     60.8722   8.3092192885e+01   5.5505327142e+01    0.6385252    0.2691856  46.18  0.002433593    2.956    0.662
       140 -10.5230     26.8502     60.4180   1.0219399302e+02   6.1610224155e+01    0.3935103    0.1712296  39.82  0.001763085    3.165    0.684
       141 -10.0883    132.2224     58.9681   6.5202012949e+01   4.4381856504e+01    0.2825029    0.1990515  66.46   0.00128337    1.693    0.409
       142 -10.4218    121.4172     57.2864   6.7449200042e+01   4.7156544147e+01    0.4363798    0.2421476  59.67  0.001760765    2.169    0.539
       143 -11.2699      9.0253     58.2224   1.0903633664e+02   6.3280429442e+01    0.4173816    0.2604416  42.97  0.002429518    2.241    0.554
       144 -10.4566     45.5457     56.6332   9.3321107106e+01   6.0576866400e+01    0.3222477    0.2540782  63.20  0.001798801    2.021    0.505
       145 -10.5428     63.9191     55.6257   8.5681413399e+01   5.8378718932e+01    0.3425197    0.2536725  47.62   0.00168231    1.738    0.425
       146 -10.6217     55.2313     55.3845   8.8989087684e+01   5.9634820953e+01    0.3508787    0.2738521  86.94  0.001785655    2.393    0.582
       147  -9.9690    107.6844     54.8394   7.0473577566e+01   5.0583702478e+01    0.2795302    0.2034754  77.87  0.001241447    2.229    0.551
       148 -10.7228     32.5950     52.7413   9.7474188097e+01   6.2712201134e+01    0.4306375    0.2710927  54.62  0.002104899    2.895    0.655
       149 -10.3155     21.7024     53.5521   1.0241137610e+02   6.3459858586e+01     0.311704    0.1848888  36.91    0.0017309    2.192    0.544
       150 -10.5200     94.3659     52.2334   7.3641121857e+01   5.3750879824e+01    0.4273545    0.2590773  55.85  0.001894998    2.111    0.526
       151 -10.3137     83.6654     47.8969   7.5577309160e+01   5.6518501753e+01    0.3476732    0.2290435  56.89  0.001636579    2.106    0.525
       152  -9.8423    124.2589     46.8575   6.3032075612e+01   4.8160653649e+01    0.2858115    0.1799292  69.23  0.001217413    2.110    0.526
       153 -10.7354     18.2313     45.7135   1.0159119966e+02   6.5318817058e+01    0.3385926    0.1969458  28.01  0.001957132    2.054    0.513
       154 -10.5359     46.4506     45.4055   8.8996660845e+01   6.2659411496e+01    0.3062531    0.1555312  37.44  0.001485822    2.294    0.564
       155  -9.4604    134.6517     44.3166   5.9604239199e+01   4.6070798771e+01    0.1493256    0.1153118 -73.18 0.0007047876    1.728    0.421
       156 -10.2986     59.2755     43.6655   8.3029305319e+01   6.1262860621e+01    0.2617037    0.2300557 -80.05  0.001528407    1.832    0.454
       157 -10.8416      6.3091     43.0669   1.0627132572e+02   6.6592626771e+01    0.3347623    0.2561049  55.85  0.002034447    2.018    0.505
       158  -9.9871    107.2309     42.5449   6.6066345082e+01   5.2638276366e+01    0.2756045     0.210843  76.23  0.001351417    1.868    0.465
       159 -10.6178     71.0701     42.7431   7.8089897502e+01   5.9584778752e+01    0.4607052    0.2467363  50.91  0.002014717    2.592    0.614
       160 -10.4589     38.1123     41.5307   9.1169471073e+01   6.4342783319e+01    0.3045205    0.2124832  45.35  0.001533028    2.080    0.519
       161 -10.1207     97.1035     39.2343   6.7804286271e+01   5.5272703448e+01    0.2532824     0.203005  67.18  0.001337245    1.651    0.394
       162  -9.9418     82.4828     38.0054   7.2076567518e+01   5.8331121744e+01    0.2808038    0.1807804  62.36   0.00126667    2.502    0.600
       163 -10.9017     27.4648     36.5373   9.4164615303e+01   6.6341267950e+01    0.2610791    0.1944773  43.56  0.001595926    1.970    0.492
       164 -10.0487    113.4934     36.0042   6.1858005965e+01   5.2180994409e+01     0.295252    0.1896842  76.26  0.001255382    2.461    0.594
       165  -9.4229    105.4987     35.4862   6.3854830810e+01   5.4026178556e+01    0.1401698     0.129681  18.00 3.996124e-05    1.053    0.050
       166 -10.4378     62.4019     33.6486   7.7688630514e+01   6.2463001908e+01     0.392923    0.2123411  49.66  0.001801479    2.584    0.613
       167 -10.5554     50.9230     33.6929   8.2435503548e+01   6.4146405639e+01    0.2904186    0.2198659  60.78  0.001551844    2.457    0.593
       168 -10.2534     74.3042     32.3940   7.2635215838e+01   6.0661346948e+01    0.3850532    0.1645994  51.27  0.001514546    3.081    0.675
       169 -10.7152     13.8133     31.0210   9.8751039119e+01   6.8477993168e+01     0.328243    0.2593711  87.18  0.002019519    2.349    0.574
       170  -9.8247    103.2429     30.4205   6.2502983169e+01   5.5192744222e+01    0.2689555    0.1226967  48.86  0.001136236    2.021    0.505
       171  -9.6563    121.0518     34.0000   5.9172756791e+01   5.0710263327e+01     0.241995   0.07711498  55.88 0.0008085189    2.985    0.665
       172 -10.3904     83.1041     28.7679   6.8024368768e+01   5.9545671632e+01    0.3624866    0.2528927  75.53  0.001646524    2.837    0.647
       173 -10.5520      4.4535     28.1943   1.0250374314e+02   6.9595539945e+01    0.2063275    0.1709585  62.07  0.001324216    2.024    0.506
       174 -10.2283     93.3500     27.5787   6.4252490519e+01   5.7656072884e+01     0.325298    0.2294473 -86.58  0.001412197    3.047    0.672
       175 -10.3914     64.8128     21.6147   7.1421428026e+01   6.3818176735e+01     0.302558    0.2265949  60.87  0.001664178    2.109    0.526
       176 -10.7380     50.4740     22.1935   7.7539179019e+01   6.5993873691e+01    0.3943553    0.1706173  44.84  0.001753557    2.927    0.658
       177  -9.8740     20.7174     22.1341   9.1700055865e+01   6.9503668650e+01    0.1623829    0.1326925  76.82 0.0009494471    2.781    0.640
       178 -10.4255     75.6926     20.4179   6.6901422726e+01   6.2033483267e+01    0.4163549    0.1960427  54.58  0.001798496    2.659    0.624
       179  -9.2298     12.3040     21.6624   9.5912545997e+01   7.0272052719e+01     0.097452   0.09143014 -69.65 0.0006495846    1.671    0.401
       180  -9.2069     34.3442     22.6742   8.5135505995e+01   6.8020287210e+01    0.1036893      0.10037 -73.59 0.0005509793    1.741    0.426
       181  -9.7296     89.1783     18.3877   6.1629817133e+01   5.9625223619e+01    0.1838425    0.1241036  59.95 0.0009528638    1.730    0.422
       182  -9.9677     31.7624     16.9070   8.3712876894e+01   6.9208678554e+01    0.1935493    0.1577984  49.06  0.001230412    2.091    0.522
       183  -9.6022     98.5002     16.0074   5.7942614263e+01   5.7913136448e+01     0.179025    0.1036513 -47.49 0.0008093226    2.442    0.590
       184  -9.6266      8.5047     15.9824   9.5590705823e+01   7.1520220790e+01    0.1368774   0.09858343 -69.71 0.0008095361    2.488    0.598
       185  -9.7169     18.1500     14.4049   8.9579540736e+01   7.0998046927e+01    0.1435815    0.1001875  27.79  0.000941017    1.717    0.418
       186  -9.9104     40.8678     12.8938   7.7360317102e+01   6.8640082542e+01    0.1974194    0.1376801  -6.43  0.001234296    1.221    0.181
       187 -10.1089    165.6657    249.3267   1.0008713863e+02   5.1494623848e-01    0.1186838   0.08613165  58.44 0.0007051572    1.717    0.418
       188  -9.5746     48.4847     10.4855   7.2717193794e+01   6.7859584544e+01    0.1238086   0.09918302   1.59 0.0001423897    1.047    0.045
       189 -10.2286    246.2774    247.5750   8.5079781751e+01  -1.0892615294e+01    0.2108064   0.09197371  36.84  0.001140499    2.111    0.526
       190 -10.7762    162.5795    225.6140   9.7302155791e+01   4.6822334570e+00    0.4196707    0.2318689  25.15  0.002012351    1.987    0.497
       191 -10.5597     99.2757    226.1580   1.1030192309e+02   1.4634330883e+01    0.3143828    0.1678592  33.85  0.001603779    1.858    0.462
