#   1 NUMBER                 Running object number                                     
#   2 MAG_AUTO               Kron-like elliptical aperture magnitude                    [mag]
#   3 X_IMAGE                Object position along x                                    [pixel]
#   4 Y_IMAGE                Object position along y                                    [pixel]
#   5 X_WORLD                Barycenter position along world x axis                     [deg]
#   6 Y_WORLD                Barycenter position along world y axis                     [deg]
#   7 A_WORLD                Profile RMS along major axis (world units)                 [deg]
#   8 B_WORLD                Profile RMS along minor axis (world units)                 [deg]
#   9 THETA_WORLD            Position angle (CCW/world-x)                               [deg]
#  10 FWHM_WORLD             FWHM assuming a gaussian core                              [deg]
#  11 ELONGATION             A_IMAGE/B_IMAGE                                           
#  12 ELLIPTICITY            1 - B_IMAGE/A_IMAGE                                       
         1 -13.9395    182.2823     41.4060   6.0838387509e+01   3.4331137761e+01     1.308403    0.9687434   7.56  0.001741669    1.681    0.405
         2 -14.1391    191.8605     33.6219   5.6891049187e+01   3.2848593386e+01     1.444614     1.160203 -20.74  0.003140295    1.318    0.241
         3 -14.8508    201.3731     21.8698   5.2043448361e+01   3.1786384536e+01     2.270496     1.536798  19.85  0.002108682    1.976    0.494
         4 -12.9200     32.4094     16.1687   9.4195167930e+01   6.8420440394e+01    0.6861436    0.1878408 -37.54  0.002742661    3.236    0.691
         5 -11.1293     49.9963      6.9873   8.2251245989e+01   6.7635971092e+01    0.1699881    0.1475545 -48.89  0.000540444    1.696    0.411
         6 -10.5706    190.6652    217.2238   1.0096459731e+02   2.9937728614e+00     0.172266    0.1310773  43.42 0.0006723279    1.129    0.114
         7 -16.4346     71.6171    151.0195   1.1515827788e+02   3.5347865296e+01     16.45541     7.779932  85.50    0.0570056    4.332    0.769
         8 -10.5872    144.9099    179.1990   1.0361822000e+02   1.7420457524e+01    0.2416688    0.1819264 -14.79  0.001238358    2.054    0.513
         9  -9.8041    196.6864    175.5534   9.2661919075e+01   8.0416134598e+00    0.2419145     0.181962 -70.86  0.001021663    2.070    0.517
        10 -11.5328    194.7573    168.1219   9.1576091100e+01   9.6269466625e+00    0.7344633    0.4279085 -57.23  0.003152455    2.615    0.618
        11  -9.3934    164.5906    206.2664   1.0405902099e+02   9.1965557662e+00    0.1525527    0.1231514 -29.68  0.000769201    1.544    0.352
        12 -10.7508    139.7401    173.9904   1.0381185953e+02   1.9360156767e+01    0.1919357    0.1570273  75.67 0.0005056179    1.284    0.221
        13 -11.3576    137.2107    170.8675   1.0381123166e+02   2.0430638073e+01    0.3463545    0.2450981  24.87  0.001481986    1.837    0.456
        14  -9.7609    179.9370    192.3310   9.8915426469e+01   8.5863365839e+00    0.1987134    0.1843566 -77.21 0.0005196776    1.308    0.236
        15 -10.8011    145.7450    168.4077   1.0158171496e+02   1.9295946045e+01    0.2460427    0.2274462 -26.89 0.0006035216    1.264    0.209
        16 -12.4560    194.1828    195.0731   9.6707447750e+01   5.5128434516e+00    0.9509043    0.6071655 -63.83  0.004501834    2.802    0.643
        17 -19.0659      8.3713    159.5718   1.2963880382e+02   4.0321155323e+01     16.54442     2.678156 -78.30   0.05143065    6.364    0.843
        18  -9.3187    154.4348    196.5380   1.0450523811e+02   1.2604389921e+01    0.1298472    0.1122665  49.24 6.330793e-05    1.009    0.009
        19 -10.5513    141.2001    158.1049   1.0066355520e+02   2.2185235955e+01    0.2430638    0.2012811  68.25 0.0004363548    1.228    0.186
        20 -10.4769    189.1661    155.1000   9.0001618004e+01   1.2979814377e+01    0.3329497    0.2646321  80.69  0.001679979    1.721    0.419
        21 -11.2694    133.6606    144.2768   9.9649524507e+01   2.6474842810e+01     1.075946    0.2818262 -55.07    0.0028127    5.454    0.817
        22  -9.1700    113.3868    151.2170   1.0560805987e+02   2.8768774317e+01    0.1923958    0.1262645 -69.66  0.000669351    1.652    0.395
        23 -10.6166    174.3793    148.4618   9.1605150899e+01   1.7290992887e+01    0.3530394     0.287049 -60.17  0.001443253    1.414    0.293
        24 -10.6365    144.0099    146.8373   9.7832504523e+01   2.3900758360e+01    0.3268201    0.2452842 -78.59  0.001601735    1.654    0.395
        25 -11.1590    105.7448    141.5415   1.0563029748e+02   3.2188901567e+01    0.5177503    0.3335309 -32.12  0.002339471    2.335    0.572
        26 -12.2519     93.5839    141.9677   1.0860010078e+02   3.4105650553e+01    0.2641856    0.2363458 -59.01 0.0004877405    1.181    0.153
        27  -9.3126    128.4835    139.4938   9.9871695176e+01   2.8485384887e+01    0.1433401    0.1362004  80.39 0.0008104176    1.008    0.008
        28 -11.3160    207.0148    182.4787   9.2041582228e+01   4.9811032919e+00    0.3798771    0.2757538 -52.89  0.001816208    1.834    0.455
        29 -10.8927    114.0260    131.4208   1.0165578396e+02   3.2945224885e+01    0.6716631    0.3074875  33.90   0.00172102    2.820    0.645
        30 -11.6554    119.3258    124.9723   9.8979774338e+01   3.3372057518e+01    0.8327606    0.4096044 -31.20  0.002643847    4.063    0.754
        31 -10.5651    106.0571    130.7864   1.0347893398e+02   3.4507136354e+01    0.3168693    0.2727194 -85.30  0.001146623    1.145    0.127
        32 -11.3821    135.3121    122.1702   9.4448471895e+01   3.0813441885e+01    0.6411032    0.1287338 -48.62   0.00158802    5.241    0.809
        33 -11.0711    101.2705    127.7850   1.0406238282e+02   3.5999816713e+01    0.2778967    0.2197203 -36.00 0.0005419362    1.493    0.330
        34 -10.1417    160.6923    127.5593   8.9844750436e+01   2.4287356549e+01    0.2694153    0.1869989 -64.14  0.001188867    1.808    0.447
        35  -9.7024    125.4464    127.2102   9.7978398845e+01   3.1708483403e+01    0.2073007    0.1369303 -63.96 0.0009388527    1.682    0.405
        36  -9.9654    109.2947    119.9955   1.0039107550e+02   3.6328532746e+01    0.2198985    0.1970918  55.08 0.0003154406    1.142    0.125
        37 -12.2266     23.8747    110.6986   1.2126139980e+02   4.9626518708e+01    0.4498426    0.1923993 -56.24  0.001669846    1.965    0.491
        38  -9.1171    145.1148    129.3744   9.3805453853e+01   2.7264225199e+01    0.2016021    0.1361763  58.56 0.0003441259    1.600    0.375
        39 -11.9688    118.7569    110.2694   9.5707694189e+01   3.6695513089e+01    0.6505761    0.4804256  56.74   0.00320505    1.452    0.311
        40 -10.0525    205.6255    110.0935   7.6199217143e+01   1.7247353689e+01     0.282338    0.2159816  40.88  0.000622006    1.321    0.243
        41 -16.1786     57.0401    204.6747   1.2397553046e+02   2.6283682778e+01     3.175007     2.094378  83.21   0.02160309    1.286    0.222
        42 -10.4042    134.3756    103.6831   9.0080579459e+01   3.4923011530e+01    0.5024323    0.1947691 -43.99  0.001739628    2.534    0.605
        43 -10.7721    211.0789    179.6405   9.0750304044e+01   4.6301325263e+00    0.3897084    0.2729411  -9.58  0.001998529    1.676    0.403
        44 -10.5404    164.0490    215.7226   1.0554635797e+02   7.8416678048e+00    0.1915496    0.1843041 -50.74 0.0007540885    1.267    0.211
        45 -12.2999     75.7926    179.4171   1.1789242694e+02   2.8753406229e+01     0.369013    0.2978152 -38.63  0.002205423    1.849    0.459
        46 -10.5371     81.1556    196.4199   1.1872425057e+02   2.4641883013e+01    0.3899792    0.2662027 -35.59  0.002112927    2.787    0.641
        47 -10.1965    167.8181    112.5517   8.4557059918e+01   2.5649900975e+01     0.381719    0.2705341 -76.46  0.001435076    2.101    0.524
        48  -9.4536    155.4818     79.4871   7.8130435570e+01   3.4937681813e+01    0.1554435    0.1515318  -0.61 0.0008101354    1.026    0.025
        49  -9.7230    182.5931     77.6121   7.1783892381e+01   2.8557103933e+01    0.3779812    0.1845995  49.94  0.001421591    2.029    0.507
        50  -9.6936     65.3786     70.4630   1.0065826051e+02   5.4238133407e+01    0.2890016    0.1266489  39.62   0.00126366    2.605    0.616
        51 -11.4430    162.6761     63.7250   7.1671197986e+01   3.5966884317e+01    0.4131745    0.3044909 -78.69 0.0008747803    1.853    0.460
        52 -10.2271    162.9588     55.9677   6.9139084568e+01   3.7172762154e+01    0.2275987    0.2228656  27.88 0.0003521531    1.008    0.008
        53 -10.2324    173.4914    247.5192   1.0811048491e+02   1.9215143853e+00    0.1861175    0.1153736 -44.39  0.001203543    2.139    0.533
        54 -10.6506    170.1953    239.5913   1.0767498255e+02   3.4607356274e+00    0.1688384    0.1656375 -22.81 0.0004613364    1.316    0.240
        55 -11.5140    183.4359    234.3145   1.0470859237e+02   1.9661190733e+00    0.3910251    0.1480888  48.44  0.001684081    2.314    0.568
        56 -10.3645    170.9811     20.0127   5.5840537788e+01   4.0023536339e+01    0.1752508    0.1704737  57.67 0.0004441752    1.022    0.022
        57 -12.4041     79.4890    174.2652   1.1651365115e+02   2.9289183476e+01    0.4164987    0.3077863  67.36  0.001129603    1.201    0.168
        58 -10.3981    189.8140     15.1180   5.1541230715e+01   3.5588321771e+01     0.222587    0.1889264 -64.01 0.0007412971    1.204    0.169
        59 -10.8202     99.5028    180.7343   1.1320438296e+02   2.4969129049e+01    0.2376323    0.1979632  62.99 0.0005959322    1.066    0.062
