#   1 NUMBER                 Running object number                                     
#   2 MAG_AUTO               Kron-like elliptical aperture magnitude                    [mag]
#   3 X_IMAGE                Object position along x                                    [pixel]
#   4 Y_IMAGE                Object position along y                                    [pixel]
#   5 X_WORLD                Barycenter position along world x axis                     [deg]
#   6 Y_WORLD                Barycenter position along world y axis                     [deg]
#   7 A_WORLD                Profile RMS along major axis (world units)                 [deg]
#   8 B_WORLD                Profile RMS along minor axis (world units)                 [deg]
#   9 THETA_WORLD            Position angle (CCW/world-x)                               [deg]
#  10 FWHM_WORLD             FWHM assuming a gaussian core                              [deg]
#  11 ELONGATION             A_IMAGE/B_IMAGE                                           
#  12 ELLIPTICITY            1 - B_IMAGE/A_IMAGE                                       
         1 -13.5772    158.7771     49.1000   8.5275643001e+01   3.9088480632e+01     1.781612     1.257779  10.91  0.005947563    1.922    0.480
         2 -13.4616    170.3324     32.8616   7.7838188110e+01   3.8170591835e+01     1.028818    0.9173281 -31.94  0.003288123    1.148    0.129
         3 -12.5572    174.3146     25.6714   7.4874400679e+01   3.7946371372e+01    0.6020498    0.4967996  -0.64  0.001604759    1.398    0.285
         4 -12.3821    186.6542      2.5708   6.6037004223e+01   3.6936365441e+01    0.8099999     0.351831  77.41  0.003079848    2.209    0.547
         5 -10.7610     12.9311    243.8779   1.5301031549e+02   2.5478914699e+01    0.1043432   0.04230996 -86.00 0.0006532945    2.610    0.617
         6 -19.6388     57.3967    157.4391   1.3864773322e+02   3.6888331896e+01     18.28404     4.377916 -72.10   0.05989351    4.790    0.791
         7 -12.0735    121.9858    210.6664   1.2945544192e+02   1.7570893058e+01    0.3032213    0.2644628   1.04  0.002122695    1.450    0.310
         8  -9.9705    165.3758    208.1893   1.2044853531e+02   1.1234155896e+01    0.2208888    0.1365256  36.14 0.0005548613    1.256    0.204
         9 -10.9941     11.5617    205.8733   1.5229126248e+02   3.1980253236e+01    0.2407402    0.1659748  36.71  0.001232678    1.373    0.272
        10 -11.3036    130.0612    206.1521   1.2725242426e+02   1.7050755290e+01    0.3122716    0.1558629  34.79  0.001328525    1.653    0.395
        11 -10.5821    143.2596    200.1062   1.2374510417e+02   1.5914516903e+01    0.3732919    0.1472722  49.26  0.001582553    2.655    0.623
        12 -12.7789    196.3590    195.7798   1.1276097121e+02   7.9604481309e+00    0.5938867    0.3937266  37.88  0.001911411    1.302    0.232
        13 -11.3048    188.5789    186.5670   1.1269798210e+02   1.0422466488e+01    0.4226426    0.3578867 -51.00  0.002456664    1.670    0.401
        14 -11.2322    135.4930    196.1293   1.2482619147e+02   1.7786162181e+01    0.3375465    0.2390026  72.93  0.001560242    2.007    0.502
        15 -10.5195    157.7700    242.4249   1.2613523934e+02   7.9898335046e+00    0.1652288   0.07947135  30.85 0.0008080447    1.651    0.394
        16 -11.1439    180.3624    194.0371   1.1546658782e+02   1.0763640611e+01    0.3603498    0.2747132 -79.15  0.001981905    2.708    0.631
        17  -9.1654    159.3007    194.6786   1.1970205440e+02   1.4129482224e+01    0.1197079   0.09101062  59.85 0.0003453528    1.627    0.385
        18 -11.2539    207.6992    185.4745   1.0901811634e+02   7.4343894614e+00    0.3453613     0.207588  22.20  0.001413898    1.554    0.357
        19 -11.2953    212.0768    181.7630   1.0760706671e+02   7.1877378942e+00    0.2947651    0.1903572  18.15   0.00107052    1.443    0.307
        20 -11.7691     37.6306    183.7062   1.4565839115e+02   3.3667387229e+01    0.2587276    0.1857664  43.38 0.0007169826    1.210    0.173
        21  -9.7417    223.9817    183.9991   1.0596162002e+02   5.0385649245e+00      0.14536     0.112219  16.80            0    1.018    0.017
        22  -9.3555    157.4675    184.4688   1.1851426510e+02   1.5987966091e+01    0.1310851    0.1076053  35.07 0.0001156043    1.025    0.024
        23  -9.9703     18.5349    236.5453   1.5182153593e+02   2.6109931119e+01   0.09956456   0.07205276  52.60 0.0008055749    1.110    0.099
        24 -10.9611    198.7548    178.3501   1.0939696792e+02   9.8207503913e+00    0.2728157    0.2492243 -33.25 0.0008989636    1.415    0.293
        25  -9.2003    145.3289    178.3238   1.2011597658e+02   1.9068448052e+01    0.1326761   0.09676787  10.63 0.0007049681    1.697    0.411
        26  -9.4070      3.7628    176.1352   1.5309818354e+02   3.8304200161e+01   0.09532666   0.05366479  47.75            0    1.369    0.270
        27  -9.9216    179.2480    174.5920   1.1245416402e+02   1.3706469089e+01    0.1899499     0.105687  32.41  0.000946736    1.617    0.382
        28 -10.8058    139.5153    173.4992   1.2062540794e+02   2.0903348897e+01    0.2653343    0.1796401  67.79  0.001149676    2.050    0.512
        29 -10.9367    137.3303    170.6768   1.2066042926e+02   2.1782192999e+01    0.2586084    0.2008997  35.99 0.0009905895    1.120    0.107
        30 -10.8154    144.9919    168.2282   1.1854084789e+02   2.0849532034e+01    0.3914527    0.1845143  45.76  0.001558493    1.895    0.472
        31  -9.6459    225.3015    166.6633   1.0261491667e+02   6.8838958753e+00    0.1055889    0.1005664 -65.06  0.000341181    1.663    0.399
        32 -11.0540    103.2375    162.2639   1.2744204437e+02   2.9210373389e+01    0.2379826    0.2128829  45.80 0.0003034992    1.077    0.071
        33 -11.4995     25.0333    156.6537   1.4706958288e+02   4.0568091124e+01    0.5000556    0.2004491  36.91  0.002527322    2.071    0.517
        34 -11.2580    133.9673    145.7155   1.1705185603e+02   2.7034579984e+01    0.8567128    0.2339636 -53.42  0.002474008    5.105    0.804
        35  -9.6063    174.7992    148.8612   1.0851309084e+02   1.8521663801e+01    0.1832305    0.1617264  61.51 0.0005298605    1.339    0.253
        36 -11.9739     13.5717    142.0414   1.4926819442e+02   4.4774411992e+01    0.3743031    0.1870354  31.03  0.001624333    1.928    0.481
        37 -12.2118      2.8027    126.2634   1.5152073666e+02   4.9102446317e+01     1.887603    0.3261138 -89.08  0.005263236    6.707    0.851
        38 -11.8339      6.6376    143.9266   1.5123964339e+02   4.4873602701e+01    0.3813274    0.3116613 -24.43  0.001488582    1.750    0.428
        39 -10.4702      2.5574    141.5365   1.5223560641e+02   4.5684426309e+01    0.2090867    0.1622218  73.78 0.0007041997    1.025    0.024
        40 -11.8355    104.5096    140.1811   1.2354378864e+02   3.3595985030e+01    0.3209267    0.2481212  47.88 0.0003524476    1.166    0.142
        41 -11.7614    114.6787    140.1642   1.2085104866e+02   3.1774214952e+01    0.4663266    0.2648314 -42.62  0.002077037    2.104    0.525
        42 -11.0437    105.8374    130.6093   1.2140442825e+02   3.5428985178e+01    0.3703202    0.3162299 -81.16  0.001183272    1.257    0.205
        43 -10.6915    108.1750    126.7613   1.1999456624e+02   3.5837945971e+01    0.2909664    0.2612448  -8.26 0.0006027987    1.360    0.265
        44 -10.8348    119.4498    130.3590   1.1767795001e+02   3.2929085255e+01    0.2891848    0.2666172  18.60 0.0008190398    1.188    0.158
        45 -11.2548    126.6207    128.1088   1.1533141427e+02   3.1989113317e+01    0.6231356    0.3235835  64.27  0.002079492    3.459    0.711
        46 -10.9811    186.5301    220.9691   1.1828201646e+02   6.4009598352e+00    0.1909519    0.1214144  32.08 0.0009212699    1.177    0.151
        47 -12.4563     91.1843    122.3437   1.2398664423e+02   3.9862927453e+01    0.4591891    0.4089467 -82.87  0.001335924    1.132    0.117
        48 -10.8225    135.7527    122.6215   1.1178936528e+02   3.1240317136e+01    0.4869664    0.2556938 -58.57  0.001876059    2.558    0.609
        49  -9.9630    113.3942    119.1339   1.1693050692e+02   3.6500977233e+01    0.2467439    0.1960557  34.10 0.0004236984    1.280    0.219
        50 -11.6116      5.1598    112.1212   1.5005675428e+02   5.2242489083e+01    0.4198918    0.2280687   6.97  0.001859297    2.457    0.593
        51 -10.7389    171.2140    116.9589   1.0222427035e+02   2.4648379730e+01    0.3895054     0.278546 -85.65  0.001154228    2.429    0.588
        52  -9.7571      1.4974    145.5437   1.5266621223e+02   4.4875883279e+01    0.1899677    0.1450192 -83.17 0.0005141757    1.265    0.209
        53  -9.9603    205.4165    110.1065   9.4000228782e+01   1.8322888430e+01     0.246067    0.1811319  36.83 0.0006773911    1.341    0.254
        54 -10.6884     94.6719    110.1472   1.2040726326e+02   4.2042267959e+01    0.2840311    0.2150394  34.49 0.0006911709    1.361    0.265
        55 -11.0132    157.8544    219.1580   1.2335547127e+02   1.0911450370e+01    0.1809779    0.1342319  44.56 0.0006026735    1.258    0.205
        56 -11.3759    119.0906    214.4574   1.3047334637e+02   1.7408446008e+01    0.2908826    0.2070635  73.46  0.001093675    1.801    0.445
        57  -9.4428     13.5067     59.8919   1.4149766174e+02   6.4404045968e+01    0.1891888    0.1083654 -73.71 0.0004199579    1.497    0.332
        58 -10.7187     18.8293    249.1996   1.5210584468e+02   2.4112281698e+01     0.210835   0.09669343  34.02  0.001264994    1.760    0.432
        59  -9.5671    160.6783    248.6857   1.2630110507e+02   6.8590113239e+00    0.1083804   0.06802366  17.73 0.0005112487    1.658    0.397
        60 -11.0651     20.0597    243.2717   1.5173194808e+02   2.4904367131e+01    0.2690827    0.1854442  27.85  0.002102993    1.650    0.394
        61  -9.9753    134.6818     30.1222   8.3258547637e+01   4.8336584977e+01    0.2672037    0.2047641  79.85 0.0006935077    1.379    0.275
        62 -10.8762    189.8271     15.0777   6.9631966445e+01   3.4899205963e+01    0.2373705    0.1789352 -57.15  0.001000419    1.281    0.220
