#   1 NUMBER                 Running object number                                     
#   2 MAG_AUTO               Kron-like elliptical aperture magnitude                    [mag]
#   3 X_IMAGE                Object position along x                                    [pixel]
#   4 Y_IMAGE                Object position along y                                    [pixel]
#   5 X_WORLD                Barycenter position along world x axis                     [deg]
#   6 Y_WORLD                Barycenter position along world y axis                     [deg]
#   7 A_WORLD                Profile RMS along major axis (world units)                 [deg]
#   8 B_WORLD                Profile RMS along minor axis (world units)                 [deg]
#   9 THETA_WORLD            Position angle (CCW/world-x)                               [deg]
#  10 FWHM_WORLD             FWHM assuming a gaussian core                              [deg]
#  11 ELONGATION             A_IMAGE/B_IMAGE                                           
#  12 ELLIPTICITY            1 - B_IMAGE/A_IMAGE                                       
         1 -14.8726    156.2701     51.6756   8.1479975863e+01   3.9630602816e+01     1.149597     1.094451 -21.78  0.003413864    1.121    0.108
         2 -15.1732    167.5354     22.4348   7.0921967304e+01   4.0649904156e+01     1.028779    0.8853854  70.20  0.003488803    1.037    0.036
         3 -14.1468    190.8564     14.6303   6.5553013504e+01   3.5807915689e+01    0.7820483    0.4233794 -79.24   0.00332337    2.332    0.571
         4 -11.0528     27.4644    226.5765   1.4656669283e+02   2.4473407990e+01    0.1542697   0.08790514 -85.11 0.0003028967    1.444    0.308
         5 -13.0032    190.4729    249.1578   1.1897016867e+02  -4.7801006835e+00    0.4181433    0.3237539  32.22 0.0008566536    1.086    0.079
         6 -13.6643    187.3544    241.6559   1.1840545548e+02  -3.1407146381e+00    0.5407521    0.2643658  42.26  0.001822889    1.741    0.426
         7 -13.8572    186.8016    236.4776   1.1769753412e+02  -2.2478457641e+00    0.6486999     0.390585  65.48    0.0028923    2.889    0.654
         8 -20.5497     85.6257    179.7225   1.2995736136e+02   2.6871559206e+01     15.62454     6.854747 -63.10   0.06624098    2.197    0.545
         9 -10.8994     22.6290    184.8560   1.4407284115e+02   3.3719499065e+01    0.1637121    0.1356977 -89.18 0.0006403235    1.138    0.121
        10 -12.0240    203.3530    174.1112   1.0288634112e+02   5.5163128158e+00     0.751334    0.3230355 -57.69  0.002059976    5.374    0.814
        11 -14.1852    237.6267    174.2917   9.6391936330e+01  -1.1548720421e+00    0.8026839    0.4716018  46.34  0.003883911    1.823    0.451
        12 -12.5275    194.6055    171.9654   1.0421019853e+02   7.7106976103e+00    0.5572973    0.3664275 -58.82  0.001953279    1.903    0.474
        13 -11.9002    192.4027    165.0941   1.0319707677e+02   9.5194156851e+00    0.4413599     0.328394 -67.65  0.002064098    1.738    0.425
        14 -12.5038    224.3144    173.1777   9.8612759163e+01   1.5461188216e+00    0.2947878    0.2429848 -46.96 0.0008493051    1.301    0.231
        15 -12.8483    162.6576    167.9117   1.1019667510e+02   1.5192254978e+01    0.3961164    0.2727182  48.03  0.001115869    1.425    0.298
        16  99.0000      6.4097    224.4870   1.4994662260e+02   2.7108117103e+01    0.1895746   0.08952446  72.95 0.0005910281    1.773    0.436
        17 -10.7038      6.2801    220.7422   1.4974183042e+02   2.7855786767e+01    0.1507559    0.1066293 -77.01 0.0006424375    1.351    0.260
        18 -13.1091    189.1727    154.5747   1.0155459222e+02   1.2321175465e+01    0.6318724     0.544232  20.31  0.002405176    1.267    0.211
        19 -12.9369    167.0548    155.5905   1.0657117901e+02   1.6892429107e+01    0.4420919    0.3297288  85.24  0.001156563    1.837    0.456
        20 -11.4967     23.3092    155.8584   1.4095283885e+02   4.0143759131e+01    0.2835221    0.2056877 -39.48  0.001147916    1.789    0.441
        21 -12.3332    148.6140    156.0987   1.1088502614e+02   2.0698918286e+01    0.3823571    0.1849571 -50.96 0.0009989957    2.111    0.526
        22 -12.6629    174.1150    148.6073   1.0343703070e+02   1.6843853078e+01     0.510812    0.3532693 -59.66  0.001478306    1.647    0.393
        23 -12.1815    207.5182    220.3875   1.1102167643e+02  -3.3420928020e+00    0.2381528    0.2141529  14.07  0.000569497    1.044    0.042
        24  -9.9155     13.5042    142.4651   1.4166507553e+02   4.4024515048e+01    0.1207388   0.09279956 -76.45  3.44003e-05    1.006    0.006
        25 -11.9729    151.9507    238.9364   1.2476684065e+02   3.4450660154e+00    0.4277404     0.298849 -21.84  0.002071227    2.287    0.563
        26 -10.4491    217.0000    214.9361   1.0823472177e+02  -4.1426801608e+00    0.2040041    0.0735431 -39.73 0.0008018888    2.939    0.660
        27 -11.0621     14.8315    133.1039   1.4019990886e+02   4.6035930963e+01    0.3132982    0.1387116 -42.94   0.00149841    2.709    0.631
        28 -13.2818    160.5217    127.9325   1.0159376297e+02   2.4304172014e+01    0.5531857    0.3959315 -58.65  0.001758973    1.517    0.341
        29  -9.8617      8.6492    130.7443   1.4142836241e+02   4.7027441942e+01    0.1131484   0.07409845 -46.06 0.0003370907    1.600    0.375
        30 -11.4378    211.7801    237.2196   1.1310758591e+02  -6.6079182184e+00     0.173276     0.131161  11.17 0.0004309996    1.317    0.241
        31 -10.8361      9.6525    212.7917   1.4866585370e+02   2.9114253731e+01    0.1590479   0.09425836 -81.29 0.0003635335    1.329    0.248
        32 -12.7858     39.1965    115.9133   1.3111297117e+02   4.7810294053e+01      0.42453    0.2791991 -19.11  0.001810824    2.166    0.538
        33 -11.3643    231.3718    113.7699   8.4038976680e+01   1.0965813357e+01    0.2640655    0.2574986 -81.97 0.0007552513    1.075    0.070
        34 -11.5759    167.6133    112.7804   9.6152185722e+01   2.5870974405e+01     0.404059    0.3066879 -84.27  0.001142825    1.721    0.419
        35 -12.8883     12.2336    206.3070   1.4776748296e+02   3.0185997015e+01    0.5235566    0.3055706  42.10  0.003012462    1.837    0.456
        36 -11.1078    205.4092    110.4000   8.7805301941e+01   1.7453959503e+01    0.3222023        0.267  33.05 0.0008714924    1.371    0.270
        37 -11.5651     38.2771    102.3660   1.2877822706e+02   5.0953268865e+01    0.2569201    0.1933187 -20.17  0.001066237    1.572    0.364
        38 -10.7819    222.9802    198.7137   1.0403956029e+02  -2.5895674077e+00    0.1868835    0.1625664  21.06 0.0003620023    1.066    0.062
        39 -11.8082     16.3672    193.4769   1.4603242628e+02   3.2474896290e+01    0.1932826     0.142854 -72.30 0.0005704252    1.291    0.225
        40 -11.2854    142.0254     83.0070   9.3941277920e+01   3.7735908183e+01    0.2306813    0.2254046 -15.01   0.00047349    1.033    0.032
        41 -11.0716     24.0279    190.1542   1.4427596848e+02   3.2422569807e+01    0.1662764    0.1283913 -83.92  0.000350634    1.101    0.092
        42 -11.0338     17.4369    185.4837   1.4515494089e+02   3.4092765235e+01    0.3539252    0.1445556 -65.83  0.001853964    2.007    0.502
        43 -14.6017    146.5182     65.7933   8.7799985860e+01   3.9747462832e+01     1.114996     1.008945  51.38  0.001343663    1.073    0.068
        44 -13.3268    198.8597    246.4093   1.1699085303e+02  -5.7810028549e+00     0.520054    0.3329751  63.35   0.00262171    2.521    0.603
        45 -13.5776    160.4561     42.6625   7.7995283063e+01   3.9887671604e+01    0.4974497    0.4678812 -54.68 0.0008093923    1.124    0.110
        46 -12.8441    237.5170    185.0320   9.8620793626e+01  -2.9369760373e+00    0.3919396    0.1954557  37.76  0.001776211    2.046    0.511
        47 -11.5563     13.4721     59.9564   1.2732705310e+02   6.1773086419e+01    0.1864357    0.1596089 -12.11  0.000421654    1.263    0.208
        48 -10.5002     30.6069    246.4016   1.4740509718e+02   2.0309133931e+01     0.112387   0.07401705  73.20 0.0003301103    1.104    0.094
