#   1 NUMBER                 Running object number                                     
#   2 MAG_AUTO               Kron-like elliptical aperture magnitude                    [mag]
#   3 X_IMAGE                Object position along x                                    [pixel]
#   4 Y_IMAGE                Object position along y                                    [pixel]
#   5 X_WORLD                Barycenter position along world x axis                     [deg]
#   6 Y_WORLD                Barycenter position along world y axis                     [deg]
#   7 A_WORLD                Profile RMS along major axis (world units)                 [deg]
#   8 B_WORLD                Profile RMS along minor axis (world units)                 [deg]
#   9 THETA_WORLD            Position angle (CCW/world-x)                               [deg]
#  10 FWHM_WORLD             FWHM assuming a gaussian core                              [deg]
#  11 ELONGATION             A_IMAGE/B_IMAGE                                           
#  12 ELLIPTICITY            1 - B_IMAGE/A_IMAGE                                       
         1 -16.7268    239.8483     96.5220   8.4485285129e+01   1.2143027093e+01     8.828893     2.039222 -31.71    0.0260136    3.967    0.748
         2  -9.4126    163.6382    151.3092   1.1180162924e+02   1.9447589230e+01    0.1470109    0.1143063  82.94 0.0007040339    1.743    0.426
         3  -9.4520    219.6225    250.2998   1.1859971521e+02  -4.9802632181e+00    0.1032885   0.07898709  54.81 0.0007025728    1.760    0.432
         4  -9.7742    197.5164    247.4993   1.2183014614e+02  -1.2996621533e+00    0.1139359   0.08777565  36.29 0.0004458209    1.069    0.064
         5  -9.8070    178.4566    243.9571   1.2454860342e+02   2.1201408837e+00    0.1364921   0.09953894 -82.14 0.0008088898    2.545    0.607
         6 -10.0787    248.5428    240.5760   1.1251688572e+02  -8.2675399859e+00    0.1867628   0.09016173  47.00 0.0009740164    2.323    0.570
         7  -9.4624    226.6695    240.3362   1.1599307812e+02  -5.0057524339e+00    0.1008187   0.08557595  57.07 0.0007052104    1.732    0.423
         8 -10.3225    220.2383    234.1160   1.1610458001e+02  -3.3395506217e+00    0.2084387    0.1407962  57.44  0.001233797    2.145    0.534
         9 -10.1669    241.0806    233.0004   1.1251217878e+02  -6.4165722492e+00    0.1549653    0.1339224  51.43  0.001029413    1.709    0.415
        10 -10.2709    235.7408    231.8430   1.1319408080e+02  -5.4884023416e+00    0.1806788    0.1590034 -37.84  0.001328768    1.675    0.403
        11 -10.2396    230.1584    228.4285   1.1356524023e+02  -4.2583511240e+00     0.158641   0.09583669  46.11 0.0008735908    1.689    0.408
        12  -9.8317    211.4042    228.2071   1.1667697406e+02  -1.2525625272e+00    0.1408488    0.1119657 -43.77  0.000943553    1.707    0.414
        13  -9.8798    246.4490    221.2408   1.0971279641e+02  -5.9917703994e+00    0.1410714    0.1047342 -32.92 0.0009400298    1.687    0.407
        14 -10.3298    211.0308    218.5699   1.1520852099e+02  -1.4571146124e-02    0.2016495    0.1740318 -56.34  0.001350517    1.708    0.415
        15 -10.3736    249.0226    217.2227   1.0861194250e+02  -5.9526847372e+00    0.1642988    0.1287059  54.46  0.001032849    1.916    0.478
        16 -10.4862    234.1000    216.6754   1.1097041743e+02  -3.5551670217e+00     0.177512    0.1331118  44.58 0.0007968906    1.471    0.320
        17 -10.5049    249.7373    213.1780   1.0779542883e+02  -5.6214646377e+00    0.1928493    0.1421091  38.77  0.001187836    1.402    0.287
        18 -10.8547    242.0291    210.5217   1.0859140250e+02  -4.1129190374e+00    0.3303359    0.2451034 -64.47  0.001747224    3.233    0.691
        19 -10.9525    237.3826    205.1507   1.0841337228e+02  -2.7318144586e+00    0.4515114     0.324075  79.17  0.001994126    4.368    0.771
        20 -11.2665    218.1165    209.8201   1.1251899785e+02  -9.9976103062e-02    0.3789796     0.170329 -35.65  0.001872932    2.490    0.598
        21 -10.4247    225.7727    209.3736   1.1112373393e+02  -1.3272045442e+00    0.2528615    0.1546117 -45.48  0.001382352    2.296    0.564
        22 -10.6910    248.2003    208.0047   1.0713294841e+02  -4.8037407309e+00    0.2273754    0.2037434  -4.34 0.0009347907    1.313    0.238
        23 -10.6812    245.4908    203.4715   1.0676354718e+02  -3.8499785319e+00    0.2832895    0.1778826 -40.00  0.001571216    2.040    0.510
        24 -10.7445    243.5779    198.7716   1.0622213729e+02  -2.9813129356e+00    0.2592799    0.1818403 -40.79 0.0009370716    1.852    0.460
        25  -9.4490    203.3230    209.6478   1.1508760079e+02   2.4488639842e+00    0.1162735   0.09793344  74.40 0.0007047745    1.755    0.430
        26 -10.0735    249.9504    202.1550   1.0579326380e+02  -4.4112426302e+00    0.1682874    0.1536901   6.87 0.0008700629    1.317    0.241
        27 -10.4452    238.1488    200.3833   1.0742417750e+02  -2.2811714820e+00    0.3026602    0.2255076 -52.43  0.001762249    2.189    0.543
        28 -10.6528    230.4253    200.5064   1.0875558542e+02  -1.0032598706e+00    0.2319227    0.1832097  26.30  0.001053315    1.083    0.077
        29 -10.1496    210.5669    200.7590   1.1226754959e+02   2.3893323508e+00    0.1577177    0.1203709 -44.52 0.0009406994    1.653    0.395
        30 -10.6797    243.7456    187.9378   1.0415775355e+02  -1.6752420476e+00    0.3255279    0.1821569 -42.13  0.001381715    2.274    0.560
        31 -12.1650    242.5674    181.3049   1.0306658553e+02  -6.2581806766e-01    0.3933767    0.3480841 -58.70  0.002476614    1.727    0.421
        32 -10.5323    248.3159    196.6495   1.0504706165e+02  -3.5013928828e+00    0.3168275    0.2538341  86.78  0.001724195    2.910    0.656
        33 -10.4505    246.3949    193.1973   1.0471756287e+02  -2.7700052262e+00    0.2374011    0.2044906 -40.79  0.001153314    1.599    0.375
        34 -10.6193    224.6682    198.1713   1.0932329190e+02   2.7836658265e-01    0.1756778    0.1565506 -36.06  0.000949829    1.425    0.298
        35  -9.8388    202.2243    197.8264   1.1324848449e+02   4.2763070193e+00    0.1939676    0.1424453  84.18 0.0009417029    2.777    0.640
        36  -9.9483    215.7594    196.7657   1.1062996971e+02   2.0180781215e+00    0.1584591    0.1479247  52.19 0.0006236299    1.364    0.267
        37  -9.6679    195.6991    196.3414   1.1417903831e+02   5.6651656330e+00    0.1205425    0.1026177  79.78 0.0007037251    1.672    0.402
        38 -10.0891    241.8496    192.5422   1.0534993180e+02  -1.9319383597e+00    0.1902274    0.1629362 -73.38  0.000867572    2.129    0.530
        39  -9.9743    232.9496    191.9779   1.0674966931e+02  -3.4636009809e-01    0.1734059    0.1611959 -85.91 0.0009969296    1.691    0.409
        40  -9.8523    206.1454    191.1726   1.1133442563e+02   4.5204459514e+00    0.1679764    0.1534053  59.20 0.0007949102    1.361    0.265
        41 -11.2264    237.4754    189.0664   1.0542770494e+02  -7.4978002209e-01    0.2554176    0.1998638  63.38  0.001055137    1.975    0.494
        42 -10.2055    229.6480    186.9067   1.0635574539e+02   8.9518458007e-01    0.2218154    0.1524061 -44.64  0.001033607    1.876    0.467
        43 -11.2661    236.4589    182.7822   1.0438808542e+02   2.4529109510e-01    0.4194761    0.3011315  80.74  0.001870892    3.625    0.724
        44 -10.0518    224.9303    184.0153   1.0662186096e+02   2.1270231309e+00    0.1848738    0.1646433 -81.10  0.001116086    1.759    0.431
        45 -11.4771    249.7081    177.9756   1.0122412138e+02  -1.4258272642e+00    0.4385827    0.2054521 -41.81  0.002000183    2.673    0.626
        46  -9.9404    226.0482    179.5309   1.0555068144e+02   2.5457290850e+00    0.1905994    0.1191313  42.85 0.0005868183    1.528    0.346
        47 -10.9901    232.4922    174.4355   1.0341366166e+02   2.0819186856e+00    0.3472937     0.261848  87.28  0.001667361    2.902    0.655
        48 -11.1121    249.1605    168.8320   9.9467143007e+01  -1.4223240116e-01    0.3200755    0.1822058 -36.22  0.001211085    1.826    0.452
        49 -11.5818    244.5093    169.5376   1.0038006334e+02   5.8679483363e-01    0.2385411     0.169202 -42.43 0.0008952347    1.715    0.417
        50 -11.2602    234.2870    164.8464   1.0113882274e+02   3.0945546412e+00     0.265995    0.1614581 -39.08  0.001347562    1.781    0.438
        51  -9.4828    220.3056    165.6011   1.0375091165e+02   5.6269626038e+00    0.1311255    0.1088737 -70.08 0.0006999802    1.837    0.456
        52 -10.2514    233.7880    247.4910   1.1591436860e+02  -6.7968306314e+00    0.1595645    0.1383414  27.03 0.0007900029    1.331    0.249
        53 -10.3274    173.6180    129.1610   1.0468135510e+02   2.1494533373e+01    0.2194392    0.1407408 -27.51 0.0009551242    1.757    0.431
        54 -10.1006    153.6762    129.3218   1.0905331103e+02   2.5780098573e+01    0.1511737    0.1192375 -87.88 0.0007046667    1.680    0.405
        55 -10.7105    137.0000    126.0266   1.1210789283e+02   2.9922780195e+01    0.2464531   0.08325493 -45.58 0.0008038412    2.952    0.661
        56 -10.3058    181.6118    125.2224   1.0206592927e+02   2.0454239619e+01     0.213975    0.1418721 -26.40 0.0009506665    1.649    0.394
        57 -10.1183    117.0000    145.9868   1.2109329261e+02   2.9576941588e+01     0.229965    0.0779818 -51.77 0.0008036121    2.951    0.661
        58 -10.2647    157.5651    120.2961   1.0599605024e+02   2.6718648504e+01    0.2906432    0.1434904 -46.02  0.001126307    2.079    0.519
        59  -9.9791    162.3619    118.1657   1.0439974755e+02   2.6074009044e+01    0.2190069    0.1377852 -49.81 0.0007344279    1.705    0.414
        60 -10.4587    148.3837    143.2518   1.1338222527e+02   2.4114314747e+01    0.2029401    0.1367239 -55.62 0.0009309303    1.630    0.387
        61 -10.5405    195.5144    112.5167   9.6117056431e+01   1.9573215629e+01    0.1498168    0.1443111  -5.91 6.535456e-05    1.014    0.014
        62  -9.6967    167.3052    139.6838   1.0847443550e+02   2.0876547742e+01    0.1454415    0.1180431 -86.82 0.0004298864    1.625    0.385
        63 -10.0733    134.7585    115.9962   1.1021961419e+02   3.2454330055e+01    0.2038843    0.1240821 -44.69 0.0008874242    1.621    0.383
        64 -10.0423    133.5120    108.5047   1.0861892173e+02   3.4256102291e+01    0.1482965    0.1453137 -38.65 0.0008105534    1.004    0.004
        65 -10.7842    142.0000    105.0521   1.0565962432e+02   3.3145928820e+01    0.2551089   0.08518555 -41.87 0.0008034091    2.949    0.661
        66  -9.9503    162.2848    101.3394   1.0000251130e+02   2.9307854234e+01    0.1566486    0.1208275   4.60 0.0004005776    1.633    0.387
        67 -10.7759    135.3655     97.1954   1.0512539925e+02   3.6153769765e+01    0.2240569    0.1369428 -50.27 0.0009510495    1.713    0.416
        68 -10.2620    146.3051     96.6603   1.0234612484e+02   3.3849742241e+01    0.1559068    0.1217324 -75.68 0.0004919023    1.678    0.404
        69 -10.2177    138.4791    143.4973   1.1565495122e+02   2.6043460516e+01    0.1422874    0.1377405  69.82  1.99843e-05    1.011    0.011
        70  -9.7788    155.4592    135.5061   1.1009271095e+02   2.4183914397e+01    0.1450986    0.1428804  58.07 0.0001189107    1.027    0.026
        71  -9.8867    182.6156    134.2144   1.0401793315e+02   1.8596829910e+01    0.2076344    0.1397168 -26.80 0.0009459767    1.621    0.383
        72  -9.7007    164.6583    134.3155   1.0780945051e+02   2.2462469166e+01    0.1506034    0.1192607 -89.29 0.0007048104    1.708    0.415
        73 -10.7375    142.7552     81.0033   9.8637079989e+01   3.7629607559e+01    0.2090278    0.1273816 -37.12 0.0008884261    1.609    0.379
        74  -9.4445    178.6594    131.3247   1.0414660246e+02   1.9988014026e+01    0.1507888    0.1203267 -83.62 0.0007051141    1.728    0.421
