#   1 NUMBER                 Running object number                                     
#   2 MAG_AUTO               Kron-like elliptical aperture magnitude                    [mag]
#   3 X_IMAGE                Object position along x                                    [pixel]
#   4 Y_IMAGE                Object position along y                                    [pixel]
#   5 X_WORLD                Barycenter position along world x axis                     [deg]
#   6 Y_WORLD                Barycenter position along world y axis                     [deg]
#   7 A_WORLD                Profile RMS along major axis (world units)                 [deg]
#   8 B_WORLD                Profile RMS along minor axis (world units)                 [deg]
#   9 THETA_WORLD            Position angle (CCW/world-x)                               [deg]
#  10 FWHM_WORLD             FWHM assuming a gaussian core                              [deg]
#  11 ELONGATION             A_IMAGE/B_IMAGE                                           
#  12 ELLIPTICITY            1 - B_IMAGE/A_IMAGE                                       
         1 -10.5395     60.9109    210.0318   1.3009410153e+02   2.4896428208e+01    0.2261309    0.1483785  66.22 0.0004182484    1.263    0.208
         2 -21.2872    154.1213    160.4415   1.0405903975e+02   1.9242002289e+01     10.41327      9.48713  68.60    0.0491157    1.075    0.070
         3  -9.6991     52.9861    209.2467   1.3141448793e+02   2.6049499101e+01     0.148414    0.1110393  67.95 0.0002069082    1.105    0.095
         4 -15.7076     10.3154    196.3891   1.3771403022e+02   3.3107537713e+01     6.376415     1.070848 -74.45   0.02433494    4.891    0.796
         5 -12.2017     53.2511    191.8701   1.2974386429e+02   2.9397038473e+01    0.3742543    0.2042025  73.65  0.001380464    1.850    0.459
         6  -9.4622     41.7854    194.8437   1.3212902507e+02   3.0165496271e+01     0.211692    0.1030097  63.59 0.0006317571    1.962    0.490
         7  -9.7843     59.1840    192.4655   1.2869109534e+02   2.8536842872e+01    0.1858417    0.1187308  56.56 0.0005381579    1.407    0.289
         8  -9.2848    102.0196    246.2675   1.2649712915e+02   1.2667949849e+01    0.1387325    0.1051184  64.89 0.0003132852    1.020    0.020
         9  -9.9023     48.9603    184.0977   1.2977549374e+02   3.1476985990e+01    0.1795249    0.1421444  66.40 0.0004676924    1.167    0.143
        10 -11.0676    227.8258    232.5761   1.0274374408e+02  -6.6081076216e+00    0.3799716    0.2382889   6.86  0.001172664    2.009    0.502
        11 -11.4401     57.2068    180.5590   1.2780063970e+02   3.1198072464e+01    0.2792733    0.2435216  -5.41  0.001388758    1.920    0.479
        12  -9.8013    250.3068    232.5536   9.8895133386e+01  -1.0281704578e+01    0.1862444    0.1466541 -12.91  0.000643033    1.323    0.244
        13  -9.4628     39.6702    175.9117   1.3074114408e+02   3.4204503377e+01    0.1628825    0.1156117 -86.85  0.000429499    1.136    0.119
        14  -9.5661     33.9057    167.1766   1.3099384259e+02   3.6617496687e+01    0.1656026    0.1225778  83.30 -0.000430966    1.121    0.108
        15 -11.2146     93.0202    244.6784   1.2783148765e+02   1.4268979879e+01    0.1651723    0.1323065  79.50 0.0003946398    1.156    0.135
        16  -9.0911    243.4919    240.5024   1.0135044389e+02  -1.0082835882e+01    0.1176316   0.09183658  25.80 -7.801905e-05    1.050    0.047
        17 -10.4668    227.1266    239.3056   1.0394311727e+02  -7.2954706106e+00    0.3183043    0.1803181  24.84  0.001525719    1.761    0.432
        18  -9.7871     43.0249    149.1082   1.2704026790e+02   3.9475519679e+01     0.171924    0.1403764 -82.85 0.0002838752    1.015    0.015
        19 -10.8324     36.6406    146.8587   1.2816133202e+02   4.0620636823e+01     0.186009    0.1692034  76.70 0.0003410474    1.213    0.175
        20 -10.6773     35.9203    143.0365   1.2784933163e+02   4.1510596070e+01    0.2228359    0.1626332 -74.47 0.0003162286    1.109    0.099
        21  -9.1963    108.0983    240.1263   1.2486456126e+02   1.2734716847e+01    0.1409884    0.1055215  80.45 0.0004179179    1.262    0.208
        22 -10.0175     60.1659    135.9000   1.2124620291e+02   4.0384239181e+01    0.1891523    0.1727255  77.51 0.0004780041    1.137    0.120
        23  -9.7813    220.9580    231.0142   1.0368854557e+02  -5.2490830823e+00    0.2027046    0.1784976  39.19 0.0006762666    1.217    0.178
        24 -11.5664     20.5913    133.1277   1.3007874472e+02   4.5018014370e+01    0.2474481    0.1744119 -42.83 0.0005757484    1.704    0.413
        25  -9.6618     33.6374    129.1428   1.2655440282e+02   4.4717235104e+01    0.2069613    0.1204596 -62.45 0.0007693194    1.401    0.286
        26 -11.1820     48.0371    126.7792   1.2274246648e+02   4.3776868133e+01    0.2783279    0.2157681 -79.05 0.0004547536    1.148    0.129
        27  -9.3059    222.3166    227.7329   1.0291442844e+02  -5.0682996800e+00    0.1660587    0.1431716   8.02 0.0002310474    1.163    0.140
        28  -9.2310    242.4169    236.3066   1.0085001646e+02  -9.4444424620e+00    0.1321293    0.1104642 -29.05 0.0004239712    1.498    0.332
        29 -10.7776     55.6364    115.3022   1.1889291846e+02   4.5434994036e+01    0.2241757    0.1949424 -76.54 0.0002452147    1.076    0.071
        30  -9.2654     45.8556    225.8799   1.3396152839e+02   2.3853555356e+01    0.1901136    0.1047842  82.21 0.0009946147    1.603    0.376
        31 -10.0467     70.2632    217.8457   1.2918311410e+02   2.2191758903e+01    0.2172798    0.1219328  55.50 0.0008781517    1.491    0.329
        32  -9.2360     66.3817    218.4593   1.2991370080e+02   2.2601795157e+01    0.1333524    0.1197994 -62.04 0.0003333788    1.576    0.365
        33 -10.0659     53.0458    216.4939   1.3202664766e+02   2.4684274386e+01    0.1520018    0.1133863  79.97 -6.372965e-05    1.038    0.037
        34  -9.2702     44.9606    217.3569   1.3345651512e+02   2.5508350479e+01    0.1470512    0.1048227  65.41 0.0003306588    1.141    0.123
        35  -9.6032     40.6797    213.0086   1.3383250089e+02   2.6815866405e+01    0.1754992    0.1214003  62.59  0.000172578    1.206    0.171
        36  -9.7989     43.2953    210.0592   1.3315556306e+02   2.7063709942e+01      0.15917     0.118889  78.22 0.0003051378    1.014    0.014
        37 -11.4100     69.8856    209.2186   1.2841624413e+02   2.3859186310e+01    0.2623906    0.1654136 -69.43  0.001042721    1.544    0.352
        38 -11.6876     66.5840    205.4422   1.2863745194e+02   2.5026370100e+01    0.3956618    0.1538151  50.70  0.001976527    2.256    0.557
        39 -11.9860     59.7403    201.9123   1.2953340340e+02   2.6605307733e+01    0.3849824    0.2147176  63.53  0.001349839    1.624    0.384
        40 -11.9168    135.4980     43.0107   7.7443138662e+01   4.5635512415e+01    0.4114496    0.2006009  48.12  0.001697776    1.914    0.478
        41 -11.2722     54.5267    201.0722   1.3039780442e+02   2.7427545272e+01    0.2719066    0.1781846 -80.96 8.026487e-05    1.329    0.248
