#   1 NUMBER                 Running object number                                     
#   2 MAG_AUTO               Kron-like elliptical aperture magnitude                    [mag]
#   3 X_IMAGE                Object position along x                                    [pixel]
#   4 Y_IMAGE                Object position along y                                    [pixel]
#   5 X_WORLD                Barycenter position along world x axis                     [deg]
#   6 Y_WORLD                Barycenter position along world y axis                     [deg]
#   7 A_WORLD                Profile RMS along major axis (world units)                 [deg]
#   8 B_WORLD                Profile RMS along minor axis (world units)                 [deg]
#   9 THETA_WORLD            Position angle (CCW/world-x)                               [deg]
#  10 FWHM_WORLD             FWHM assuming a gaussian core                              [deg]
#  11 ELONGATION             A_IMAGE/B_IMAGE                                           
#  12 ELLIPTICITY            1 - B_IMAGE/A_IMAGE                                       
         1 -11.1087     73.0253     56.8324   3.7197230431e+01   5.8395990125e+01    0.7964936    0.2182455 -44.42  0.002329678    3.727    0.732
         2 -10.8024     27.0619     30.0113   5.0464835367e+01   7.1697677110e+01     0.587554    0.1375933 -43.44  0.001778625    4.391    0.772
         3  -9.3255    240.3431    225.6789   3.5777044891e+01  -2.7626697113e+00   0.08840203   0.07955398   8.84 0.0003303251    1.726    0.420
         4  -9.8453    249.5406    215.0470   3.2739715932e+01  -2.5708042889e+00     0.129848   0.08421326 -44.62 0.0008090647    2.684    0.627
         5  -9.9685    192.6800    215.6850   4.2365865172e+01   4.0919370421e+00    0.1239085   0.07676391   1.33 0.0007039631    1.655    0.396
         6  -9.9619    198.5842    214.2371   4.1055321837e+01   3.5223765339e+00    0.1675509    0.0958193 -22.45 0.0009637009    1.766    0.434
         7 -10.2702     76.9194    212.9507   6.7298766994e+01   2.0579692305e+01     0.218606    0.1274527  55.23  0.001137933    1.695    0.410
         8 -10.1876      7.3252    209.9831   8.3802898226e+01   2.8712549449e+01    0.2031643   0.04921225  68.15 0.0007051013    4.380    0.772
         9 -10.2680     85.4877    208.9740   6.4826077685e+01   2.0241514642e+01    0.1782109    0.1019893  72.91 0.0008101353    2.536    0.606
        10 -11.2308     98.7470    204.6462   6.1113674591e+01   1.9267950056e+01    0.3655072    0.1874174 -71.81  0.001640664    2.778    0.640
        11 -10.1723    197.3875    204.1910   3.9676269219e+01   5.0572366489e+00     0.152869    0.1090294 -41.95 0.0006597384    1.729    0.422
        12  -9.9603    183.5950    203.2043   4.2125708875e+01   7.1004301991e+00    0.1683907    0.1055288 -24.40 0.0009512091    1.638    0.389
        13 -10.5458     79.6649    200.4962   6.5370038855e+01   2.2751991206e+01    0.2597562     0.142786  69.18  0.001150693    2.493    0.599
        14 -10.0806    139.6921    198.5152   5.0619779859e+01   1.4354313664e+01    0.2230367    0.1225676 -48.75  0.001095601    2.090    0.522
        15 -10.4510    123.7529    198.4961   5.4301651812e+01   1.6782367057e+01    0.2538224    0.1733821 -74.27    0.0012895    2.174    0.540
        16 -11.8726     88.6176    197.0262   6.2720509495e+01   2.2243072171e+01    0.4627168    0.2162518 -74.20  0.001904162    3.080    0.675
        17 -10.6512    112.2919    197.4161   5.6894848635e+01   1.8716758468e+01    0.2973654    0.1825444  67.55  0.001325915    2.572    0.611
        18  -9.5517    215.9915    195.4915   3.4921964767e+01   3.7730698040e+00     0.136557    0.1014293  52.56  0.000776944    2.305    0.566
        19 -10.4760     12.8424    195.1656   8.1966277894e+01   3.1405521332e+01    0.1541277    0.1455585 -72.54 0.0009745682    1.326    0.246
        20 -10.2753    224.5644    192.8263   3.3029188215e+01   3.0134193179e+00    0.2756279   0.09969617 -38.19  0.001300384    2.719    0.632
        21  -9.9852    185.2277    194.2688   4.0332325332e+01   8.2130302502e+00     0.179169    0.0998272 -49.19 0.0008668182    2.392    0.582
        22 -10.4607    102.4133    192.6511   5.8691607493e+01   2.1149531165e+01    0.2434158    0.1317523 -80.89 0.0009571352    3.320    0.699
        23 -11.4637     77.3455    191.5720   6.4989349969e+01   2.4967016124e+01    0.4800627    0.1806751 -54.37  0.001932098    2.958    0.662
        24  -9.9707     20.3732    189.5874   7.9802400668e+01   3.1977470476e+01    0.2450852   0.08752872  77.96 0.0009519726    3.211    0.689
        25 -10.6544    129.4119    187.5425   5.1316780204e+01   1.7998686374e+01    0.3464655    0.2250306 -58.43  0.001751828    1.887    0.470
        26 -10.8631     95.4931    188.0134   5.9837299433e+01   2.3147732696e+01    0.2812584    0.1441398 -70.66  0.001200136    2.593    0.614
        27 -11.2996     94.2734    181.7252   5.9307032213e+01   2.4685676442e+01    0.5680872      0.23235 -46.27  0.002174854    3.011    0.668
        28 -10.5911     11.7202    183.8367   8.1790800658e+01   3.4046302886e+01    0.2837268      0.10203 -86.85  0.001207025    2.755    0.637
        29 -11.0254     59.3656    175.1428   6.8063698222e+01   3.1080261409e+01    0.3356626    0.2041704 -55.85  0.001645425    1.827    0.453
        30 -10.6590    147.3843    179.1983   4.5727327138e+01   1.6671537056e+01    0.1848224    0.1339384 -58.44 0.0009578908    1.753    0.429
        31 -10.5995     76.5567    174.1580   6.3114300719e+01   2.8993231440e+01    0.3141626    0.1425185 -67.61  0.001228007    2.478    0.597
        32 -11.1033      2.1339    171.3821   8.3873430293e+01   3.7691552984e+01     0.390587    0.1451173  83.42  0.001680074    2.556    0.609
        33 -10.4736    149.8679    169.0153   4.3328413400e+01   1.8175858833e+01    0.3065723    0.1651301 -52.96  0.001343431    2.227    0.551
        34 -10.7056     54.8266    167.9012   6.8584375224e+01   3.3387749137e+01    0.4060372    0.1876665 -80.96  0.001638732    2.550    0.608
        35 -11.0248    212.8947    162.9711   2.9575226542e+01   8.8234623170e+00    0.2275892    0.1607389 -34.08   0.00122923    1.350    0.259
        36  -9.2933    132.3312    163.3154   4.6463436570e+01   2.2368375219e+01    0.1487282    0.1107223  -2.77 0.0007046104    1.682    0.406
        37 -10.2939    120.8649    170.4821   5.0633400309e+01   2.2848595971e+01    0.2760364     0.195311 -75.86  0.001312484    1.960    0.490
        38 -10.4507     91.5996    158.6974   5.6595891330e+01   3.0344901431e+01     0.284488    0.1365355 -54.70  0.001147976    2.190    0.543
        39 -10.0440     81.3111    154.6444   5.8962163479e+01   3.2940298187e+01    0.1594694    0.1058671  64.93 0.0007043785    1.732    0.423
        40  -9.8176     91.3259    151.6625   5.5497458353e+01   3.2065873873e+01    0.1599847    0.1095716  65.22 0.0007051518    1.724    0.420
        41 -10.1471    249.0000    149.0140   2.1365582518e+01   5.5537445450e+00    0.1998029   0.05465961 -34.10 0.0001431754    3.002    0.667
        42 -10.1207    198.4894    148.5129   2.9227722666e+01   1.3390393385e+01    0.1331497    0.1170121  -9.91 -6.361089e-05    1.007    0.007
        43 -11.9023      3.8806    145.7184   8.2322423836e+01   4.3850196008e+01    0.4765463    0.1630302 -84.07  0.001897566    2.668    0.625
        44 -11.2348      2.0000    139.4279   8.2619773624e+01   4.5564981311e+01    0.3658929     0.147988 -78.17  0.001593255    2.204    0.546
        45 -10.7951     54.9255    144.7639   6.5743889821e+01   3.9181869614e+01     0.468316    0.2249842  74.49  0.001600638    3.259    0.693
        46 -10.0086    148.1984    144.7938   3.8897383488e+01   2.3245254146e+01    0.2409316    0.1662944  82.58 0.0009511886    2.815    0.645
        47 -10.7083    105.5827    143.6643   4.9860360626e+01   3.1511406345e+01    0.4001613    0.2499143  77.79  0.001478202    2.819    0.645
        48 -12.0909     22.2206    133.7451   7.5477297563e+01   4.5580030977e+01    0.8029629    0.3005511 -68.92  0.003198078    2.389    0.581
        49 -11.9902     38.8214    132.3708   6.9556276793e+01   4.4343390083e+01    0.7703751     0.142412 -68.08  0.002175528    4.391    0.772
        50 -11.5527    179.3630    132.7132   2.9453066549e+01   1.9547307464e+01    0.3892747    0.1994496 -51.54  0.001583687    2.414    0.586
        51 -10.0495    143.3172    131.7423   3.7186239158e+01   2.6881692119e+01    0.3468618    0.2220762  86.19  0.001135189    3.905    0.744
        52  -9.8128     82.4922    131.0080   5.4436855455e+01   3.8636746971e+01    0.2197284    0.1337831  87.53 0.0008102266    2.547    0.607
        53  -9.7103    204.4884    130.5064   2.4361842928e+01   1.5263074486e+01    0.1334669    0.1188453 -22.18 0.0001168874    1.034    0.033
        54 -11.4217    192.7366    129.0220   2.6092200548e+01   1.7656244649e+01    0.3261454    0.1631774 -31.19  0.001415914    2.008    0.502
        55 -11.4652    168.7145    129.3650   3.0865836132e+01   2.2241005953e+01     0.271506     0.176537 -50.50  0.001243052    1.681    0.405
        56 -11.3648    152.8909    128.5220   3.4162395597e+01   2.5595409528e+01    0.5167558    0.2911075 -58.29  0.002027554    2.405    0.584
        57 -11.0538     54.2832    130.1995   6.3839569972e+01   4.3071058897e+01    0.2654896    0.2136936  38.98  0.001210053    1.208    0.172
        58 -11.4503     11.9790    128.4774   7.8602457159e+01   4.7757683391e+01    0.4363171    0.1821162  78.08  0.001716467    2.558    0.609
        59 -10.3475     98.0327    127.0397   4.8668869537e+01   3.6877415119e+01    0.4378845    0.2027138 -67.32  0.001393381    3.278    0.695
        60 -10.3159     69.0605    135.9247   5.9749842038e+01   3.9504709999e+01    0.2174963    0.2102794  70.10 0.0003367093    1.045    0.043
        61 -11.1734     57.6483    120.8458   6.1075120530e+01   4.5095322342e+01    0.5734723    0.2239498 -78.16  0.001639083    4.207    0.762
        62 -10.8108     42.6756    122.2421   6.6794495503e+01   4.6617208741e+01    0.3676169    0.1910343  87.90  0.001422554    2.400    0.583
        63 -11.5983    172.3703    121.5466   2.8283127868e+01   2.2960045646e+01     0.275701    0.2305085 -42.77  0.001123354    1.185    0.156
        64 -10.0406    159.1585    121.7756   3.1143329230e+01   2.5637777291e+01    0.2476359    0.1682227 -85.48 0.0009487628    2.857    0.650
        65 -10.5897     82.5476    120.1604   5.2181871692e+01   4.1377274156e+01    0.3264052     0.237217 -17.07  0.001404275    1.947    0.486
        66 -10.9406    197.3826    137.2478   2.7056797682e+01   1.5430568484e+01    0.1904721    0.1172514 -43.81 0.0006309833    1.641    0.391
        67 -11.2787      1.9311    113.8272   8.1231399857e+01   5.2222850761e+01    0.7294542    0.1712703 -86.21  0.002226521    4.201    0.762
        68 -11.6670    185.9682    115.4926   2.4216031937e+01   2.1291972856e+01    0.3443859    0.1652392 -42.21  0.001448159    1.982    0.495
        69 -10.4379    108.6931    113.5152   4.2218888750e+01   3.8039619864e+01    0.2856918    0.1447017 -50.57  0.001076109    2.022    0.506
        70 -10.2402     92.3333    113.0994   4.7291383645e+01   4.1369681289e+01    0.4174256    0.2681068 -88.90  0.001550293    2.536    0.606
        71 -11.5351     78.1357    110.5329   5.1550712736e+01   4.4594912127e+01    0.7565885    0.3348867 -69.89  0.002330526    3.441    0.709
        72 -11.1455    122.4704    109.5796   3.7202450717e+01   3.6040159421e+01    0.5352391    0.2041269 -34.43  0.001406228    4.582    0.782
        73 -10.4643     13.4140    108.4366   7.6336653968e+01   5.2992598623e+01    0.3837472    0.1613734 -80.07  0.001563432    2.195    0.544
        74  -9.6364    118.3112    105.3369   3.7254382670e+01   3.7888302391e+01    0.1610628    0.1274164  -3.33 0.0005878711    1.686    0.407
        75 -11.9529    128.6688    101.0837   3.3224671498e+01   3.6527033738e+01    0.6132511    0.3273984 -54.07  0.002322151    2.131    0.531
        76 -11.1796     42.7295     97.9521   6.2614289006e+01   5.3138676819e+01    0.7019153    0.2741674 -77.03  0.002217296    3.454    0.710
        77 -10.8110     19.5029     97.1139   7.2483097541e+01   5.5610870534e+01    0.6387779    0.2296074 -87.77  0.002076353    3.544    0.718
        78 -11.0392     94.5088     97.0250   4.2387759553e+01   4.4850422685e+01    0.3646632    0.2692373  85.08  0.001371651    1.836    0.455
        79 -11.0210     94.8756     92.4543   4.0963040169e+01   4.5857294660e+01    0.4866248    0.3587096 -18.91  0.002046276    1.849    0.459
        80 -11.5034     35.0971     85.8835   6.3535772491e+01   5.7216685218e+01    0.9664826    0.3241631 -58.14  0.003468865    2.542    0.607
        81 -11.4304      4.8280     89.3597   7.8071019180e+01   5.8574955581e+01    0.6405026    0.3133781 -76.75  0.002936883    1.790    0.441
        82 -11.8117    124.4023     89.2587   3.0991227747e+01   4.0007986233e+01    0.5775183    0.3102092 -43.90  0.001800551    1.879    0.468
        83 -10.1533    107.4039     98.2255   3.8551372204e+01   4.1863213592e+01    0.2233786    0.1517385 -60.64 0.0006350029    1.652    0.395
        84 -10.1738     80.3388     85.6494   4.4163106425e+01   5.0395499577e+01    0.1665175     0.123191  78.08 0.0007044903    1.794    0.443
        85 -11.2986     47.8111     83.3365   5.7100325590e+01   5.6353266245e+01     0.609621    0.3402127  79.43  0.002089929    3.328    0.700
        86 -11.6173    104.2297     81.8550   3.4657540461e+01   4.6235436694e+01      0.72667    0.3118027 -55.02  0.002324055    2.971    0.663
        87 -11.4964     86.5269     86.3605   4.2086028503e+01   4.9003960029e+01    0.5666916    0.3683487  84.56  0.002042615    2.769    0.639
        88 -11.3598    119.1204     79.2520   2.9376535291e+01   4.3323291065e+01    0.3857643    0.1982701 -51.66    0.0014266    2.163    0.538
        89 -11.6054     87.6976     79.3837   3.9487582147e+01   5.0387922616e+01    0.5390961    0.2891739  26.08  0.001843964    2.798    0.643
        90 -10.3466     74.0200     78.6853   4.4487840749e+01   5.3269477021e+01    0.5091555    0.1931933 -59.30   0.00153298    3.448    0.710
        91 -10.8177     24.0000     79.0201   6.7467671729e+01   6.0092961577e+01    0.3204591    0.1725196 -65.94  0.001309386    1.675    0.403
        92 -10.6344     23.9904     74.5109   6.6571803983e+01   6.1279708101e+01    0.5586265    0.2012008 -40.56  0.001906659    3.277    0.695
        93 -11.7426    128.0339     75.2519   2.5709788079e+01   4.1963646791e+01    0.4193823    0.2434042 -56.57  0.001630574    2.069    0.517
        94 -11.6718     62.6516     72.1279   4.7179130678e+01   5.6888529300e+01    0.7374565    0.2032011 -56.87  0.002021271    4.213    0.763
        95 -11.3255     82.1188     72.9523   3.9439330888e+01   5.3006647784e+01    0.5246906    0.3381488  88.14  0.001825095    3.109    0.678
        96  -9.8737     12.3332     74.3018   7.2527200165e+01   6.2170083760e+01    0.1471407    0.0888673 -40.85 0.0006503885    1.655    0.396
        97 -11.0549     94.9802     70.6749   3.4002309422e+01   5.0732942708e+01    0.7122948    0.2488327 -51.74  0.002088482    3.547    0.718
        98 -11.1117    105.9221     70.1875   3.0268569544e+01   4.8308981077e+01    0.5799099    0.2313783 -44.95  0.001961216    2.569    0.611
        99 -10.6064     42.4558     70.7468   5.6266778593e+01   6.0278432193e+01    0.3937604    0.1461704 -63.65   0.00135288    2.824    0.646
       100 -11.0299     50.9798     68.5109   5.1410638302e+01   5.9645140121e+01    0.5828975    0.2332919 -68.34  0.001680326    4.306    0.768
       101 -10.2248    166.5274     70.2308   1.5902262326e+01   3.3399028811e+01    0.1948641    0.1436391 -21.36 0.0004637972    1.555    0.357
       102 -10.9784    118.8698     69.8328   2.6369144950e+01   4.5258304828e+01    0.2253914    0.2120599  21.14 0.0002902831    1.161    0.138
       103 -10.1186     16.1441     69.1342   6.9616994531e+01   6.3281149143e+01    0.3552072   0.09735765 -75.23  0.001090896    3.889    0.743
       104 -10.2697    157.6806     69.3357   1.7273202230e+01   3.5705913232e+01     0.311229    0.1927746  84.48  0.001247305    2.264    0.558
       105  -9.7564    154.4987     67.9748   1.7480203854e+01   3.6721662507e+01    0.2188816    0.1453439 -38.36 0.0003231634    1.476    0.323
       106 -10.3604    121.4137     66.2013   2.4456520438e+01   4.5321536185e+01    0.2300041    0.1421754 -51.03 0.0009484967    1.734    0.423
       107 -10.9458     37.1279     61.6856   5.6345892766e+01   6.3204183429e+01    0.6489927    0.1864352 -54.85  0.002188414    2.966    0.663
       108 -11.1588    236.2122     63.5839   4.9963550300e+00   1.9240657621e+01    0.1572985    0.1139751  50.76 0.0009524312    1.703    0.413
       109  -9.9320     18.3177     62.3439   6.7001386679e+01   6.4878293881e+01    0.1523288   0.08852636 -38.84 0.0007048928    1.719    0.418
       110 -10.7463    184.5765    227.3031   4.5610973095e+01   3.5646558373e+00    0.1961788    0.1110694 -42.80  0.001146649    2.158    0.537
       111 -11.1435     22.3000     54.2417   6.2613527970e+01   6.6595283391e+01    0.5074958    0.2465747 -88.22  0.001789638    3.604    0.723
       112 -11.0052    159.1797     55.0581   1.2670565428e+01   3.7630790420e+01    0.2248778    0.2075492  21.34  0.001115405    1.274    0.215
       113 -10.2464     86.4717     54.0852   3.0841546528e+01   5.6044933060e+01    0.3427688    0.1521546 -34.47  0.001191903    2.658    0.624
       114 -10.5730     53.4178     51.7526   4.4222080767e+01   6.3162644777e+01    0.5790941    0.1539978 -56.40  0.001396412    6.080    0.836
       115 -11.0405     62.6307     51.9678   3.9833401814e+01   6.1467236613e+01    0.7987937    0.1554622 -45.60  0.002028481    5.134    0.805
       116 -10.2485      9.6033     64.2015   7.2303115070e+01   6.4952266911e+01       0.2097    0.1027951 -60.65 0.0009587378    1.724    0.420
       117 -11.1396     27.9853     45.7702   5.6385818695e+01   6.8080250065e+01    0.3486257    0.2012649   5.49  0.001187758    2.127    0.530
       118 -10.4465     28.4605     42.4726   5.4857704523e+01   6.8790965122e+01    0.2422256    0.2145254 -35.12 0.0005288356    1.042    0.040
       119 -10.6399    238.3567     42.3448   3.2166165342e-02   2.1489722707e+01    0.1856558    0.1645273 -30.65 0.0005977945    1.231    0.187
       120 -10.4887     58.4918     42.9846   3.7949760942e+01   6.4097987075e+01    0.2019846    0.1305552 -69.67 0.0008104722    2.562    0.610
       121 -10.6282    184.4854     41.4956   5.0067330662e+00   3.3290679268e+01    0.1402643    0.1237592 -63.04 0.0002583356    1.003    0.003
       122 -10.0106     69.2301     41.4064   3.2272472621e+01   6.2250322909e+01    0.2086001    0.1379673  55.96 0.0007040694    1.651    0.394
       123 -10.6347     36.6572     40.3326   4.8816002552e+01   6.8241635227e+01    0.2681969    0.2289686  85.20   0.00137901    1.541    0.351
       124 -10.5379     38.0787     35.7400   4.5870063869e+01   6.9017619894e+01    0.3739757    0.2210541 -24.26  0.001397098    2.160    0.537
       125 -11.0097    122.3868     36.9530   1.3624878834e+01   4.9920143967e+01    0.3389617    0.1918031  53.71  0.001005722    1.677    0.404
       126  -9.8457    131.2242     57.4225   1.9027005746e+01   4.4404358442e+01    0.2106229    0.1464332  72.62 0.0007361204    1.550    0.355
       127 -10.9500    176.5743     33.3338   3.6122311742e+00   3.6269953718e+01    0.2452624    0.1999797 -88.81 0.0006091975    1.167    0.143
       128  -9.7989     88.6265     32.8196   2.0946826958e+01   5.9234435519e+01    0.2144451    0.1344687 -43.83 0.0009574863    1.719    0.418
