#   1 NUMBER                 Running object number                                     
#   2 MAG_AUTO               Kron-like elliptical aperture magnitude                    [mag]
#   3 X_IMAGE                Object position along x                                    [pixel]
#   4 Y_IMAGE                Object position along y                                    [pixel]
#   5 X_WORLD                Barycenter position along world x axis                     [deg]
#   6 Y_WORLD                Barycenter position along world y axis                     [deg]
#   7 A_WORLD                Profile RMS along major axis (world units)                 [deg]
#   8 B_WORLD                Profile RMS along minor axis (world units)                 [deg]
#   9 THETA_WORLD            Position angle (CCW/world-x)                               [deg]
#  10 FWHM_WORLD             FWHM assuming a gaussian core                              [deg]
#  11 ELONGATION             A_IMAGE/B_IMAGE                                           
#  12 ELLIPTICITY            1 - B_IMAGE/A_IMAGE                                       
         1 -14.4129    213.0398     25.6047   4.0647336346e+01   2.9019102959e+01     1.262333    0.9662923  33.32  0.007093081    1.763    0.433
         2 -14.5275    200.9162     38.0884   4.5240820224e+01   3.0331696009e+01     2.116246     1.494271  30.50  0.007575949    1.955    0.488
         3 -12.7642      2.9361     24.6257   9.9340365298e+01   7.0455577054e+01    0.8296149    0.3239543 -56.48  0.004145672    2.447    0.591
         4 -11.9887      1.9891      3.3748   9.0538601475e+01   7.4010475612e+01    0.4762662    0.2353247 -40.93  0.002955884    1.671    0.402
         5 -12.2579    239.2555      2.6263   3.3130971318e+01   2.5711434841e+01    0.5852868    0.2870233  65.52  0.002545527    2.042    0.510
         6 -11.8323    234.9872      2.0000   3.3290074044e+01   2.6695786036e+01    0.3932487    0.1568485  74.46  0.001528134    2.340    0.573
         7 -10.2904     66.0252      2.5374   6.0092317094e+01   6.5464848111e+01    0.1841101    0.1081864  48.14 0.0005685774    1.590    0.371
         8 -10.9467    144.9774    180.5817   9.2217302288e+01   1.5850866764e+01    0.3375671    0.2603117  56.39  0.001452681    1.377    0.274
         9 -11.4293    139.5349    247.8641   1.0367363494e+02   4.2673721399e+00    0.4706661    0.2514525 -65.77  0.002353762    2.875    0.652
        10 -15.2910     49.8981    220.2552   1.1828071998e+02   2.2212057424e+01      2.39909     1.839508  43.94   0.01613734    1.339    0.253
        11 -14.2948     86.3707    226.6793   1.1166004911e+02   1.6064638123e+01      1.47662     1.104105 -71.42  0.005983345    1.411    0.291
        12 -15.1219     42.4352    201.9557   1.1821236388e+02   2.6953442099e+01     2.545683     1.166055  83.69  0.002974674    2.601    0.616
        13 -14.6055     52.0108    192.2287   1.1523754422e+02   2.7957267701e+01     1.590894     1.132441  76.04  0.009516775    1.270    0.212
        14 -16.0292      9.1833    207.5392   1.2520593876e+02   2.9233863249e+01     2.850951     1.387636 -75.38    0.0153775    1.750    0.429
        15 -16.4242     46.2780    247.4065   1.2098127001e+02   1.7411665950e+01     9.091966     2.722442  28.68   0.02326316   11.477    0.913
        16 -10.1824     99.3959    180.7000   1.0286216610e+02   2.3830954962e+01    0.2397801    0.2353337  83.29 0.0006112096    1.121    0.108
        17 -12.2662     67.5209    176.1828   1.0979745775e+02   2.9641287664e+01    0.4683519    0.2883482 -46.09  0.001554366    1.938    0.484
        18 -12.2026     72.0004    171.2051   1.0803270732e+02   3.0197716160e+01    0.3270151    0.2913567 -44.35   0.00149768    1.323    0.244
        19  -9.0138    150.3036    178.6470   9.0646678078e+01   1.5258839531e+01    0.1471411    0.1153206  82.63 0.0007040222    1.707    0.414
        20  -9.5591    204.4164    176.7065   7.8789131388e+01   5.4522004328e+00    0.2672712    0.1296969 -43.80  0.001129468    2.127    0.530
        21  -9.2153    197.6646    176.6938   8.0125938424e+01   6.6958094230e+00    0.1475714     0.105452   2.92 0.0007040457    1.671    0.401
        22  -9.1904    188.6785    175.3140   8.1670118037e+01   8.6305879934e+00    0.1373824    0.1171024  87.82 0.0003046716    1.657    0.396
        23 -12.8068     87.7984    155.0568   1.0147084841e+02   3.1729490607e+01     1.343232    0.8542608 -77.03  0.003362574    1.785    0.440
        24 -13.5438     58.0922    131.8381   1.0544418254e+02   4.1677569851e+01     2.787646    0.8834581 -71.58  0.007111973    5.842    0.829
        25 -13.2405     80.8963    161.8931   1.0440284516e+02   3.1136671199e+01     1.604602    0.5673889  53.68 0.0004397408    4.363    0.771
        26 -13.6765     68.5693    157.6852   1.0688749958e+02   3.3925942382e+01    0.5750449     0.436575 -45.01  0.001244499    1.468    0.319
        27 -14.5612     68.5256    144.1430   1.0468869014e+02   3.7254569727e+01     5.126615     2.096373  58.96  0.006806274    5.009    0.800
        28 -12.3278    195.5519    197.1933   8.4578527465e+01   3.4633616312e+00     1.194358    0.8880128  88.31  0.005518414    2.815    0.645
        29  -9.6728    227.6598    169.3243   7.2872329717e+01   2.5615111854e+00    0.1288597     0.110654 -71.47 0.0007051099    1.726    0.421
        30 -11.2095    139.9421    171.5850   9.1664299118e+01   1.8713625888e+01    0.3222772     0.294603 -55.43  0.001178065    1.123    0.109
        31 -10.2566    158.0697    160.7650   8.5264744752e+01   1.7513964114e+01    0.3339189    0.2711253 -88.06  0.001159246    1.620    0.383
        32 -10.5676    111.8184    197.7782   1.0260824693e+02   1.8042245298e+01    0.2571565    0.2341717 -58.32  0.001242332    1.189    0.159
        33 -11.1403    133.6097    144.1009   8.7457483816e+01   2.6095974812e+01     1.189147    0.2921042 -54.06   0.00269799    5.987    0.833
        34 -11.8613     54.1914    147.4307   1.0908406549e+02   3.8303581895e+01    0.7403427    0.3499894 -59.09  0.003339985    1.843    0.457
        35 -10.5702    174.3908    148.6451   7.8927067834e+01   1.6722015410e+01    0.3577498    0.3009104 -75.16  0.001576912    1.483    0.325
        36 -10.1511     38.5639    146.0741   1.1303497390e+02   4.0403691681e+01     0.258108    0.1600551  53.96  0.001359282    1.722    0.419
        37 -11.2085     28.6083    143.9503   1.1537790913e+02   4.1906937991e+01    0.3058284    0.2059936  22.00   0.00173536    1.893    0.472
        38 -10.8090    101.9293    140.0985   9.4822211263e+01   3.3007116185e+01    0.5742456    0.3511657 -27.15  0.002233095    2.554    0.608
        39 -12.3850     89.0988    140.1298   9.8315112166e+01   3.5161306133e+01    0.2958876    0.2558796 -48.03 0.0004420612    1.161    0.139
        40  -9.9340     80.4381    140.4687   1.0075938094e+02   3.6435629909e+01    0.3231509    0.1990285  73.18 0.0008833883    2.358    0.576
        41  -9.5901     35.1694    139.8101   1.1309304515e+02   4.2283819354e+01    0.2017477    0.1555005  80.50   0.00080988    1.268    0.211
        42 -10.7258     25.6978    137.2932   1.1531651421e+02   4.3791474922e+01    0.2734041    0.1850791  44.23  0.001182699    1.629    0.386
        43 -10.2687    111.1582    130.6018   9.0222825701e+01   3.3611321464e+01    0.3364028    0.2664451  -2.37 0.0008320216    1.678    0.404
        44 -10.4373    105.9316    130.6523   9.1660807916e+01   3.4565589037e+01    0.3585325    0.3113309 -88.19  0.001130801    1.257    0.204
        45 -11.1923    135.9433    128.3918   8.3176365787e+01   2.9202136371e+01     0.586143    0.1774539 -48.03  0.001723858    3.277    0.695
        46 -10.9162     98.4016    126.6127   9.2831239713e+01   3.6883879706e+01    0.2885672     0.242555 -20.42 0.0003165603    1.393    0.282
        47 -10.1560    160.1704    127.8843   7.7170617691e+01   2.4121969065e+01    0.2495309    0.2216531 -74.08   0.00124623    1.266    0.210
        48 -10.2615    117.1319    124.7758   8.7218345572e+01   3.3842282530e+01    0.2217615    0.2064277  33.10  0.001029817    1.129    0.114
        49  -9.3325     92.2396    124.8971   9.4190611421e+01   3.8359361869e+01    0.2243009    0.1916348 -86.15 0.0005924454    1.273    0.214
        50 -10.3703     34.4945    171.3350   1.1702346475e+02   3.4765285956e+01    0.2433802    0.1699159  78.08 0.0007881152    1.301    0.231
        51  -9.9306    107.6876    119.1981   8.8448930974e+01   3.6964917301e+01    0.2214857    0.2038361  58.32 0.0003307319    1.150    0.131
        52 -10.5717    134.6139    105.5052   7.7541693638e+01   3.4575787894e+01    0.5426324    0.1472175 -45.48  0.001503336    3.624    0.724
        53  -9.6992    168.2740    113.2675   7.1584971337e+01   2.5373287615e+01    0.3206143    0.2288709 -79.15  0.001315269    2.106    0.525
        54 -10.1663    205.4865    110.1669   6.3318445314e+01   1.7577823448e+01    0.3092147    0.2165935  41.07 0.0009427146    1.572    0.364
        55  -9.7797    114.9783    109.8191   8.3994890473e+01   3.7728215113e+01    0.2353339    0.1699915 -27.40 0.0009836048    1.592    0.372
        56 -10.9669     34.6307    109.4846   1.0846215374e+02   4.9767646735e+01    0.2942595    0.2158593  86.07  0.001640295    1.524    0.344
        57  -9.1547    140.8363    107.2777   7.6445459774e+01   3.2824417902e+01    0.2610076    0.1746084 -83.17 0.0009431415    2.708    0.631
        58 -10.8288    119.8782    104.1093   8.1085212684e+01   3.8018196792e+01      0.24554    0.2225525 -85.94  0.001250601    1.244    0.196
        59 -11.2004     41.6919    104.0184   1.0514894979e+02   5.0390903526e+01    0.2805088    0.2399459  71.39  0.001285683    1.345    0.257
        60 -11.4706    241.1897     99.6410   5.5019395792e+01   1.1855059723e+01    0.3619625    0.1479262 -46.84  0.001063601    2.379    0.580
        61  -9.1530    128.4870     95.5316   7.6320927181e+01   3.8047481716e+01    0.1557412    0.1503898 -23.82 0.0001787251    1.017    0.016
        62  -9.6645    152.2374    197.0787   9.3576141139e+01   1.1190192873e+01    0.2495179    0.1996413 -74.78  0.001336193    1.584    0.369
        63 -10.6920     33.3005    100.0993   1.0711386171e+02   5.2155070859e+01    0.2240615    0.1948769  44.17 0.0007761793    1.360    0.265
        64 -10.6477     41.7629     91.8566   1.0249147283e+02   5.3278877117e+01     0.226764    0.1898995 -46.30 0.0004673721    1.055    0.052
        65 -10.4379     53.0874     90.6023   9.8281617198e+01   5.2292602308e+01    0.2899472    0.1764535 -48.07  0.001213764    1.417    0.294
        66  -9.4802     82.0447    194.7225   1.0885737306e+02   2.3351927174e+01    0.1912163    0.1614804  60.44  0.001154624    1.082    0.076
        67  -9.6918    158.6796     81.7935   6.4945578070e+01   3.3804293071e+01     0.239359    0.1961468 -14.19 0.0005805629    1.383    0.277
        68  -9.3120    243.3148     77.6599   4.9627789878e+01   1.4950206160e+01    0.1452861    0.0922787 -60.80 0.0007047642    1.702    0.413
        69  -8.8844    184.3826     77.2763   5.8499071522e+01   2.8396730075e+01    0.1547309    0.1159932  24.91 0.0007001742    1.713    0.416
        70  -9.9162     54.2045     65.4676   9.0726662620e+01   5.7693332942e+01    0.2183004    0.1991574 -79.52 0.0004107233    1.417    0.294
        71 -10.9072     13.4429     59.8404   1.0538385038e+02   6.2865594191e+01    0.2491937    0.1840725 -58.71 0.0004455688    1.203    0.169
        72 -17.0244      8.5095    241.6545   1.2709875216e+02   2.2596029638e+01     8.384538     1.594105 -76.39   0.03486317    4.502    0.778
        73 -12.7491    191.7790     44.5263   4.8209849319e+01   3.1684495788e+01    0.8017768    0.5103883  47.92  0.001067939    1.712    0.416
        74 -10.0935    172.4037    239.2279   9.6177415872e+01   4.8770589888e-01    0.3120495    0.1819262 -59.10  0.001578647    2.689    0.628
        75  -8.6316    100.3064    186.3546   1.0351817517e+02   2.2408582068e+01    0.1364085    0.1090621 -24.23 0.0004410388    1.718    0.418
        76 -13.1345     11.7597    188.7347   1.2349502093e+02   3.3021377488e+01    0.3848578     0.300221  59.65 0.0005535244    1.233    0.189
        77  -9.0026     92.4675    184.4803   1.0506505895e+02   2.4073220810e+01    0.1394417    0.1235277  75.58 0.0002240084    1.037    0.036
        78  -9.5086    189.5137     14.9654   4.0469163456e+01   3.5850195235e+01    0.1877579    0.1289855 -30.54 0.0006707985    1.549    0.355
        79 -11.0634    141.9721     47.1852   5.7793230880e+01   4.3635174574e+01    0.4140881    0.2844885 -80.81 0.0008973182    2.119    0.528
        80 -10.3724    107.4729    210.4703   1.0534612920e+02   1.6109795193e+01    0.2327086    0.1198266  38.87 0.0006470607    1.795    0.443
        81  -9.5642    113.9033    207.9680   1.0362029012e+02   1.5586888587e+01    0.2211948     0.147189  67.12 0.0008254776    1.731    0.422
        82 -10.2401    145.0240     41.9477   5.5434033268e+01   4.3631925206e+01    0.2145426     0.204826 -89.34 0.0004113416    1.085    0.078
