#   1 NUMBER                 Running object number                                     
#   2 MAG_AUTO               Kron-like elliptical aperture magnitude                    [mag]
#   3 X_IMAGE                Object position along x                                    [pixel]
#   4 Y_IMAGE                Object position along y                                    [pixel]
#   5 X_WORLD                Barycenter position along world x axis                     [deg]
#   6 Y_WORLD                Barycenter position along world y axis                     [deg]
#   7 A_WORLD                Profile RMS along major axis (world units)                 [deg]
#   8 B_WORLD                Profile RMS along minor axis (world units)                 [deg]
#   9 THETA_WORLD            Position angle (CCW/world-x)                               [deg]
#  10 FWHM_WORLD             FWHM assuming a gaussian core                              [deg]
#  11 ELONGATION             A_IMAGE/B_IMAGE                                           
#  12 ELLIPTICITY            1 - B_IMAGE/A_IMAGE                                       
         1 -13.0489    173.2388     36.8936   7.7625997213e+01   3.7741776812e+01     1.184073    0.8397355 -12.66 0.0008890426    1.675    0.403
         2 -13.6770    182.8436     27.9866   7.3308766855e+01   3.6327660913e+01     1.859785     1.367454 -14.99  0.006836757    1.572    0.364
         3 -14.0426    190.7270     15.8455   6.8566145307e+01   3.5634978077e+01     1.963734     1.443988  52.41  0.002106947    1.367    0.268
         4 -12.3534    216.4778     28.9261   6.9147528495e+01   2.7408614535e+01     1.418707    0.9885669 -34.23  0.007274654    1.423    0.297
         5 -10.4573      4.0330      2.0996   1.1962704383e+02   7.4222620522e+01    0.3819611     0.161286  14.93  0.002171352    2.776    0.640
         6  -9.5259     88.7768    203.7701   1.3537801972e+02   2.2562886847e+01    0.2565902    0.1353459  39.43  0.001157298    1.850    0.459
         7 -10.6098    134.7030    249.9482   1.3185159583e+02   7.6594423336e+00    0.4142391    0.1525194  45.82  0.001610845    2.025    0.506
         8 -13.0578    167.5109    249.4138   1.2611170733e+02   2.5222363970e+00     2.929081      0.50265  38.34  0.006933944    9.293    0.892
         9 -12.5874    146.1443    249.2508   1.2979454220e+02   5.9563240456e+00     1.808396    0.4869878  35.81  0.005499353    6.062    0.835
        10 -13.9944     66.7466    143.0374   1.3253998509e+02   3.8636459078e+01     3.093586     1.876628  66.47   0.01573861    1.804    0.446
        11  -9.3624     20.5155    196.4975   1.4787748917e+02   3.2515085284e+01    0.1893232    0.1365424  74.88 0.0005619537    1.019    0.019
        12  -9.9049    184.6909    194.3239   1.1488282548e+02   7.5177663696e+00    0.2199324    0.1890036  30.06 0.0002937912    1.068    0.063
        13 -14.1770     13.5920    242.9894   1.5136046306e+02   2.4796852403e+01     1.160037    0.2738755  54.90  0.006198786    2.718    0.632
        14  -8.8585     87.1277    191.5382   1.3432857697e+02   2.5212630052e+01    0.2143345    0.1456145  74.16 0.0008768775    1.399    0.285
        15 -11.4471     83.2745    185.3869   1.3440371053e+02   2.7037942426e+01    0.4095969    0.3412543 -23.75  0.001446072    1.978    0.494
        16 -11.0933     86.7323    179.6372   1.3295387918e+02   2.7712634217e+01    0.3210078    0.2423043 -65.37  0.001102814    1.371    0.270
        17 -13.5725     83.5965    165.2606   1.3172891383e+02   3.1257923005e+01     3.688449    0.6480695  47.20  0.004633703    5.549    0.820
        18  -8.6310      6.9787    183.5782   1.4963717595e+02   3.6340112899e+01    0.1405216   0.09347014  44.49 0.0005881389    1.565    0.361
        19 -10.8628    168.4026    223.5095   1.2255150204e+02   5.9673977899e+00    0.3243992    0.2221548 -30.24   0.00190837    1.968    0.492
        20  -8.6204    167.1539    212.1761   1.2113583972e+02   7.9094332824e+00    0.1699847    0.1355921  61.35 0.0002745933    1.313    0.239
        21  -9.1772    112.5464    211.5299   1.3160457809e+02   1.7411551331e+01    0.2343199    0.2059276  30.28 0.0009245068    1.429    0.300
        22  -9.5709    228.4039    173.2074   1.0275580117e+02   2.4804072486e+00    0.1812488    0.1217393 -42.34 0.0009511642    1.705    0.413
        23 -14.0434     55.7590    238.1833   1.4436504607e+02   2.0835472321e+01     1.412388    0.8890718  85.64  0.008119723    1.418    0.295
        24 -10.6673    136.6953    171.6960   1.2081485486e+02   2.0773129383e+01    0.5106368    0.2450571  36.04  0.002085035    2.304    0.566
        25 -11.1346     98.1435    161.4744   1.2781549078e+02   2.9792415273e+01    0.5589249     0.361536 -42.53  0.001682043    1.997    0.499
        26 -13.8717     72.8459    202.3640   1.3836594524e+02   2.5127866198e+01     2.909957     1.280253  75.24   0.01188541    3.516    0.716
        27 -10.4118      5.6317    161.6243   1.4855976240e+02   4.0951910960e+01    0.2401769    0.1823143  41.95  0.001705219    1.536    0.349
        28 -10.6287     24.4068    156.1775   1.4411099085e+02   4.0484616185e+01    0.2933568    0.1808845  33.75  0.001452283    1.897    0.473
        29 -10.2578    108.9135    144.3611   1.2229606784e+02   3.1716876522e+01     0.511186    0.2874464 -39.24   0.00215596    2.371    0.578
        30  -9.5883    133.4338    143.6654   1.1625070679e+02   2.7212230640e+01    0.7174039    0.1956635 -56.40   0.00175331    5.998    0.833
        31  -9.1560    129.7719    140.9328   1.1655629053e+02   2.8528508086e+01    0.2165516    0.2034189  71.68 0.0005431429    1.008    0.008
        32 -11.5945     97.5805    145.2915   1.2524972301e+02   3.3470132187e+01    0.2600319    0.2492711  62.27 0.0004226536    1.154    0.134
        33 -15.3528     63.7865    213.8982   1.4113790048e+02   2.4145442632e+01     7.465385     2.384752  54.07   0.03379273    2.742    0.635
        34  -9.8520    115.7570    133.3296   1.1840544061e+02   3.2915053351e+01    0.3363388     0.279171 -19.54 0.0009296634    1.600    0.375
        35 -10.2830    103.6585    130.1564   1.2082714560e+02   3.5844637486e+01    0.2918793    0.2523178 -42.78 0.0007562997    1.279    0.218
        36  -8.4153    194.2522    130.6182   9.9909350977e+01   1.6584088152e+01    0.2003237    0.1365062  39.44 0.0002704705    1.481    0.325
        37  -9.9932    120.1786    126.3762   1.1578458823e+02   3.3609572119e+01    0.2573889    0.1975519 -42.99 0.0008420969    1.381    0.276
        38  -9.2397    126.8031    126.0070   1.1403325237e+02   3.2372436940e+01    0.2373086    0.2062339  50.34 0.0002315459    1.142    0.124
        39 -10.5277    240.2008    122.3019   8.9644669348e+01   7.8995596710e+00    0.2577327    0.2403491  32.27 0.0002973151    1.118    0.106
        40  -9.1740    135.0019    122.8652   1.1126760379e+02   3.1361660886e+01    0.3102729    0.1604174 -53.04  0.001221525    2.036    0.509
        41 -10.4800    110.9279    121.6487   1.1710901336e+02   3.6439653049e+01    0.2821688    0.2503132  55.10 0.0003967112    1.131    0.116
        42 -12.3916     70.7004    116.1626   1.2690913994e+02   4.4304590048e+01    0.5163297    0.4378386  43.73  0.003079965    1.291    0.225
        43 -11.7825     76.9894    117.4267   1.2540007161e+02   4.3110337704e+01    0.4037338    0.3311736 -66.46  0.002321945    1.106    0.096
        44  -9.1727    168.6748    114.0734   1.0119674242e+02   2.5633932219e+01    0.3277063    0.2409839 -75.49 0.0009286717    1.836    0.455
        45 -10.5295    192.7726    195.3023   1.1350545641e+02   5.8523122104e+00    0.8293253    0.4201134 -62.02  0.002651253    5.911    0.831
        46  -8.7522     25.8662    113.1168   1.3900932042e+02   4.9995119560e+01    0.1782215    0.1375632  84.88 0.0004109032    1.205    0.170
        47 -10.6132    116.1434    110.9614   1.1321598976e+02   3.7820534803e+01    0.3571421    0.2385007 -19.56  0.001446314    2.460    0.593
        48  -7.8830    186.3322    108.3037   9.5962370380e+01   2.2541984511e+01    0.1589812    0.1212951  16.32 0.0005706039    1.657    0.397
        49  -9.3960    204.5018    200.4484   1.1220991911e+02   2.9321138304e+00    0.1304429    0.1100108  29.97  0.000119061    1.012    0.012
        50 -10.8638    102.4915    116.5292   1.1819750545e+02   3.9145242102e+01    0.4552833    0.2369734 -38.50   0.00179493    2.423    0.587
        51  -9.6014      5.1510    104.1308   1.4366235867e+02   5.3516963011e+01    0.2015044    0.1255421  29.84   0.00128855    1.980    0.495
        52  -8.3233    113.4736     95.4433   1.0991348540e+02   4.1744149395e+01    0.1475395    0.1431846 -63.12 7.289017e-05    1.005    0.005
        53 -15.9763     29.2554    244.7180   1.4902480939e+02   2.2850520684e+01       1.9522     1.628467  51.93   0.01144415    1.533    0.348
        54  -8.1187    151.4814     77.4669   9.4880392999e+01   3.6845064727e+01    0.1537385    0.1523184  43.22 0.0008094308    1.012    0.012
        55  -8.2067    193.7883     60.3904   8.1256883575e+01   2.8929801097e+01    0.2000332    0.1375275  50.39  0.000344088    1.470    0.320
        56  -9.9802    121.6017    248.6139   1.3397891449e+02   9.8824790146e+00    0.2101212    0.1546446  63.04 0.0006809921    1.190    0.159
        57 -14.0019     18.0352    231.3455   1.5016194867e+02   2.6323223644e+01    0.7970454    0.4923064  68.60   0.00613328    1.114    0.102
        58 -14.3453     12.1760    207.5058   1.4998001133e+02   3.1221671180e+01     2.756929     1.648765 -67.28   0.01566407    1.828    0.453
        59  -8.5999    134.0694     49.9004   9.0059768531e+01   4.5869779932e+01    0.2088908    0.1954855 -75.83  0.001130068    1.176    0.150
        60  -8.7622     67.3337     48.3205   1.0977450864e+02   5.9455995871e+01    0.1376826   0.09595565 -12.12  0.000704953    1.701    0.412
        61  -9.5504    248.6560     46.4987   7.0045459693e+01   1.7287704098e+01    0.2226794     0.219549  10.08 0.0006858764    1.187    0.157
        62 -10.3220    105.6160    241.3989   1.3606044238e+02   1.3419254942e+01    0.2535124    0.1585324  64.78 0.0004461883    1.436    0.303
        63 -10.2822    143.2818     26.0696   7.9528679515e+01   4.6936988800e+01    0.2484905    0.2098657  53.13 0.0002881476    1.109    0.098
