#   1 NUMBER                 Running object number                                     
#   2 MAG_AUTO               Kron-like elliptical aperture magnitude                    [mag]
#   3 X_IMAGE                Object position along x                                    [pixel]
#   4 Y_IMAGE                Object position along y                                    [pixel]
#   5 X_WORLD                Barycenter position along world x axis                     [deg]
#   6 Y_WORLD                Barycenter position along world y axis                     [deg]
#   7 A_WORLD                Profile RMS along major axis (world units)                 [deg]
#   8 B_WORLD                Profile RMS along minor axis (world units)                 [deg]
#   9 THETA_WORLD            Position angle (CCW/world-x)                               [deg]
#  10 FWHM_WORLD             FWHM assuming a gaussian core                              [deg]
#  11 ELONGATION             A_IMAGE/B_IMAGE                                           
#  12 ELLIPTICITY            1 - B_IMAGE/A_IMAGE                                       
         1 -10.7436     37.1488      9.4309   9.2114113786e+01   6.7853236717e+01    0.7195195    0.3203004 -37.39  0.002599396    2.662    0.624
         2 -10.4783     16.4084     66.4981   1.2103192577e+02   6.1251885681e+01     1.314138    0.1589658 -53.27  0.004363407    4.544    0.780
         3 -10.0889     10.0811     18.9565   1.0826897063e+02   6.9668842341e+01    0.8205048    0.3441716  -6.06  0.003236509    4.907    0.796
         4 -11.0758     21.0168      7.7358   9.8349973948e+01   7.0009541641e+01    0.9967085     0.777615  54.82  0.006499642    2.921    0.658
         5 -10.7814      6.6376     29.6211   1.1392175379e+02   6.8384361924e+01    0.5505952    0.3806009 -39.16  0.002493566    1.314    0.239
         6 -10.5076      4.9547      4.5481   1.0468916516e+02   7.1962311217e+01    0.4452031     0.316844  -2.48  0.001712859    1.071    0.066
         7 -11.1852     23.7781     32.1105   1.0708266561e+02   6.6536585557e+01     1.295402    0.4779122 -31.67  0.003621867    2.690    0.628
         8  -9.2089     78.1031      4.2726   7.6120894243e+01   6.1676079635e+01    0.4604708    0.2445384  -1.06  0.002469904    2.396    0.583
         9 -10.1144     69.4444     40.9903   9.2605737020e+01   5.9213742135e+01    0.9120632    0.3557019 -34.11  0.002624727    2.627    0.619
        10 -10.1138     73.6449     17.9766   8.2653882625e+01   6.1254054269e+01     1.006859    0.3042628 -25.27   0.00320771    3.900    0.744
        11  -8.9545     72.3707      8.7102   7.9464942006e+01   6.2357227191e+01    0.2579011    0.1723983   7.82  0.001151388    1.540    0.350
        12  -9.8095     79.5553     23.8654   8.3072134245e+01   5.9566076991e+01    0.5757015    0.2504143  31.48  0.001782553    2.608    0.617
        13  -9.7593     60.7480     31.6723   9.2180068542e+01   6.1852153857e+01    0.7777904    0.3429461 -23.62  0.003379749    2.693    0.629
        14  -9.9663     63.6231      3.5293   8.0073661144e+01   6.4335255420e+01    0.5512506    0.3469914   1.27  0.003468619    1.659    0.397
        15 -10.2409     46.3156     29.4648   9.6707354887e+01   6.4250766985e+01     0.723187    0.4938981 -27.57  0.003608824    1.400    0.286
        16 -10.2692     52.4055     13.4133   8.7939208062e+01   6.5247740987e+01    0.9193016    0.4161765  21.63  0.004293007    2.840    0.648
        17  -9.6514     62.9451     20.9834   8.7285966021e+01   6.2770820426e+01    0.4545985     0.233032 -42.17  0.001481662    2.660    0.624
        18  -9.8493     64.5512     13.3562   8.3733291713e+01   6.3293514436e+01    0.3025505    0.2629996  17.28 0.0002435593    1.148    0.129
        19  -9.5160      2.3735     14.3342   1.1017568209e+02   7.0916495817e+01     0.360263    0.2029159 -52.90  0.002135765    2.682    0.627
        20  -9.1410    103.0024     22.1424   7.6105382164e+01   5.5145322392e+01    0.4396929    0.2164055 -19.66  0.001996318    2.490    0.598
        21  -8.5361    110.1439      8.1081   6.9822677613e+01   5.4929736269e+01     0.194046    0.1609024  10.76 0.0009472133    1.337    0.252
        22  -9.0111    114.4205      9.9166   6.9529410519e+01   5.3860378439e+01    0.3413426    0.1760669  37.77 0.0003284053    1.958    0.489
        23  -8.6235    112.2989     15.5458   7.1786096873e+01   5.3818751057e+01     0.229628    0.1816325 -38.31  0.000578585    1.504    0.335
        24  -9.0145    115.3998      4.3509   6.7566603864e+01   5.4102485171e+01    0.2854902    0.2199633 -71.60 0.0008986165    1.668    0.400
        25  -9.0107    110.7550      3.3859   6.8165808365e+01   5.5174553537e+01    0.3472882    0.2463479 -88.24  0.002063839    1.833    0.454
        26  -8.9032    133.9691     12.3909   6.6618272416e+01   4.9315199034e+01    0.2232265     0.179728 -38.06  0.001432784    1.453    0.312
        27  -8.5896    120.3549     15.6982   7.0161026827e+01   5.2052329941e+01    0.3080302    0.2072323  26.30  0.001752136    1.696    0.410
        28  -9.1911    124.7101      5.6476   6.6244668856e+01   5.1963385286e+01    0.5077011    0.1520784  54.62  0.002175184    2.445    0.591
        29  -8.7531    125.1669     12.9433   6.8375298343e+01   5.1239616330e+01    0.1889964    0.1823885 -39.00 0.0006458171    1.228    0.186
        30  -8.3554    126.8073      8.9649   6.6869077516e+01   5.1222782582e+01    0.1958752    0.1395201  44.40 0.0004737363    1.293    0.227
        31  -9.2150     96.2232     14.9174   7.5285500098e+01   5.7234865618e+01    0.5159448     0.248877  -9.79  0.002322379    2.967    0.663
        32  -8.3568    104.6368     14.1340   7.3017453037e+01   5.5573486548e+01    0.3107219    0.1923218   1.38  0.001690973    2.094    0.523
        33  -9.4830     85.2436     13.1386   7.7489575281e+01   5.9565528519e+01    0.3509047    0.2460228 -59.03  0.001447912    2.393    0.582
        34  -7.6730     80.7045     12.6795   7.8571237646e+01   6.0470178568e+01    0.2027705    0.1521324 -55.95 0.0008767241    2.085    0.520
        35  -8.6193    101.9639      7.6350   7.1426887548e+01   5.6689737306e+01    0.2999475    0.2005905 -21.58  0.001700537    1.735    0.424
        36  -7.7786    104.6467      2.0737   6.8978997798e+01   5.6564567801e+01    0.1636731    0.1367706  41.57 0.0006363476    1.075    0.069
        37  -8.0854    143.7510      5.8969   6.3189163257e+01   4.7662710294e+01    0.2028172    0.1220539 -61.84  0.001077818    2.094    0.523
        38  -8.8705    131.4966      5.9329   6.5153992286e+01   5.0429511655e+01    0.2973145    0.1288707  50.63  0.001456086    1.931    0.482
        39  -8.1684     97.7061      5.6953   7.1725281486e+01   5.7722348146e+01    0.1835164    0.1371057  34.40 0.0002237175    1.194    0.163
        40  -8.2878     95.8300      2.8384   7.1162420356e+01   5.8325241898e+01    0.1673948    0.1558052  76.22 0.0004180441    1.291    0.225
        41  -8.2655     84.9844      5.6251   7.4796676903e+01   6.0259149228e+01    0.2463917    0.1506459  -5.48  0.001456357    1.899    0.473
        42  -8.5854     89.1263      2.8701   7.2753852917e+01   5.9664931420e+01    0.2005353    0.1503084 -19.55 0.0006517872    1.538    0.350
        43  -8.1166    135.6849      1.7009   6.3254778771e+01   4.9830077966e+01    0.2455786    0.1091764  57.62  0.001153555    1.751    0.429
        44  -9.9136    127.6819    102.5575   9.4441185289e+01   3.7199802260e+01    0.5997234    0.3432551 -41.89  0.001968152    1.764    0.433
        45 -12.0246    236.5694    247.3342   1.0150351175e+02  -1.2623018902e+01    0.2564244    0.2215185  12.00 0.0005698465    1.191    0.160
        46 -10.6373    200.7531    249.2473   1.0863880650e+02  -7.7109471012e+00    0.4447078    0.3077929  34.29  0.002617222    1.305    0.234
        47  -9.6092    138.6925     92.5097   8.8894246443e+01   3.6791208557e+01    0.6635888    0.4831424  82.97  0.001810661    1.872    0.466
        48  -9.8963    140.2736     83.5077   8.6012192472e+01   3.8134477156e+01     1.112367    0.3549334 -35.40  0.003338929    3.845    0.740
        49  -8.8641    140.0529     75.6378   8.3844968906e+01   3.9591015533e+01    0.3967643    0.2064428 -39.66  0.001220642    1.994    0.499
        50  -7.5945     86.8940    134.0000   1.1376253649e+02   3.7853929814e+01    0.3154817    0.0863369  36.20 0.0009281845    3.882    0.742
        51  -8.0919     82.2848    130.9543   1.1442710160e+02   3.9343642939e+01    0.4102171    0.2263909 -78.14  0.001407766    3.254    0.693
        52  -9.7422     98.4573    128.6286   1.0921567305e+02   3.7150441640e+01    0.5937884    0.3866787  81.17  0.002264475    2.685    0.627
        53  -8.1043    160.8460    128.7144   9.2998701622e+01   2.4213125867e+01    0.3553124    0.1769794 -63.06  0.001091609    3.364    0.703
        54  -9.8637     27.1308    123.2095   1.2940082889e+02   4.8060967818e+01    0.5654474    0.3957524  74.24  0.002026071    1.788    0.441
        55  -9.6029     41.3137    121.9267   1.2486694293e+02   4.6984970597e+01    0.5809836    0.2966997 -82.51  0.002120333    3.228    0.690
        56  -7.9973    158.1529    122.1616   9.2009628024e+01   2.6244648992e+01    0.2215249    0.1863154 -81.55 0.0007552218    1.333    0.250
        57  -8.6859    152.7889    121.1922   9.3027370593e+01   2.7661370380e+01    0.2186781    0.1918932  -9.53  0.001069234    1.353    0.261
        58 -10.2557    140.9597    117.7680   9.5042935944e+01   3.1042083444e+01    0.8985801    0.4656402 -47.74  0.001149021    1.924    0.480
        59  -8.8282    152.6643    116.1415   9.1782195428e+01   2.8779005877e+01    0.3601236    0.2791841 -17.35  0.001349672    1.660    0.398
        60 -10.0804     92.0120    113.1529   1.0731957000e+02   4.1908028153e+01    0.5894586    0.4286512 -82.92  0.001688472    1.957    0.489
        61  -7.9086      1.3645    116.7687   1.3605227251e+02   5.1440619075e+01    0.2324819   0.09776904 -73.10 0.0007158766    2.078    0.519
        62  -7.3039    186.1676    116.1631   8.4485759342e+01   2.1137505749e+01    0.2003772     0.170151 -79.57  0.001007281    1.250    0.200
        63  -9.8673     14.0875    111.1030   1.3131979504e+02   5.1917424697e+01    0.4415917    0.2503428  85.56  0.001680976    2.586    0.613
        64  -8.3299     14.0818    104.9952   1.3025500369e+02   5.3303384250e+01    0.2207837    0.1434284 -31.51 0.0006891534    1.592    0.372
        65  -8.7290    247.6574    114.9370   7.3778458690e+01   8.3951952833e+00    0.1972139    0.1520928 -50.29 0.0004828427    1.106    0.096
        66  -8.7707    166.3619    114.4736   8.8230814755e+01   2.6009136479e+01    0.3684934    0.2727993  25.41  0.001629771    1.765    0.433
        67 -10.2152     78.1218    112.9495   1.1148456150e+02   4.4263037724e+01    0.5508332    0.3547498 -74.04  0.001653558    2.168    0.539
        68  -7.9916     77.6846    105.6679   1.0979707306e+02   4.5983142028e+01    0.2329009    0.1650647 -17.60   0.00110184    1.759    0.431
        69  -8.9608     65.3004     85.8290   1.0850384392e+02   5.2094913249e+01    0.6615698    0.3718371  -4.34   0.00244284    3.564    0.719
        70 -10.5162     63.0413     95.8650   1.1198284607e+02   5.0303335737e+01    0.8690904    0.5455327 -88.87  0.001640253    4.017    0.751
        71  -9.8951     65.8496    110.8597   1.1481208644e+02   4.6566751945e+01    0.6493824     0.433491  81.66  0.001137342    2.613    0.617
        72  -9.3937     59.5683    109.6479   1.1652317974e+02   4.7697445685e+01    0.5448354    0.3258051 -65.91  0.001806709    1.859    0.462
        73  -9.1677     64.8434    103.8889   1.1343828377e+02   4.8288586509e+01    0.5590551     0.329662 -67.39  0.002460886    2.159    0.537
        74  -8.5053    158.8868    111.8301   8.9239184083e+01   2.8273277049e+01    0.2718602    0.2144506 -46.91 0.0005340652    1.255    0.203
        75  -9.5451     35.9485    111.5197   1.2449623683e+02   4.9975590742e+01    0.2741502    0.2336592  47.35  0.001696023    1.387    0.279
        76  -8.4886    149.8409    110.3664   9.0970303542e+01   3.0642560545e+01    0.2684052    0.1769548 -40.25 0.0006301083    1.548    0.354
        77 -10.8959     44.7025    102.4694   1.1970027497e+02   5.1125264754e+01    0.8657582    0.5309797  72.24   0.00306781    3.309    0.698
        78 -10.8731     20.5701    100.6340   1.2731932284e+02   5.3802033467e+01     1.026036    0.5643099  85.09  0.004174301    3.732    0.732
        79 -10.0547     20.2464     85.3099   1.2419022263e+02   5.7154820696e+01    0.8168634    0.1996919 -52.62  0.002778677    2.814    0.645
        80 -10.6311     25.8013     78.3507   1.2051895810e+02   5.8147022777e+01    0.6846274    0.4904836  85.19  0.003067512    2.388    0.581
        81 -10.6109     31.6381     65.2982   1.1478569728e+02   6.0176613026e+01     1.169685    0.4514645 -26.50  0.003945581    4.792    0.791
        82  -9.9275     34.4694     90.6231   1.2041175519e+02   5.4787747214e+01    0.6255328    0.2954409 -68.96  0.001726569    2.954    0.661
        83 -10.2896     36.7803     81.1926   1.1724101787e+02   5.6538803283e+01    0.7969616    0.3901332 -13.83   0.00305627    3.782    0.736
        84  -8.8869     40.0228    107.0444   1.2225224742e+02   5.0591488270e+01    0.2022416    0.1762286 -57.76 0.0006691949    1.085    0.079
        85  -8.9378    166.0750    104.1262   8.5674862068e+01   2.8186868641e+01    0.3091275    0.2137841 -50.26 0.0005204609    1.445    0.308
        86  -9.6400    149.6381    103.3520   8.9185332611e+01   3.2139498592e+01    0.4580302    0.2997163 -60.53  0.001068994    1.795    0.443
        87  -8.7187     92.5976    103.6422   1.0466931844e+02   4.3927183617e+01     0.515757    0.3194588  16.16  0.001975132    2.364    0.577
        88  -9.5911      6.1971    103.7317   1.3255335897e+02   5.4100938550e+01    0.3760646    0.2658747  72.34  0.001508056    1.844    0.458
        89  -8.2672     73.8624    102.3452   1.1015047682e+02   4.7313944915e+01    0.3700524    0.1847964 -49.51 0.0009442258    1.858    0.462
        90  -9.4381    159.1287    100.5838   8.6284358801e+01   3.0506665437e+01    0.4630623     0.237841 -45.86   0.00091831    1.949    0.487
        91  -9.5914     81.5305     99.3738   1.0693784313e+02   4.6748579055e+01    0.7029165    0.2774816 -47.79  0.002309755    2.384    0.581
        92  -9.3687     94.4145     97.2755   1.0238893016e+02   4.4966949018e+01    0.3353159     0.276585 -66.75 0.0007846589    1.414    0.293
        93  -8.8868     96.2669     90.8301   1.0001668811e+02   4.5959554935e+01    0.5149091    0.3244995 -11.36  0.002048903    2.623    0.619
        94  -9.3571    243.3686     96.1053   7.0466480738e+01   1.2551142113e+01    0.4094268    0.1636797 -60.69  0.001290763    4.328    0.769
        95  -9.8605    149.3632     96.6077   8.7457836729e+01   3.3552762322e+01    0.6559839    0.2876691  43.76  0.002367612    2.395    0.582
        96  -9.3297    150.3140     88.9629   8.5178650278e+01   3.4804317710e+01    0.4558935    0.2675557 -28.18  0.001410498    2.165    0.538
        97  -8.9280    164.5558     94.6472   8.3555830204e+01   3.0395969430e+01    0.2903639    0.2310627 -69.19  0.000623618    1.368    0.269
        98 -10.4845      5.4393     86.6892   1.2969863725e+02   5.7859370721e+01     1.509166    0.3886302 -59.45  0.005124096    2.702    0.630
        99  -9.6688    220.7830    249.7275   1.0485123253e+02  -1.0764535057e+01    0.3861321   0.09395535  39.07  0.001388144    3.879    0.742
       100 -10.4790    166.2495    248.2031   1.1541309517e+02  -2.0085354952e+00    0.4870734    0.2064316  32.11  0.002031634    2.385    0.581
       101 -11.1899    188.8796    247.2684   1.1067400895e+02  -5.5338397083e+00    0.5792025    0.5560558  83.81  0.003861675    1.366    0.268
       102  -7.5396     14.4966    246.4744   1.4527633991e+02   2.0810858443e+01    0.1140319    0.0863836  78.53 -1.568636e-05    1.072    0.068
       103 -10.3367      4.4562     41.8024   1.1895094609e+02   6.6558897174e+01    0.6496559    0.2991892 -52.35  0.002845276    1.947    0.486
       104  -7.4864      1.2038    238.0051   1.4708467649e+02   2.3920094121e+01    0.1459874   0.07063008 -81.47 0.0005103704    1.687    0.407
       105  -9.9835    188.2589    233.2524   1.0847450183e+02  -3.0565330209e+00    0.3438242     0.252543 -24.50  0.001139693    1.478    0.323
       106 -10.0437     13.3878     45.3104   1.1615925091e+02   6.5338133408e+01     0.637121    0.3151057  -5.11  0.002668931    2.476    0.596
       107  -7.8157    171.6198     93.1701   8.1705820647e+01   2.9016277542e+01    0.2033383    0.1441782 -31.40 0.0003762914    1.597    0.374
       108  -9.2251    157.9091     90.8121   8.3980803137e+01   3.2683290451e+01    0.4523467    0.2230724 -39.23  0.001395981    2.097    0.523
       109  -9.4384    110.5586     90.1348   9.5643785663e+01   4.3319654001e+01    0.8483214    0.4233504  27.95  0.002952605    3.076    0.675
       110 -10.3927    104.0130     82.6474   9.5339940390e+01   4.6083442719e+01    0.5561596    0.3288149 -54.73  0.001148978    2.057    0.514
       111  -9.5298    105.1110     71.7520   9.1736892073e+01   4.7853708118e+01    0.6799378    0.4852396   6.43   0.00326247    1.841    0.457
       112 -10.5672     48.3165     82.8811   1.1356447244e+02   5.4924186711e+01     1.087637    0.4275119 -46.91  0.002115097    2.197    0.545
       113 -10.2058     85.4233     86.6094   1.0214508942e+02   4.8752923025e+01    0.4561196    0.3536245  87.59 0.0009568681    2.030    0.507
       114  -9.3393     87.5812     78.6147   9.9098939708e+01   4.9930953449e+01    0.5811114    0.3417113  19.78  0.001971519    2.312    0.568
       115  -9.1625     83.4299     64.5626   9.6029463003e+01   5.3189098224e+01    0.4961276    0.3068773  -5.29  0.002176992    2.451    0.592
       116  -7.6602     78.1796     89.2309   1.0520948478e+02   4.9432064089e+01     0.186037    0.1671079 -74.35 0.0006749543    1.353    0.261
       117  -8.4376    163.2026     87.2309   8.1899233679e+01   3.2105591416e+01    0.2818147    0.1793619 -64.62 0.0007773442    1.988    0.497
       118  -9.7098    228.0828     85.3295   7.0270017455e+01   1.7566042403e+01    0.2413703    0.2214934 -80.82 0.0003930261    1.109    0.098
       119  -9.9278    232.5789     81.2527   6.8781452924e+01   1.7298474710e+01    0.3045727     0.238373 -43.57 0.0009494053    1.272    0.214
       120  -9.9780     81.5934     72.2983   9.9070238656e+01   5.2146060621e+01    0.4371784    0.3160883 -63.59 0.0008746837    1.963    0.491
       121  -8.8811    156.6546     70.0349   7.8646670108e+01   3.6656687148e+01     0.276608    0.1970047 -43.47  0.000646642    1.454    0.312
       122  -9.9719    157.9339     83.0275   8.1895721888e+01   3.4112986523e+01    0.6340816    0.3505219 -28.29  0.002337257    2.346    0.574
       123  -9.3225    156.9518     75.8620   8.0169716351e+01   3.5605602375e+01     0.438622    0.2194027 -36.34  0.001773786    2.145    0.534
       124  -7.9881    170.5914     83.2879   7.9364227309e+01   3.1071787132e+01    0.1999916    0.1447987 -30.61 0.0009484395    1.577    0.366
       125  -9.1809     74.1884     80.1519   1.0388476435e+02   5.1886282751e+01      0.37325    0.2292883 -58.70  0.001031108    2.084    0.520
       126  -8.0013     74.9896     74.5273   1.0192337262e+02   5.2831897881e+01    0.2459632    0.1448885  -8.20 0.0009770907    2.896    0.655
       127  -8.3666     63.5535     81.5860   1.0789001053e+02   5.3200655775e+01    0.3529713    0.1142235 -45.08  0.001194707    2.820    0.645
       128  -9.2932    150.2136     79.7203   8.2676271449e+01   3.6517124574e+01    0.5580537    0.3195662 -25.49   0.00224225    2.372    0.578
       129  -9.0016    119.0330     80.5107   9.0517448351e+01   4.3394310445e+01    0.3397023    0.2408645 -52.62  0.000797329    1.569    0.363
       130  -8.4860    120.0042     76.0021   8.8930225786e+01   4.4000805454e+01    0.3124669       0.2256  31.02  0.000833734    1.494    0.331
       131  -8.1712     68.7008     79.6704   1.0557958528e+02   5.2826796021e+01    0.3601384    0.1045557 -43.12  0.001232951    3.265    0.694
       132  -9.1283    237.5546     75.8243   6.6995192628e+01   1.7147928993e+01    0.2306764     0.167595 -71.80 0.0006638177    1.290    0.225
       133  -9.1077    166.3269     78.6521   7.8999303370e+01   3.2900628786e+01    0.2859946    0.2245704 -45.47  0.001179565    1.295    0.228
       134  -8.2977    184.2603     77.9801   7.5454248607e+01   2.8761337459e+01    0.2434067    0.2033309  64.57 0.0006406152    1.164    0.141
       135  -7.6836    173.9880     78.7651   7.7537865646e+01   3.1060760063e+01    0.1931655    0.1184174  57.74 0.0005822153    1.582    0.368
       136 -10.0862    148.7361    224.2048   1.1533414421e+02   5.5086523790e+00    0.2396757    0.2161075  44.58 0.0002638696    1.026    0.025
       137  -9.4760    127.3387     75.2286   8.6810518710e+01   4.2534825365e+01     0.350248    0.2751957 -72.30 0.0008244244    1.613    0.380
       138  -9.5732    129.2824     69.0140   8.4501183628e+01   4.3162982503e+01    0.6411635    0.2762282  33.71  0.001986984    3.998    0.750
       139  -8.5672    130.4843     64.5679   8.2896051892e+01   4.3618662567e+01    0.4082437    0.2341955 -42.72  0.001499568    1.854    0.460
       140  -9.5227    115.1525     73.0435   8.9340987202e+01   4.5556407240e+01    0.5881125    0.2715282 -33.51  0.002279829    2.441    0.590
       141 -10.1069     62.7869     60.8381   1.0177579854e+02   5.7167425927e+01    0.7456254    0.2704832  35.28  0.002339223    2.795    0.642
       142 -10.6311     54.9726     70.8411   1.0772576286e+02   5.6458107123e+01    0.6554591    0.4407652  57.40  0.001150793    2.464    0.594
       143  -9.0848     55.5891     63.0839   1.0508789691e+02   5.7793641601e+01    0.5682465    0.2781805  32.00  0.002753281    2.087    0.521
       144  -8.3032    169.4839     71.4369   7.6490874689e+01   3.3373925592e+01    0.3298777    0.1681588 -44.26  0.001355484    1.988    0.497
       145  -8.9059    171.2301     66.2903   7.4822342548e+01   3.3793902719e+01    0.3245893    0.2410817 -55.11  0.001007255    1.382    0.276
       146  -9.2951    147.0743     69.4075   8.0500048897e+01   3.9016414539e+01    0.3738203    0.2538193 -66.24 0.0008806304    1.898    0.473
       147  -9.8025     94.8410     68.2518   9.3661564382e+01   5.0469429810e+01    0.3842637     0.258997 -49.86 0.0008128548    1.704    0.413
       148  -9.7894     96.8305     59.0749   9.0136970483e+01   5.1603541407e+01    0.7333856    0.4390175 -14.36  0.003249115    2.356    0.576
       149  -7.9833     23.0856     68.9963   1.1911422946e+02   6.0240992253e+01    0.1827624    0.1429993 -34.39  0.000305996    1.029    0.028
       150  -9.6763    138.9080     56.8062   7.8683314618e+01   4.2892866327e+01    0.5746953    0.2485147 -35.96  0.001911315    2.473    0.596
       151  -9.4780    138.2513     66.4670   8.1633572257e+01   4.1543983776e+01    0.3383264    0.2297887 -57.11 0.0006035222    1.751    0.429
       152  -9.0394    141.9713     48.6038   7.5651899738e+01   4.3356872835e+01     0.307538    0.2307138 -19.69 0.0004726377    1.606    0.378
       153  -8.6474    143.0023     44.4813   7.4253376716e+01   4.3673144848e+01    0.3507675    0.1552608  40.80  0.001339787    2.714    0.632
       154  -8.9974    121.2521     66.0366   8.5620597751e+01   4.5429674888e+01    0.3094698    0.2442247 -62.55 0.0007230317    1.547    0.353
       155  -8.4493    122.1270     61.1983   8.3930582523e+01   4.6011969528e+01    0.2887301    0.2182316  19.36 0.0008591826    1.563    0.360
       156  -8.0907    162.7297     72.8913   7.8188720798e+01   3.4739790940e+01    0.2558501    0.1808155 -59.84 0.0006003737    1.557    0.358
       157  -9.5285    109.7984     63.9219   8.8000422234e+01   4.8215370872e+01    0.3595764    0.2673079 -48.52 0.0005580515    1.515    0.340
       158  -9.1019    110.5952     58.2501   8.6005588950e+01   4.8946336760e+01    0.4194355    0.2771017  22.17  0.001335091    1.873    0.466
       159  -7.3679     75.5280     66.4857   9.9226885163e+01   5.4201657829e+01    0.1329439    0.1219479  -3.60 6.416298e-05    1.049    0.047
       160  -8.6848    157.5509     63.2305   7.6610127893e+01   3.7536772332e+01    0.2466432    0.1863872 -60.62 0.0007785622    1.443    0.307
       161  -8.6265    147.7990     63.4239   7.8661585542e+01   3.9809641144e+01    0.2618453     0.213594  -5.48 0.0009036697    1.557    0.358
       162  -8.4361    146.6727     59.1276   7.7685650691e+01   4.0736689220e+01    0.2835346     0.189946 -57.03  0.001267462    1.748    0.428
       163  -8.8677    147.3653     54.1084   7.6120929024e+01   4.1318177919e+01    0.4135129    0.2500137 -20.62   0.00141961    2.237    0.553
       164  -8.4342     10.9115     61.5554   1.2189348083e+02   6.2586803464e+01    0.2518746    0.1902935  74.83  0.001533555    2.356    0.576
       165  -8.4690    164.3358     60.2304   7.4498212556e+01   3.6385037132e+01    0.3506388    0.1814748 -49.83  0.001501992    2.115    0.527
       166  -9.0605    162.6713     53.2608   7.2941944047e+01   3.7815976499e+01    0.4686082    0.2307281 -29.95  0.001847692    2.442    0.590
       167  -8.9457     80.0335     46.5152   9.1071468871e+01   5.6622723394e+01    0.4141947    0.2351867 -16.13 0.0006825769    2.267    0.559
       168  -8.7239     87.5979     58.4592   9.2726115517e+01   5.3446869805e+01    0.2463149    0.2281736 -71.76 0.0007479883    1.407    0.289
       169  -8.7087     88.7102     53.3997   9.0704081806e+01   5.4029269802e+01      0.48619    0.2675005  22.48  0.002095137    2.470    0.595
       170 -10.2231     85.0924     48.0776   9.0017343093e+01   5.5485956229e+01    0.3815796    0.2918454 -58.96 0.0009317599    1.891    0.471
       171 -10.3382     89.5787     38.3530   8.5301241221e+01   5.5971890497e+01     1.021123    0.3603396  34.10  0.003448523    4.039    0.752
       172  -8.2641    152.4501     60.0506   7.6755329225e+01   3.9236381819e+01    0.2097249    0.1405492 -37.52  0.001029207    1.595    0.373
       173  -8.7727    129.8899     58.0740   8.1103888061e+01   4.4763265991e+01    0.2915976    0.2003171 -44.22 0.0004886333    1.580    0.367
       174  -9.6383    128.0582     53.1113   8.0039573024e+01   4.5908950123e+01    0.3093119    0.2445163  65.17  0.001695679    1.287    0.223
       175  -8.2693     53.4828     39.1512   9.7634586238e+01   6.1925093443e+01    0.2295213    0.1897632 -28.59 0.0008063161    1.286    0.223
       176  -8.6817     54.5081     35.5030   9.5895328394e+01   6.2287650728e+01    0.3594383     0.172562 -20.83  0.001673298    2.584    0.613
       177 -10.1243     50.0643     54.1225   1.0419902476e+02   6.0070127824e+01    0.5968013       0.3435 -55.46  0.002517832    2.478    0.596
       178  -9.6034     55.9509     43.6718   9.8361277968e+01   6.0912806677e+01    0.7638258    0.3882338   4.12  0.002779804    4.373    0.771
       179  -9.4346    118.2279     54.7498   8.2924586644e+01   4.7844043757e+01     0.434555     0.272141 -39.60  0.000865706    1.717    0.418
       180  -8.0112    157.6202     56.1538   7.4665616780e+01   3.8595835568e+01    0.1828022    0.1376551 -19.39 0.0006822813    1.670    0.401
       181 -10.0935     73.3259     57.5152   9.7032012117e+01   5.6080959765e+01    0.9506177    0.3460705 -35.49  0.002162483    2.891    0.654
       182  -9.1791     43.8619     53.7879   1.0645495977e+02   6.0904822775e+01    0.2939302    0.2070175 -42.42 0.0009533167    1.411    0.291
       183  -8.1183     40.2761     49.9887   1.0658041939e+02   6.1964720804e+01    0.2104385    0.1613646  31.39 0.0008238142    1.472    0.321
       184  -7.9485    152.6338     53.7898   7.4979352381e+01   4.0122948257e+01    0.1877541    0.1246317 -48.94 0.0003024964    1.629    0.386
       185  -9.1499    105.5211     51.6650   8.5271652277e+01   5.0985384881e+01    0.5428286    0.2970717 -28.93  0.001829248    2.028    0.507
       186  -8.4806    157.5228     49.0205   7.2737648711e+01   3.9640043972e+01    0.1943322    0.1363772 -38.56 0.0007472019    1.538    0.350
       187  -9.6127    130.5573     46.0848   7.7348680455e+01   4.6323267484e+01    0.7159607    0.3269401 -20.15  0.001533384    3.553    0.719
       188  -8.9899    132.7277     35.9523   7.3838336429e+01   4.7120004054e+01    0.2922599    0.2413002  14.05  0.001126498    1.419    0.295
       189 -10.6970    134.0092     31.0376   7.2112539628e+01   4.7403647058e+01    0.3175553    0.2528931  11.59            0    1.532    0.347
       190  -9.2585    153.2007     41.1196   7.1359578558e+01   4.1718736289e+01    0.4262992    0.2571673 -58.52  0.001586209    2.040    0.510
       191  -8.5356    149.9327     48.0038   7.3889962068e+01   4.1575093058e+01    0.2938452    0.1935412 -39.12 0.0004758124    1.636    0.389
       192  -9.0194    148.5733     42.9127   7.2719806639e+01   4.2575809619e+01    0.3531782    0.2224315  71.55  0.001742569    1.628    0.386
       193  -9.0814    121.1833     47.0565   7.9804451962e+01   4.8288988653e+01    0.2951482    0.2010483 -39.48 0.0005074034    1.610    0.379
       194  -8.1294    122.0364     41.4164   7.7847204987e+01   4.8845842777e+01    0.3303587    0.2112853  16.86  0.001537648    2.227    0.551
       195  -8.9299    112.5866     44.9838   8.1261035305e+01   5.0435044918e+01    0.6324944    0.3144299 -14.94  0.002400365    3.500    0.714
       196  -7.7292    162.2086     46.2165   7.1138932164e+01   3.8911324999e+01    0.1878123    0.1478538 -85.98 0.0004309824    1.326    0.246
       197  -7.5082     21.5076    217.4512   1.4192056565e+02   2.6217238880e+01    0.1213989   0.09679183  86.41  3.66632e-05    1.072    0.067
       198  -7.9626      2.4822    217.4890   1.4559408220e+02   2.8130958884e+01    0.1179496   0.08784623  84.60 0.0008101877    1.025    0.025
       199 -10.0443     76.2019     32.0405   8.7122686615e+01   5.9227162888e+01    0.5142332    0.3581183  56.76  0.001772713    1.777    0.437
       200  -7.3647    150.5228    209.5659   1.1246190128e+02   8.2133345234e+00    0.1441669    0.1356466  38.98 0.0002861097    1.019    0.019
       201 -10.0507     10.3207    207.3138   1.4334989512e+02   2.9630143023e+01    0.4361949    0.3172392  23.00  0.002757212    1.934    0.483
       202  -8.1927    194.7084    199.3699   1.0095409317e+02   2.1192550792e+00    0.2884402    0.1733876 -61.59   0.00120313    2.442    0.591
       203  -9.0198     84.6956     21.9451   8.0863381826e+01   5.8810257114e+01    0.2449315    0.2138902  17.39 0.0007499114    1.084    0.078
       204  -8.2058    192.4812    194.9861   1.0056082917e+02   3.3921096962e+00    0.3064727    0.2233173 -68.75  0.001321922    1.922    0.480
       205  -8.2547    190.4994    191.0238   1.0019167510e+02   4.5566396981e+00    0.3774884    0.2312015 -66.16  0.001504529    2.628    0.619
       206  -7.6542     25.7112    175.9563   1.3708414126e+02   3.5437732874e+01    0.1812829    0.1363406 -78.59 0.0003496034    1.094    0.086
       207  -9.1337    242.3867    169.9865   8.5941123980e+01  -7.3559462217e-01    0.2432106    0.1967463  39.10 9.189823e-05    1.392    0.281
       208  -7.4800     15.4810    170.5558   1.3891600115e+02   3.7704114047e+01    0.1268518    0.1018526 -78.89 8.072599e-05    1.041    0.040
       209  -9.5767    243.1879    164.9832   8.4791797606e+01   4.1537301635e-02    0.3685963    0.2310981  37.53  0.000323452    1.828    0.453
       210 -10.4978     35.9119     37.9472   1.0409604112e+02   6.4366980412e+01    0.5044753    0.2596298 -16.92 0.0003707049    2.362    0.577
       211  -9.0586    104.9944     40.8657   8.1875612724e+01   5.2574040500e+01    0.3506493    0.2223569 -48.14   0.00102675    1.990    0.498
       212  -8.4038    105.9956     36.2927   8.0101559743e+01   5.2939747830e+01    0.2364195    0.1871785  38.70 0.0007422572    1.123    0.109
       213  -9.1081    139.3956     39.7784   7.3612745597e+01   4.5117332170e+01    0.3904016    0.2530425 -40.33  0.001342629    1.696    0.410
       214  -9.5652    223.1857     37.0141   6.0566497645e+01   2.6003561219e+01    0.3577545    0.2386639 -40.30  0.001029388    1.585    0.369
       215  -7.6904    160.1366     39.1957   6.9615914133e+01   4.0324487442e+01    0.1865083    0.1475735 -73.64 0.0007529659    1.344    0.256
       216  -8.8384    144.3431     36.6493   7.1745785104e+01   4.4356432362e+01    0.2769803    0.2046793 -67.50 0.0005625907    1.609    0.379
       217  -8.7278    118.9627     34.6205   7.6420867658e+01   5.0361549676e+01    0.2702342    0.1836075 -29.75 0.0006895406    1.643    0.391
       218  -8.3677    153.4732     34.4838   6.9483049646e+01   4.2480271957e+01    0.2096841    0.1730071 -52.16 0.0009786508    1.316    0.240
       219  -8.9154    110.3630     33.2868   7.8021456782e+01   5.2378346938e+01    0.2764912    0.2065257 -53.29 0.0009915376    1.709    0.415
       220  -8.4185    243.1023    160.2973   8.3852444372e+01   9.1561768795e-01    0.2399952    0.1899883 -50.26 0.0003095483    1.234    0.190
       221  -9.0183    101.1561     31.9366   7.9890868716e+01   5.4459384794e+01    0.3536209    0.2035992 -41.93 0.0008407929    2.084    0.520
       222  -9.2598     98.1161    165.0617   1.1703556192e+02   2.8266184912e+01    0.2232144    0.2117492  58.06 0.0002850167    1.086    0.079
       223  -9.5050    152.3086     29.0587   6.8193109252e+01   4.3388172812e+01    0.4272316    0.2456471   0.34  0.001691689    3.539    0.717
       224  -9.1156     91.3652     26.0930   8.0486968828e+01   5.7080480069e+01    0.3058351    0.2225379 -53.25  0.001092709    1.960    0.490
       225  -8.7634     92.0153     21.0063   7.8509697275e+01   5.7488034844e+01    0.3640918    0.1728859  35.12  0.001111322    2.118    0.528
       226  -7.6018    196.5104     29.6188   6.1990585801e+01   3.2961964980e+01    0.1294532    0.1060525  85.93 0.0001949268    1.032    0.031
       227  -8.9271    144.2982     26.0004   6.8723548209e+01   4.5595019401e+01    0.2522275    0.1933716 -46.67 0.0008732991    1.464    0.317
       228  -8.3440    130.1544     21.6554   7.0061569374e+01   4.9289241781e+01    0.2869388    0.1099858  45.46   0.00119762    2.500    0.600
       229  -7.2752    123.3010     26.3500   7.2875226779e+01   5.0335769342e+01    0.1348192   0.08863916  30.67  0.000703837    1.693    0.409
       230  -8.2394    128.2481     25.8604   7.1707279208e+01   4.9281321375e+01    0.2097171    0.1764212 -33.44 0.0006066681    1.361    0.265
       231  -9.1809    119.0056     21.6280   7.2302426951e+01   5.1775231553e+01    0.2526767    0.2150941  39.28 0.0004821596    1.103    0.093
       232  -9.0270     40.9634     21.0972   9.5491623766e+01   6.6026560896e+01    0.2735016    0.1408356 -24.54 0.0005831671    1.894    0.472
       233  -7.5981    140.3023     22.6812   6.8484808936e+01   4.6870603741e+01    0.1276157   0.09367179 -76.39  0.000398057    1.625    0.384
       234  -8.6137    164.2381    162.0559   9.9926358192e+01   1.6015563977e+01    0.2440632    0.2204158  41.03 0.0004193535    1.126    0.112
       235 -10.3437    211.2223    158.1129   8.9123847090e+01   7.2337484248e+00    0.2646061     0.253625 -44.58 0.0002880877    1.046    0.044
       236  -8.9881    111.8420     20.9987   7.3659912287e+01   5.3393519022e+01    0.3480344    0.1851788 -15.06  0.001706862    2.451    0.592
       237  -8.6247     97.0123    149.9349   1.1433019652e+02   3.2214277021e+01    0.2179646    0.2047143 -67.47  0.001172866    1.014    0.014
       238  -8.9950    237.7243    145.9934   8.1793446752e+01   4.5384646458e+00    0.3240326    0.2097533   6.99  0.001317469    3.077    0.675
       239  -8.4387    133.8688    146.4136   1.0378414903e+02   2.5995095082e+01    0.7311639    0.1905827 -55.08  0.001654346    5.650    0.823
       240  -8.1434    169.0064     20.6707   6.3419049145e+01   4.0397704562e+01    0.1807684    0.1430075  74.68 0.0004073653    1.067    0.063
       241  -9.5345     66.8406    144.2093   1.2160179134e+02   3.8401611258e+01    0.5110512    0.3480633  79.99  0.002368958    1.908    0.476
       242  -8.7155    230.4552    140.6083   8.1875855050e+01   6.9281930876e+00    0.2326243    0.2090938 -48.00  0.000344425    1.019    0.018
       243  -7.4578    216.5231    139.7411   8.4132362181e+01   9.8462033763e+00    0.2144703    0.1276561 -54.07 0.0009366957    1.737    0.424
       244  -7.7263    158.8224    139.2838   9.6006263560e+01   2.2313959171e+01    0.2051004    0.1839604  -0.86 0.0003826489    1.301    0.232
       245 -10.6275     70.1027    126.2439   1.1700198593e+02   4.2338519530e+01    0.8553107    0.5936642 -34.06  0.001671034    1.585    0.369
       246 -10.0948     58.4148    124.6984   1.2020326535e+02   4.4310176711e+01    0.7839943    0.4597848  82.49  0.002510416    3.408    0.707
       247  -7.2336    163.3187    134.7630   9.3888648619e+01   2.2331787978e+01    0.1528249    0.1218631  81.77  0.000150951    1.510    0.338
       248  -8.3635    112.2627    133.9549   1.0660544640e+02   3.3298772122e+01    0.2867388    0.2129711  70.69  0.001085049    1.687    0.407
       249  -8.7406    126.1604     83.8613   8.9615571108e+01   4.1232070652e+01    0.5192807    0.3166896   9.71  0.001733406    3.758    0.734
       250  -8.0702    141.7157     12.9187   6.5465275569e+01   4.7504653606e+01    0.1678982    0.1543383  72.53 0.0004981653    1.102    0.093
       251 -10.8635     21.9715     53.6125   1.1514212495e+02   6.3198849478e+01    0.7260365    0.4945306 -82.86  0.002838879    3.612    0.723
       252  -9.4860    132.6892     17.1413   6.8241607823e+01   4.9161920840e+01    0.3494155    0.1888394  62.61    0.0012953    1.576    0.366
       253  -9.8479    117.1972    125.6747   1.0326080491e+02   3.4275129018e+01    0.7500637    0.4812946 -84.71  0.002438973    2.870    0.652
       254 -10.6959    123.6098     91.6202   9.2492433794e+01   4.0296610950e+01    0.9675801    0.6538386  54.72  0.002759601    1.556    0.357
       255  -9.9791     37.9556     42.2326   1.0481185561e+02   6.3476778048e+01    0.3480672    0.3001279 -70.19  0.001462279    1.999    0.500
       256 -10.0600    139.4275    103.4596   9.1684198364e+01   3.4428965056e+01    0.7315962    0.3568705 -44.86  0.001966603    2.055    0.513
       257 -10.7565    132.0400    119.8743   9.7851209630e+01   3.2515603279e+01     1.189441    0.8043196 -74.45  0.004486097    2.115    0.527
       258 -10.9723    133.4583    109.6230   9.4829473232e+01   3.4452431707e+01     3.104172    0.4945631 -45.38  0.006770653    6.272    0.841
       259 -10.4121    108.9573    113.0883   1.0236939963e+02   3.8778415913e+01     1.127099    0.5094376 -49.09  0.001877196    2.180    0.541
       260 -10.4758    108.1509     99.6977   9.9016767978e+01   4.1847193567e+01    0.8416855     0.594628  77.46  0.002516406    2.225    0.551
       261 -11.2247    121.3714    110.0567   9.8133250980e+01   3.6939718030e+01     1.634641    0.7824357 -44.15  0.004971804    2.078    0.519
