#   1 NUMBER                 Running object number                                     
#   2 MAG_AUTO               Kron-like elliptical aperture magnitude                    [mag]
#   3 X_IMAGE                Object position along x                                    [pixel]
#   4 Y_IMAGE                Object position along y                                    [pixel]
#   5 X_WORLD                Barycenter position along world x axis                     [deg]
#   6 Y_WORLD                Barycenter position along world y axis                     [deg]
#   7 A_WORLD                Profile RMS along major axis (world units)                 [deg]
#   8 B_WORLD                Profile RMS along minor axis (world units)                 [deg]
#   9 THETA_WORLD            Position angle (CCW/world-x)                               [deg]
#  10 FWHM_WORLD             FWHM assuming a gaussian core                              [deg]
#  11 ELONGATION             A_IMAGE/B_IMAGE                                           
#  12 ELLIPTICITY            1 - B_IMAGE/A_IMAGE                                       
         1 -16.5187    141.7505     83.7909   7.6913446291e+01   3.7422117440e+01      3.81796     2.959988  21.40   0.01760498    1.556    0.357
         2 -19.5103    176.3819    145.7620   8.5088060023e+01   1.6837667877e+01     8.303798     7.972297 -39.86   0.04602573    1.069    0.065
         3 -17.2600    203.5867    128.7558   7.5510595741e+01   1.4111514728e+01     4.805392     3.028843 -86.27   0.01538044    4.253    0.765
         4 -12.0968    238.6377     16.0279   4.1616964482e+01   2.3445548887e+01    0.3641706    0.2233401 -57.06  0.001344913    1.490    0.329
         5 -11.1874     23.1344     10.5015   9.0511311901e+01   7.0992935048e+01    0.2525385    0.1112172 -30.99 0.0009984083    2.000    0.500
         6  -9.7793    125.0286      8.5306   5.4511488126e+01   5.2863432165e+01    0.1990943    0.1263952  61.96  0.000341321    1.479    0.324
         7 -10.6370    244.3013      8.6599   3.9422127119e+01   2.2974504466e+01    0.1412157   0.07790763 -59.45 0.0007037341    1.670    0.401
         8  -9.5942    130.2913      6.3446   5.2644194769e+01   5.1784598569e+01    0.1462043   0.09237338  31.85 0.0007027151    1.658    0.397
         9 -11.7308    238.0094      4.4720   3.8934453356e+01   2.4882144487e+01    0.2239449    0.1858629  -5.28 0.0008614803    1.604    0.377
        10 -11.5206    211.7399      4.8680   4.1260789294e+01   3.1168357856e+01    0.3325321    0.1695012  52.89  0.001177567    2.097    0.523
        11  -9.9400    159.5367      5.5409   4.7524300299e+01   4.4468799092e+01     0.138457    0.1251776  66.11  7.98113e-05    1.011    0.011
        12 -10.7727    107.6977      4.3790   5.6604825443e+01   5.7316902109e+01    0.2567255    0.1957808  34.01 0.0005623198    1.184    0.155
        13 -10.5606      7.6447      4.8653   9.6080116600e+01   7.3219180192e+01    0.1798787    0.1382115   7.75 0.0007606254    1.395    0.283
        14 -11.5028    245.7756      3.5877   3.8151570881e+01   2.3193761343e+01    0.2607425    0.1089895  86.89 0.0005896525    2.605    0.616
        15 -11.4700     40.5043      2.7378   7.8091655194e+01   7.0018286339e+01    0.2190026    0.1818157  19.27 0.0001976026    1.281    0.219
        16 -10.8127    207.1832      1.6054   4.0832366187e+01   3.2630934858e+01    0.2632541    0.1200686  79.20  0.001141592    2.112    0.527
        17  -9.5630    116.4912      1.4721   5.3479452849e+01   5.5532002340e+01    0.1350349    0.1176013  40.15 0.0001608634    1.010    0.010
        18  -9.6973    210.8581    248.1251   9.7001265912e+01  -5.6921097357e+00    0.1567093    0.1108328  16.54 0.0005802403    1.300    0.231
        19 -11.0577    218.4397    249.4994   9.5904020179e+01  -6.9874746736e+00    0.3131947    0.1905304  46.86  0.001932335    1.741    0.426
        20 -12.3004    193.0701    248.8806   1.0019576129e+02  -3.0432912573e+00    0.3466996    0.1942939  36.54  0.001575374    1.394    0.283
        21 -10.6879    135.6167    250.6222   1.1056540028e+02   5.7741199768e+00    0.2120243   0.08780973  43.11 0.0002557072    1.861    0.463
        22 -10.9572    125.5461    248.1938   1.1208547620e+02   7.6989717237e+00    0.2851276    0.1679858 -62.41  0.001740031    2.130    0.531
        23  -9.6013     16.3514    250.3191   1.3040998362e+02   2.1716579301e+01   0.08156661   0.07349735 -78.13 0.0007047643    1.742    0.426
        24 -15.5292    188.0891    210.8965   9.5357750301e+01   3.0169643275e+00     2.671063       1.0662  36.48   0.01056988    2.343    0.573
        25 -16.0982    145.4530    190.7254   1.0055401746e+02   1.4226605460e+01     3.108281      1.79023  64.36   0.01345236    2.378    0.579
        26 -15.5340    230.8022    168.2751   7.9311206580e+01   1.8482617924e+00     1.628894     1.162489 -21.61  0.005374771    1.359    0.264
        27 -15.1670    239.7381    141.7030   7.1988657490e+01   4.3443999458e+00    0.9653192    0.7928358  -0.73  0.002904482    1.200    0.167
        28 -15.8098    189.7707    100.8802   7.1120127670e+01   2.2510326191e+01     2.923534     1.736866  87.32  0.008929392    4.007    0.750
        29 -16.5855    129.4347    155.3315   9.7772958300e+01   2.4525193225e+01     4.081595     1.287777  46.47   0.01332738    3.130    0.681
        30 -15.9832    207.9265    179.3387   8.5803158438e+01   4.3757449629e+00     1.606671     1.114059   2.37  0.005121122    1.765    0.434
        31 -15.6702    142.4343    143.6322   9.2281890568e+01   2.4485955673e+01     1.615727    0.9597418 -28.06  0.006256265    2.509    0.601
        32 -15.9430    212.0151    122.6826   7.2435582837e+01   1.3344237694e+01      1.80863     1.115016  63.33   0.00770456    2.082    0.520
        33 -15.7142    189.3671    178.7336   8.9316381176e+01   8.0365083892e+00      1.35307    0.8448882  36.65  0.005840047    1.516    0.341
        34 -10.5152    176.5782    244.7885   1.0255356413e+02   9.2256801541e-02    0.2278537    0.1597737  47.30 0.0007188894    1.271    0.213
        35 -11.2157    102.6118    200.3574   1.1092174469e+02   1.9745577289e+01      0.26036    0.1528417 -55.51  0.001368841    1.884    0.469
        36  -9.1378     50.3233    201.6528   1.2157045961e+02   2.6889239091e+01    0.1303713   0.06955907  69.06 0.0007049653    1.742    0.426
        37 -15.6944    191.4323    168.0459   8.6759035235e+01   9.5110333924e+00     1.453874    0.7694823  36.66  0.006286206    1.898    0.473
        38 -11.6082    226.7550    209.1391   8.7924205918e+01  -3.3467045330e+00    0.3511602    0.2106931  20.32  0.001726196    1.699    0.411
        39  -9.5385     27.9920    200.0588   1.2570554402e+02   2.9768981823e+01    0.1369912    0.0998689  79.40 0.0003610689    1.026    0.026
        40 -11.2610    190.7603    230.8258   9.8005986025e+01  -3.2347697851e-01    0.3849089    0.1651492  42.64  0.001872644    1.940    0.485
        41 -10.6075     97.6005    230.8528   1.1534717070e+02   1.4809105227e+01    0.2255497    0.1832384  47.84  0.001557988    1.217    0.178
        42 -10.2349     46.5468    195.4815   1.2177895994e+02   2.8613581308e+01    0.2054428   0.08633439 -61.20 0.0009586808    2.393    0.582
        43 -10.5469     69.3583    194.8282   1.1712104592e+02   2.5823470162e+01    0.2245806    0.1701045  44.65 0.0009414651    1.359    0.264
        44 -10.5351     45.6336    201.4989   1.2246386304e+02   2.7487869767e+01    0.2119252    0.1611447 -86.95  0.001077725    1.176    0.150
        45  -9.5552     36.3101    194.6672   1.2371979536e+02   2.9965219377e+01    0.1262339    0.0673343  69.48 0.0005080521    1.673    0.402
        46 -11.1601     53.0097    191.9058   1.2016209665e+02   2.8572244291e+01     0.196078    0.1577039  88.90            0    1.105    0.095
        47 -10.0177     55.7665    188.6046   1.1927922544e+02   2.8924427745e+01    0.1774518    0.1500166  87.04 0.0003005189    1.127    0.113
        48 -10.8748     91.6467    190.6739   1.1198345397e+02   2.3442494317e+01    0.3032838    0.1611472  58.41   0.00102097    1.876    0.467
        49 -11.0652     90.7583    187.0239   1.1170408994e+02   2.4346215923e+01    0.2773117    0.1910772 -79.10 0.0009931936    1.459    0.314
        50 -10.8860     92.4613    183.5357   1.1087382048e+02   2.4823097460e+01    0.2073153    0.1786747  82.59 0.0005067736    1.047    0.045
        51 -10.9912     81.6559    187.9193   1.1376594209e+02   2.5528780157e+01    0.2426344    0.2001289  78.13 0.0004546505    1.036    0.035
        52 -11.2401     66.7004    185.0607   1.1661641776e+02   2.8252546130e+01    0.2083927    0.1744342  62.36 0.0001900562    1.139    0.122
        53  -9.7128    248.0896    185.5359   7.9789159020e+01  -3.6816188535e+00    0.1834486    0.1144945  36.10 0.0007694891    1.536    0.349
        54  -9.8376    155.0853    245.5073   1.0649808720e+02   3.4412037641e+00    0.1856754   0.09413631  42.21 0.0009942974    1.545    0.353
        55 -10.6880     25.0244    181.9772   1.2496368544e+02   3.3828619072e+01    0.1735541    0.1313276  82.27            0    1.013    0.013
        56 -10.7590    128.0384    229.7500   1.0954901957e+02   1.0253091111e+01    0.2129162    0.1816676 -74.32 0.0004635348    1.353    0.261
        57 -10.7519     84.9758    180.3584   1.1209088715e+02   2.6656486507e+01    0.1906876    0.1503415  55.48  0.001133461    1.173    0.148
        58 -10.6653     51.2363    180.0230   1.1936697024e+02   3.1333936098e+01    0.1968151    0.1559607  59.78 0.0003700419    1.188    0.158
        59 -12.9265     99.9512    170.4773   1.0731128282e+02   2.6457914806e+01    0.6674339    0.4661573  76.45  0.001466316    1.561    0.360
        60 -12.3398     94.8028    177.1036   1.0946358978e+02   2.5840383573e+01    0.6871063     0.329449 -71.78  0.001023034    2.479    0.597
        61 -12.3311     89.3018    174.1308   1.1027669154e+02   2.7356666141e+01     0.420453    0.3733586   1.82  0.002504908    1.614    0.380
        62 -10.1464     13.6319    177.6755   1.2692856099e+02   3.5835462032e+01    0.1069476   0.07679426 -53.57 0.0007035935    1.803    0.445
        63 -10.5259     68.9045    174.9596   1.1495849282e+02   3.0157823940e+01    0.1885218    0.1583617  82.84  0.001190662    1.017    0.016
        64 -10.1064      1.9820    173.0290   1.2893671332e+02   3.7821595035e+01    0.1359566   0.09820774  83.33 0.0003634999    1.011    0.011
        65 -11.4300     79.6227    171.3035   1.1207762553e+02   2.9447587395e+01    0.2831604    0.2057995  80.31  0.000628681    1.331    0.249
        66 -10.6634     55.2444    171.3760   1.1757010777e+02   3.2746374862e+01     0.285059     0.149193 -68.11  0.001481524    1.717    0.418
        67 -10.9310      2.7786    168.2386   1.2847576694e+02   3.8775385801e+01    0.2010318     0.138216 -86.15 0.0002492257    1.115    0.103
        68 -12.3211     86.0332    165.6207   1.0979509864e+02   2.9760716503e+01    0.4649106    0.2996182  24.71  0.002250079    2.167    0.539
        69 -11.5251     91.5657    165.4706   1.0848124973e+02   2.8931163873e+01    0.2779765    0.2481671  83.11 0.0008432376    1.024    0.023
        70 -11.2065     92.8838    160.2243   1.0734745544e+02   2.9908742752e+01    0.3135959     0.236089 -51.94 0.0002701437    1.422    0.297
        71 -10.8765     65.6802    165.4861   1.1449901532e+02   3.2721218709e+01    0.2873089    0.2118546 -87.24  0.001035111    1.218    0.179
        72 -11.1421     42.4626    162.2120   1.1942457900e+02   3.6323502209e+01    0.6276496    0.1838475 -79.14  0.001944144    5.024    0.801
        73 -10.5387    126.3455    226.6866   1.0949906122e+02   1.1043063865e+01    0.2371976    0.1267036  46.00  0.001269493    1.531    0.347
        74 -11.1587     86.5623    159.7916   1.0878661137e+02   3.1004630489e+01    0.3958873    0.2418001  81.55  0.001810434    2.070    0.517
        75 -11.0509     16.6970    161.1548   1.2504243872e+02   3.9142266863e+01    0.1908744    0.1333912  60.69 0.0005854418    1.333    0.250
        76 -12.1463     77.0859    158.4051   1.1084123296e+02   3.2746303223e+01     0.370133    0.2736478  24.71  0.001484593    1.778    0.438
        77 -10.2090     81.9858    230.2541   1.1814970335e+02   1.7184952262e+01    0.1675911    0.1220801  56.95 0.0004187103    1.093    0.085
        78  -9.8365     57.0095    158.2528   1.1559280949e+02   3.5502388681e+01    0.1739143    0.1470417  83.41 0.0003436363    1.039    0.037
        79  -9.9239     62.7205    157.0336   1.1407950835e+02   3.5050831788e+01    0.1785323    0.1466091 -83.49 0.0001979466    1.054    0.051
        80 -11.1849    246.9379    152.8066   7.3229526264e+01   1.2543730317e+00    0.3937415    0.2615925  43.14   0.00112354    1.594    0.373
        81 -10.1483     83.7155    153.6317   1.0850260796e+02   3.2861818706e+01    0.2353809    0.1510856 -84.90 0.0006850419    1.732    0.423
        82 -11.5950     80.5565    150.0242   1.0869964532e+02   3.4179496283e+01    0.3962596     0.189861 -52.69  0.001433245    2.071    0.517
        83 -11.6481     13.8098    150.7301   1.2479741822e+02   4.1714143622e+01    0.3576019    0.1400599 -78.92  0.001753151    2.091    0.522
        84 -11.0278     76.0261    150.0250   1.0982237863e+02   3.4846671281e+01    0.2171505    0.1697169  76.42 0.0005080223    1.243    0.195
        85 -11.5740     73.0299    146.9624   1.1008655987e+02   3.5994895400e+01    0.2859308    0.2239333 -69.52  0.000314904    1.159    0.137
        86 -12.5782     73.3802    141.2562   1.0907407349e+02   3.7292462764e+01     0.509319    0.3232974  87.82   0.00020234    1.853    0.460
        87 -10.9993     54.2276    148.0983   1.1492740751e+02   3.8204788911e+01    0.2530444    0.1636827 -52.86  0.001372663    1.616    0.381
        88 -11.2678     79.2541    144.5385   1.0812290871e+02   3.5661518575e+01    0.2635124     0.218017 -89.79   0.00029218    1.129    0.114
        89 -10.2306     59.8153    140.6145   1.1245155710e+02   3.9272798238e+01    0.1869869    0.1493768 -67.95 0.0005380668    1.133    0.117
        90 -10.6114     36.4701    141.1080   1.1841448396e+02   4.1828666209e+01    0.1887975    0.1643825  74.69 0.0003612137    1.157    0.136
        91  -9.6028     55.0277    140.0079   1.1358568016e+02   4.0012412214e+01    0.1646213     0.129304 -76.07 0.0004152338    1.090    0.082
        92  -9.9395     55.5421    135.9112   1.1284012178e+02   4.0921530633e+01    0.1952801    0.1143004 -66.67 0.0002921333    1.481    0.325
        93 -10.5339     69.4638    230.1947   1.2040394626e+02   1.8921796856e+01    0.1960317    0.1292659  50.97 0.0003368737    1.259    0.206
        94 -12.0847     78.1620    131.7545   1.0615403604e+02   3.8857203303e+01    0.4265755    0.2812257  80.27  0.000234936    1.893    0.472
        95 -12.2735     78.7294    127.0148   1.0510391559e+02   3.9903751371e+01    0.4893819    0.3006537 -29.84  0.002074589    2.590    0.614
        96 -11.5940     68.3995    131.0690   1.0864452058e+02   4.0413628797e+01    0.2430384    0.1915997  55.31   0.00045552    1.321    0.243
        97 -11.2268     63.2401    128.5806   1.0960215718e+02   4.1698717266e+01    0.3623698    0.1836422 -57.27  0.001050957    1.741    0.426
        98 -11.6052     67.8237    120.2646   1.0682175949e+02   4.3078162861e+01    0.3865148    0.2419682  66.10  0.001421845    2.019    0.505
        99  -9.5776     19.4948    123.4963   1.2061214287e+02   4.7490932802e+01    0.1239619   0.09679422 -77.92 0.0008106281    1.013    0.013
       100 -11.3060    230.6317    220.2330   8.9169723208e+01  -5.3984803891e+00    0.3376299    0.1996659  36.65  0.001362336    1.466    0.318
       101 -12.3941     95.8307    110.1778   9.6678883902e+01   4.1127951787e+01    0.4214756     0.381517   4.96   0.00196577    1.304    0.233
       102 -11.7747     93.4577    115.8424   9.8674585870e+01   4.0208030341e+01    0.5009845    0.3644404  87.29  0.002373446    1.748    0.428
       103 -11.8231     87.6501    114.7614   1.0006565625e+02   4.1428122593e+01     0.327252    0.2554591 -33.05 0.0007588312    1.475    0.322
       104 -12.9221     90.0787    109.4674   9.8152673806e+01   4.2274848964e+01    0.5656609     0.401511 -31.70  0.002710417    1.687    0.407
       105 -14.0994    243.9652    220.7514   8.6969816839e+01  -7.5133934734e+00    0.5558029    0.3465337  -8.75  0.002572666    1.653    0.395
       106  -9.7393    250.0579    113.4652   6.3840014027e+01   6.8127983633e+00    0.1810299    0.1389502  47.50 0.0002936073    1.446    0.309
       107 -11.7884      6.0088    114.7725   1.2318713191e+02   5.0480967118e+01    0.2286693    0.1771523  75.51  0.000652567    1.275    0.215
       108 -11.1282    199.6803    220.4391   9.4750773444e+01  -3.7313693506e-01    0.3571768    0.1858553  37.39  0.001856433    1.627    0.385
       109  -9.9255     17.6798    113.7163   1.1987759057e+02   4.9909454152e+01    0.1199771   0.07732753 -48.23 0.0003414091    1.590    0.371
       110 -10.9167     32.9882    111.5147   1.1523269584e+02   4.9142642719e+01    0.1973023    0.1426643 -71.00 0.0003443019    1.130    0.115
       111 -11.4001     73.3086    110.1633   1.0318317583e+02   4.4719471838e+01    0.3092656    0.2101206 -55.55  0.001337913    1.315    0.239
       112 -10.8433     84.9039    107.6063   9.9212549008e+01   4.3558168009e+01    0.2721484    0.1848934 -41.94 0.0006458595    1.499    0.333
       113 -10.4473     23.6242    108.5370   1.1747893095e+02   5.0653522389e+01    0.1805163    0.1282582  15.28 0.0008466067    1.887    0.470
       114 -10.4371    241.1365    104.2502   6.3003819394e+01   1.0139070479e+01    0.2366281    0.1862997 -34.73  0.000549656    1.146    0.127
       115 -11.9712    196.4985    227.0182   9.6377213205e+01  -7.5130761966e-01    0.3669165     0.198954  44.20 0.0003914339    1.627    0.385
       116 -11.0232     70.2192    104.2344   1.0279064560e+02   4.6563220242e+01    0.1923938    0.1574571  88.59  0.001055875    1.348    0.258
       117 -10.1104      1.8429    103.8670   1.2309030581e+02   5.3225039272e+01    0.1546593     0.116096  80.34 0.0006687214    1.301    0.231
       118 -11.5136     84.9001     99.8812   9.7338223903e+01   4.5361337220e+01    0.2624596    0.1827374 -44.64 0.0004873144    1.367    0.269
       119 -12.6741     72.5275     97.2911   1.0046479733e+02   4.7861337612e+01    0.5183863    0.3412124 -55.84  0.001586217    1.358    0.264
       120  -9.9124     70.4412     93.5377   1.0019414931e+02   4.9031238828e+01    0.2165169    0.1793079  16.04 5.715872e-05    1.439    0.305
       121 -12.2221    203.2096    225.1896   9.4868633641e+01  -1.6128112720e+00    0.4333594    0.2699157  23.21 0.0008327941    1.585    0.369
       122 -11.2793    210.2399    223.2321   9.3282894252e+01  -2.5069411727e+00    0.3172838     0.148434  49.92  0.001406802    2.482    0.597
       123 -12.2592     99.2179     91.8388   9.0930830620e+01   4.4712429425e+01    0.4145704    0.2713815  38.94 0.0006484231    1.641    0.391
       124 -10.3957    219.7363    225.8875   9.2023634628e+01  -4.3829684538e+00    0.2135576     0.131822  29.91 0.0006370675    1.359    0.264
       125 -12.4632     92.9671     93.1514   9.3155930141e+01   4.5541008610e+01    0.4525767    0.2925917 -45.64  0.001544994    1.444    0.308
       126 -10.7388     46.0632     93.6232   1.0796702317e+02   5.2053653458e+01    0.2498826    0.1591903 -55.99 0.0004712569    1.307    0.235
       127 -12.4134     88.9784     88.3589   9.3045783972e+01   4.7305498695e+01     0.576643    0.3892305 -19.93  0.002218057    2.051    0.512
       128 -11.2489     66.7791     90.0099   1.0047515386e+02   5.0356457272e+01     0.359039    0.2006553 -49.32  0.000898774    1.573    0.364
       129 -12.3086    240.0078     85.9520   5.8697781261e+01   1.3328388688e+01    0.2941567    0.2628423 -28.56 0.0003832958    1.078    0.072
       130 -11.1918    239.4478     81.5508   5.7687677382e+01   1.4148928962e+01    0.2519498    0.2196565 -32.80 0.0005194391    1.077    0.071
       131 -12.5304    167.0796    224.2954   1.0143699657e+02   4.6074115034e+00    0.5521547     0.245087  40.01  0.001843221    1.895    0.472
       132 -11.4784     79.9860     82.3846   9.4182612170e+01   5.0116300443e+01    0.4859934       0.1556 -50.52  0.001666024    2.844    0.648
       133 -11.2019    175.3622    224.7267   9.9940437330e+01   3.1312148880e+00    0.2378757    0.1873015  19.97 0.0004488251    1.301    0.231
       134 -10.2651    245.2023    233.8014   8.8949719125e+01  -9.1804443075e+00    0.1612398    0.1269932  16.84 0.0004163992    1.092    0.084
       135 -13.5092    248.3470     87.8461   5.7991014735e+01   1.1214176083e+01    0.3380651    0.2886151 -34.06 0.0007790066    1.055    0.052
       136  -9.6877    247.9715     78.0168   5.5662990112e+01   1.2815789622e+01    0.2043729    0.1657414  11.91 0.0006507448    1.558    0.358
       137  -9.9240    231.1091     74.6692   5.7137125553e+01   1.7133595619e+01    0.1890004    0.1824672 -89.97 0.0005344289    1.095    0.086
       138 -10.7932     88.7789     74.5977   8.9046778930e+01   5.0326775769e+01    0.1880368    0.1382064  52.04 0.0003765759    1.583    0.368
       139 -11.5792     93.4045     71.5194   8.6611902112e+01   5.0137724760e+01     0.252554    0.2114498 -48.45 0.0005678534    1.174    0.148
       140 -10.5086      6.9820     71.9798   1.1678128164e+02   6.0133524439e+01    0.1684438    0.1249467  78.45 0.0003060481    1.594    0.373
       141 -10.3410    222.1379     70.5126   5.7363016274e+01   1.9906558749e+01    0.2010273    0.1825109  81.18   0.00043603    1.148    0.129
       142 -12.0607    156.3715    222.4735   1.0321195241e+02   6.7219466554e+00    0.2341747    0.2124926  17.92 0.0006116879    1.221    0.181
       143 -10.3963     52.9709     70.3117   9.9885315881e+01   5.6544818933e+01    0.1788508    0.1596236 -30.79 0.0003956284    1.095    0.087
       144 -10.5187     23.9660     71.3823   1.1061077780e+02   5.9154222585e+01    0.2238528    0.1404863 -54.31 0.0003634006    1.245    0.197
       145 -11.3579    201.2809    232.6377   9.6378644185e+01  -2.2852423572e+00    0.2147995    0.1920339  28.42 0.0004317697    1.176    0.150
       146 -10.8720    108.1630    219.6890   1.1215217980e+02   1.5185215201e+01    0.1975976    0.1723841 -69.78 0.0005393307    1.322    0.243
       147 -10.2885    241.1915     63.4847   5.2969973003e+01   1.6523124509e+01    0.2698686    0.1740187 -36.27  0.000641391    1.400    0.286
       148  -9.6061    236.0513     68.0000   5.4764489470e+01   1.7021920827e+01    0.2240472   0.08212153  61.62 0.0008035599    2.950    0.661
       149  -9.9585    215.1201     66.7047   5.7399771080e+01   2.2208133720e+01    0.2331228    0.1781621 -89.79  0.001140183    1.491    0.329
       150 -12.2344     98.6605     64.2433   8.2571915589e+01   5.0600082265e+01    0.5404673    0.2727727 -48.93  0.001864663    2.094    0.522
       151 -10.2087    111.8570     63.0358   7.8229130206e+01   4.8149410959e+01    0.2302758    0.2053092 -72.24  0.001215964    1.333    0.250
       152 -10.4918     73.8680    218.3600   1.1856162576e+02   2.0516216308e+01    0.2014461    0.1380765  84.27 0.0006935078    1.348    0.258
       153 -10.9912    202.9736     62.5000   5.8134821014e+01   2.5890989128e+01    0.3512298    0.1664086  47.82  0.001141787    2.287    0.563
       154 -10.5968    206.3309     61.6810   5.7377867201e+01   2.5174919232e+01    0.3257262    0.1509628 -44.49  0.001155105    2.104    0.525
       155 -11.0109    129.9476     61.9722   7.2942333068e+01   4.4310551095e+01    0.2234013    0.2166924  23.41 0.0003972325    1.025    0.025
       156  -9.7942    235.9564     60.4736   5.2880618759e+01   1.8174731432e+01    0.1980467    0.1398242  66.77 0.0006885172    1.511    0.338
       157 -10.4049    210.8330     60.2569   5.6299113124e+01   2.4269882076e+01    0.4217938    0.2034316  75.52  0.001505437    2.868    0.651
       158 -12.5051    137.4850     58.5397   6.9900861060e+01   4.3123780068e+01    0.5658694    0.3231531  39.87  0.001153307    1.887    0.470
       159  -9.9685      9.5260     59.9657   1.1343377487e+02   6.2613155770e+01    0.1815313   0.05464715 -47.73 0.0005569151    2.454    0.592
       160 -10.1899    205.1104    217.8340   9.3327824990e+01  -9.2406353259e-01    0.1779991    0.1530388  38.88 0.0003930645    1.208    0.172
       161  -9.8447    114.2942     56.3507   7.5216299048e+01   4.8840111868e+01    0.2086571    0.1458042  31.55 0.0005907274    1.551    0.355
       162 -10.2341    110.9275     55.1182   7.5735015386e+01   4.9784653864e+01     0.254166    0.2178356  60.75 0.0003613287    1.322    0.243
       163  -9.7589     27.5089     56.5267   1.0556788781e+02   6.2087033158e+01    0.1243728    0.1000554 -47.35 -1.343265e-05    1.024    0.024
       164 -11.2686    210.5383     54.4251   5.4748245997e+01   2.5225301045e+01      0.29102    0.2432319  80.97 0.0008609584    1.222    0.182
       165 -12.9933    201.2406     51.9894   5.5451282904e+01   2.7936522329e+01    0.4004245    0.3062073  52.05 0.0006780748    1.356    0.263
       166 -11.6561    206.1464     50.1400   5.4203690870e+01   2.6962223873e+01    0.3388827    0.2702883 -38.20 0.0008064318    1.219    0.180
       167 -12.4401    124.7582     51.5066   7.0673128981e+01   4.7314810538e+01    0.4915107    0.3585612  -9.80  0.001672846    1.605    0.377
       168 -10.8019    249.2204     53.0380   4.9464338197e+01   1.6224351837e+01    0.2077324    0.1834638 -68.89 0.0003734675    1.088    0.081
       169 -12.2788    125.6368    205.4231   1.0688165562e+02   1.4959948428e+01    0.5828516    0.2372064  46.32   0.00131493    2.131    0.531
       170 -11.8303    180.1491     52.5891   5.9086467573e+01   3.3280833960e+01    0.3898265    0.3063194  77.81  0.001346219    1.345    0.256
       171 -11.4131    184.3280     50.8519   5.7839593654e+01   3.2459877205e+01    0.3231908     0.292387  82.65 0.0003573006    1.101    0.092
       172 -10.8684     93.0199     52.3053   8.0133657040e+01   5.3916354245e+01    0.1969804    0.1814976   8.80  0.000530429    1.066    0.062
       173 -13.1114    123.6140    214.9524   1.0855950209e+02   1.3546763156e+01    0.5764763    0.4520946 -85.57  0.001719565    1.417    0.294
       174 -11.1261    171.7510     49.7555   5.9732450751e+01   3.5888602038e+01    0.3200129    0.2236494 -22.88  0.001372507    1.563    0.360
       175 -11.0818    114.6886     47.7897   7.2028696837e+01   5.0208141664e+01    0.3295577    0.2147237  41.16  0.001369858    1.536    0.349
       176 -11.1089     30.1075     49.9677   1.0261062619e+02   6.3220798114e+01    0.2991664    0.1886673 -79.20  0.001486869    2.604    0.616
       177 -10.8712     60.0287    216.4013   1.2097729528e+02   2.2744399738e+01    0.2107718    0.1802914 -88.48  0.001540818    1.265    0.210
       178 -10.8045    241.3434     47.7790   4.9068741919e+01   1.8749934557e+01    0.4436945    0.2528653  89.76  0.001970556    2.251    0.556
       179 -11.0979     95.5083     48.0768   7.7779892001e+01   5.4177542052e+01    0.3278725    0.2000119  48.49  0.001032103    1.755    0.430
       180  -9.2808    230.3053     47.2742   5.0232612676e+01   2.1413679018e+01    0.1325594    0.1087463  29.43   0.00024427    1.543    0.352
       181 -11.3957     13.4271    216.3199   1.2927949328e+02   2.8080768655e+01    0.1910446    0.1435772  77.14  0.000322619    1.121    0.108
       182 -10.6091    173.9603     44.7970   5.7788154306e+01   3.6045717308e+01    0.2342603    0.1941554  37.78 0.0006240612    1.292    0.226
       183 -11.8285    155.6703     43.3607   6.0769754752e+01   4.0985820576e+01    0.3155598    0.2957804 -39.38 0.0008877101    1.093    0.085
       184 -11.3931    129.5422     44.6434   6.7020194685e+01   4.7283571159e+01     0.336304    0.2271206  33.55 0.0005954787    1.598    0.374
       185 -11.6167     88.2339     43.8794   7.8508974948e+01   5.6288611044e+01    0.4299263    0.2532592  25.34  0.001929021    2.076    0.518
       186 -11.6673    191.9027     43.9380   5.4567412137e+01   3.1502730727e+01    0.3414036    0.2586792 -71.85 0.0003634207    1.437    0.304
       187 -11.1775    191.7080     40.2962   5.3532054896e+01   3.2060628342e+01    0.2497874    0.2160216  47.17 0.0003766668    1.222    0.182
       188 -11.4240    174.9600    231.4758   1.0100134873e+02   2.2083890800e+00    0.3788113    0.2855135  33.63  0.002430707    1.123    0.110
       189 -11.3019    118.9622     43.8308   6.9419444063e+01   4.9877688007e+01    0.3080593    0.1837735  -3.98  0.001189372    2.611    0.617
       190 -12.9409     18.2536     43.1529   1.0550762110e+02   6.5553672634e+01    0.2654186    0.1963645 -44.44 0.0005688537    1.039    0.037
       191 -11.3494    123.9701     39.9566   6.6700237940e+01   4.9305893765e+01    0.3302784    0.2639502 -35.02  0.001028617    1.279    0.218
       192 -12.1051    175.1816     40.1546   5.6132826709e+01   3.6383690825e+01    0.6463571    0.4019685  50.36  0.002333372    1.595    0.373
       193 -11.8369     96.6816    212.9761   1.1362261754e+02   1.8217041496e+01    0.3505507    0.3437812 -40.79  0.001398028    1.415    0.293
       194  -9.8789     41.0132     41.3604   9.5212812102e+01   6.3824804997e+01    0.1657541    0.1418461 -22.86 0.0005270789    1.075    0.070
       195 -12.4748    134.2090     37.2024   6.3240576130e+01   4.7248885713e+01    0.5068525    0.2707979 -39.34 0.0003026997    1.938    0.484
       196 -10.4236     11.9566     39.9994   1.0730619525e+02   6.6610154215e+01    0.1779676    0.1335073 -45.50 0.0003267245    1.017    0.016
       197 -10.5219    165.3198     38.3728   5.7297966614e+01   3.9198255524e+01      0.36278     0.259489  77.55  0.001202102    1.513    0.339
       198 -11.4115    155.6957     36.9644   5.8634972007e+01   4.1879441618e+01     0.263889    0.2542275 -27.56  0.000284045    1.076    0.070
       199 -10.3132    236.3790    213.5416   8.7014324012e+01  -5.4664449730e+00    0.2803159    0.1021943  38.69  0.001260148    2.420    0.587
       200 -10.9497    122.5174     34.1025   6.4881765601e+01   5.0483375925e+01    0.2189672    0.1909012  45.55 0.0007194362    1.109    0.099
       201 -10.6484    199.8728     32.7083   5.0187220867e+01   3.0963374657e+01    0.2270161    0.2050984 -15.07 0.0008055906    1.249    0.200
       202  -9.5968    187.9945     33.0167   5.1940287964e+01   3.3996357106e+01    0.1704897    0.1610205 -58.15 0.0003639195    1.059    0.056
       203 -10.7017     99.7821     31.8119   7.0122591305e+01   5.5868645633e+01    0.1952843    0.1729383  -8.29 0.0004008375    1.069    0.065
       204  -9.9139     85.1721     32.6108   7.5000310746e+01   5.8664366721e+01    0.2621825   0.09292946 -36.42 0.0009952591    2.695    0.629
       205 -11.6337    214.3778     31.4848   4.8017403032e+01   2.7440717948e+01     0.280565    0.2433749  81.09 0.0003482189    1.118    0.105
       206 -11.8016    216.4496     25.4528   4.6175503271e+01   2.7679281745e+01    0.5063643    0.1909348 -43.22  0.001987144    2.422    0.587
       207 -10.9238    165.7181     31.2587   5.4931666673e+01   4.0036057223e+01    0.2727017    0.2209277  57.54 0.0005263689    1.176    0.150
       208  -9.6434      8.4827     34.4955   1.0719650992e+02   6.7906411404e+01    0.1161093   0.08771975 -44.03 0.0002229027    1.024    0.023
       209 -10.1705    105.0667    212.0595   1.1186430604e+02   1.7087057043e+01    0.1924227    0.1423241  70.15 0.0004015353    1.263    0.208
       210 -11.1312    141.7534     25.0722   5.7272054168e+01   4.6954493435e+01    0.3521174    0.2179287 -25.02 0.0007885378    1.704    0.413
       211 -10.2982    203.0583     28.7134   4.8650416280e+01   3.0654652357e+01    0.2029262    0.1791693  81.85  0.000557784    1.080    0.074
       212 -12.0157    105.1753    206.2993   1.1114375423e+02   1.8170881911e+01    0.5732577    0.3823827 -25.76  0.002658047    3.244    0.692
       213 -10.9086    209.5359     25.1598   4.6886101158e+01   2.9447713490e+01    0.2676639    0.1877765  64.06 0.0006110213    1.395    0.283
       214 -10.5561     32.7579     25.1025   9.2461131856e+01   6.7641462387e+01    0.2631206    0.1627359  34.17  0.001035832    1.930    0.482
       215 -11.5258    201.8756     22.8741   4.7169729653e+01   3.1668964936e+01    0.3535413    0.2329554 -15.49  0.001702826    1.847    0.459
       216 -10.9640    149.3170     23.2908   5.5192555476e+01   4.5247171303e+01    0.2372647    0.2270058  87.41 0.0003050229    1.079    0.074
       217 -10.6554    222.8503     21.8060   4.4541929043e+01   2.6541275645e+01     0.194819    0.1810895  56.86 0.0004637641    1.227    0.185
       218 -10.2644    174.8971     22.1963   5.0589794327e+01   3.8742360943e+01    0.2177266    0.1837084 -83.08 0.0005450608    1.197    0.164
       219 -10.3639     48.9116     21.1221   8.3547206389e+01   6.6324027837e+01    0.2079148    0.1308916  -6.58  0.001130461    1.750    0.429
       220 -10.3069     57.7104    233.5609   1.2273822950e+02   1.9851777709e+01    0.1938726   0.09735959  37.84 0.0007434361    2.040    0.510
       221 -12.1455    128.1634    210.6985   1.0709493132e+02   1.3556410352e+01    0.3709148    0.2606172  52.78 0.0008633059    1.235    0.190
       222  -9.5075     92.2842     19.3134   6.7105492064e+01   5.9080789979e+01    0.1386781   0.09374795  16.60 0.0003436081    1.577    0.366
       223 -10.3631    121.6544    244.4653   1.1238337462e+02   8.8779400826e+00    0.2011258    0.1604038  65.54 0.0006153566    1.164    0.141
       224 -10.4723     44.3555    209.1144   1.2330964369e+02   2.6114184255e+01    0.1682463     0.139072  59.69 0.0004333628    1.251    0.200
       225 -10.3736     49.6667     15.0956   8.0390789210e+01   6.7102046768e+01    0.2087849    0.1702687  45.51  0.000883572    1.661    0.398
       226 -10.1563    206.2934     13.3264   4.4047414756e+01   3.1636546843e+01     0.134846    0.1017451  37.14 0.0003039126    1.622    0.384
       227 -10.1084    188.9638     13.3008   4.6018427150e+01   3.6072211063e+01     0.195548    0.1648752  74.03 0.0002484886    1.100    0.091
       228 -10.2927    189.9388    241.3534   9.9694033723e+01  -1.5951579468e+00     0.184179    0.1291542  27.16  0.000455235    1.250    0.200
       229 -10.6263     11.3869    208.3261   1.2921077407e+02   2.9812438118e+01    0.1398849    0.1124511 -66.43  0.000681233    1.625    0.385
       230 -11.3112    193.4598    237.8352   9.8557678675e+01  -1.7017370959e+00    0.2531715    0.1975946   7.24 0.0006171647    1.358    0.264
       231 -10.6143    113.0844    240.9092   1.1355020458e+02   1.0764612202e+01    0.2772435    0.1417571  37.21  0.001498809    1.870    0.465
       232 -12.7480    237.5450    221.9439   8.8266700040e+01  -6.6803387881e+00    0.2589859    0.2132278  20.31 0.0004064507    1.133    0.117
       233 -12.6377    231.8684    236.9523   9.1703135492e+01  -7.5753693135e+00    0.3624654    0.2324922   2.04   0.00211324    1.641    0.391
       234 -11.9670    182.9117    237.9430   1.0047097349e+02  -7.6348565262e-03    0.3861739    0.2047846  35.86 0.0005440224    1.569    0.362
       235 -10.8459     69.2540    203.2738   1.1800688985e+02   2.4106245134e+01    0.2110552    0.1774326  71.89 0.0005821722    1.097    0.088
       236 -11.8194    125.9924    235.8368   1.1064369521e+02   9.5785940228e+00    0.4005624    0.2563245  88.05  0.001993226    2.201    0.546
       237 -10.9140    103.3469    236.6400   1.1487675551e+02   1.2950586958e+01    0.3500387    0.1809774  64.17  0.001845509    2.076    0.518
       238 -10.3278     68.9211    236.4673   1.2100561238e+02   1.7873952417e+01    0.1640652    0.1239202  80.93 0.0004371613    1.173    0.148
       239 -11.2518    118.3694    234.8219   1.1193506862e+02   1.0948369419e+01    0.2411517    0.1961666  76.37 0.0007391839    1.232    0.188
       240 -12.0631     11.8501    202.3417   1.2880193393e+02   3.0940245395e+01    0.4223277    0.1609668  75.45   0.00213685    2.532    0.605
       241 -10.3302     42.9645    235.8909   1.2541444807e+02   2.1247436280e+01    0.1623361     0.118647  71.33  0.000567905    1.046    0.044
       242 -10.3066     33.2789    235.6229   1.2700936402e+02   2.2416892863e+01    0.1914706    0.1005136  81.92 0.0007991422    1.634    0.388
       243 -12.4149    164.8355    231.3416   1.0285889569e+02   3.9184543693e+00    0.3303457    0.2782695 -47.28  0.001296639    1.462    0.316
