#   1 NUMBER                 Running object number                                     
#   2 MAG_AUTO               Kron-like elliptical aperture magnitude                    [mag]
#   3 X_IMAGE                Object position along x                                    [pixel]
#   4 Y_IMAGE                Object position along y                                    [pixel]
#   5 X_WORLD                Barycenter position along world x axis                     [deg]
#   6 Y_WORLD                Barycenter position along world y axis                     [deg]
#   7 A_WORLD                Profile RMS along major axis (world units)                 [deg]
#   8 B_WORLD                Profile RMS along minor axis (world units)                 [deg]
#   9 THETA_WORLD            Position angle (CCW/world-x)                               [deg]
#  10 FWHM_WORLD             FWHM assuming a gaussian core                              [deg]
#  11 ELONGATION             A_IMAGE/B_IMAGE                                           
#  12 ELLIPTICITY            1 - B_IMAGE/A_IMAGE                                       
         1 -14.9348     68.5801    144.1600   1.0426228828e+02   3.7293348401e+01     5.482726     2.245137  58.37   0.00354543    5.337    0.813
         2 -14.3616    198.4175     39.5425   4.4871823694e+01   3.0752116040e+01     1.514598     1.333201  -0.24  0.004137644    1.392    0.282
         3 -14.6308    208.7543     29.0119   4.0912442840e+01   2.9612281536e+01     1.579018     1.232315  13.02  0.002032481    1.816    0.449
         4 -13.4118    233.4040      4.3080   3.2938134247e+01   2.6793761374e+01    0.8428584     0.471763  77.88  0.004806822    1.656    0.396
         5 -10.1642     60.8645      7.8251   6.4368397134e+01   6.5851865359e+01    0.1532265    0.1418782  10.88 0.0003915591    1.308    0.236
         6 -10.1028     33.0814    204.5277   1.2011285647e+02   2.7404126507e+01    0.1966166    0.1461529 -68.95 0.0007575839    1.367    0.268
         7 -12.5641    139.4482    247.7048   1.0285191393e+02   4.4827539171e+00    0.5126669    0.4990375 -58.99  0.003740238    1.260    0.207
         8 -13.2706     15.2590    192.3900   1.2289983882e+02   3.1779577752e+01     0.646448    0.2291072 -60.36   0.00250023    2.705    0.630
         9 -14.6396     45.6229    200.0442   1.1708880047e+02   2.6987428105e+01      2.36164     1.148291  87.36  0.009557514    2.378    0.579
        10 -13.0191    202.2043    198.1427   8.2160267796e+01   2.4633615299e+00     1.011139    0.5389152  11.78  0.003860847    3.146    0.682
        11  -9.8522    134.0006    196.4812   9.6608763309e+01   1.4750967927e+01    0.2040735    0.1932931 -55.27  0.000481991    1.144    0.126
        12  -9.1346    151.3236    195.3295   9.2488818315e+01   1.1936040626e+01    0.1452048    0.1083498  -1.57 0.0007049748    1.698    0.411
        13 -10.6617    127.7365    193.9348   9.7627429342e+01   1.6358546187e+01    0.4040722    0.2281707 -78.86  0.001451059    3.635    0.725
        14  -9.3648     82.2199    194.9605   1.0834550910e+02   2.3375126628e+01    0.2040836    0.1442944 -39.44 0.0009923542    1.827    0.453
        15 -10.0706     24.4368    193.8885   1.2108812092e+02   3.0589605069e+01    0.3001253    0.1254706  52.89  0.001490403    2.221    0.550
        16  -9.7878    150.5095    187.5025   9.1264485171e+01   1.3646174653e+01    0.1438283    0.1341922  28.54 8.901628e-05    1.013    0.012
        17 -15.1502     55.8808    188.5088   1.1364409881e+02   2.8338248292e+01     6.539899     2.756602  71.10   0.02140757    4.682    0.786
        18  -9.2873     70.7434    185.0307   1.0976028277e+02   2.7215482945e+01    0.1826649    0.1582192  89.60 0.0002899101    1.064    0.060
        19  -9.4818     91.9199    184.1314   1.0456664444e+02   2.4365856759e+01    0.2085035     0.174766  66.41  0.000502379    1.160    0.138
        20 -17.0548      6.6624    205.8628   1.2546341865e+02   2.9676194622e+01     11.13435     1.561675 -75.71   0.02136028    5.527    0.819
        21 -10.8884    150.3411    178.5460   8.9617609805e+01   1.5515834090e+01    0.4625864    0.2723047 -67.14  0.001800498    2.743    0.635
        22 -10.6184     99.3087    180.8378   1.0227364006e+02   2.3960528406e+01    0.2687992    0.2176342  27.45 0.0006049161    1.340    0.254
        23 -11.2961    144.2982    178.6586   9.1051894809e+01   1.6615558350e+01     0.381533    0.2811998 -51.67  0.001174649    1.445    0.308
        24 -10.6170    187.9057    173.2937   8.0171355649e+01   9.4522264588e+00    0.4014046    0.2562157 -62.89  0.001659633    2.597    0.615
        25 -10.2229     39.6479    177.2976   1.1621408281e+02   3.2780174623e+01    0.2474089    0.1771349  64.09 0.0006846297    1.317    0.241
        26 -12.2117     69.9963    174.5264   1.0855519432e+02   2.9756946174e+01    0.4195961    0.3068617 -26.35   0.00155408    1.961    0.490
        27 -12.1579     74.0731    169.6418   1.0684458843e+02   3.0353411511e+01    0.3599515    0.2940859 -35.19 0.0009072002    1.479    0.324
        28 -16.6035     31.6017    249.5380   1.2339830601e+02   1.8681930697e+01     10.90763     3.381736  25.95   0.02654518   14.021    0.929
        29 -13.0840     54.6747    146.4962   1.0850084147e+02   3.8479370946e+01     3.077187     1.046602 -46.80   0.01074165    3.390    0.705
        30 -16.9672      6.8579    246.0508   1.2740933696e+02   2.1842021517e+01     1.769904     1.417155  25.63   0.01399389    1.810    0.447
        31  -9.8528     37.0635    167.8438   1.1583004900e+02   3.5265043111e+01    0.2584453    0.1554128  56.38 0.0007436149    1.676    0.403
        32 -10.1919     32.7047    165.1074   1.1659840160e+02   3.6351154276e+01    0.2423831    0.1803396  38.64 0.0009456535    1.459    0.315
        33 -10.4261    156.6494    158.6977   8.4075506385e+01   1.8483535232e+01    0.4278655    0.2969022 -78.55  0.001189752    2.449    0.592
        34 -13.6932     48.6511    108.2546   1.0355244163e+02   4.8573119121e+01     1.871506     1.289952 -77.09  0.009628496    1.582    0.368
        35 -12.3149     89.5473    153.8040   1.0021502888e+02   3.1872378650e+01    0.6589347    0.4682874 -24.78  0.002910097    1.917    0.478
        36 -10.4638    187.1722    152.0639   7.5716194224e+01   1.3689186910e+01    0.2419915    0.2006911  -3.42    0.0012333    1.262    0.208
        37 -11.4381    133.7819    144.7648   8.6634092761e+01   2.6110235644e+01     1.248289    0.3398879 -54.74  0.002908066    5.785    0.827
        38  -9.0698    112.5012    150.5593   9.3446286061e+01   2.8784594567e+01    0.1487736      0.14505  79.61 0.0001263218    1.029    0.028
        39 -10.6736    174.5081    148.9768   7.7786549020e+01   1.6891082343e+01     0.289326    0.2640961  65.97 0.0008189598    1.277    0.217
        40 -10.9159     39.5430    146.4682   1.1262059169e+02   4.0153097760e+01    0.3485211    0.2256446  41.19  0.001516157    1.649    0.394
        41 -10.5631    143.6580    145.1338   8.4217639392e+01   2.4050706948e+01    0.3212577    0.1436939 -53.78  0.001103044    2.589    0.614
        42 -10.9360    103.0089    139.3014   9.3668465420e+01   3.3148995561e+01    0.5424036     0.348579 -25.20  0.002221317    2.219    0.549
        43  -9.0548     38.5692    141.4808   1.1220960030e+02   4.1470748019e+01    0.1332712    0.1132455 -77.75 3.623103e-05    1.020    0.020
        44 -12.4994     90.5612    139.0945   9.7114336981e+01   3.5287098689e+01    0.2913347    0.2666005 -38.97 0.0004483236    1.121    0.108
        45 -12.6598     44.1647    130.2696   1.0894508989e+02   4.3655543114e+01    0.7896336    0.3531873 -78.58  0.002494607    2.811    0.644
        46 -10.7283    105.8942    130.8419   9.0990362816e+01   3.4663887712e+01    0.3587696    0.3259003 -70.77   0.00111302    1.143    0.125
        47 -11.1718    135.7749    127.9111   8.2141409365e+01   2.9526554874e+01    0.5474664    0.1994791 -48.90  0.001746787    2.821    0.646
        48 -10.5131    112.1163    129.7766   8.8995272709e+01   3.3774330586e+01    0.3492164     0.269969   9.75 0.0009299325    1.607    0.378
        49 -10.4121    160.7872    128.0052   7.5934920845e+01   2.4173011971e+01    0.3990392    0.2509382 -56.88  0.001620925    1.923    0.480
        50 -11.1209     99.2098    125.9206   9.1773323813e+01   3.7026415338e+01    0.3172984    0.2548969 -15.76 0.0006419771    1.483    0.326
        51 -11.5086    119.2218    123.2867   8.5451084406e+01   3.3928674893e+01    0.6626582     0.430092  -3.32  0.002408161    2.807    0.644
        52 -10.9834    138.2168    169.6638   9.0764859232e+01   1.9681627821e+01    0.4120902    0.2677299  43.88  0.001894065    1.506    0.336
        53 -10.7691    135.1317    118.3291   7.9881870281e+01   3.1801573772e+01    0.5951346    0.1398111 -43.98  0.001534376    4.214    0.763
        54 -10.0768    108.0725    118.9734   8.7535724811e+01   3.7071124015e+01    0.2210859    0.2130874 -26.77 0.0003069979    1.020    0.020
        55 -10.2344    230.5783    167.3659   7.0500648267e+01   2.7391127760e+00     0.275529     0.109502 -48.04 0.0009573176    3.531    0.717
        56  -9.6125    168.2696    113.1445   7.0389528594e+01   2.5587506744e+01    0.2989367    0.2160684  83.44  0.001229077    2.142    0.533
        57 -11.7558    118.8379    110.0169   8.2137889630e+01   3.7033190889e+01    0.5731127     0.385489 -83.33   0.00212085    2.778    0.640
        58 -14.9901     57.2420    239.8247   1.1810901153e+02   1.7495373432e+01     1.011398    0.6878489  70.39  0.005902423    1.291    0.225
        59  -8.7135    142.2511    108.6582   7.5456546345e+01   3.2363692560e+01    0.1555071    0.1248456 -72.79 0.0003391408    1.574    0.365
        60 -10.3925    134.6794    105.7137   7.6621689437e+01   3.4651681621e+01    0.4424345    0.1434695 -41.70  0.001333714    3.078    0.675
        61 -10.2111    205.5284    110.2436   6.2018210538e+01   1.7789853987e+01    0.3008576    0.2363352  39.52 0.0008752829    1.362    0.266
        62 -11.3602     32.6254     99.9415   1.0722904331e+02   5.2155123790e+01    0.4171266    0.2589944  39.46  0.002213358    1.895    0.472
        63 -12.9377     82.6529    160.7733   1.0325304187e+02   3.1242183857e+01     1.122682    0.5735686  62.82 0.0007711939    3.013    0.668
        64  -8.8961    129.4411     96.4816   7.5420351825e+01   3.7747648704e+01    0.1554261    0.1508362 -18.94 0.0001879763    1.019    0.019
        65 -11.0746     51.8795     92.3754   9.8908462559e+01   5.1991580512e+01    0.3538916    0.1853998 -38.99  0.001587979    1.888    0.470
        66 -13.8588     71.1232    155.7085   1.0548209701e+02   3.4116819352e+01    0.6258768    0.5643964 -42.45   0.00148277    1.215    0.177
        67 -10.1229     75.2473     84.9788   8.8750984154e+01   5.0507422322e+01    0.2187641    0.2008713  16.69 0.0003671937    1.141    0.124
        68 -10.0838    158.2466     81.9505   6.4003901164e+01   3.3969777430e+01    0.2167429    0.2013877 -29.48 0.0003935863    1.075    0.070
        69  -9.2116    184.7990     77.1472   5.7209831947e+01   2.8422401070e+01    0.2059656    0.1770013  11.80 0.0006038137    1.358    0.264
        70  -9.9974     58.3153     67.2048   8.9497048068e+01   5.6757389164e+01    0.2718092    0.1828424  35.12 0.0007667615    1.640    0.390
        71 -11.3341     13.2465     59.7348   1.0568757048e+02   6.2723633420e+01    0.2858053    0.2455056  66.18 0.0005384603    1.614    0.381
        72 -13.7420    188.1708     47.3533   4.8432877584e+01   3.2190292270e+01     1.138442    0.8142552  38.52 0.0008723629    1.625    0.385
        73 -11.2607    113.0386    206.0267   1.0283240939e+02   1.6293097434e+01    0.3330777    0.2354038  66.36  0.001373684    1.605    0.377
        74 -12.3916    109.7804    200.9793   1.0284330514e+02   1.7865998365e+01    0.7034507    0.4443704 -31.54  0.001338305    2.347    0.574
        75  -8.9025     70.6637     53.2677   8.0024536824e+01   5.7636934425e+01    0.1234676    0.1124465  74.59 0.0002911625    1.592    0.372
        76 -11.7202    144.6005     49.2673   5.6972822389e+01   4.2678813151e+01     0.511756    0.3395232 -82.69 0.0008562792    2.406    0.584
        77 -11.0294    145.8512     42.5302   5.4529682205e+01   4.3321464976e+01    0.4673479    0.3086614 -80.07  0.002003331    2.310    0.567
        78  -9.5779     29.9686     35.7635   9.0537610612e+01   6.6141901264e+01    0.1468544   0.09599982  16.50 0.0004283409    1.564    0.361
        79 -11.3885     21.9966     33.7728   9.3611417181e+01   6.7246284565e+01    0.2658622    0.1926372  26.97 0.0008952558    1.632    0.387
        80 -10.8048    198.0630     23.8648   4.0842784740e+01   3.2752485802e+01    0.2883782     0.200243 -14.30  0.001085102    1.838    0.456
        81  -9.6305    189.6759     14.9850   3.9506174942e+01   3.5742513100e+01    0.1798775     0.161662 -55.86  0.000535907    1.137    0.121
        82 -11.8814    193.4335    195.6779   8.3472934380e+01   4.3905273218e+00    0.9934046    0.5578344 -63.10  0.003364716    4.747    0.789
