#   1 NUMBER                 Running object number                                     
#   2 MAG_AUTO               Kron-like elliptical aperture magnitude                    [mag]
#   3 X_IMAGE                Object position along x                                    [pixel]
#   4 Y_IMAGE                Object position along y                                    [pixel]
#   5 X_WORLD                Barycenter position along world x axis                     [deg]
#   6 Y_WORLD                Barycenter position along world y axis                     [deg]
#   7 A_WORLD                Profile RMS along major axis (world units)                 [deg]
#   8 B_WORLD                Profile RMS along minor axis (world units)                 [deg]
#   9 THETA_WORLD            Position angle (CCW/world-x)                               [deg]
#  10 FWHM_WORLD             FWHM assuming a gaussian core                              [deg]
#  11 ELONGATION             A_IMAGE/B_IMAGE                                           
#  12 ELLIPTICITY            1 - B_IMAGE/A_IMAGE                                       
         1  -9.9503    230.7782     19.1811   5.7349544136e+01   2.4614653695e+01    0.4634731    0.2028987 -32.08  0.001626735    2.047    0.511
         2  -8.2160     30.1708     16.1717   1.1004646502e+02   6.9517315939e+01    0.1558314     0.139052 -52.32 0.0006417265    1.354    0.261
         3  -8.4766     55.6583     10.1443   9.4169129092e+01   6.7462315213e+01    0.1936276      0.17643  23.73 0.0007305755    1.341    0.254
         4  -7.9514     47.5117     10.0356   9.8062926195e+01   6.8645435421e+01    0.1941952    0.1108895 -37.82  0.001020019    1.561    0.359
         5  -9.4840    189.9137     14.2798   6.0643670220e+01   3.5476236659e+01    0.3379466    0.2868915 -67.12  0.001301291    1.271    0.213
         6  -8.2579     90.5311      9.0138   7.9689033497e+01   6.1223817421e+01    0.1907188    0.1084388 -46.42 0.0006884532    2.463    0.594
         7 -10.5336    246.8749      4.7884   5.2210811225e+01   2.2237206295e+01    0.4945851    0.3672955  48.43  0.002226869    1.491    0.329
         8  -7.6705    101.4728      8.0050   7.5782968677e+01   5.8932149649e+01    0.1835781    0.1113627 -46.80  0.000513193    2.231    0.552
         9  -8.5518      5.9759      8.5043   1.2090739199e+02   7.2711827500e+01    0.1493804    0.1076276   3.10 0.0005857177    1.563    0.360
        10  -8.5597     33.3610      5.3390   1.0317147587e+02   7.1168228125e+01    0.2235955    0.1425481 -59.03  0.001114656    2.436    0.589
        11  -8.3558     79.0181      3.7695   8.1032457861e+01   6.4236334676e+01    0.2658511    0.1467501 -45.56  0.001155141    2.604    0.616
        12  -7.9116     16.1556      3.1724   1.1237033552e+02   7.3130719279e+01    0.1456211    0.1286503 -43.64 0.0006084559    1.315    0.240
        13  -9.2052    235.2113      1.5736   5.2305021544e+01   2.5227932032e+01    0.2467656    0.1254617  81.45  0.001142418    2.102    0.524
        14  -8.0829     62.2969      1.4443   8.6453153747e+01   6.7646733688e+01    0.1547077    0.1247573  43.89 0.0004038702    1.490    0.329
        15 -10.1431    224.1735    244.2914   1.0778921961e+02  -1.8250527823e+00    0.3237086    0.2143974 -32.97  0.001859021    2.093    0.522
        16  -8.3030     93.8595    249.5717   1.3063418419e+02   1.5504578940e+01    0.1885375   0.09148628  60.73 0.0009502979    2.154    0.536
        17  -9.0980     65.6087    249.3163   1.3530476158e+02   1.8861480470e+01     0.221143    0.1029642  57.82  0.001064701    1.774    0.436
        18  -9.5660     52.5309    249.8187   1.3744374019e+02   2.0210522893e+01    0.2299393    0.1169563  44.40 0.0007591851    1.404    0.288
        19  -8.9085     27.3038    250.4484   1.4141442615e+02   2.2641073162e+01    0.2646419   0.07321206  34.16  0.001454702    3.181    0.686
        20  -8.8476    147.1345    246.3609   1.2119469702e+02   8.8647631014e+00    0.2273698    0.1361326  67.83  0.001272854    2.997    0.666
        21  -7.7738     76.5517    247.5226   1.3339297426e+02   1.7866860959e+01    0.1012394   0.07213658  51.84 9.297782e-05    1.005    0.005
        22  -9.4627     11.0175    246.0173   1.4373958349e+02   2.4754568007e+01    0.3585574   0.07329142  58.19  0.001915632    3.316    0.698
        23  -8.7452    120.0440    245.3614   1.2581102241e+02   1.2704798475e+01    0.2304749    0.1430507  71.61  0.001216656    2.219    0.549
        24  -8.9852     45.8373    244.7678   1.3827382318e+02   2.1638499535e+01    0.1639685   0.08950518  41.16  0.000724979    1.446    0.309
        25  -9.6444    248.5249    242.5443   1.0360560386e+02  -4.9613559119e+00    0.2142858    0.1770948   9.06 0.0009762585    1.456    0.313
        26  -9.8973    248.1286    235.2043   1.0259224907e+02  -4.2850490945e+00    0.2730081    0.1874725 -17.62  0.001324121    1.626    0.385
        27  -8.4664    201.9305    243.3411   1.1138143623e+02   1.3911815201e+00    0.1668353    0.1372059 -59.62 0.0008289934    2.347    0.574
        28  -7.8918    159.4916    244.5100   1.1884352175e+02   7.3433842665e+00    0.1122013   0.08044361  36.10 9.904466e-05    1.004    0.004
        29  -9.4073    160.1429    240.4666   1.1827476125e+02   7.7348532080e+00    0.2833271    0.2071929  84.72  0.001410629    2.594    0.614
        30  -8.2582     77.7339    243.1692   1.3291212649e+02   1.8349203451e+01    0.1747357   0.07031031  60.65 0.0009419135    2.710    0.631
        31  -9.2641    183.1654    240.3630   1.1422672022e+02   4.4106491747e+00    0.3271288    0.1960167  54.24  0.001948834    2.239    0.553
        32  -7.7994    153.6204    242.3028   1.1962837823e+02   8.4460532143e+00    0.1123163   0.06889951  54.34  0.000702494    1.774    0.436
        33  -7.9628     88.3897    242.2049   1.3102824177e+02   1.7206150601e+01    0.1275987   0.08495131  80.01 0.0005480954    1.698    0.411
        34  -9.2523     30.1514    241.8354   1.4065049112e+02   2.3627542772e+01    0.1589672    0.1206317  66.64 0.0005674332    1.144    0.126
        35  -9.5326      3.3606    240.6997   1.4474842069e+02   2.6184694071e+01    0.1841492    0.1042849  66.03 0.0006372893    1.247    0.198
        36  -8.5162     37.2723    241.4247   1.3949914869e+02   2.2996338220e+01    0.1406384   0.05825672  46.90 0.0009489318    1.653    0.395
        37  -9.4461    241.2832    238.7975   1.0422225016e+02  -3.6735925954e+00    0.3843957    0.1736423   1.25  0.001818203    3.613    0.723
        38  -8.3448    194.1893    239.8028   1.1224598027e+02   2.8723170102e+00    0.1607139    0.1183715  35.20 0.0004519559    1.183    0.154
        39  -8.5417     52.9907    239.3063   1.3683160729e+02   2.1696827735e+01    0.1779422   0.09475963  62.80 0.0005532561    1.568    0.362
        40  -8.2447    208.8736    238.5304   1.0956233781e+02   8.8571158093e-01    0.1470152    0.1234237  -9.62 0.0004968204    1.444    0.308
        41  -8.5578    135.8699    238.9949   1.2241813366e+02   1.1377754434e+01    0.1744661    0.1057102  56.60  0.001025379    1.750    0.428
        42  -8.2955    129.4939    239.0249   1.2355475078e+02   1.2262243035e+01     0.165249    0.1076141  48.98 0.0008027605    1.268    0.211
        43  -8.0468    125.8447    239.6440   1.2426264555e+02   1.2682283942e+01     0.159964   0.07281709  45.18  0.000363535    1.662    0.398
        44  -8.0687     84.1177    238.8553   1.3152210016e+02   1.8210758146e+01    0.1306522    0.1026448  38.25  0.000354803    1.275    0.216
        45  -8.1182     71.9966    238.9760   1.3361298923e+02   1.9631187299e+01    0.1257325   0.08862683  51.03 0.0004308934    1.036    0.035
        46  -9.3584     19.3402    238.5972   1.4223391141e+02   2.5115869479e+01    0.1829093    0.1158201  61.17  0.000645773    1.097    0.088
        47  -9.3377    230.9846    237.0464   1.0565018404e+02  -2.1011090926e+00    0.2024923    0.1864554 -14.32   0.00100588    1.742    0.426
        48  -8.1136    107.0416    238.5273   1.2748778290e+02   1.5360744384e+01    0.1686364   0.08010111  40.19  0.001022936    1.566    0.361
        49 -10.1089    214.5485    232.7731   1.0779647228e+02   6.5034964767e-01    0.4005051    0.3231304  89.94   0.00232019    3.695    0.729
        50  -9.2125    203.0996    234.5681   1.1001141996e+02   2.1317238034e+00     0.244095    0.1827611 -53.96  0.001633786    2.483    0.597
        51  -9.6222    175.7757    233.5062   1.1466719374e+02   6.2824689553e+00    0.3287811    0.2076386 -55.93  0.002032095    2.678    0.627
        52  -7.8931    170.2289    235.9455   1.1595618599e+02   6.8107027771e+00    0.1128482   0.09542241 -34.07 0.0004242224    1.579    0.367
        53  -7.8450     44.6690    236.3079   1.3805761889e+02   2.3019950037e+01    0.1059682   0.04980792  58.43 0.0005450969    1.664    0.399
        54  -9.0732    108.4344    234.4331   1.2688234280e+02   1.5758484666e+01     0.237579    0.1517589  61.99  0.001054367    1.588    0.370
        55  -8.2595     99.6686    234.5719   1.2845932405e+02   1.6886437295e+01    0.1691182    0.1082711  69.19 0.0007590983    1.714    0.417
        56  -8.7505     94.1213    233.8360   1.2938546932e+02   1.7704384681e+01    0.3650976    0.1542553  65.91  0.001594743    4.273    0.766
        57  -8.6657     78.8030    234.6811   1.3214827683e+02   1.9468270038e+01    0.1851732    0.1195271  75.86 0.0008597384    1.621    0.383
        58  -8.9906     53.5920    234.5085   1.3647155268e+02   2.2357160918e+01      0.15379    0.1038373  73.82 0.0001109658    1.328    0.247
        59 -10.0952     60.7620    228.7947   1.3490683059e+02   2.2455024484e+01    0.5692954    0.2505478  29.34  0.003180027    2.635    0.621
        60  -8.2353    122.8356    234.0721   1.2426022846e+02   1.3858374966e+01    0.1703321    0.1072084  68.06 0.0009955153    2.052    0.513
        61  -9.1974     68.2951    232.3834   1.3382314256e+02   2.1048527963e+01    0.3702237    0.1319133  60.43   0.00181018    3.246    0.692
        62  -8.3527    194.3845    232.7639   1.1128227981e+02   3.6086655324e+00    0.1537075     0.111177  33.60 0.0006144629    1.124    0.110
        63  -9.0712    236.0519    230.9996   1.0392891440e+02  -2.2475045986e+00    0.1842359    0.1343957  -8.68   0.00045861    1.417    0.294
        64  -9.2709    186.5961    231.0830   1.1243031049e+02   4.9557200425e+00    0.2505424    0.1971783  74.86  0.001611479    2.416    0.586
        65  -8.2492    169.0118    243.3341   1.1704994827e+02   6.1191636646e+00    0.1590081    0.1059812  37.89 0.0004810479    1.109    0.098
        66  -9.0008    141.0887    230.7851   1.2060574409e+02   1.1727234842e+01    0.4468054    0.1524083  51.21  0.001813194    3.726    0.732
        67  -7.8995     11.9265    232.3084   1.4319416824e+02   2.6726661568e+01    0.1654378          nan  47.13 0.0007023299    4.480    0.777
        68  -8.5893     32.7720    230.4238   1.3975359595e+02   2.5112400535e+01    0.1573031   0.09991747  53.94 0.0002791627    1.133    0.118
        69  -8.4184      1.5164    231.0302   1.4478457315e+02   2.7794399325e+01    0.1282928   0.06882383  83.31 0.0006514032    1.572    0.364
        70  -9.3134    246.4873    229.3705   1.0197718357e+02  -3.5475064466e+00    0.2132774    0.1558382 -14.18  0.000849104    1.509    0.337
        71  -8.1194    146.6229    227.2801   1.1919483965e+02   1.1392401504e+01    0.1840706    0.1079629  47.53 0.0007591715    1.468    0.319
        72  -8.9859    151.4905    229.0147   1.1850419911e+02   1.0443620316e+01     0.223292    0.1719058  81.50  0.001179229    2.005    0.501
        73  -9.3374    148.8285    224.7142   1.1848589791e+02   1.1413098716e+01    0.2687917    0.1876874  63.33  0.001175765    1.837    0.456
        74  -8.1605    229.9478    228.9461   1.0463686355e+02  -1.1884328418e+00    0.1505684    0.1268001  40.70 0.0006961001    1.691    0.408
        75  -7.7674    220.6328    229.3153   1.0626246527e+02   1.1703359458e-01    0.1033461    0.0805684  47.20 0.0005919077    1.774    0.436
        76  -8.6708    162.2844    228.0110   1.1641167609e+02   8.9694760060e+00    0.2116324    0.1294088  51.78 0.0009618369    1.722    0.419
        77  -8.6474    127.8802    227.3868   1.2266210030e+02   1.4091614781e+01    0.1877035     0.142463  73.84  0.001014077    1.626    0.385
        78  -8.8012     48.9023    227.7617   1.3690031078e+02   2.3901578598e+01    0.2204272    0.1634536  42.19  0.001786662    1.287    0.223
        79  -8.8873    206.1263    226.0432   1.0828953575e+02   2.5984197887e+00    0.1824938    0.1534943 -48.71 0.0009405319    1.971    0.493
        80  -8.1920    200.1736    226.1929   1.0935662902e+02   3.4746673784e+00    0.1416537    0.1223837  35.23 0.0006123513    1.373    0.272
        81  -8.9213      6.0368    226.0771   1.4393936211e+02   2.8192920834e+01    0.1434744   0.09427122  60.30 0.0004378431    1.051    0.049
        82  -8.8685    180.5018    224.2573   1.1260926327e+02   6.6831397534e+00    0.1720548    0.1500952  48.15 0.0004280863    1.408    0.290
        83  -8.8319     94.0326    224.2246   1.2860227241e+02   1.9163710097e+01    0.3032297    0.1373673  59.54   0.00156333    2.488    0.598
        84  -8.6397     74.7368    225.0327   1.3217775333e+02   2.1433322983e+01     0.140121    0.1119361  63.16 0.0003612876    1.104    0.095
        85  -8.6987    104.6907    223.5976   1.2657793556e+02   1.7856981105e+01    0.2318184    0.1277535  69.37  0.001285565    2.475    0.596
        86  -8.6163    172.8547    222.9767   1.1383261370e+02   8.0095943655e+00    0.1782282    0.1572758  67.62 0.0007796515    1.590    0.371
        87  -9.0606    239.3469    221.3643   1.0191074855e+02  -1.8015121322e+00    0.2521571    0.1774165   6.71  0.001015618    1.190    0.160
        88  -9.3434    225.5678    221.4817   1.0424893735e+02   1.8958695201e-01    0.2188097    0.1487421  16.67 0.0008706484    1.155    0.134
        89  -9.2099    192.4623    221.4463   1.1005664636e+02   5.1898353115e+00    0.2346525    0.1956869  56.18   0.00108981    1.680    0.405
        90  -9.4109    159.7766    220.9109   1.1598129915e+02   1.0275419302e+01    0.3696642    0.1745717  52.78  0.001539601    2.595    0.615
        91  -8.5848     55.0737    221.7703   1.3547539136e+02   2.4195944399e+01     0.159256    0.1026917  56.99 0.0004626853    1.186    0.157
        92  -8.6725     18.8597    221.4956   1.4169861436e+02   2.7820319284e+01    0.1924761   0.09596993  61.08 0.0007782393    1.502    0.334
        93  -8.5919     82.7711    220.6975   1.3038253342e+02   2.1141335522e+01    0.1985086    0.1107509  70.98 0.0009847897    2.049    0.512
        94  -9.0303    216.3730    223.2821   1.0610150793e+02   1.3648480993e+00    0.1798174     0.176031 -88.90  0.001036515    1.845    0.458
        95  -8.1075     43.7940    220.7845   1.3740680631e+02   2.5548080466e+01    0.1434357   0.08566395  61.10 0.0005907326    1.313    0.238
        96  -8.3148    202.8732    220.1527   1.0800574360e+02   3.7448375895e+00    0.1695383    0.1338133  32.73 0.0005114805    1.219    0.179
        97  -9.3514    133.0913    217.1257   1.2055335967e+02   1.4820962888e+01    0.4473887    0.2965575 -85.78  0.002590899    2.548    0.608
        98  -9.1814    120.2367    219.2885   1.2323491532e+02   1.6361064993e+01    0.3265457    0.1624236  59.84  0.001644457    2.622    0.619
        99  -8.6898    249.0477    218.4331   9.9849577256e+01  -2.9015652312e+00    0.2038331    0.1536472  54.13  0.001274615    2.578    0.612
       100  -8.5607    209.9835    218.9949   1.0657429742e+02   2.7900468117e+00    0.1746438    0.1528704  -7.17 0.0008595402    1.386    0.278
       101  -7.7511    140.3421    222.7008   1.1982953368e+02   1.2948927885e+01    0.1164941   0.07484882  56.52 0.0005143638    1.670    0.401
       102  -8.2707     98.5577    219.4857   1.2734154678e+02   1.9308241299e+01    0.2038261   0.07266721  45.86 0.0007240219    2.185    0.542
       103  -7.8371      1.4663    219.5380   1.4448583805e+02   2.9602091107e+01   0.09543365   0.06322034  63.45 0.0001914816    1.041    0.039
       104  -8.7308    142.9259    216.7064   1.1863038513e+02   1.3414967398e+01    0.2231767    0.1596168 -85.76 0.0009311508    2.299    0.565
       105  -8.5341    108.3767    217.6424   1.2531318642e+02   1.8270800975e+01    0.1702022    0.1073382  60.76 0.0009769984    1.608    0.378
       106  -8.7574     51.7420    217.8333   1.3583004026e+02   2.5196439923e+01    0.1943112    0.1095001  70.15  0.000872425    1.635    0.388
       107  -7.8383    179.3243    217.6808   1.1192071355e+02   7.6801342654e+00    0.1122679   0.08388451  55.12 0.0007045426    1.675    0.403
       108  -8.8204    169.1276    216.3353   1.1363076135e+02   9.4416634723e+00    0.2159704    0.1865106 -84.51 0.0008185334    1.802    0.445
       109  -8.1355     61.8504    217.0872   1.3395403048e+02   2.4206416308e+01    0.1730046   0.08856105  67.72 0.0007694578    1.967    0.492
       110  -9.8904     72.3676    212.4389   1.3166728333e+02   2.3752495935e+01     0.631684    0.2100938  49.98  0.003141712    2.500    0.600
       111 -10.0995     35.3567    215.0471   1.3858825852e+02   2.7335939314e+01    0.5046741    0.1640628  40.39  0.002800566    2.253    0.556
       112  -8.6909    232.3440    214.6186   1.0201963049e+02  -1.1038957470e-01    0.1970799    0.1677983  -2.04 0.0008458134    1.379    0.275
       113  -8.6214    185.6677    214.3641   1.1027698649e+02   7.1049114791e+00    0.1703644    0.1486498 -47.05 0.0007702978    1.644    0.392
       114  -8.8101    154.3968    215.2111   1.1626062672e+02   1.1877891406e+01    0.1364664    0.1150369 -74.45 0.0006406033    1.699    0.411
       115  -8.8041     93.2092    214.1133   1.2786045132e+02   2.0866543811e+01    0.2529172    0.1320205  65.22  0.001382858    2.298    0.565
       116  -8.2024     86.9881    215.5077   1.2916385850e+02   2.1443824472e+01    0.1672793   0.08533198  42.28 0.0005845787    1.534    0.348
       117  -8.0505    224.6142    212.7489   1.0304733464e+02   1.2453925174e+00     0.136209    0.1064685 -27.34 0.0005031318    1.636    0.389
       118  -9.3931    213.8262    212.1684   1.0484530683e+02   2.9620277956e+00    0.2727166    0.2081965  48.96   0.00144985    1.728    0.421
       119  -8.7748    161.8082    212.7023   1.1451902419e+02   1.1074596499e+01    0.1882818      0.14654  72.05 0.0007179427    1.899    0.473
       120  -7.7669    106.6627    213.2819   1.2520306064e+02   1.9191327922e+01     0.118249   0.07090155  57.72 0.0004142788    1.622    0.383
       121  -9.4527    175.3773    210.1962   1.1159533670e+02   9.2705345660e+00    0.3079709    0.2305219  69.99   0.00161359    2.227    0.551
       122  -9.0455    147.7500    210.8742   1.1697355411e+02   1.3521516543e+01    0.2449493    0.2121622  32.34  0.001205702    1.107    0.097
       123  -7.9589      4.0015    211.9995   1.4384931180e+02   3.0626718096e+01    0.1135547   0.07939994  64.30 0.0003507058    1.012    0.012
       124  -8.7501    204.3079    210.8810   1.0634707589e+02   4.5946518655e+00    0.1893938    0.1677806  46.59 0.0007808084    1.539    0.350
       125  -8.6828    116.1287    210.3929   1.2306426535e+02   1.8318381448e+01    0.2365453     0.145225  65.48 0.0008944956    1.981    0.495
       126  -8.1870     99.0117    210.7876   1.2643166688e+02   2.0635407435e+01    0.1999712   0.09804155  56.51  0.001069767    2.071    0.517
       127  -8.5459     12.9362    216.0695   1.4248933654e+02   2.9218082747e+01     0.144376    0.1027479  63.03 0.0003949771    1.018    0.018
       128  -9.0270    236.6999    208.5415   1.0029155774e+02  -1.3449067140e-01    0.2376962    0.2072649 -55.32  0.001296317    2.343    0.573
       129  -7.7632    237.6851    204.6618   9.9476991848e+01   1.2082909005e-01    0.1252988    0.0920098  17.72 0.0003772462    1.029    0.028
       130  -8.3295     85.6785    209.7167   1.2890636197e+02   2.2561032635e+01    0.2119151    0.1156149  78.81  0.001155738    2.489    0.598
       131  -8.8113    137.8753    208.3898   1.1857751972e+02   1.5407185292e+01    0.4155748    0.1509657  36.94  0.001560783    2.295    0.564
       132  -7.8636     46.2768    209.6200   1.3632436199e+02   2.7146352193e+01    0.1120944   0.05793991  64.24 0.0007003782    1.708    0.415
       133  -9.2455     25.8009    208.1123   1.3994297514e+02   2.9408420972e+01    0.2742009    0.1345704 -89.36  0.001209057    1.920    0.479
       134  -9.3358    246.3240    207.2763   9.8466638227e+01  -1.4328822058e+00     0.231936    0.1624241  -6.99 0.0006480659    1.323    0.244
       135  -8.1197    156.4140    208.1803   1.1494006776e+02   1.2557654643e+01    0.1388762    0.1185217 -72.42 0.0009216318    1.653    0.395
       136  -8.0558    126.5053    208.5063   1.2081973860e+02   1.7101195431e+01    0.1207688   0.09461814  46.91 0.0002765352    1.072    0.068
       137  -9.1168     99.4171    206.1850   1.2589479987e+02   2.1336807975e+01    0.3006178      0.17585  71.55  0.001331984    2.199    0.545
       138  -9.0044     79.9750    206.2957   1.2970825393e+02   2.3856154516e+01    0.2180189     0.136647  48.73 0.0008021513    1.277    0.217
       139  -8.1244     51.1361    206.1759   1.3520702599e+02   2.7222821909e+01    0.1547723   0.09455227  59.21 0.0005967435    1.329    0.247
       140  -9.6704    194.8716    203.4393   1.0691313018e+02   7.0113056195e+00    0.3365119    0.2522817 -27.58  0.001365923    1.561    0.359
       141  -9.4712    192.4069    197.3896   1.0640716771e+02   8.1963285830e+00    0.2949649    0.2401682 -52.07  0.001131024    1.833    0.454
       142  -9.0800    183.8388    204.0462   1.0908041420e+02   8.7244696327e+00    0.2771851    0.2089735  59.86  0.001125374    1.866    0.464
       143  -8.6681    131.3540    204.4235   1.1936744151e+02   1.7011444958e+01    0.2562673    0.1556525  59.84 0.0008939279    1.942    0.485
       144  -8.1702    109.1724    205.2479   1.2386907038e+02   2.0137399619e+01    0.1614919    0.1153913  61.32 0.0005412906    1.376    0.273
       145  -7.8087     92.3099    205.6317   1.2723793141e+02   2.2382694967e+01    0.1213634   0.07181586  63.55 0.0007036447    1.762    0.433
       146  -8.4073     56.0615    205.0567   1.3420310088e+02   2.6880938169e+01    0.1771197   0.09544881  63.69 0.0006060571    1.693    0.409
       147  -9.1780     12.7408    203.7303   1.4206543941e+02   3.1303888737e+01    0.2451055     0.118324  59.43  0.001060025    1.577    0.366
       148  -9.7313    163.7850    203.0121   1.1278212626e+02   1.2120961400e+01    0.3403089    0.2443712  55.21  0.001030765    1.597    0.374
       149  -8.0969    122.0800    204.0665   1.2116890162e+02   1.8459473874e+01    0.1427313    0.1145745  42.77 0.0003718437    1.019    0.019
       150  -9.4576    250.1048    202.0170   9.6947465248e+01  -1.4632549465e+00    0.3001924    0.1531623 -22.96  0.001317019    1.987    0.497
       151  -9.1346    243.0498    200.7484   9.7903892916e+01  -2.8123028167e-01    0.2640716    0.1549334 -26.81  0.001036415    1.846    0.458
       152  -8.2837    210.9989    202.0474   1.0372523325e+02   4.5787668947e+00    0.1640395    0.1450101  52.01 0.0005210945    1.651    0.394
       153  -8.8033    140.4861    201.1539   1.1712650741e+02   1.6113010693e+01    0.2553945     0.184889  77.40   0.00106162    2.031    0.508
       154  -8.6405     80.1808    201.5225   1.2924556394e+02   2.4649357309e+01    0.2526962    0.1314697  63.97  0.001392089    2.095    0.523
       155  -8.2452     29.5210    200.9522   1.3891916684e+02   3.0300354927e+01    0.1403961   0.08613629 -86.40 0.0004989252    1.514    0.340
       156  -8.7039    237.0681    198.6082   9.8549290089e+01   8.5813435781e-01    0.2510111    0.1530083 -34.01  0.001411548    2.039    0.510
       157  -9.4980    149.6558    198.7465   1.1496337552e+02   1.5029480298e+01    0.3508474    0.2466245  75.23  0.001454928    2.310    0.567
       158  -8.8277    123.8849    199.2335   1.2022019030e+02   1.8972729553e+01    0.2088613     0.153217  72.43  0.000813338    1.662    0.398
       159  -9.1960    112.8894    198.6676   1.2238150547e+02   2.0695240827e+01      0.36831    0.2096876  68.78  0.001845705    2.562    0.610
       160  -9.0047     88.6321    198.7313   1.2729641233e+02   2.4047434150e+01    0.2956405    0.1816805  75.30  0.001527785    1.923    0.480
       161  -8.3936    177.1464    199.1541   1.0960893930e+02   1.0482287396e+01    0.1589861    0.1348226  47.23 0.0004317879    1.322    0.243
       162  -8.8811    105.5860    198.9598   1.2389592758e+02   2.1693659233e+01    0.2089737    0.1383811  46.40 0.0003774246    1.242    0.195
       163  -8.2841    202.1152    198.0115   1.0468881451e+02   6.5149700937e+00    0.1714161    0.1450122  55.01 0.0006164497    1.657    0.396
       164  -9.5990     61.6534    197.3086   1.3254956830e+02   2.7614951105e+01    0.3429703    0.1449621  61.60  0.001613969    2.572    0.611
       165  -9.2658     52.5583    197.6438   1.3435443671e+02   2.8566097826e+01    0.1815975    0.1486844 -65.02  0.001386016    1.471    0.320
       166  -8.9756    179.0382    203.9863   1.0998385292e+02   9.5123714687e+00    0.1924742    0.1480383  31.81 0.0004675377    1.037    0.036
       167  -8.7201    215.8763    195.7857   1.0179264029e+02   4.5393621149e+00    0.1811057    0.1632736 -62.26 0.0006610808    1.959    0.489
       168  -8.7200    224.2785    194.0180   9.9981850982e+01   3.3887131756e+00    0.2161114    0.1588634 -36.10  0.001043679    1.802    0.445
       169  -8.9500    160.8004    194.3471   1.1209131640e+02   1.3879127274e+01    0.2172797    0.1796034  62.42 0.0007955515    1.490    0.329
       170  -9.1885     44.0177    193.6050   1.3573961927e+02   3.0191490842e+01    0.3571807    0.1374127  60.99  0.001811658    2.625    0.619
       171  -8.8195    245.4705    193.5057   9.6230040927e+01   1.1146837037e-01     0.202651    0.1806669  19.94 0.0007907413    1.480    0.324
       172  -8.9498    185.2867    194.9140   1.0736600114e+02   9.7138061908e+00    0.2243679    0.1842379  41.34 0.0008226762    1.261    0.207
       173  -8.6243     77.0123    193.6389   1.2915923460e+02   2.6437434032e+01    0.2075289    0.1374059  79.14 0.0007570534    1.598    0.374
       174  -8.3712      6.1474    194.1581   1.4287685819e+02   3.3504680826e+01    0.1364451    0.1119773  72.55 0.0004678363    1.170    0.145
       175  -8.6094     56.0746    193.5059   1.3335978901e+02   2.8925775457e+01    0.1664481   0.09140614  39.67 0.0009580431    1.586    0.369
       176  -8.0760    241.4757    192.4738   9.6721101559e+01   8.3880513584e-01    0.1240028   0.09241255  15.20 9.038751e-05    1.019    0.019
       177  -8.5449    199.0004    191.9359   1.0425539698e+02   7.8122487974e+00    0.1727475    0.1510025  59.38 0.0006575929    1.647    0.393
       178  -8.4381    172.1843    191.8594   1.0943739116e+02   1.2346279234e+01    0.1864605    0.1567881  47.12 0.0007292021    1.281    0.219
       179  -9.2419    139.5975    190.9360   1.1590326876e+02   1.7878758548e+01    0.3252901     0.212151  67.55   0.00111511    2.222    0.550
       180  -8.0525    118.0804    192.1492   1.2052471124e+02   2.1029970769e+01     0.167643    0.1240572  56.34  0.000456989    1.288    0.224
       181 -10.4832     92.0730    188.9542   1.2557762780e+02   2.5320224866e+01    0.7771248    0.2392072  49.67  0.003099689    3.279    0.695
       182  -8.1485     17.5502    191.7378   1.4068766254e+02   3.3005596383e+01    0.1354837   0.07528645  78.44 0.0005023935    1.521    0.343
       183  -7.9805    179.2784    191.6503   1.0800493398e+02   1.1179182933e+01    0.1153634   0.09754153  65.14 0.0004039702    1.642    0.391
       184  -8.5731    148.6353    189.5698   1.1384298153e+02   1.6627620024e+01    0.1877129     0.153674  85.82 0.0007217251    1.700    0.412
       185  -9.3005    155.9790    187.6149   1.1203870916e+02   1.5716138534e+01    0.2907366    0.2064376 -60.67 0.0008975088    1.963    0.491
       186  -8.9598    129.1835    188.6277   1.1774589541e+02   1.9919082006e+01    0.2410847    0.1773182  74.18 0.0009274064    1.754    0.430
       187  -9.7553    121.0852    187.0645   1.1923742837e+02   2.1446929899e+01    0.4292577     0.259378 -83.39  0.002063834    2.877    0.652
       188  -8.0797     71.1560    189.0889   1.2993835229e+02   2.7984483671e+01    0.1589226    0.1081557  60.02 0.0003790484    1.288    0.224
       189  -8.0581    237.0202    188.3437   9.6742787416e+01   1.9960993140e+00    0.1706049     0.130302  16.39 0.0006331389    1.044    0.042
       190  -8.5020    216.5794    188.0990   1.0032561642e+02   5.3579228884e+00    0.2056468    0.1509665  37.67 0.0007062042    1.321    0.243
       191  -8.8107    191.2497    187.6492   1.0500647504e+02   9.7016585087e+00    0.2247648    0.2020792 -88.41 0.0009851282    1.791    0.442
       192  -8.8557    164.9529    187.3051   1.1016078553e+02   1.4248649020e+01    0.2090476    0.1846856 -77.72 0.0007555557    1.595    0.373
       193  -9.2696     54.7366    187.1512   1.3313720827e+02   3.0239664450e+01     0.322534     0.147462  63.12  0.001424161    2.280    0.561
       194  -8.9057     48.8469    188.1827   1.3440660733e+02   3.0682276698e+01    0.3586738   0.06494687  40.88  0.001339016    3.494    0.714
       195  -8.5656     33.8825    187.6440   1.3734308880e+02   3.2283086604e+01     0.220558    0.1082274  77.17  0.001300452    1.999    0.500
       196  -7.7935    230.3575    187.6796   9.7783277734e+01   3.1430653975e+00    0.1087287   0.09883363  53.77 0.0007044954    1.762    0.432
       197  -8.9744    109.5320    186.1997   1.2157247540e+02   2.3340664908e+01     0.335753    0.1986571  64.60   0.00113965    2.094    0.522
       198  -8.7938     28.4420    187.2759   1.3838433528e+02   3.2858362636e+01    0.1737473    0.1211263  43.12 0.0005714686    1.339    0.253
       199  -8.6029    249.1899    185.8897   9.4231545699e+01   3.5175299008e-01    0.2060842    0.1389861  -8.32 0.0006922797    1.333    0.250
       200  -8.7823    182.9477    185.2681   1.0622250874e+02   1.1463861104e+01    0.1889822    0.1792292 -29.27 0.0006348439    1.346    0.257
       201  -8.9664    210.1445    184.5977   1.0088587088e+02   6.8810005927e+00    0.1877729    0.1634204  -9.62 0.0005279918    1.275    0.215
       202  -8.8863    202.7605    184.7496   1.0229886660e+02   8.1215250241e+00    0.2153823    0.1728495 -37.12 0.0006885072    1.584    0.369
       203  -8.9290     66.7488    184.6486   1.3044797506e+02   2.9336172983e+01    0.3023203     0.157931  62.60  0.001093325    1.959    0.489
       204  -8.4548    196.9559    183.9210   1.0325969651e+02   9.2315538156e+00    0.1831059    0.1546948  59.13 0.0006918298    1.658    0.397
       205  -9.0578    174.3401    183.6615   1.0766703897e+02   1.3188219892e+01    0.2480327    0.2016246  67.74 0.0009607723    1.741    0.426
       206  -7.7493    143.4990    184.5141   1.1415300150e+02   1.8295861581e+01    0.1294793    0.1088748  34.73 3.937042e-05    1.029    0.028
       207  -8.2508    223.8993    183.6194   9.8193599177e+01   4.6870844459e+00    0.1641304    0.1053393  43.49 0.0001701253    1.613    0.380
       208  -8.8055     44.2443    181.9875   1.3488832150e+02   3.2319445148e+01    0.2716438    0.1257268  67.23 0.0009379184    2.249    0.555
       209  -7.8586      1.7667    183.6584   1.4329382474e+02   3.5719753923e+01    0.1359636   0.06782611  44.85 0.0007849473    1.661    0.398
       210  -8.3434    240.7384    181.4666   9.4840846814e+01   2.1778537207e+00    0.2371774    0.1392119 -37.29   0.00129386    2.188    0.543
       211  -9.3244    147.3786    180.5345   1.1272456761e+02   1.8307021573e+01    0.2735965    0.2187785 -80.53 0.0009568406    1.766    0.434
       212  -8.3834     60.0469    182.0401   1.3161817101e+02   3.0605485177e+01    0.1850315     0.106543  61.29  0.000469302    1.617    0.382
       213  -9.5665     25.6411    179.1775   1.3847393649e+02   3.4622389139e+01    0.5304313    0.1745154  71.56  0.002209332    4.093    0.756
       214  -7.8808    235.2949    181.6793   9.5820332791e+01   3.0368030562e+00    0.1039805    0.1007303  24.90 0.0003428596    1.613    0.380
       215  -8.5187    137.7079    179.6512   1.1464476407e+02   2.0071452050e+01    0.2442995    0.1646691  66.55  0.001048157    2.007    0.502
       216  -9.3536    191.4009    178.3888   1.0335434954e+02   1.0972736062e+01    0.2422978    0.2101222  46.45 0.0005457756    1.358    0.263
       217  -8.1866    169.4408    178.9349   1.0786316498e+02   1.4761368819e+01    0.1576917    0.1182565 -76.95 0.0008055636    2.391    0.582
       218  -8.5535    250.5227    172.9314   9.1568796204e+01   1.5663618399e+00    0.1756997    0.1308866  -3.38 0.0005337742    1.150    0.130
       219  -9.3695    248.8660    177.4751   9.2714678605e+01   1.3237185120e+00    0.2659159    0.2356965  36.23   0.00108614    1.577    0.366
       220  -8.2742    247.3157    173.7125   9.2255170059e+01   1.9957569649e+00    0.1576721    0.1195059 -28.82 0.0004216745    1.578    0.366
       221  -9.0857    205.0249    177.5294   1.0056393675e+02   8.6956232659e+00    0.2178426    0.1831311 -43.45 0.0007999158    1.634    0.388
       222  -8.4116    129.1516    177.2680   1.1613204849e+02   2.1887208501e+01    0.2248918    0.1608265  83.97 0.0007786942    2.037    0.509
       223  -8.1321    101.2149    178.2292   1.2236472981e+02   2.6005805080e+01      0.17094     0.127191  61.18 0.0006068196    1.305    0.234
       224  -9.0076     35.8937    176.7478   1.3623596137e+02   3.4143286254e+01    0.3833193     0.139855  72.34  0.001607856    3.847    0.740
       225  -8.3762    231.2933    177.0611   9.5656163446e+01   4.2453210955e+00     0.174174    0.1390674  -3.86 0.0005328978    1.176    0.150
       226  -8.3823    217.2339    177.1816   9.8214563115e+01   6.6197598415e+00    0.1568532    0.1474309   3.15 0.0006402885    1.370    0.270
       227  -9.3926    183.2728    175.6268   1.0447289496e+02   1.2817113367e+01    0.3868635    0.2207336 -32.06 0.0009238591    1.998    0.499
       228  -7.9772     97.5135    177.5001   1.2308420861e+02   2.6672332076e+01    0.1214895    0.1076692  50.34 0.0008099464    1.054    0.051
       229  -8.7110     89.0571    176.9501   1.2487187141e+02   2.7952265947e+01    0.2480588    0.1414683  65.37 0.0008889135    2.059    0.514
       230  -8.9927     59.0022    176.0022   1.3130625784e+02   3.1880227599e+01    0.3622847    0.1423393  59.22  0.001620765    2.957    0.662
       231  -9.4694     56.0107    171.5043   1.3154741203e+02   3.3092886175e+01    0.3683825    0.1772252  70.08  0.001823328    2.495    0.599
       232  -8.4920     12.6671    176.7484   1.4092057183e+02   3.6167671560e+01     0.201291    0.1058749  60.57 0.0008581218    1.552    0.356
       233  -9.2329    158.8200    175.1683   1.0943317081e+02   1.7222737039e+01    0.3266352    0.2324754  70.64   0.00110185    2.208    0.547
       234  -9.2527    104.2174    174.7648   1.2125793686e+02   2.6214458295e+01     0.460937    0.2182516  58.60  0.001979624    2.792    0.642
       235 -10.7101     75.8173    170.0774   1.2702321584e+02   3.1022661478e+01     1.016529     0.392749 -79.76   0.00364416    4.753    0.790
       236  -8.3274    224.4051    174.2610   9.6354626979e+01   5.7570873000e+00    0.1617664    0.1166225 -33.53 0.0006551241    1.650    0.394
       237  -9.4876    175.7871    172.2674   1.0539012448e+02   1.4668702119e+01    0.2998301    0.2245746 -36.55 0.0009064775    1.525    0.344
       238  -8.2132    142.8903    172.7976   1.1245056082e+02   2.0381228767e+01    0.1781589    0.1438499  56.77  0.000436015    1.311    0.237
       239  -8.6127    134.6333    172.1712   1.1415424163e+02   2.1887489361e+01    0.2282509    0.1779831  38.16 0.0009483747    1.120    0.107
       240  -9.5514    121.3869    170.3962   1.1681757893e+02   2.4381910131e+01    0.3612321    0.2470833 -84.25  0.001256885    2.117    0.528
       241  -9.1701     44.2520    170.5505   1.3401501227e+02   3.4526852391e+01    0.3296973    0.1809366  64.25  0.001949234    1.724    0.420
       242  -8.8229     39.5393    170.4677   1.3501954751e+02   3.5011768698e+01    0.1989205   0.09155129  37.25 0.0005774003    1.978    0.494
       243  -8.7040    230.5133    170.2622   9.4489477409e+01   5.2077837435e+00    0.2021885    0.1676758  -0.02  0.000648315    1.148    0.129
       244  -8.5770    198.5788    170.5634   1.0050368090e+02   1.0806917173e+01     0.225578    0.1927901  80.79  0.001189453    1.971    0.493
       245  -9.0593     20.1230    170.7532   1.3910945824e+02   3.6708393653e+01    0.1758737    0.1171239  76.35 0.0005650474    1.231    0.188
       246  -9.2737     20.4883    166.4400   1.3878307056e+02   3.7519016784e+01     0.305922    0.1175206  59.55  0.001083584    2.426    0.588
       247  -8.6547    205.6994    170.1826   9.9054562866e+01   9.5796730804e+00    0.1815291    0.1665505 -37.09 0.0005859172    1.464    0.317
       248  -9.1691    167.2736    168.7784   1.0653361857e+02   1.6758008352e+01    0.3213335    0.2322096  68.93   0.00109606    2.154    0.536
       249  -8.3327    149.9304    169.9169   1.1044369928e+02   1.9659210616e+01    0.2026477    0.1548216  66.40 0.0007862594    1.674    0.403
       250  -9.1453    111.8215    167.7647   1.1858334695e+02   2.6385279829e+01    0.2832219    0.1993003 -89.86 0.0009713368    1.882    0.469
       251  -7.9222    244.2788    169.3075   9.1912507601e+01   3.0007594527e+00    0.1305137   0.08007634  10.24  0.000214032    1.556    0.357
       252  -8.0792     88.6008    168.7541   1.2398839093e+02   2.9594072778e+01    0.1641021      0.11225 -84.37 0.0006402113    1.657    0.397
       253  -8.1870    218.9684    168.5169   9.6238448365e+01   7.4404010809e+00    0.1897702    0.1144527  40.03 0.0005648601    1.517    0.341
       254  -7.9085    211.6078    168.3171   9.7571948763e+01   8.7762909190e+00    0.1225958    0.1064533  69.95 0.0003100637    1.853    0.460
       255  -9.0168    191.8999    166.6492   1.0107636336e+02   1.2590499478e+01    0.2265065    0.1927526 -34.66 0.0005862556    1.397    0.284
       256  -8.7065    184.9698    166.5687   1.0245766724e+02   1.3875394926e+01    0.2249807    0.1907852 -55.76 0.0007511229    1.633    0.388
       257  -9.8341    136.6292    164.4615   1.1245652181e+02   2.2933406858e+01    0.5353363    0.2487657  55.49  0.002064765    3.011    0.668
       258 -10.0757     94.7584    162.5715   1.2177197347e+02   2.9947502022e+01     0.732499    0.3903374  74.37  0.002843009    3.445    0.710
       259  -9.2623     99.4350    156.1929   1.1976685001e+02   3.0537753982e+01    0.4508668    0.1891592  49.92  0.001860183    2.505    0.601
       260  -7.9188    234.1151    165.1643   9.2849398721e+01   5.2193201457e+00     0.159865    0.1456833   4.03 0.0005292855    1.321    0.243
       261  -8.7081    159.3805    164.5157   1.0744817889e+02   1.8893670451e+01    0.2198048    0.2124228  53.81 0.0007467392    1.204    0.169
       262  -9.1382     63.1143    164.6543   1.2930518685e+02   3.3649494631e+01     0.309224    0.1665654  64.45 0.0006320812    2.007    0.502
       263  -8.7808     60.7711    160.2190   1.2938048022e+02   3.4820061436e+01    0.3040571     0.149481  70.85  0.001185179    2.655    0.623
       264  -9.3027     33.4254    163.5244   1.3582170774e+02   3.6969576808e+01    0.4437198    0.1451073  54.60    0.0020229    3.014    0.668
       265  -8.0230    239.6503    163.9089   9.1635534512e+01   4.4224495173e+00    0.1642461    0.1090692 -32.37 0.0006298111    1.692    0.409
       266  -8.6289    212.8282    163.7414   9.6442655606e+01   9.1792645163e+00    0.2315035    0.1766094 -35.14 0.0006040191    1.551    0.355
       267  -8.5018    246.0198    163.0130   9.0370555014e+01   3.4503017826e+00     0.197596    0.1529781   9.20 0.0004799413    1.005    0.005
       268  -8.5119    204.8734    163.0277   9.7819597154e+01   1.0731655424e+01    0.1900636    0.1753254  25.77 0.0005120266    1.255    0.203
       269  -9.1929      3.3578    162.4299   1.4212554862e+02   3.9604423953e+01     0.335597    0.1155864  55.79  0.001821438    2.448    0.591
       270  -8.9362    177.5379    160.8661   1.0289872335e+02   1.6144882734e+01    0.2599371    0.2251094  88.18 0.0008832423    1.729    0.422
       271  -8.6937    151.5226    160.9390   1.0851908088e+02   2.0933488986e+01    0.2430774    0.2017748  66.54 0.0009464497    1.465    0.317
       272  -8.7590     84.5725    159.7260   1.2377424946e+02   3.1941058894e+01     0.213183    0.1754046  60.47 0.0003415517    1.114    0.102
       273  -9.7064     81.7008    154.7555   1.2380623773e+02   3.3343361859e+01    0.4409396    0.2334015  70.49  0.001409083    2.821    0.646
       274  -9.5732    250.2415    157.8580   8.8622787619e+01   3.3487921333e+00    0.2912205    0.1564157 -22.50 0.0007559821    1.755    0.430
       275  -8.3015    128.0199    158.9962   1.1349703027e+02   2.5417035957e+01    0.2087636    0.1544662  68.44 0.0005755082    1.662    0.398
       276  -9.7377    105.4590    157.7240   1.1856693158e+02   2.9318981321e+01     0.435445    0.2841551  78.96  0.001195944    2.163    0.538
       277  -8.5032    196.6263    158.1119   9.8454947099e+01   1.2981996836e+01    0.1914495    0.1690865 -42.19 0.0006861553    1.447    0.309
       278  -8.2941    188.0123    157.9748   1.0016478282e+02   1.4629023717e+01    0.1947426    0.1723559  77.02 0.0005671756    1.647    0.393
       279  -9.0933    167.5845    157.4675   1.0435588224e+02   1.8567731942e+01    0.2986016    0.2268491  69.15  0.001208149    1.913    0.477
       280  -8.6391    227.4053    159.1940   9.2839823504e+01   7.1567897943e+00    0.2172473    0.1969956 -49.17  0.001034581    1.672    0.402
       281  -8.1251     79.5101    158.4523   1.2480296586e+02   3.2875933789e+01    0.1221553    0.1104276  65.16 0.0003945814    1.028    0.027
       282  -9.2094     42.4830    157.4369   1.3331080419e+02   3.7341348480e+01    0.1945742    0.1774684  81.66 0.0005370785    1.140    0.123
       283  -8.3406    217.8893    156.5554   9.4040549144e+01   9.2365040881e+00    0.2445684    0.1658056 -43.86 0.0009679163    1.965    0.491
       284  -8.7830    157.4506    156.0341   1.0629543138e+02   2.0706464534e+01    0.3311642      0.21394 -40.06  0.001573327    1.717    0.417
       285  -9.3847    119.2334    155.0084   1.1488024066e+02   2.7655091710e+01    0.3361631    0.2315765 -81.37  0.001116153    2.043    0.510
       286  -9.1536     49.5540    155.4229   1.3149636082e+02   3.7037729464e+01    0.3415692    0.1526172  58.02  0.001592891    2.376    0.579
       287  -8.1817    242.9478    155.0123   8.9261320559e+01   4.9401745124e+00      0.15864    0.1246863  13.73 0.0003658137    1.042    0.040
       288  -7.9769    204.6460    155.2659   9.6295922472e+01   1.1888829280e+01    0.1820853    0.1213494 -18.70 0.0009374626    1.572    0.364
       289  -9.8242     67.8158    154.0726   1.2704365875e+02   3.5256522130e+01    0.3690464    0.1968208  68.88  0.001232079    2.354    0.575
       290  -9.6232    132.8060    153.1091   1.1136342271e+02   2.5706421092e+01    0.3846494    0.2772301  74.06  0.001228068    1.951    0.487
       291  -9.4789    133.4848    148.5079   1.1036488445e+02   2.6464868135e+01    0.3312468    0.2113194 -40.01  0.001297865    1.759    0.431
       292  -8.8315     20.0254    152.9649   1.3803806717e+02   4.0255677647e+01    0.1794633   0.09869267  61.58 0.0005418275    1.633    0.387
       293  -9.8254     28.4513    150.2831   1.3593611503e+02   4.0112691692e+01    0.6012939    0.1723561  54.72  0.002427717    3.847    0.740
       294  -8.3971    250.3850    141.2234   8.5108964655e+01   5.3297230273e+00    0.2062909    0.1525063   9.63 0.0004186606    1.157    0.136
       295  -9.4096    248.8774    149.4393   8.7105393879e+01   4.5899835306e+00    0.2995663    0.1635104 -25.18  0.001043962    1.724    0.420
       296  -8.7921    247.0282    143.9931   8.6255921880e+01   5.5830477763e+00    0.2437399    0.1695929 -23.91 0.0005082639    1.383    0.277
       297  -8.7893    189.4703    150.2211   9.8284050417e+01   1.5558719175e+01    0.2776606    0.2149693 -59.11 0.0009564747    1.927    0.481
       298  -7.9104    182.4154    151.2367   9.9957041379e+01   1.6764409800e+01    0.1754926    0.1343285 -47.03 0.0004973714    1.609    0.379
       299  -8.3207    162.5482    150.7704   1.0414232984e+02   2.0665694301e+01    0.1765722    0.1372647 -56.67 0.0008483518    1.637    0.389
       300  -8.8001     98.0120    150.6930   1.1928266580e+02   3.1867568014e+01    0.2410336    0.1866128 -78.42 0.0009416349    1.410    0.291
       301  -8.4059    243.1301    149.9036   8.8164586371e+01   5.5395094597e+00    0.1910201    0.1670379 -12.63 0.0009364592    1.279    0.218
       302  -7.9397    212.8625    149.8239   9.3579514897e+01   1.1114984268e+01    0.1658529    0.1567153  20.70 0.0002938905    1.281    0.219
       303 -11.3401     68.6664    142.2329   1.2535718254e+02   3.7656607181e+01    0.7961991    0.4328858 -69.04  0.004118287    1.824    0.452
       304 -10.7866     62.1631    135.5121   1.2613189686e+02   3.9891783688e+01    0.6068983    0.3470678  24.79   0.00314445    2.069    0.517
       305  -9.5778     74.9908    134.5206   1.2264773511e+02   3.8527867271e+01    0.3156016    0.1823869  46.08  0.001624626    1.698    0.411
       306 -10.2352     73.1160    129.6814   1.2241074204e+02   3.9832248240e+01     0.485585    0.2759794 -69.36  0.001603794    1.789    0.441
       307  -8.7024     53.8495    149.7935   1.2990836788e+02   3.7756397356e+01    0.2762139    0.1655497  67.91  0.001176427    1.735    0.424
       308 -10.3660     54.7848    144.6989   1.2912173979e+02   3.8735899319e+01    0.7436739    0.3506901  73.39  0.002890304    3.125    0.680
       309  -8.3745    198.9487    148.9947   9.6109707152e+01   1.3908743077e+01    0.1933098    0.1755886  85.75 0.0005157705    1.647    0.393
       310 -10.2706     89.2296    146.3241   1.2078171312e+02   3.4056509260e+01    0.6149738    0.3406927  79.98  0.002481024    3.253    0.693
       311  -9.9143     39.9148    148.1041   1.3307056983e+02   3.9531121533e+01    0.4137729     0.175793  59.96  0.001959941    2.613    0.617
       312  -8.4801    233.5794    147.6765   8.9338699767e+01   7.5397804998e+00    0.2380698      0.12046 -22.95 0.0007568283    1.977    0.494
       313 -10.1492    149.0440    144.9877   1.0604337851e+02   2.4269533881e+01    0.4837742     0.347118  85.32  0.001626267    2.463    0.594
       314  -9.8490    139.0193    145.2671   1.0844218888e+02   2.6084068484e+01    0.3942147    0.2813974 -70.15   0.00121858    1.953    0.488
       315 -10.1300    106.4140    144.3842   1.1619953267e+02   3.1867967799e+01    0.6033626    0.3458698  71.55  0.002025504    3.139    0.681
       316  -8.2962    104.3332    139.3261   1.1585237458e+02   3.3247946658e+01    0.1998834    0.1289189  33.24 0.0007349929    1.564    0.361
       317  -9.3106     77.8744    146.6380   1.2364723085e+02   3.5546210411e+01    0.2536042    0.1590026  89.36 0.0009529965    1.942    0.485
       318  -9.2002     13.8452    146.4315   1.3900547775e+02   4.2067518292e+01    0.2946107    0.1026472  50.14  0.001206326    2.575    0.612
       319  -8.8516    240.4285    145.4921   8.7686760980e+01   6.5766524943e+00    0.2310276    0.1666041 -15.90 0.0004695429    1.274    0.215
       320  -8.1833    242.7006    143.3221   8.6835267833e+01   6.4418514970e+00    0.1839878    0.1125656 -14.44 0.0006056259    1.561    0.359
       321  -7.6835    206.5269    146.5113   9.4089460336e+01   1.2810267552e+01    0.1408652    0.1209789  15.52 0.0004180737    1.035    0.034
       322  -8.2711    175.2527    146.2153   1.0043627929e+02   1.8986596391e+01    0.1802136    0.1685653  72.10 0.0004975297    1.363    0.266
       323  -8.6189     32.9015    145.1434   1.3447413429e+02   4.0800786568e+01    0.2697303    0.1223796  63.21   0.00134859    2.371    0.578
       324  -9.7245    125.0760    142.9228   1.1134257661e+02   2.9042535320e+01    0.4636831     0.313469  81.03  0.001468262    2.446    0.591
       325  -9.4240      3.0910    142.4811   1.4120739258e+02   4.3613357621e+01    0.3285294    0.1324828  68.27  0.001443195    2.365    0.577
       326  -9.7132    225.5296    141.6107   8.9461301917e+01   9.8517886927e+00     0.256932    0.2205572  -9.32 0.0004229975    1.154    0.134
       327  -8.2268    182.0059    141.9538   9.8085876955e+01   1.8359564460e+01    0.2018493    0.1787914  84.62 0.0005041719    1.609    0.378
       328  -8.8418     46.2039    140.7851   1.3081654001e+02   4.0474481999e+01    0.1864851    0.1402461  69.53 0.0007146196    1.237    0.192
       329  -9.8699     23.6710    138.4504   1.3613072994e+02   4.2994995507e+01    0.4911203     0.195052  61.46  0.002320172    2.786    0.641
       330  -8.5965    172.1593    138.2595   9.9408779732e+01   2.0956293661e+01    0.2428707    0.1889922 -69.70 0.0006457518    1.969    0.492
       331  -8.2063    207.4853    138.0025   9.2040737583e+01   1.3884043156e+01    0.1993832    0.1338364 -30.97 0.0007096654    1.531    0.347
       332  -8.6737    197.7112    137.3846   9.3833282814e+01   1.5937653373e+01    0.3030972    0.1784104 -47.22  0.001156529    2.225    0.551
       333  -8.7564    114.6361    138.1053   1.1303013438e+02   3.1813161152e+01    0.2446926     0.238686  29.41  0.001124299    1.053    0.050
       334  -9.0655    112.6907    133.3176   1.1262292219e+02   3.3132967049e+01    0.3361396       0.2362  80.77 0.0008878181    2.052    0.513
       335  -8.5250     93.3361    137.5914   1.1836629984e+02   3.5305848668e+01    0.2101965    0.1478294  67.74 0.0007097286    1.647    0.393
       336 -10.4638     83.2459    133.3270   1.2029541230e+02   3.7676858129e+01    0.5275248    0.3306295 -65.09  0.001366686    1.610    0.379
       337  -9.0962    248.4468    135.4587   8.4169766145e+01   6.3929831547e+00    0.2462773     0.202863 -25.97 0.0008715012    1.336    0.252
       338  -8.3973    246.8792    130.1816   8.3254523269e+01   7.3472072823e+00    0.2823337    0.1670443 -35.62 0.0005981072    1.796    0.443
       339  -8.0183    188.0000    135.9283   9.5497424423e+01   1.8138582744e+01    0.2171753   0.08131226 -36.31 0.0005189622    2.808    0.644
       340  -7.9437    162.5263    136.5283   1.0118349576e+02   2.3191799963e+01    0.1449921    0.1326547  28.68 0.0001399271    1.046    0.044
       341  -9.6114     38.7579    135.8582   1.3216726098e+02   4.2258808272e+01    0.2569045    0.1631415  64.05 0.0009981685    1.547    0.354
       342 -10.0301    131.9539    131.1657   1.0731675680e+02   3.0145730709e+01    0.4241089    0.3024804 -78.36  0.001025537    2.116    0.527
       343  -8.5487    179.2679    133.6612   9.6840098239e+01   2.0299724446e+01    0.2610715    0.1723939 -46.32 0.0008994942    1.788    0.441
       344  -8.5602      9.6673    134.0061   1.3917611998e+02   4.4953866335e+01    0.1636197    0.1202067  32.97 0.0007737976    1.541    0.351
       345  -8.1015    237.4797    133.5202   8.5569078093e+01   8.6728029214e+00    0.1367747     0.116428   4.15  0.000809234    1.062    0.058
       346 -10.3685     98.1332    130.1116   1.1581536845e+02   3.6178058241e+01    0.5945772    0.2597028 -59.05  0.001806095    2.435    0.589
       347  -8.8684    142.9585    131.6961   1.0472669260e+02   2.7949983360e+01     0.258061    0.2110525 -56.41 0.0005921635    1.402    0.287
       348  -8.7962    250.7266    130.2024   8.2638108315e+01   6.6370584483e+00    0.3800389    0.1108098 -25.29  0.001306454    3.557    0.719
       349  -8.4719     30.9907    130.6741   1.3362410890e+02   4.4074489855e+01    0.1579998    0.1372699  65.34 0.0005460409    1.131    0.116
       350 -10.1002     12.8608    129.0136   1.3805008189e+02   4.5804740444e+01    0.5220357    0.2141229  76.07  0.002505841    2.679    0.627
       351  -7.7334    220.6796    130.3196   8.7813364005e+01   1.2374897664e+01    0.1281746    0.1149944 -67.13 0.0007043364    1.667    0.400
       352  -7.8479    204.5437    130.4746   9.0905926424e+01   1.5615731955e+01    0.1441015    0.1279987  12.38 0.0001108646    1.049    0.046
       353  -8.1922    192.5331    130.0473   9.3218615126e+01   1.8159500998e+01    0.2082317    0.1400515 -32.42 0.0004947165    1.534    0.348
       354  -9.0193    168.3275    129.6285   9.8334631490e+01   2.3248475518e+01    0.2816683    0.2374017 -88.77 0.0008411702    1.717    0.418
       355  -9.4482    152.7870    128.7215   1.0171813724e+02   2.6578985211e+01    0.4056138    0.2638161 -59.60  0.001050997    2.120    0.528
       356  -8.7303    165.6290    144.1497   1.0210955951e+02   2.1226875531e+01    0.2404771    0.1817563  48.79 0.0006618468    1.350    0.259
       357  -7.6957    211.6557    129.3088   8.9263808457e+01   1.4339399609e+01    0.1316586    0.1176059 -80.24 0.0007044309    1.698    0.411
       358 -10.9729     59.7108    123.6737   1.2514846563e+02   4.2795474312e+01    0.9690259    0.4408877 -75.22  0.003832459    2.471    0.595
       359 -10.8637     44.9001    123.7657   1.2920258271e+02   4.4339637402e+01     1.035806    0.4794927  75.98  0.003723112    3.405    0.706
       360  -9.3067     36.8709    115.2911   1.3037341511e+02   4.6986402081e+01    0.1894597    0.1458357  70.92 0.0006658977    1.278    0.218
       361  -8.0487     25.9607    130.0000   1.3484259488e+02   4.4632709531e+01    0.1691379   0.06476323  25.08 0.0008048069    2.959    0.662
       362  -9.9037    117.9625    125.6262   1.0972647056e+02   3.3825011977e+01    0.4683553    0.3152762  73.89  0.001446798    2.299    0.565
       363  -8.2524    228.4103    125.2659   8.5259930145e+01   1.1547324607e+01    0.1892473    0.1225623 -36.13 0.0008100856    1.648    0.393
       364  -8.8387    179.3552    124.9615   9.4812765906e+01   2.1762297478e+01    0.2673326     0.205163  60.69 0.0008357348    1.617    0.382
       365 -10.2902     28.3520    122.3381   1.3348783322e+02   4.6124212699e+01    0.6533148    0.2699057  72.44  0.002681467    3.500    0.714
       366  -8.9196    243.8747    124.1235   8.2374089501e+01   8.6910053235e+00    0.1994575     0.172027 -22.36 0.0006366069    1.249    0.200
       367  -7.7014    188.6917    124.3235   9.2673410293e+01   1.9896301295e+01    0.1379791    0.1208718 -81.28  0.000345881    1.648    0.393
       368  -7.9981     77.6768    124.3096   1.2031178838e+02   4.0421673457e+01    0.1365741   0.09590552  69.75 0.0004259659    1.650    0.394
       369  -8.7923      5.0372    124.0510   1.3964761032e+02   4.7363103883e+01    0.1824444    0.1021242  65.80 0.0005865194    1.665    0.400
       370  -8.4890     84.9581    122.6127   1.1801533099e+02   3.9786686867e+01    0.2617414    0.1800511   7.86  0.001272101    2.116    0.527
       371  -8.5102    171.9807    121.7746   9.5678778575e+01   2.3876242673e+01    0.2446498    0.2088385 -28.78 0.0005314838    1.212    0.175
       372  -9.0641    158.4897    121.6741   9.8748323136e+01   2.6731054530e+01    0.2887729    0.2386365  83.95 0.0008037347    1.706    0.414
       373 -10.0652    131.0778    118.8665   1.0484905703e+02   3.2792257165e+01     0.487408    0.3308883  74.46  0.002040496    2.449    0.592
       374  -9.8391     70.9709    119.6200   1.2139017023e+02   4.2347696670e+01    0.3977523    0.2381831 -81.20  0.001475269    2.001    0.500
       375  -9.6476    141.5984    118.6530   1.0213039705e+02   3.0766122084e+01    0.3996516     0.289618 -74.69  0.001305314    2.123    0.529
       376  -9.0487     21.1324    118.8664   1.3507395833e+02   4.7441394932e+01    0.2104992     0.135255  55.50 0.0008286735    1.555    0.357
       377  -9.4869      3.4404    117.9725   1.3964128556e+02   4.8763240073e+01    0.3978662    0.1449524  56.91  0.001856557    2.884    0.653
       378  -7.7480    185.6082    115.8560   9.1268849359e+01   2.1964573574e+01    0.2009854    0.1375891 -43.73 0.0005064338    1.649    0.394
       379  -8.7718    107.6486     92.8419   1.0495354265e+02   4.2658816229e+01    0.2664492    0.2091769  33.70  0.001070911    1.297    0.229
       380 -10.2204    109.2235    113.7713   1.0953191866e+02   3.7873683753e+01    0.7338149    0.3441499 -57.39  0.002740161    2.426    0.588
       381 -10.7794    109.8225     99.9644   1.0613257818e+02   4.0736685097e+01    0.9570451    0.6229089  84.93  0.003570244    3.237    0.691
       382  -8.2031    193.1480    115.1952   8.9535849470e+01   2.0434010042e+01    0.1916393    0.1783555 -51.96 0.0005021412    1.328    0.247
       383  -9.8827     78.9530    112.6399   1.1787605098e+02   4.2859369391e+01    0.4597277     0.303328  77.93  0.001735351    2.092    0.522
       384  -7.8554    167.4607    114.5428   9.4937468800e+01   2.6133443628e+01    0.1499756    0.1405993  21.29 0.0002115695    1.051    0.048
       385 -10.4161    133.8449    109.8434   1.0199556551e+02   3.4078560133e+01    0.6760458    0.3268284 -52.69   0.00247366    2.464    0.594
       386  -8.9074     93.2901    104.8410   1.1209060465e+02   4.2479717433e+01    0.3953741    0.2561622  -5.25   0.00163028    2.748    0.636
       387  -9.3810     51.2123    113.2752   1.2601894676e+02   4.6070632759e+01     0.261621    0.2000802  58.20 0.0007983713    1.355    0.262
       388  -9.8083    121.9521    112.7286   1.0583188846e+02   3.5792418811e+01      0.30848    0.2489929  59.84  0.000869389    1.387    0.279
       389  -8.2235    174.7027    112.1114   9.2697076475e+01   2.4988822757e+01    0.2272404    0.1849397 -51.55 0.0005673266    1.476    0.322
       390  -8.3659    159.1586    111.8989   9.6209187295e+01   2.8406093288e+01    0.2158443    0.2062156 -82.48 0.0005182258    1.256    0.204
       391 -10.2961     66.2324    110.2472   1.2115166815e+02   4.5060640246e+01     0.445176    0.2895637 -84.54  0.001772213    1.796    0.443
       392  -9.7129     14.1870    111.3808   1.3626384545e+02   4.9570398212e+01    0.3386234    0.1499952  67.01  0.001494085    2.608    0.616
       393  -9.2565      8.1745    109.8582   1.3777758469e+02   5.0269230665e+01    0.3392983   0.09618361  38.85  0.001570243    3.317    0.699
       394 -11.1982    248.9506    107.8758   7.7785890169e+01   9.8166453650e+00     0.642073    0.2973135 -30.77  0.002835416    1.968    0.492
       395  -9.5395    139.8094    104.4797   9.9102124467e+01   3.3934047957e+01    0.4400257     0.271668 -48.86   0.00122609    1.764    0.433
       396 -10.5376     45.6897    102.5702   1.2603149569e+02   4.9074312973e+01    0.6973601    0.3384265  65.21  0.002868537    3.242    0.692
       397 -10.6975     22.8226    102.8723   1.3293626384e+02   5.0905507192e+01    0.6705093    0.3119931  70.91  0.002691288    2.800    0.643
       398  -8.4336    166.6740    104.3837   9.2523771170e+01   2.8136050672e+01    0.2559873    0.1807614 -47.11 0.0006698236    1.602    0.376
       399  -9.3658    150.5106    103.0002   9.6016807315e+01   3.1948007753e+01    0.3486952    0.2513573 -65.00  0.001076626    1.980    0.495
       400  -8.8903      6.9812    103.3258   1.3755746782e+02   5.1781944613e+01    0.2157265    0.1270526  74.28 0.0009120649    1.645    0.392
       401  -9.5836    128.4827    102.1881   1.0149702584e+02   3.6708450408e+01     0.308624     0.259078 -83.24 0.0007861509    1.545    0.353
       402  -7.5640    175.6901    102.3460   8.9954570023e+01   2.6471516452e+01     0.149901    0.1242511 -74.40 0.0005988037    1.705    0.413
       403  -8.1929    159.7095    101.1512   9.3297096299e+01   3.0275071390e+01    0.2290588    0.1854279 -51.83 0.0004370339    1.433    0.302
       404  -9.3631     82.1759    100.1800   1.1439214988e+02   4.5213921178e+01    0.3226567    0.2284406 -81.14 0.0007749769    1.761    0.432
       405  -9.2054     94.9097     96.9303   1.0978437630e+02   4.3971546087e+01    0.2836345    0.1987141 -58.85  0.000539017    1.470    0.320
       406 -10.1982     64.0347     95.9536   1.1914799823e+02   4.8599896998e+01    0.5157421    0.3105184  80.97  0.001510961    2.669    0.625
       407  -9.9755     92.6223    112.4146   1.1390219339e+02   4.0904164285e+01    0.4748862    0.2975229 -73.21  0.001426336    2.026    0.506
       408  -8.3675    151.3200     95.3351   9.3755105912e+01   3.3223869118e+01    0.1622193    0.1181267   7.74 4.885954e-05    1.703    0.413
       409  -9.2184     56.7517     94.9915   1.2127453591e+02   4.9669647375e+01    0.2421715    0.1857732  47.38  0.001146504    1.419    0.295
       410  -7.7858    164.7083     94.3236   9.0267376574e+01   3.0386535594e+01     0.148967    0.1252474 -74.71 0.0002570107    1.613    0.380
       411  -8.2614    189.3619    108.1952   8.8553529420e+01   2.2412068261e+01    0.2089695    0.1353889 -41.28 0.0006202399    1.675    0.403
       412  -8.1724    176.3996     93.2537   8.7340416760e+01   2.7873995334e+01    0.2142212    0.1410046 -43.51 0.0004772176    1.661    0.398
       413  -9.1859    139.0159     92.4578   9.6091481321e+01   3.6469730859e+01    0.3394344    0.2623915  81.05  0.001030127    1.911    0.477
       414 -10.1715    123.8164     91.2895   9.9885027233e+01   3.9877644417e+01    0.5197394    0.4262331  16.35  0.001331303    1.314    0.239
       415  -9.7552      4.2350     92.2030   1.3735963279e+02   5.4402914040e+01    0.3428629    0.2124296  43.58  0.002196599    1.792    0.442
       416  -9.4880     34.5903     89.7405   1.2750907983e+02   5.3023204028e+01     0.402485    0.2140707  85.76  0.001867513    2.477    0.596
       417  -8.5383     29.8112     91.7792   1.2935780743e+02   5.2930912405e+01    0.1706524    0.1278519  82.35 0.0007419472    1.358    0.263
       418  -7.7232    157.5731     91.5383   9.1174135746e+01   3.2521025289e+01    0.1522062    0.1472051   9.94  6.34309e-05    1.066    0.062
       419  -9.1566     46.6751     92.4846   1.2404995228e+02   5.1303483801e+01      0.34194    0.2195631   2.14  0.001779138    2.194    0.544
       420  -9.0419     23.1413     90.1343   1.3125696744e+02   5.3787949627e+01    0.2091294     0.196199 -55.40 0.0009669825    1.174    0.148
       421  -8.3676    151.0230     89.4355   9.2177312248e+01   3.4395773066e+01    0.2442285    0.2009338 -32.62  0.000603238    1.227    0.185
       422  -9.9187     86.2752     86.6150   1.0992104221e+02   4.7638477588e+01    0.4284951    0.3118718  89.97  0.001118054    2.007    0.502
       423  -8.9480     87.7420     80.6931   1.0789623738e+02   4.8713943747e+01    0.3969776    0.2165903  13.97  0.001419039    3.404    0.706
       424  -8.9316     64.8608     87.9754   1.1721326201e+02   5.0328037874e+01    0.3397301    0.1807012  -2.66   0.00109593    5.058    0.802
       425 -10.0301     48.5590     84.5144   1.2194062532e+02   5.2957128791e+01    0.4669318    0.2757849  72.41  0.001922566    2.588    0.614
       426  -8.3805     15.2948     86.4285   1.3329321944e+02   5.5127063235e+01    0.1432215    0.1055932  43.27 0.0009354671    1.545    0.353
       427  -9.6224    104.8271     83.4611   1.0326334516e+02   4.5175282305e+01    0.3942638    0.3009497 -84.95  0.001132157    1.934    0.483
       428  -8.5304    104.7596     77.8339   1.0166944828e+02   4.6373489665e+01    0.4020217     0.236268 -13.32  0.001393795    3.314    0.698
       429  -8.4423    157.9192     84.1014   8.8958496705e+01   3.3787522643e+01    0.2266886    0.2141667 -67.48 0.0004686269    1.247    0.198
       430  -9.8585     10.2432     81.5708   1.3434359075e+02   5.6506506422e+01    0.4236446    0.1802827  71.84  0.001810565    3.420    0.708
       431  -9.2425    140.7718     82.5189   9.2777122927e+01   3.8000221983e+01    0.3885966    0.2073689 -44.43  0.001072041    1.978    0.494
       432  -8.8591    249.6036     81.7584   7.1354102122e+01   1.3029405088e+01    0.2057354    0.1114913 -34.76 0.0009580145    1.718    0.418
       433  -9.6983     24.5812     80.4995   1.2939571318e+02   5.5902124081e+01    0.4007049    0.2140403  83.15  0.001347455    2.380    0.580
       434  -8.3996    150.4222     80.7738   8.9799909524e+01   3.6130236694e+01    0.2846171     0.146439 -41.00 0.0007158615    1.998    0.499
       435  -8.8034    119.3313     80.0286   9.7946082032e+01   4.3077779488e+01    0.3600726    0.2446863 -66.23  0.001105932    2.174    0.540
       436  -8.8439     74.5875     80.4374   1.1218994786e+02   5.0752225931e+01    0.3228209    0.2016414 -69.75  0.001113138    1.961    0.490
       437  -8.1106    166.5347     79.9080   8.5719846974e+01   3.2486384396e+01    0.2253074    0.1521621 -29.26 0.0005166245    1.495    0.331
       438  -9.0567    183.5331     78.3920   8.1617724860e+01   2.8637392390e+01    0.2673973    0.2479318   8.37 0.0006163029    1.009    0.009
       439  -9.1514     65.3578     78.1941   1.1478210700e+02   5.2494202242e+01     0.312575    0.2038391 -63.18   0.00126202    1.524    0.344
       440  -9.8683     63.1441     73.4856   1.1438568626e+02   5.3837172236e+01    0.4860266    0.2362841 -64.54  0.001370006    2.310    0.567
       441  -7.9193    157.2727     76.6577   8.6894988093e+01   3.5258820720e+01    0.1528557    0.1241689 -66.06 0.0005240195    1.614    0.381
       442  -9.2383    128.0421     75.4188   9.4067352277e+01   4.2160276805e+01    0.3291973    0.2312592 -59.80 0.0006365599    1.874    0.466
       443  -8.5066    140.4791     75.0953   9.0604862543e+01   3.9457446423e+01    0.2313548    0.1510374 -37.47 0.0006334465    1.540    0.351
       444  -8.9126    163.5202     73.5441   8.4491448380e+01   3.4294699920e+01    0.2631928    0.2127725 -68.40 0.0008282842    1.651    0.394
       445  -7.7094    151.2867     73.6426   8.7416372842e+01   3.7208971635e+01    0.1555601    0.1246564 -67.90 0.0007022931    1.677    0.404
       446  -8.9113    115.3360     72.7669   9.6913683509e+01   4.5348143086e+01    0.2665087     0.175758 -44.01 0.0007895588    1.522    0.343
       447  -9.4757     95.0890     71.2278   1.0277793231e+02   4.9513115578e+01    0.4019467    0.2282895 -58.37 0.0009838894    2.183    0.542
       448  -7.9776    175.4358     72.5124   8.1562229031e+01   3.1555687672e+01    0.1562443    0.1455657  10.20 8.939394e-05    1.009    0.009
       449  -8.6074    105.9027     72.0817   9.9580845005e+01   4.7348139275e+01    0.2221573    0.2023506 -73.43 0.0005457028    1.310    0.237
       450  -9.5181     51.4787     69.7311   1.1767754777e+02   5.6042089917e+01    0.4480561    0.2516503 -79.19  0.001498553    2.586    0.613
       451  -8.1143     42.4859     72.5483   1.2161397479e+02   5.6299224922e+01    0.1273682    0.1121685 -65.06 0.0001801481    1.069    0.065
       452  -9.1871     28.5250     70.5315   1.2631232085e+02   5.7915761080e+01    0.2464335    0.1329996 -32.75 0.0008424934    2.150    0.535
       453  -8.8375     16.6545     70.2443   1.3058249342e+02   5.8745139249e+01    0.2654782     0.167774  78.82   0.00105383    1.820    0.451
       454  -9.5851     82.3583     72.7373   1.0747996001e+02   5.1304449069e+01    0.3893257    0.2650602 -68.99  0.001145644    1.902    0.474
       455  -8.7568    147.0219     68.2821   8.6785415660e+01   3.9163173623e+01    0.2696499     0.216549 -57.90 0.0005399601    1.531    0.347
       456  -9.6117    238.4934     67.5780   6.9296178032e+01   1.7216411706e+01    0.2670553    0.2168714  12.53 0.0001788509    1.255    0.203
       457  -8.9460    138.5965     65.9761   8.8198943170e+01   4.1549783642e+01    0.4045932    0.1696938 -43.74  0.001394041    2.602    0.616
       458  -9.0080    121.4864     65.8665   9.2891530959e+01   4.5404455573e+01    0.2779031    0.2413863 -75.43 0.0007469545    1.494    0.331
       459  -8.9089    110.1291     64.0044   9.5681297980e+01   4.8132975198e+01    0.3094398    0.2042248 -44.85 0.0006573797    1.542    0.351
       460  -8.6786     37.1169     64.3742   1.2182906755e+02   5.8645151489e+01    0.2479014    0.1574574 -83.50 0.0009102349    1.907    0.476
       461  -9.5718     97.3805     60.6970   9.8665112406e+01   5.1260795925e+01    0.5219384    0.2787353 -34.41  0.001979731    1.918    0.479
       462  -8.6334     65.1807     63.1421   1.1084040122e+02   5.5876973026e+01    0.4891685    0.2529153  -0.06   0.00145169    5.720    0.825
       463  -7.9536    157.9878     61.9631   8.2116899646e+01   3.7572904091e+01    0.1880733    0.1749383  22.33            0    1.018    0.018
       464  -9.6239     73.2988     59.6529   1.0677678676e+02   5.5497289485e+01    0.3697612    0.2350886 -60.90  0.001001473    1.825    0.452
       465  -8.1653    164.4904     59.5709   7.9886095021e+01   3.6335176575e+01    0.1564156    0.1465306  20.69 7.496972e-05    1.011    0.011
       466  -8.0438     89.2652     59.6582   1.0106797304e+02   5.2930227738e+01     0.137574    0.1150178 -75.55 0.0003996195    1.599    0.375
       467  -9.9836     23.4391     56.5981   1.2551666193e+02   6.1439152517e+01    0.4599587    0.2517322  83.12  0.002113171    2.884    0.653
       468  -8.2907    130.7690     57.8034   8.7557018526e+01   4.4808131067e+01    0.2041852    0.1821764 -59.42 0.0005053126    1.339    0.253
       469  -9.2801      7.3492     57.1226   1.3200727743e+02   6.2181112084e+01    0.2804566    0.1689158  82.28  0.001058259    1.892    0.471
       470  -9.3174    247.4997     57.5100   6.5526345880e+01   1.6474366748e+01     0.136599    0.1233282 -15.00 0.0008106049    1.007    0.006
       471  -9.4807    119.3000     55.7133   9.0078688656e+01   4.7759164180e+01    0.4598113    0.2488974 -47.94  0.001376519    2.158    0.537
       472  -9.5366     54.3004     55.6864   1.1284787173e+02   5.8860103847e+01    0.3525574    0.2233795 -67.56  0.001189464    1.848    0.459
       473  -8.1390    140.0125     56.0530   8.4509531706e+01   4.2934692187e+01    0.2369243    0.1889568 -63.97 0.0005062452    1.650    0.394
       474  -8.9842     44.1413     55.6695   1.1691298231e+02   5.9956621832e+01    0.2245522    0.1626388 -66.45 0.0007209364    1.394    0.283
       475  -8.0048    152.6173     53.7914   8.0657500465e+01   4.0216544823e+01    0.2184867    0.1416924 -39.00 0.0009425048    1.606    0.377
       476  -8.7803    105.6741     53.2752   9.3387838562e+01   5.1084162164e+01    0.2504097    0.2216479 -54.85 0.0006525705    1.323    0.244
       477  -9.4730     92.2845     50.6306   9.6891121912e+01   5.4179552820e+01    0.3768387    0.2341331 -49.34  0.001029994    1.751    0.429
       478  -7.9521    144.6280     48.8533   8.0857427019e+01   4.2976679894e+01    0.2235756    0.1369522 -40.93 0.0007655984    1.742    0.426
       479  -8.2375    129.7893     49.3236   8.4835952803e+01   4.6483092672e+01    0.2087387      0.18747 -29.09 0.0003673013    1.144    0.126
       480  -8.6250    121.0243     47.5900   8.6650919892e+01   4.8795185839e+01    0.2419194    0.2040982 -37.14 0.0004446003    1.239    0.193
       481  -8.4248    112.1463     46.9002   8.9027819490e+01   5.0878132454e+01    0.2226875    0.2014264 -52.84 0.0006073902    1.304    0.233
       482  -9.0122     82.0065     46.4441   9.9036173530e+01   5.6810676507e+01    0.2587279    0.1923857 -53.43 0.0007158652    1.536    0.349
       483  -8.4048     45.0909     44.8356   1.1335132297e+02   6.2222969379e+01    0.1866427    0.1672137 -71.33 0.0005318439    1.310    0.237
       484  -8.8102     16.5923     44.7527   1.2581431571e+02   6.4503149631e+01      0.21657    0.1590573  86.72 0.0008046938    1.629    0.386
       485  -8.7524    132.9978     43.7287   8.1942222277e+01   4.6620999670e+01    0.2686689    0.2100221 -54.85 0.0007572699    1.588    0.370
       486  -9.0663     58.1004     42.7481   1.0711887469e+02   6.1138522610e+01    0.2902239    0.1850613 -62.90  0.001121016    1.987    0.497
       487  -7.9117     78.6656     50.6635   1.0179615791e+02   5.6531176205e+01    0.1502282     0.103734 -11.97 0.0007051992    1.743    0.426
       488  -9.2888     69.4768     41.6323   1.0205575026e+02   5.9764775645e+01    0.3504016    0.2362936 -61.22 0.0009772361    1.997    0.499
       489  -9.5324      5.2700     42.2320   1.3026448549e+02   6.5589633013e+01    0.2868943    0.1692995 -87.94  0.001186971    1.858    0.462
       490  -8.8154    105.9976     41.4909   8.8879983812e+01   5.3123731774e+01    0.2763577    0.1975009 -46.15 0.0006394303    1.576    0.366
       491  -8.2188    206.3791     41.2800   6.6595775767e+01   2.8186388966e+01    0.2039634    0.1303238 -33.58 0.0009367946    1.524    0.344
       492  -8.1860    140.2850     41.6679   7.9344448981e+01   4.5152104863e+01    0.1515316    0.1210296 -61.96 0.0003179792    1.617    0.382
       493  -8.5043     36.9560     40.9530   1.1571346922e+02   6.3850208923e+01    0.1829863    0.1516082  84.67 0.0006675996    1.649    0.393
       494  -8.5205     95.4934     38.0780   9.0990171218e+01   5.5861347406e+01     0.216728     0.136229 -37.10 0.0009176809    1.550    0.355
       495  -8.3340     80.5513     36.5631   9.5758154716e+01   5.8918502260e+01    0.2450356    0.1258587 -49.10 0.0006879051    2.271    0.560
       496  -9.2941     25.9811     35.5911   1.1913665384e+02   6.5902192026e+01    0.2774088    0.1891245 -72.08  0.000875076    1.629    0.386
       497  -8.4708    200.6640     35.8994   6.5828723881e+01   3.0293970705e+01    0.2451566    0.1889193  48.26 0.0004332421    1.277    0.217
       498  -8.0155    125.8470     35.8011   8.0837307314e+01   4.9549524396e+01    0.1955755    0.1780039 -48.51 0.0003628843    1.279    0.218
       499  -8.6476    111.7548     34.8176   8.4453633473e+01   5.2962623690e+01    0.2684519    0.1953948 -45.83 0.0007476712    1.593    0.372
       500  -8.0971     88.5386     34.5050   9.1968721659e+01   5.7827104081e+01    0.1438126    0.1295305  -8.57 8.705872e-05    1.044    0.042
       501  -8.7106     48.4995     33.5737   1.0795735234e+02   6.4183152592e+01    0.2326805       0.1945 -55.68 0.0007390924    1.336    0.251
       502  -8.6073    119.3563     33.3046   8.1637511748e+01   5.1455566991e+01    0.2060038    0.1338137 -36.73 0.0005001395    1.596    0.374
       503  -8.4952     60.6529     32.6855   1.0223252021e+02   6.2787661450e+01    0.2239937    0.1897209 -86.22 0.0005567573    1.878    0.468
       504  -8.6609     72.2891     31.3973   9.6851419971e+01   6.1251138276e+01    0.2158863    0.1607068 -53.47 0.0005878658    1.670    0.401
       505  -8.8850     12.9440     30.6942   1.2404255316e+02   6.7766748038e+01    0.2338577    0.1495281 -70.47  0.000833482    1.507    0.336
       506  -8.3246    101.4885     29.4807   8.5443300667e+01   5.6035458565e+01    0.2487303    0.1269448 -41.83 0.0005948669    2.156    0.536
       507  -8.7562     81.3820     27.6317   9.1677658306e+01   6.0326054299e+01    0.2612691    0.2243703 -64.92 0.0007316988    1.675    0.403
       508  -8.7583      3.3427     27.6186   1.2803468726e+02   6.8846641918e+01    0.2334592    0.1483938  84.03 0.0009134923    2.078    0.519
       509  -8.5952    208.9759     27.3426   6.2133984696e+01   2.9150506793e+01    0.2014654    0.1789627  57.23 0.0005143831    1.122    0.109
       510  -8.6778     91.9325     26.6729   8.7430313001e+01   5.8453165661e+01    0.2426746    0.1933025 -50.43 0.0006947851    1.588    0.370
       511  -8.6321    184.0599     24.0224   6.4599932017e+01   3.6004470062e+01     0.243411    0.1732134 -61.73 0.0009043803    1.686    0.407
       512  -8.2136     34.2040     23.1980   1.1081792940e+02   6.7770272813e+01    0.1536047    0.1454583 -56.79 0.0005049704    1.345    0.257
       513  -8.9116     63.6086     21.1732   9.5972186813e+01   6.4432212639e+01    0.2771228    0.2082051 -54.04  0.001020722    1.785    0.440
       514  -8.7282     48.1953     21.7226   1.0327522230e+02   6.6506347922e+01    0.2154483    0.1561128 -45.36 0.0006678827    1.365    0.268
       515  -8.1058    249.6514    249.6983   1.0444549371e+02  -5.6921105660e+00    0.1129447   0.05593868  17.70 0.0005388265    1.691    0.409
       516  -7.9785    120.7071     21.3367   7.6370489858e+01   5.2793954190e+01    0.1449302    0.1159984 -58.71 0.0007023531    1.644    0.392
       517  -8.4247     19.5135     21.5421   1.1785802797e+02   6.9300794325e+01     0.122564   0.09543727 -41.03 0.0001133749    1.010    0.010
       518  -8.8245     74.0139     19.5248   9.0857289842e+01   6.2968870071e+01    0.2545052     0.178068 -44.08  0.000770017    1.643    0.391
       519  -8.0688    112.6547     16.8017   7.6601007556e+01   5.5290536825e+01    0.1978154    0.1278301 -32.45 0.0002594984    1.607    0.378
       520  -8.2131     87.8152     17.3732   8.4645999791e+01   6.0674639695e+01    0.1929519    0.1639191 -18.95 0.0006515475    1.153    0.132
       521  -8.0902    191.5027    249.5203   1.1392645271e+02   2.2378367071e+00    0.1106607   0.07764933  32.97 6.103507e-05    1.082    0.076
       522  -7.9645      7.4688     15.5018   1.2244266677e+02   7.1225759019e+01    0.1167992   0.09119567 -48.27  0.000808994    1.066    0.062
       523  -7.9873     16.9705     14.2888   1.1660744698e+02   7.0934733921e+01    0.1624591    0.1287128 -35.73 0.0005100374    1.046    0.044
       524  -7.5759     83.6141     11.2668   8.3193737271e+01   6.2362306176e+01    0.1264983    0.1130618 -79.93 0.0004446706    1.699    0.411
       525  -8.7472    175.8391    247.7422   1.1638234506e+02   4.6457335449e+00    0.2308054    0.1653199  63.02  0.001087461    2.172    0.540
       526  -8.7564    155.7778    248.2980   1.1990029423e+02   7.4201027469e+00    0.1957789    0.1379529  28.31  0.001235494    1.225    0.184
       527  -8.6805    132.4047    248.1403   1.2392558778e+02   1.0676919756e+01    0.2136442    0.1205293  56.93 0.0006627669    1.910    0.476
       528  -8.1149    113.1701    248.7588   1.2729084863e+02   1.3162490667e+01    0.1710395   0.07953423 -70.37 0.0009674937    3.500    0.714
       529  -9.3559    243.0083    246.5679   1.0505538028e+02  -4.5697500017e+00     0.252222    0.1311312 -16.89  0.001669824    2.128    0.530
       530  -8.4853    218.5525    248.0187   1.0921736437e+02  -1.3934663560e+00    0.1322438   0.09822547 -14.86 0.0006566632    1.580    0.367
       531  -9.2063    211.0206    246.6227   1.1028132963e+02  -2.1648607249e-01    0.1690701    0.1561086 -42.43 0.0007322081    1.880    0.468
       532  -8.9874    103.6549    246.7001   1.2875216013e+02   1.4667039200e+01    0.2637758    0.1437084 -86.37  0.001586127    3.020    0.669
       533  -9.4438     34.3991    248.0478   1.4022884468e+02   2.2306847628e+01      0.20971   0.08137557  45.73 0.0007479094    1.719    0.418
       534  -9.2049     21.6479    248.1553   1.4219804383e+02   2.3496578508e+01     0.159829    0.1009765  44.47 0.0005552687    1.305    0.234
       535  -8.7845    232.6468    247.2011   1.0680607682e+02  -3.2415018814e+00    0.1418873    0.1168544  15.86 0.0006265103    1.379    0.275
