#   1 NUMBER                 Running object number                                     
#   2 MAG_AUTO               Kron-like elliptical aperture magnitude                    [mag]
#   3 X_IMAGE                Object position along x                                    [pixel]
#   4 Y_IMAGE                Object position along y                                    [pixel]
#   5 X_WORLD                Barycenter position along world x axis                     [deg]
#   6 Y_WORLD                Barycenter position along world y axis                     [deg]
#   7 A_WORLD                Profile RMS along major axis (world units)                 [deg]
#   8 B_WORLD                Profile RMS along minor axis (world units)                 [deg]
#   9 THETA_WORLD            Position angle (CCW/world-x)                               [deg]
#  10 FWHM_WORLD             FWHM assuming a gaussian core                              [deg]
#  11 ELONGATION             A_IMAGE/B_IMAGE                                           
#  12 ELLIPTICITY            1 - B_IMAGE/A_IMAGE                                       
         1 -10.7529     20.5178      7.5318   2.9158117247e+02   7.5623332751e+00   0.07873176   0.03934784  56.19  0.006423418    2.825    0.646
         2 -10.2287     10.0975     18.9328   2.9176827657e+02   7.4906326239e+00   0.07292003   0.03285398 -24.42   0.00389061    6.969    0.857
         3 -10.8598     23.7907     32.6681   2.9169359490e+02   7.2533194266e+00   0.07424852   0.02834414 -48.65  0.003542198    2.592    0.614
         4 -10.1047      4.5126     42.0450   2.9196977767e+02   7.2558259402e+00   0.04395244   0.01948944 -66.11  0.003718406    2.347    0.574
         5 -10.0650      7.2006     28.4436   2.9185805920e+02   7.3974661761e+00   0.02161168   0.01567982  54.54  0.001251876    1.522    0.343
         6  -9.7181    130.5862     46.4468   2.9055627072e+02   6.4781099043e+00   0.04486254   0.01085814 -56.58  0.002073617    3.446    0.710
         7 -10.2897     89.7924     38.1505   2.9097231551e+02   6.8096610906e+00   0.04413648   0.02344509   0.11  0.003420206    3.315    0.698
         8  -9.4804    100.8452     31.8475   2.9080850259e+02   6.8185993704e+00   0.03699773   0.01426953 -62.83  0.002293744    2.544    0.607
         9  -9.5983    103.2971     19.5716   2.9070719610e+02   6.9461301815e+00   0.04900406    0.0099469 -56.34  0.002061554    3.881    0.742
        10 -10.0958     69.4192     40.5508   2.9121928231e+02   6.8995022762e+00   0.04566347   0.01910498 -59.03  0.002665074    2.235    0.553
        11  -9.2956     47.0789     19.5916   2.9134948550e+02   7.2702584539e+00   0.03073601   0.01071826 -45.92  0.002262455    3.105    0.678
        12  -9.8634     52.1491     13.3176   2.9125411139e+02   7.3134690562e+00   0.03425256   0.02070509  -1.65  0.003106011    2.390    0.582
        13  -8.9236     96.1709     15.0861   2.9076177110e+02   7.0390697792e+00    0.0352614  0.009345098 -52.88  0.002063362    3.301    0.697
        14  -9.5735    118.9376     20.4630   2.9053397424e+02   6.8454227079e+00   0.03212482   0.01153181 -54.08  0.001228838    2.538    0.606
        15  -9.8560    123.6265      5.8664   2.9039320868e+02   6.9867191170e+00    0.0278619   0.01561553  12.45  0.002528701    2.257    0.557
        16  -8.4853    128.5053     24.9756   2.9045174842e+02   6.7379994285e+00   0.03832483   0.01015382 -51.22  0.002359179    3.427    0.708
        17  -9.2455    125.0736     13.0478   2.9041962321e+02   6.8954936888e+00   0.02334701    0.0132184  53.94  0.002149149    2.150    0.535
        18  -8.8015    126.5379      9.4618   2.9038147337e+02   6.9283951568e+00   0.01337775  0.009125754 -36.02  0.000676033    1.614    0.381
        19  -8.4555     67.7037      9.0004   2.9105060094e+02   7.2736222433e+00   0.01396215  0.008459652  37.64 0.0003141643    1.650    0.394
        20  -9.4028     63.2211     21.4292   2.9117600428e+02   7.1560195255e+00    0.0200084   0.01502085 -87.24 0.0006784884    1.526    0.345
        21  -9.8930     64.2241     13.6988   2.9111840690e+02   7.2394660368e+00   0.02608752   0.01636396 -54.79  0.002111046    1.528    0.346
        22  -8.4184     71.9670      8.3549   2.9099803550e+02   7.2564793786e+00   0.01453819   0.01106953  54.56  0.000435767    1.428    0.300
        23  -9.9753     73.4090     18.2922   2.9104089215e+02   7.1334712877e+00   0.04538956   0.01179069 -60.44  0.003110154    3.464    0.711
        24  -8.6397     77.0159      6.6891   2.9093040391e+02   7.2465691723e+00   0.01551682  0.009631416 -57.64  0.001106745    1.545    0.353
        25  -8.6283     78.8024      3.1349   2.9088876579e+02   7.2772688206e+00   0.01496069   0.01229012 -68.02 0.0007634713    1.217    0.178
        26 -10.5846     37.3248      9.7116   2.9140202974e+02   7.4404700678e+00   0.04784405   0.01754025 -69.45  0.002649992    3.396    0.706
        27  -9.1083    114.0595     10.0660   2.9052752429e+02   6.9936057825e+00   0.01771878   0.01142351 -27.61 0.0004004899    1.929    0.482
        28  -9.3982      2.0893     14.3413   2.9183248302e+02   7.5896462426e+00   0.02997576   0.01247348 -71.84  0.002263151    3.073    0.675
        29  -9.8871      6.0517      5.4655   2.9173427030e+02   7.6693322947e+00   0.02084586   0.01509403   0.29  0.000606862    1.659    0.397
        30  -8.7438      2.5971      3.2035   2.9176029448e+02   7.7152822869e+00   0.01487362   0.01036184 -56.67   0.00160592    1.383    0.277
        31  -8.6265      5.3539      1.6993   2.9171979808e+02   7.7168055755e+00   0.01384559  0.007276632  40.52 0.0008000099    1.930    0.482
        32  -9.5555     85.1872     13.0332   2.9087495107e+02   7.1261930789e+00   0.02208471   0.01363132  77.56  0.001520233    2.377    0.579
        33  -8.0273     85.0590      6.5807   2.9083787539e+02   7.2013916659e+00    0.0222002   0.01285508 -13.78  0.001870084    2.791    0.642
        34  -8.3961     88.9588      2.7325   2.9077033857e+02   7.2232736376e+00   0.01954007  0.009084901 -70.71  0.001510952    2.495    0.599
        35  -8.6974    141.1761     12.5757   2.9023304682e+02   6.8077379273e+00   0.01611396  0.007884099 -67.24  0.001416615    2.155    0.536
        36  -9.0032    133.4794     11.5262   2.9031459602e+02   6.8644051988e+00   0.02315016   0.01244125 -85.25  0.001589478    2.868    0.651
        37  -7.8110     80.3217     12.4659   2.9092713971e+02   7.1608270090e+00   0.01156604  0.007836977  88.13   0.00114926    1.875    0.467
        38  -8.1899    101.9391      8.2767   2.9065521979e+02   7.0843177820e+00   0.01075574  0.008829826 -85.15 0.0005189984    1.317    0.241
        39  -9.1616    110.6934      5.5617   2.9053903263e+02   7.0650377791e+00   0.02622751  0.007774657 -51.10  0.001892126    3.118    0.679
        40  -8.4182     97.4340      5.7984   2.9069185807e+02   7.1389444250e+00   0.01724502    0.0129809 -43.22  0.001113328    1.348    0.258
        41  -8.3047     95.6511      2.7367   2.9069392430e+02   7.1845691355e+00   0.02342918   0.01299702 -24.38  0.001783244    2.762    0.638
        42  -9.4532    132.0238      5.5741   2.9029561728e+02   6.9414955620e+00   0.02176262   0.01315153  -3.58  0.001935358    2.441    0.590
        43  -8.8417    115.2533      4.1153   2.9047832563e+02   7.0553556571e+00   0.01554715   0.01065619 -79.82  0.001120959    1.662    0.398
        44  -9.5660     63.7657      2.9107   2.9105923673e+02   7.3666059596e+00   0.02017817   0.01283816  70.56  0.001543755    2.153    0.536
        45  -8.2885    104.3173      2.1689   2.9059155974e+02   7.1410403848e+00   0.01372062  0.009685799 -20.03  0.001314001    1.743    0.426
        46  -7.9553    236.8753      1.4602   2.8907584687e+02   6.3805429044e+00  0.009647463    0.0064988  25.58 0.0004998496    1.527    0.345
        47  -9.2103     41.2118    121.7103   2.9202447274e+02   6.1240446549e+00   0.02427259   0.01203502 -76.99  0.001870411    2.693    0.629
        48  -7.6870    249.8040    250.4044   2.9041487510e+02   3.4317160845e+00  0.008967419  0.006416996  10.52 0.0009431504    1.592    0.372
        49 -10.3440    184.7325    247.6827   2.9113809307e+02   3.8393612637e+00   0.02182628  0.009703502  23.48  0.001835593    2.447    0.591
        50 -10.5457    199.0807    249.2334   2.9098419476e+02   3.7385296907e+00   0.02608101   0.01677133  22.12  0.002683636    1.646    0.392
        51 -10.0558     91.8507    113.0459   2.9139523270e+02   5.9324349727e+00   0.02830365   0.01854588  66.07  0.001563358    1.959    0.490
        52  -8.8268     91.7218    104.3542   2.9134495528e+02   6.0336525524e+00   0.02976533   0.01783098  -9.18   0.00262139    2.556    0.609
        53 -10.1970     78.0648    112.9998   2.9155220953e+02   6.0124809069e+00   0.02725855   0.01658145  80.86  0.001904844    2.452    0.592
        54  -8.0536     77.5125    105.9692   2.9151667106e+02   6.0969447294e+00   0.01376691  0.008860162 -32.66  0.001299136    1.821    0.451
        55  -7.9418      1.2782    115.6187   2.9244406592e+02   6.4240279488e+00   0.01184581   0.00559892 -61.40 0.0009718192    2.035    0.509
        56  -7.8707    167.3064    114.6483   2.9054467370e+02   5.4778351944e+00   0.01216704  0.008023537 -80.26  0.001071382    1.769    0.435
        57  -8.5764    152.8532    115.3610   2.9071358448e+02   5.5532330086e+00  0.009168766  0.008121399 -82.47 0.0006380709    1.170    0.145
        58 -10.5624     62.8302     95.7160   2.9162318447e+02   6.3000999952e+00   0.03731868   0.02048688 -86.12  0.001473767    2.752    0.637
        59  -9.3921     68.8917    102.8531   2.9159648705e+02   6.1826656492e+00   0.02136303    0.0143667  -1.95  0.002135081    1.920    0.479
        60  -9.2483     59.0027    109.3150   2.9174777398e+02   6.1649403680e+00   0.01184621  0.009136896 -88.22 0.0005038347    1.466    0.318
        61  -9.6696     13.9575    111.1496   2.9227279154e+02   6.4028837677e+00   0.02140725   0.01383756  83.65  0.001560345    2.104    0.525
        62  -8.7505    158.9020    111.0785   2.9061913224e+02   5.5677231287e+00   0.02270832  0.008289429 -58.24  0.001436738    2.507    0.601
        63  -9.0645     36.2214    111.5050   2.9202077755e+02   6.2707667071e+00   0.01525519  0.007990699  47.20  0.001147926    2.119    0.528
        64  -9.8542     27.3411    110.0533   2.9211350794e+02   6.3386299842e+00   0.02559213   0.01698681 -16.77  0.002209146    1.988    0.497
        65 -10.7782     20.6655    100.4136   2.9213243090e+02   6.4884677448e+00   0.05856627   0.03202053  86.99  0.003588627    3.172    0.685
        66 -10.3810     25.4726     77.8119   2.9194315293e+02   6.7220992581e+00   0.03747482   0.02192022  79.10  0.001881643    2.730    0.634
        67 -10.2516     32.4223     63.9416   2.9178123460e+02   6.8424126359e+00   0.05590701   0.02671576 -37.34  0.003796828    2.678    0.627
        68 -10.0025     34.5388     90.8531   2.9191719850e+02   6.5192108165e+00    0.0289274   0.01500576 -81.78  0.001583761    2.828    0.646
        69 -10.1006     36.5247     81.2485   2.9183738783e+02   6.6188023784e+00   0.05054547   0.02567417 -13.47  0.003322873    4.697    0.787
        70  -8.1735    149.7071    110.1356   2.9071828199e+02   5.6318164674e+00   0.01250577  0.006098664 -71.60 0.0005467395    2.384    0.581
        71 -10.8688     44.6763    102.6039   2.9187135926e+02   6.3250266044e+00   0.04362494   0.02289561  63.18   0.00320538    3.071    0.674
        72  -9.2076     40.2367    107.1297   2.9194894065e+02   6.2982526389e+00     0.016747   0.01109787  87.14  0.001209595    1.964    0.491
        73  -9.7555    243.0758    105.3852   2.8962695106e+02   5.1456668604e+00   0.01799632  0.009662649 -69.88  0.001249802    2.023    0.506
        74  -9.8747    139.3315    104.6470   2.9080381151e+02   5.7552496830e+00   0.03163271   0.01590479 -78.42  0.002501382    2.752    0.637
        75  -9.5660      5.4970    104.0670   2.9232731645e+02   6.5333814111e+00   0.02594091   0.01633515  43.40  0.002110611    1.644    0.392
        76  -7.6283    189.4368    104.8230   2.9023401150e+02   5.4631924927e+00  0.009149378  0.005735471 -49.07 0.0003080875    1.569    0.362
        77  -9.5315    149.5404    103.4084   2.9068007112e+02   5.7105148605e+00    0.0184331   0.01275834  89.85  0.001003303    1.781    0.439
        78 -10.0359     20.1033     84.2732   2.9204290105e+02   6.6782890823e+00    0.0394007   0.01882615 -52.45  0.002833936    1.986    0.496
        79  -8.3862     14.0714    104.9879   2.9223489220e+02   6.4734769760e+00   0.01046878  0.007488099 -28.25  0.000525345    1.614    0.381
        80  -8.4714    165.9407    103.5144   2.9049382663e+02   5.6143818120e+00   0.01716378  0.008567831 -63.10  0.001230166    1.971    0.493
        81 -10.1608     65.5534    111.0360   2.9168326594e+02   6.1073018085e+00   0.02953894   0.02321341  86.89  0.001718787    1.449    0.310
        82  -8.6175    159.0866    101.5224   2.9056003775e+02   5.6770683806e+00   0.01285832  0.009490612  77.44 0.0004552082    1.640    0.390
        83  -9.4856     81.5018     99.4215   2.9143217746e+02   6.1496277422e+00   0.03305892   0.01375783 -64.27  0.000959877    2.420    0.587
        84  -9.2828     94.4250     97.3891   2.9127263906e+02   6.0985587436e+00   0.01540123   0.01198536  69.38 0.0006524768    1.477    0.323
        85  -8.6769     95.9366     91.0184   2.9121744208e+02   6.1634635370e+00     0.022104   0.01180977 -27.41  0.001808159    2.840    0.648
        86  -8.9627    239.4966     96.9922   2.8961752123e+02   5.2633332901e+00    0.0152454   0.00771086 -35.43 0.0007199996    2.577    0.612
        87  -8.7820    150.0563     96.8329   2.9063497578e+02   5.7835050271e+00   0.01254261  0.009372707  -7.43  0.001304189    1.611    0.379
        88  -7.6960    171.0000     95.9147   2.9039084451e+02   5.6728852922e+00   0.01065298   0.00367484 -62.78 0.0003290048    2.841    0.648
        89  -8.4540    164.4365     93.8317   2.9045319627e+02   5.7349503866e+00   0.01934601  0.008239468 -55.26  0.001657731    2.177    0.541
        90  -9.0346    138.6106     92.5742   2.9074004270e+02   5.8989183229e+00   0.01649353   0.01154686  72.71 0.0008212954    1.795    0.443
        91  -8.1430    139.3237     87.8348   2.9070364502e+02   5.9495508568e+00   0.01367071  0.008894368  -2.64  0.001315169    2.061    0.515
        92  -9.3865    111.5532     89.4883   2.9103018215e+02   6.0909678777e+00   0.03822174   0.02282256 -13.16  0.003356225    2.574    0.611
        93 -10.0987    123.3229     91.2945   2.9090671918e+02   6.0020907585e+00   0.02472122   0.01955241  24.26  0.001288047    1.301    0.231
        94  -8.6207    125.9896     83.7809   2.9083150552e+02   6.0734906259e+00   0.02693928   0.01347789 -25.53  0.001962802    3.649    0.726
        95 -10.1202      4.3527     89.7405   2.9225527630e+02   6.7055888655e+00   0.03263694   0.01887073  84.71  0.001640514    2.746    0.636
        96  -9.5110      5.6980     79.0016   2.9217608493e+02   6.8219973373e+00   0.03092811    0.0171528 -23.48  0.002577764    2.799    0.643
        97  -8.9727    157.2204     91.6282   2.9052227951e+02   5.8021775998e+00   0.01091654  0.008840506 -82.37 0.0007987499    1.326    0.246
        98  -8.8146    150.3645     89.0779   2.9058520137e+02   5.8713154470e+00    0.0127235   0.01049752 -75.02  0.000982692    1.249    0.199
        99 -10.4845     55.1127     70.9477   2.9156382189e+02   6.6308226398e+00   0.03295089   0.01592365  49.74  0.001251983    2.490    0.598
       100 -10.3025     47.8900     84.5999   2.9172756533e+02   6.5146458633e+00   0.03202354   0.02060794 -79.34  0.001762621    1.814    0.449
       101  -9.0070     49.4002     77.2168   2.9166637533e+02   6.5912795835e+00   0.02895813   0.01575363  -4.89  0.002249268    3.315    0.698
       102  -9.1530     55.0165     63.1200   2.9151829481e+02   6.7218215486e+00   0.02122565    0.0146032  10.11  0.001631214    1.688    0.408
       103 -10.0959     62.9274     60.7949   2.9141410745e+02   6.7030980144e+00   0.03510089   0.01572755  19.23  0.002861584    2.701    0.630
       104 -10.1380     85.2633     86.6493   2.9131319267e+02   6.2755498954e+00   0.02380449   0.01552616  63.39 0.0009468673    1.930    0.482
       105  -7.2323     78.2876     89.6552   2.9141069796e+02   6.2810478359e+00  0.006827478  0.004960703  68.29 0.0007022172    1.651    0.394
       106  -7.8621    174.5859     88.1984   2.9030393801e+02   5.7412473524e+00  0.009700866  0.005692674 -51.01 0.0009472799    1.652    0.395
       107  -7.8905    163.4886     87.0195   2.9042334502e+02   5.8191289151e+00   0.00990623  0.006381335 -63.36 0.0004040392    1.528    0.346
       108  -8.7779     65.0470     85.6468   2.9153794161e+02   6.4037100037e+00   0.02385501   0.01263852  -7.07  0.001739655    3.766    0.734
       109 -10.2657    103.8907     82.6972   2.9107710855e+02   6.2136982372e+00   0.02575178   0.01437686 -76.84 0.0008771739    2.186    0.543
       110  -9.3371    104.9552     72.0968   2.9100176369e+02   6.3300254491e+00   0.03946343   0.01487162 -49.82  0.003158019    2.565    0.610
       111  -9.3984     87.4699     78.6308   2.9124023511e+02   6.3554787948e+00   0.02557452   0.01631182  -8.71  0.001879685    2.197    0.545
       112  -8.7448    157.6320     83.3453   2.9046816159e+02   5.8954751556e+00   0.01518664     0.011081 -54.23  0.000989633    1.326    0.246
       113  -8.8456    157.3143     77.0216   2.9043403843e+02   5.9703555737e+00   0.01891053   0.01152367  72.16  0.001395473    2.399    0.583
       114  -9.3514    140.6240     81.8964   2.9065339501e+02   6.0106337069e+00   0.02690202   0.01256364 -56.17  0.001634603    2.004    0.501
       115  -8.6563    139.9373     74.9390   2.9061970999e+02   6.0949749636e+00   0.01930965  0.008809564 -60.64  0.001264475    2.094    0.522
       116  -7.4413    210.1909     83.4809   2.8987028026e+02   5.5893502416e+00  0.008759875  0.005917136  43.09 0.0009106264    1.523    0.343
       117  -7.7702    170.1746     82.9217   2.9032269891e+02   5.8277435597e+00   0.01015472  0.008806421  78.67  0.000713748    1.249    0.199
       118  -9.0465    115.2271     72.2848   2.9088569586e+02   6.2685096317e+00   0.02482905   0.01259436 -63.92   0.00218394    1.960    0.490
       119  -8.7917    119.0086     80.4844   2.9089146431e+02   6.1519278285e+00    0.0158902   0.01097456 -84.67 0.0005999759    1.716    0.417
       120  -8.0343    119.7715     76.1803   2.9085709198e+02   6.1972437079e+00   0.01225084  0.009609853  -1.34 0.0009146669    1.466    0.318
       121  -7.4073     63.4252     82.2433   2.9153618776e+02   6.4523924697e+00  0.009025857  0.006343734 -79.49 0.0005246321    1.594    0.373
       122  -8.6395    149.9200     80.3583   2.9053823907e+02   5.9746146649e+00   0.01875569   0.00891419 -60.99  0.001367894    2.021    0.505
       123  -9.1092     74.0699     79.9274   2.9140089275e+02   6.4177920960e+00   0.02361774   0.01130514 -70.19   0.00111331    2.357    0.576
       124  -7.4098     76.3662     74.0000   2.9133936956e+02   6.4730443197e+00   0.01445012  0.003747964  26.94 0.0009346619    3.934    0.746
       125  -8.2026     68.5096     79.5518   2.9146212270e+02   6.4541918079e+00   0.01372265  0.006455609 -64.27  0.001197092    2.128    0.530
       126  -8.8153    166.4431     78.3753   2.9033807847e+02   5.9018623249e+00   0.01510956   0.01067293 -71.35  0.001104156    1.474    0.321
       127  -8.2104    184.1572     78.0640   2.9013439114e+02   5.8028335697e+00   0.01036023  0.008622368 -29.16 0.0006265531    1.286    0.223
       128  -9.4280    127.3050     75.1928   2.9076527839e+02   6.1651021083e+00   0.01703518   0.01217044  86.81 0.0006344746    1.710    0.415
       129  -8.5974    128.8727     69.1483   2.9071133353e+02   6.2258581327e+00   0.01686593   0.01070607 -15.34  0.001400745    2.205    0.546
       130  -8.5119    130.6298     64.5308   2.9066373676e+02   6.2690298640e+00   0.01901306  0.009808238 -68.36  0.001295464    2.064    0.516
       131  -9.8274     81.6187     72.3629   2.9126966180e+02   6.4616621372e+00   0.02103225    0.0135758  78.13 0.0008751659    2.139    0.533
       132  -9.0238     83.8186     64.1469   2.9119557832e+02   6.5438922977e+00   0.02717355   0.01524664 -26.66   0.00218902    2.570    0.611
       133  -9.1132    220.7238    249.5759   2.9074027033e+02   3.6094635389e+00   0.01294216  0.006674006  20.17  0.001151393    2.191    0.544
       134 -10.5905    171.8544    246.8978   2.9127986120e+02   3.9228251289e+00   0.02309028   0.01771984 -64.66  0.002070426    1.287    0.223
       135  -9.9139     15.8902     71.0434   2.9201233768e+02   6.8554140696e+00   0.03024713   0.01531791 -48.11  0.001416676    1.962    0.490
       136  -8.0512    151.5251    121.5371   2.9076553017e+02   5.4895398896e+00  0.006471481   0.00636347 -75.55 0.0001564903    1.015    0.015
       137  -9.8253     16.9491     62.0685   2.9194684303e+02   6.9530394413e+00   0.03614161   0.01558005 -57.69  0.003129746    2.157    0.536
       138 -10.8432     21.7363     53.5931   2.9184170192e+02   7.0234399562e+00    0.0447798   0.02520142  83.90  0.002986064    3.007    0.667
       139  -9.7718     14.8502     44.3877   2.9186557904e+02   7.1693675016e+00   0.02645534   0.01629841 -39.26  0.000994742    1.774    0.436
       140  -9.5058      8.7823     47.2638   2.9195204621e+02   7.1710156830e+00   0.02996217     0.013001  31.02  0.001620509    2.245    0.555
       141  -9.3303     62.2176    248.1360   2.9253471457e+02   4.5406443739e+00   0.01134265   0.01050467 -13.05 0.0002760649    1.133    0.117
       142  -9.3623      6.5252     32.5073   2.9188998368e+02   7.3544202431e+00   0.01321112   0.01139456  32.12 0.0008443469    1.175    0.149
       143 -10.1256    191.1779    248.4430   2.9106933233e+02   3.7933326877e+00   0.02207947   0.01379614 -54.03  0.002266008    1.536    0.349
       144  -8.2348    169.3486     71.1769   2.9026198693e+02   5.9681634701e+00  0.009205741  0.006171239 -75.80 0.0004329998    1.645    0.392
       145  -8.4908    156.7632     70.2424   2.9039984804e+02   6.0518399992e+00    0.0113057  0.008697781 -81.87 0.0009276647    1.424    0.298
       146  -9.2745    146.8709     69.3491   2.9050729077e+02   6.1194192066e+00   0.01626072   0.01215835  88.59  0.001089419    1.567    0.362
       147  -9.6766     94.7185     68.4215   2.9109665923e+02   6.4315984562e+00   0.01955701   0.01245592 -75.94 0.0007794919    1.767    0.434
       148  -9.3070     97.2420     58.4824   2.9100858499e+02   6.5318414260e+00   0.03227941   0.01430069 -35.08   0.00236538    3.415    0.707
       149  -7.7551     23.0542     69.2275   2.9191970096e+02   6.8352145951e+00  0.008889731  0.008451771  35.41 0.0004224233    1.070    0.066
       150  -9.2664    138.1186     65.9777   2.9058696497e+02   6.2089991048e+00   0.02293326    0.0110839 -68.36  0.001421113    2.235    0.553
       151  -9.0899    121.0804     66.0322   2.9078162207e+02   6.3069047524e+00    0.0168164   0.01186108  86.60 0.0005748222    1.752    0.429
       152  -7.9683    121.9924     61.5062   2.9074421089e+02   6.3539083494e+00   0.01331889  0.008146831 -44.03 0.0009199516    1.687    0.407
       153  -8.0578     75.5791     66.3029   2.9130248473e+02   6.5665171519e+00   0.01220138  0.006504963 -69.07 0.0006972562    2.007    0.502
       154  -9.3113    109.8127     64.0332   2.9089824619e+02   6.3951145021e+00   0.01778339    0.0125667 -85.80 0.0008903379    1.667    0.400
       155  -9.0521    110.6092     58.0763   2.9085361744e+02   6.4593168614e+00   0.01905055    0.0127084 -26.71  0.001293888    1.835    0.455
       156  -7.8340    171.3231     65.3059   2.9020442019e+02   6.0245163893e+00  0.006884899  0.004886218 -27.93 0.0006810617    1.642    0.391
       157  -8.6387    157.4638     63.7045   2.9035282341e+02   6.1232824739e+00   0.01514017   0.01234404 -37.07  0.001185199    1.274    0.215
       158  -8.3864    193.0228     61.9705   2.8993725539e+02   5.9372462366e+00  0.009541136  0.009170532 -60.66            0    1.020    0.019
       159  -8.2773     49.4085     61.8296   2.9157465075e+02   6.7690346333e+00    0.0122304  0.006471688 -68.71  0.001110177    2.012    0.503
       160  -9.9998     73.6110     57.3373   2.9127151173e+02   6.6814442218e+00   0.05890168   0.01511402 -52.75  0.003705194    3.393    0.705
       161  -8.8275     80.0000     46.9571   2.9113666631e+02   6.7644833013e+00    0.0226067  0.008617981 -60.57  0.001564535    2.473    0.596
       162  -8.1262      9.3778     60.1033   2.9202165269e+02   7.0192567204e+00   0.01302252  0.008548525 -83.54  0.001289761    1.845    0.458
       163  -7.8365    164.4951     60.4817   2.9025342419e+02   6.1197728860e+00  0.006515421  0.006334811  81.45 5.256417e-05    1.045    0.043
       164  -7.2550    152.4155     60.2650   2.9038983637e+02   6.1922282678e+00  0.009163819   0.00632281 -79.79 0.0009389903    1.644    0.392
       165  -9.1661    144.0937     36.4869   2.9034269227e+02   6.5149192860e+00   0.01393662    0.0103165  83.47  0.000631912    1.622    0.384
       166  -8.5608    149.8282     48.1031   2.9034669523e+02   6.3476260985e+00   0.01328597   0.00901455 -54.19 0.0006845756    1.421    0.296
       167 -10.1459    151.3286     41.8159   2.9029202210e+02   6.4115167380e+00    0.0314449   0.01842036  19.46   0.00282213    1.891    0.471
       168  -8.8745    146.7921     59.0886   2.9044692869e+02   6.2383654395e+00   0.01342855   0.00998037  62.58  0.000962491    1.547    0.353
       169  -8.7750    147.5321     53.9034   2.9040752530e+02   6.2939528000e+00   0.02096336  0.009079223 -57.10  0.001545919    2.147    0.534
       170  -7.9225    136.0949     26.8800   2.9037652981e+02   6.6721008601e+00  0.009759251  0.008593061  72.66 0.0003501388    1.219    0.179
       171  -9.0853    129.7974     56.8649   2.9062747308e+02   6.3623756503e+00   0.02337344   0.01332395 -65.68  0.001691132    1.772    0.436
       172  -7.9279    133.4857     51.4691   2.9055318564e+02   6.4033483189e+00  0.009012929  0.008500447 -70.12 -1.775592e-05    1.051    0.049
       173  -7.0596     87.3093    243.7093   2.9222287941e+02   4.4473927196e+00  0.006721628  0.004916165  62.40 0.0002616736    1.581    0.368
       174  -9.0933    132.9408     36.1419   2.9046785732e+02   6.5834520922e+00   0.01869303     0.013435 -79.45 0.0006882894    1.545    0.353
       175  -9.6791    133.9579     31.1009   2.9042613568e+02   6.6357535156e+00   0.01176959   0.01066591 -15.51            0    1.168    0.144
       176  -8.3996     87.5210     58.3555   2.9111878462e+02   6.5894280850e+00   0.01521946   0.01036307  78.00 0.0007915169    1.912    0.477
       177  -8.3171     88.9073     53.1883   2.9107214165e+02   6.6411107886e+00   0.02013701   0.01151252 -15.00   0.00166762    2.878    0.652
       178  -9.0937    138.8398     56.6752   2.9052320492e+02   6.3122553476e+00   0.01604158   0.01150134 -85.26 0.0009332146    1.623    0.384
       179  -8.0769    139.0050     51.7523   2.9049192426e+02   6.3681432579e+00  0.009460654  0.008572641  24.25  0.000552755    1.129    0.114
       180  -8.8094    141.9972     48.7402   2.9043980782e+02   6.3856038478e+00   0.01305143   0.01069677 -76.17  0.000404008    1.267    0.211
       181  -9.3388    118.1476     54.5167   2.9074636065e+02   6.4568568641e+00   0.02575324   0.01516294 -67.14  0.001063275    1.741    0.425
       182  -8.9536    121.0601     46.8834   2.9066756079e+02   6.5281643478e+00   0.01518796  0.009929615 -71.29 0.0004961465    1.617    0.382
       183  -8.9851     52.9725     40.0050   2.9140388465e+02   7.0006062997e+00    0.0315481  0.007910947 -48.07    0.0020006    4.110    0.757
       184 -10.0247     49.9400     53.7553   2.9152047736e+02   6.8592544221e+00   0.03305697    0.0169266 -76.03  0.002530683    2.478    0.597
       185  -9.4602     56.0236     43.3799   2.9138915242e+02   6.9440489736e+00   0.03537757   0.01812899 -25.17  0.002680675    3.390    0.705
       186  -7.7376     94.9826     54.1331   2.9100842937e+02   6.5951237558e+00   0.01369769  0.006355844 -56.92  0.001213138    2.017    0.504
       187  -9.4189     43.8839     53.0708   2.9158557337e+02   6.9020380568e+00   0.01895051   0.01706569  -2.55  0.001399277    1.181    0.153
       188  -8.9245    162.8106     54.0662   2.9023430158e+02   6.2036000896e+00   0.01026482  0.008587397  68.66 0.0005884347    1.314    0.239
       189  -8.7926    105.4153     52.5958   2.9088018520e+02   6.5526221379e+00   0.02186552   0.01119365 -67.12  0.001344547    2.037    0.509
       190  -8.5902    157.6625     49.7464   2.9026718357e+02   6.2832890588e+00   0.01487996  0.008048951 -87.26  0.001188063    2.954    0.661
       191 -10.1505     85.1427     48.1441   2.9108503052e+02   6.7210981072e+00    0.0201468   0.01395233  79.29 0.0009950578    1.849    0.459
       192  -6.7789    129.3067    235.2919   2.9169499021e+02   4.3026354663e+00   0.00673722  0.004896631 -28.16 0.0002190262    1.578    0.366
       193  -9.5408    187.9653    233.6661   2.9101806385e+02   3.9826944032e+00   0.01267022  0.009714954 -76.14 0.0006537873    1.379    0.275
       194  -7.6340     54.5700    232.4475   2.9252894192e+02   4.7661508107e+00  0.006450892  0.006305664 -69.87 0.0001083642    1.012    0.012
       195  -8.4541    152.6347     53.0867   2.9034446366e+02   6.2738412676e+00   0.01545133  0.006126276 -62.74  0.001247136    2.472    0.595
       196  -9.9516    248.0844     48.1713   2.8922794342e+02   5.7768273650e+00    0.0130489   0.01168118 -14.84 0.0003559351    1.193    0.162
       197  -8.9249    112.4192     45.1205   2.9075563864e+02   6.5984725171e+00   0.03700655  0.009550546 -50.85  0.001758802    3.542    0.718
       198 -10.0911     37.7857     41.9879   2.9158920592e+02   7.0651620295e+00   0.02688846   0.01657144  82.04  0.001715036    2.368    0.578
       199 -10.6887     35.4111     37.9688   2.9159238724e+02   7.1252479769e+00   0.02159398   0.01434979 -10.12 0.0002151651    2.011    0.503
       200  -7.1708    162.3083     46.6537   2.9019573805e+02   6.2920795001e+00  0.006948946  0.004935305  66.43 0.0007044008    1.702    0.412
       201  -7.2403    134.6175    229.8009   2.9160197040e+02   4.3354900364e+00  0.009543883  0.006288038 -77.20 0.0009551065    1.708    0.414
       202  -8.9290     71.2375     25.7722   2.9111034346e+02   7.0596540186e+00   0.02179643   0.01269617   1.75  0.001919153    2.506    0.601
       203 -10.0669     76.1696     31.7879   2.9108990819e+02   6.9617491650e+00   0.02432235   0.01406679  53.55  0.001272718    2.068    0.516
       204  -9.9753     79.2672     23.9892   2.9100798541e+02   7.0339099588e+00   0.03063471   0.01804662  -8.33  0.001959189    2.666    0.625
       205  -8.9962     84.7433     21.9483   2.9093325807e+02   7.0258610258e+00   0.01314322   0.01190004 -80.24 0.0007764447    1.130    0.115
       206  -9.0132    139.4906     40.3027   2.9041799566e+02   6.4975189112e+00   0.02384926   0.01166673 -72.64  0.001338364    2.444    0.591
       207  -9.1528    104.9026     41.0933   2.9081738557e+02   6.6884109086e+00   0.02059542   0.01254992 -84.21 0.0007093279    2.130    0.530
       208  -8.0428    106.0321     36.4693   2.9077688728e+02   6.7352718477e+00   0.01153629  0.009195443  -4.60 0.0009206861    1.437    0.304
       209  -8.1671    160.3532     39.2482   2.9017377199e+02   6.3888839054e+00  0.009191676  0.006191784 -75.11 0.0005242254    1.623    0.384
       210  -7.8760    249.4024     37.2020   2.8914730710e+02   5.8956744139e+00  0.008958544  0.006300728 -78.52 0.0005750636    1.582    0.368
       211  -8.6827    153.3181     35.5310   2.9023177529e+02   6.4725374837e+00   0.01861175  0.008022603 -66.02  0.001419646    2.429    0.588
       212  -8.8946    118.9090     34.5043   2.9061818410e+02   6.6835219609e+00   0.01789094  0.008802925 -58.09  0.001433689    1.919    0.479
       213  -8.0070    189.2728     35.5639   2.8982211204e+02   6.2637503760e+00   0.01178124  0.008587508 -64.61 0.0006155676    1.358    0.264
       214  -9.2132     60.1331     33.7661   2.9128488224e+02   7.0313877356e+00   0.01899016   0.01329543 -81.36  0.001426556    1.632    0.387
       215  -8.7110     61.9246     27.3756   2.9122629628e+02   7.0948453048e+00   0.02479256   0.01390946  -0.59  0.002063206    2.845    0.649
       216  -8.7445     45.4779     15.5318   2.9134356400e+02   7.3263442818e+00   0.01032595  0.008926963   7.91 0.0008900691    1.234    0.190
       217  -8.5084     39.9937    226.3477   2.9265884517e+02   4.9205618213e+00   0.01119728  0.009051834 -50.66 0.0003788638    1.211    0.174
       218  -7.5350      2.3157    217.3297   2.9303472069e+02   5.2413587407e+00  0.006993141  0.004827884 -30.23 0.0003406478    1.679    0.405
       219 -10.1153     46.2803     29.8771   2.9141995575e+02   7.1561098062e+00   0.02471828    0.0163184  88.44 0.0009313282    1.966    0.491
       220  -8.2459     42.0589     28.0460   2.9145727364e+02   7.2015619949e+00  0.008999206  0.008537159 -16.85  0.001120204    1.087    0.080
       221  -9.0974    110.2146     33.1005   2.9070903082e+02   6.7499911725e+00    0.0183448   0.01120542 -79.29 0.0007928883    1.974    0.493
       222  -8.0226    110.1452     26.8814   2.9067267978e+02   6.8221819951e+00   0.01070468  0.009057874 -29.03  0.001255018    1.256    0.204
       223  -8.3214    162.7885     73.2963   2.9034940453e+02   5.9816837322e+00   0.01326767  0.009459997  75.32 0.0009212245    1.745    0.427
       224  -7.7244    232.6484     30.7400   2.8929927463e+02   6.0675667268e+00  0.006702544  0.004941104 -21.47 0.0001891909    1.610    0.379
       225 -10.0143    152.3322     27.5962   2.9019558998e+02   6.5698203031e+00   0.02190346    0.0174276 -70.58  0.002517724    1.276    0.216
       226 -10.5273    142.9686     27.3211   2.9030074982e+02   6.6272191199e+00     0.015147   0.01141192 -47.90  0.001694154    1.313    0.238
       227  -7.5511     37.4314    213.5026   2.9261200468e+02   5.0839177022e+00  0.006510574  0.006282645 -53.18 0.0005963463    1.017    0.017
       228  -9.2462     91.3319     26.3646   2.9088438430e+02   6.9368422927e+00   0.02059077   0.01295974 -87.58  0.001229676    2.087    0.521
       229  -8.1567     92.1413     20.7680   2.9084172353e+02   6.9967688752e+00   0.01382798  0.008674463 -11.08 0.0006894958    2.286    0.563
       230 -10.0845     10.0605    207.4365   2.9288797106e+02   5.3113770023e+00    0.0265748   0.01634901  14.59  0.002609353    1.889    0.471
       231  -8.3397    124.0071    206.0551   2.9158177744e+02   4.6713349349e+00  0.009112298  0.008844472  84.08  0.001147127    1.045    0.043
       232  -7.3600     59.2588    203.3590   2.9230324125e+02   5.0757108527e+00  0.006915159  0.004700691 -35.97 0.0004926129    1.623    0.384
       233  -8.9904    132.5229     17.3787   2.9036049869e+02   6.8024170989e+00   0.01851803   0.01125403  29.58  0.001475668    1.652    0.395
       234  -9.0056    192.8748    195.7458   2.9073672724e+02   4.3926176303e+00   0.02809274   0.01444234  86.98  0.001951122    4.081    0.755
       235 -10.0181    183.5652    195.8320   2.9084314760e+02   4.4454654266e+00   0.01132861    0.0111097 -47.51  0.000336991    1.013    0.012
       236  -8.8855    153.6397     22.3712   2.9014943917e+02   6.6225361963e+00   0.02080806  0.009832656  51.49  0.001696504    2.708    0.631
       237  -8.4465    110.5608     21.6217   2.9063651659e+02   6.8804868906e+00   0.02097863    0.0131484 -22.80  0.001980113    2.144    0.533
       238  -7.4073    183.9724    180.9791   2.9075012376e+02   4.6147959687e+00  0.007458465   0.00743043 -15.11 0.0009452797    1.021    0.021
       239  -7.6232    229.3243    166.6789   2.9014907091e+02   4.5175028888e+00   0.00693412  0.004916523  63.79 0.0007046502    1.679    0.404
       240  -7.2579     58.5296    162.4847   2.9206910628e+02   5.5527661400e+00  0.006563302  0.006277325 -40.87 -4.931688e-05    1.043    0.041
       241  -8.4639    139.8050     22.2616   2.9030659765e+02   6.7039207873e+00   0.01208523  0.008546188  49.35 0.0008620931    1.512    0.339
       242  -8.2832    247.4046    159.8083   2.8990256208e+02   4.4920923778e+00  0.009740394  0.005700196 -51.56 0.0008457859    1.650    0.394
       243  -7.7032     22.7901    157.5964   2.9244765249e+02   5.8149113304e+00  0.009337155  0.005853841  39.17 0.0004664184    1.608    0.378
       244  -7.6297     11.9012    153.3134   2.9254645658e+02   5.9270237803e+00  0.008882094  0.008326301  24.86 0.0003803901    1.090    0.082
       245  -8.4352    133.5744    146.8449   2.9112078839e+02   5.3007720580e+00   0.02063222  0.006948812 -67.75  0.001419511    3.534    0.717
       246  -8.8446     40.8795     20.5165   2.9142585139e+02   7.2952834738e+00   0.01210244  0.008853899 -54.44 0.0003309746    1.322    0.244
       247  -9.6540     66.9327    144.3257   2.9186544689e+02   5.7144054970e+00   0.02529907   0.01573718  65.48   0.00215446    2.153    0.535
       248  -8.0621    139.8509     18.1579   2.9028154169e+02   6.7510070926e+00  0.009108435  0.007656347 -19.48 0.0005587761    1.306    0.235
       249  -8.5828    112.3622     15.6006   2.9057997681e+02   6.9395578535e+00   0.01201796  0.009998172  88.91 0.0006148043    1.316    0.240
       250  -8.6458    135.7165    131.0977   2.9100262136e+02   5.4704379360e+00   0.03348064  0.007312564 -64.08  0.001933941    4.927    0.797
       251  -9.3162    135.1756    122.2925   2.9095633633e+02   5.5753438196e+00   0.01801675   0.01264666 -68.70  0.001499328    1.452    0.311
       252  -9.9041    130.4242    118.8342   2.9098988817e+02   5.6427787212e+00   0.02050662   0.01353252  77.15 0.0008902659    2.038    0.509
       253  -8.3483    112.3004    133.7989   2.9128558365e+02   5.5744765923e+00   0.01416459  0.009657081  62.49  0.001314755    1.774    0.436
       254  -8.6326    193.4693    132.0699   2.9035064301e+02   5.1250579526e+00    0.0113674  0.009467706  22.37 0.0001899078    1.239    0.193
       255  -9.5248     98.6763    128.9161   2.9141184784e+02   5.7095709382e+00   0.02759947   0.01450382  60.73  0.002247914    2.869    0.651
       256 -10.2105     70.0400    126.3474   2.9172314587e+02   5.9044097647e+00   0.03213764    0.0275944 -16.02  0.001709855    1.271    0.213
       257  -9.9589     58.0853    124.4724   2.9184837054e+02   5.9949639789e+00   0.02906303   0.01702213  74.27  0.002225643    2.683    0.627
       258  -7.7702    161.2066    129.0567   2.9070005156e+02   5.3466317586e+00   0.01110427  0.007390141  78.79 0.0009295714    2.004    0.501
       259  -8.9238    126.0061    127.3922   2.9109121858e+02   5.5693843698e+00   0.01210436  0.008289982 -46.45 5.907556e-05    1.460    0.315
       260  -9.9101    140.5397    118.2639   2.9087120103e+02   5.5908969568e+00   0.03496881   0.01687531 -69.57  0.001195955    2.299    0.565
       261  -9.7338    117.4434    125.7128   2.9117882191e+02   5.6382609304e+00   0.02791881   0.01654443  64.83    0.0016777    2.364    0.577
       262 -10.6644    133.4722    109.7177   2.9090082348e+02   5.7305271807e+00   0.06908613   0.02622096 -73.33   0.00458272    4.051    0.753
       263 -10.0503    108.6094    114.5287   2.9121294234e+02   5.8185631954e+00   0.02602777    0.0164474  81.82  0.001579051    2.233    0.552
       264 -10.6669    109.0088    101.0906   2.9112834286e+02   5.9715825117e+00    0.0465853   0.03392877  71.46  0.004960713    1.663    0.399
       265 -10.8736    121.1981    109.5173   2.9103955512e+02   5.8037774605e+00   0.07199546   0.02500114 -60.12  0.004991848    2.673    0.626
       266  -9.4835    127.6608    102.5404   2.9092429674e+02   5.8470646759e+00   0.02187123   0.01459731 -64.78  0.001473602    1.488    0.328
       267 -10.4117    239.4082    123.9511   2.8977952340e+02   4.9525754777e+00   0.01347207   0.01179633  27.93 0.0001803543    1.163    0.140
       268  -9.6167     27.4312    123.0066   2.9218942889e+02   6.1883215948e+00   0.02791406   0.01516079  63.14  0.002187933    2.802    0.643
