#   1 NUMBER                 Running object number                                     
#   2 MAG_AUTO               Kron-like elliptical aperture magnitude                    [mag]
#   3 X_IMAGE                Object position along x                                    [pixel]
#   4 Y_IMAGE                Object position along y                                    [pixel]
#   5 X_WORLD                Barycenter position along world x axis                     [deg]
#   6 Y_WORLD                Barycenter position along world y axis                     [deg]
#   7 A_WORLD                Profile RMS along major axis (world units)                 [deg]
#   8 B_WORLD                Profile RMS along minor axis (world units)                 [deg]
#   9 THETA_WORLD            Position angle (CCW/world-x)                               [deg]
#  10 FWHM_WORLD             FWHM assuming a gaussian core                              [deg]
#  11 ELONGATION             A_IMAGE/B_IMAGE                                           
#  12 ELLIPTICITY            1 - B_IMAGE/A_IMAGE                                       
         1  -8.9161    242.3029      7.5637   5.6789294803e+01   2.4297879744e+01    0.2368922    0.1005056  80.02  0.001156735    2.211    0.548
         2  -8.7954     84.3581      4.6841   7.9812240361e+01   6.0064557464e+01    0.1084104   0.09448253 -82.51 0.0001343194    1.751    0.429
         3  -8.3623    128.4886      3.4961   6.9600712948e+01   5.0902092672e+01    0.1270168    0.1046159  54.12 0.0002620386    1.005    0.005
         4  -9.2838    194.9362    215.6971   1.0917738038e+02  -2.0844380142e-01    0.2859638    0.2175515  -8.28  0.001558681    1.493    0.330
         5  -8.3537    243.7962    214.5766   9.9603111450e+01  -8.2932385598e+00    0.1681511    0.1150821  42.66 0.0006481132    1.620    0.383
         6  -9.5766    235.0935    211.1776   1.0055682822e+02  -6.3951081325e+00    0.3632479    0.2289578  -5.27  0.001832521    1.929    0.482
         7  -9.3554    174.5019    211.0330   1.1254617643e+02   4.3715329697e+00     0.199987    0.1400855 -45.21 0.0007215152    1.571    0.363
         8  -8.7688    227.2500    210.2144   1.0184056076e+02  -4.9483776364e+00    0.2004225   0.09816077  48.30 0.0008749263    2.416    0.586
         9  -9.5911    204.8165    204.6203   1.0514039439e+02  -9.5223649056e-02    0.3277361    0.2207352 -64.42  0.001501962    2.464    0.594
        10  -9.5374    130.9939    203.7596   1.2069709523e+02   1.3929531464e+01    0.1961927    0.1115449  41.78 0.0006029441    1.627    0.385
        11  -9.3066    214.0009    199.3075   1.0230237410e+02  -8.4687363452e-01    0.3380599     0.234265  22.16  0.001748424    1.494    0.331
        12 -10.5940    209.5270    193.4592   1.0203939136e+02   9.8822706928e-01    0.5057082    0.3599126  83.69  0.002154896    2.961    0.662
        13  -9.0160    151.9989    194.5099   1.1442089777e+02   1.1882187602e+01    0.2135967    0.1177171  60.84 0.0008102383    2.536    0.606
        14  -8.8862    117.3014    192.6535   1.2194188100e+02   1.8783001502e+01    0.1491525    0.1064535  76.83 0.0007038619    1.686    0.407
        15  -8.8917    226.6109    190.7718   9.8194792565e+01  -1.6557552026e+00    0.1892433    0.1242052 -45.27 0.0009522294    1.658    0.397
        16  -9.1494    232.6949    188.9243   9.6688285863e+01  -2.4191274050e+00    0.4654436    0.2093069  55.07  0.001654158    3.894    0.743
        17 -10.7867    180.4324    185.0109   1.0636582564e+02   8.1848853742e+00    0.5595834    0.3955515 -70.24  0.002531795    2.073    0.518
        18  -9.3106    153.0788    185.1725   1.1242762381e+02   1.3606772017e+01    0.4080956    0.1962995  33.15  0.001529139    2.396    0.583
        19  -8.0725    168.3232    188.6432   1.0970743638e+02   9.8721284768e+00    0.1501001    0.1166858  82.30 0.0007045302    1.768    0.434
        20  -9.4421    194.2290    182.2198   1.0288889799e+02   5.9838877060e+00    0.2942426    0.2035887 -50.38  0.001418579    1.603    0.376
        21  -8.5947    246.5462    182.3145   9.2864135386e+01  -3.7124054693e+00    0.2336727    0.1180417  40.61  0.001093407    2.064    0.515
        22  -8.3518    226.7580    196.5571   9.9309423774e+01  -2.6510014043e+00    0.1843639    0.1263442  48.22 0.0009554211    1.648    0.393
        23  -8.4042    169.4809    181.4942   1.0804250713e+02   1.1084557331e+01    0.1488372    0.1400729  21.39 3.104434e-05    1.051    0.049
        24  -8.8944    141.9936    176.4819   1.1328682327e+02   1.7660062025e+01     0.225252    0.1221849  61.44  0.000810271    2.646    0.622
        25  -8.1472    149.4638    172.4953   1.1075584746e+02   1.7029583889e+01    0.1498083    0.1446866  50.71 0.0002585894    1.003    0.003
        26  -9.2158    221.4365    170.0784   9.4941972032e+01   2.9219243956e+00    0.4002833     0.277366 -80.76  0.001641882    2.997    0.666
        27  -9.1430    209.1595    168.1680   9.6921319129e+01   5.6737528054e+00    0.1950316    0.1789227  89.20  0.001074252    1.334    0.250
        28 -10.3523    135.1293    166.8656   1.1299813877e+02   2.1141515568e+01    0.3704036    0.2308921  54.86  0.001600782    1.727    0.421
        29  -8.2801    198.4694    164.4954   9.8290066149e+01   8.5390986082e+00    0.1458112    0.1421092  -0.00 8.615837e-05    1.029    0.028
        30  -8.5592     43.5021    163.0177   1.3487900259e+02   3.6615807542e+01    0.1882744    0.0990535  86.99 0.0008102157    2.537    0.606
        31  -8.6740    202.6022    162.1974   9.6951310975e+01   8.1341952196e+00    0.2116269     0.136321 -28.84 0.0005419619    1.701    0.412
        32 -12.3318    173.4153    153.3741   1.0119595622e+02   1.6078425399e+01    0.8735597    0.5739623  25.03  0.003675971    1.938    0.484
        33  -8.7206    230.9902    158.1537   9.0641143475e+01   3.2319503886e+00    0.2745352    0.1723808  44.21  0.001329448    1.674    0.403
        34  -9.7520    215.9398    157.2173   9.3242198890e+01   6.3637487104e+00    0.3632993    0.2112374 -41.80  0.001524047    1.674    0.403
        35  -8.9648    220.7662    156.7740   9.2229836569e+01   5.4797748658e+00    0.2370361    0.1075952 -48.95 0.0008931463    2.479    0.597
        36  -9.5800    200.9592    156.5999   9.6060358395e+01   9.5569649587e+00    0.2720822    0.1973546 -14.21   0.00125482    1.713    0.416
        37 -11.2496    185.1974    154.3220   9.8837811879e+01   1.3348247923e+01    0.4376985    0.3311762 -45.89  0.002122421    1.342    0.255
        38  -9.3374    126.8033    156.1825   1.1283023834e+02   2.5193656464e+01    0.2120049    0.1873107  -5.69   0.00108329    1.349    0.259
        39  -8.9380    141.3360    152.0884   1.0838153301e+02   2.3181710455e+01    0.3941321    0.2362924 -25.23  0.001455215    2.627    0.619
        40 -10.3712    212.6558    147.4814   9.1730055347e+01   8.8668426445e+00    0.3450404    0.2251884 -55.62  0.001554892    1.790    0.441
        41  -9.1057    114.6053    149.3764   1.1447365367e+02   2.9100274918e+01    0.3028343    0.1390704 -65.11 0.0009621583    3.369    0.703
        42  -9.6403    186.3882    147.9825   9.7155556522e+01   1.4375193856e+01    0.3359282     0.236741 -62.96  0.001490067    1.770    0.435
        43 -11.0139    197.3062    146.3755   9.4517579125e+01   1.2333322584e+01    0.4789321    0.3201485 -56.33  0.002138101    1.731    0.422
        44  -9.5896    158.0331    146.4750   1.0313990361e+02   2.0870710626e+01    0.2762488    0.2100414 -68.12  0.001261223    1.580    0.367
        45 -10.7736    205.8643    144.1440   9.2299907308e+01   1.0934781355e+01    0.4284479    0.2942322 -70.41  0.001834616    2.164    0.538
        46  -9.7304    153.7502    144.4367   1.0367976054e+02   2.2237199027e+01    0.3957561    0.2017813 -44.81  0.001529282    1.988    0.497
        47 -11.4263    179.5289    136.4746   9.5962628953e+01   1.8230309001e+01    0.7275785    0.3580257  58.61  0.002567426    2.617    0.618
        48  -9.9454    208.8452    141.1213   9.1035365845e+01   1.0879938821e+01    0.3177737    0.2000291 -52.10  0.001408077    1.726    0.421
        49 -11.2527    169.9863    142.8820   9.9570342283e+01   1.9022000880e+01    0.5967855     0.305247 -41.61  0.002292217    1.991    0.498
        50  -9.0637     89.2368    150.2486   1.2122471806e+02   3.3346899349e+01    0.2337044    0.1047846  48.40 0.0008921022    2.465    0.594
        51  -9.0387    246.5087    147.0341   8.5584625120e+01   2.2546527769e+00    0.3150314    0.2275033 -80.49  0.001506936    2.295    0.564
        52  -9.0316    223.4911    138.5005   8.7711473129e+01   8.2984883558e+00    0.2256731    0.1352934 -28.68 7.527115e-05    1.829    0.453
        53  -9.4952    225.1680    136.1801   8.6894268900e+01   8.3790388456e+00    0.2948689    0.1878483  75.60  0.001204519    2.634    0.620
        54  -9.3181    217.9601    133.7228   8.7644125335e+01   1.0339911566e+01    0.3807215     0.170795 -49.74  0.001415446    2.469    0.595
        55  -9.5309    238.3509    140.1719   8.5482189016e+01   5.0117907100e+00    0.3772822    0.2503402 -42.93  0.001900952    1.407    0.289
        56 -11.5018    182.6489    142.8038   9.6767378819e+01   1.6245430085e+01    0.8352354    0.2918654  50.66  0.002644527    3.085    0.676
        57 -10.7492    198.4290    127.8381   9.0002379679e+01   1.5718234336e+01     0.439777    0.3699419 -14.97  0.002230914    1.346    0.257
        58 -11.0479    200.0094    119.8100   8.7790009693e+01   1.6908238153e+01    0.5363588    0.4580515  -5.40  0.002712972    1.384    0.278
        59  -9.1974    177.0106    130.0193   9.4972115885e+01   2.0115049978e+01    0.2420479    0.2362151 -16.68  0.001278947    1.047    0.045
        60  -8.6014    204.7386    129.0146   8.9046279766e+01   1.4090158584e+01    0.2974134    0.1491131 -38.27  0.001062132    1.979    0.495
        61  -9.8197    208.5326    126.5190   8.7742790100e+01   1.3729753040e+01    0.4685542    0.1505941  52.23  0.001487468    3.349    0.701
        62 -10.6473    221.7831    123.3767   8.4609898511e+01   1.1437752238e+01     0.468215    0.3328776 -35.20  0.002323392    1.377    0.274
        63  -9.0734    226.7346    124.4371   8.3990432619e+01   1.0193998687e+01      0.28499    0.2475345  76.75  0.001221969    1.294    0.227
        64  -9.9010    215.7207    120.7579   8.5085173610e+01   1.3230951819e+01     0.497011    0.1998317  50.08   0.00183901    2.568    0.611
        65 -10.4320    189.1138    122.2410   9.0540043091e+01   1.8916503439e+01    0.3375199    0.3336064   3.36  0.001854657    1.041    0.039
        66 -10.5409    243.3121    117.7638   7.9806811953e+01   7.9626756359e+00    0.6471305    0.3626923 -54.54   0.00291316    1.971    0.493
        67 -10.6551    149.0110    118.4998   9.8550448852e+01   2.8836170809e+01    0.4740257     0.358103  50.80  0.002231157    1.326    0.246
        68 -10.4796    188.8257    113.9099   8.8569902196e+01   2.0602657198e+01    0.4739191    0.2518264  62.86  0.001446873    2.359    0.576
        69  -8.7912    231.2360    117.5330   8.1683382831e+01   1.0486819483e+01    0.2636614    0.1427259  59.15  0.001138653    2.121    0.529
        70 -10.7861    184.2020    115.3916   8.9877758211e+01   2.1387097567e+01    0.5511361     0.373513 -10.62  0.002222551    2.310    0.567
        71  -8.9736    218.5514    113.7652   8.2969165246e+01   1.3891491563e+01    0.2082971    0.1297743 -50.35  0.000572552    1.615    0.381
        72  -9.2542    207.5667    111.2223   8.4326545437e+01   1.6808751153e+01    0.3224156    0.2553981   2.31  0.001137824    1.695    0.410
        73 -10.7978    209.9725    106.7544   8.2833567165e+01   1.7081382363e+01    0.6767351    0.3471666  43.84  0.002751363    2.165    0.538
        74 -10.9490    213.3488     99.7786   8.0594805634e+01   1.7565389761e+01    0.7194812    0.4877169 -45.63  0.003492272    1.420    0.296
        75  -9.7793    218.2675     96.2516   7.8944982523e+01   1.7069531862e+01    0.3998676     0.330345 -88.11  0.001561351    1.304    0.233
        76  -8.7504    100.6273    110.8310   1.0933555866e+02   4.0417365405e+01    0.2121174     0.136313 -58.15 0.0006316904    1.708    0.415
        77 -11.4899    171.8397    108.0966   9.0661061015e+01   2.5695525918e+01    0.7434803    0.4909115  73.19   0.00306367    2.046    0.511
        78  -9.4870    242.7016    108.0743   7.7787434867e+01   9.7545079527e+00    0.2035736    0.1701447 -42.39 0.0009297302    1.104    0.094
        79  -8.9062    195.2451    108.3877   8.5951870635e+01   2.0163041004e+01    0.2095461    0.1437669  64.35 0.0008932398    1.602    0.376
        80 -11.8297    184.4637    105.8835   8.7459736658e+01   2.3155012688e+01    0.6555832    0.5537516  71.38  0.003334627    1.250    0.200
        81  -9.3984    186.4572     98.6786   8.5250528682e+01   2.4030431324e+01    0.4104857     0.291963   7.62  0.001725891    2.255    0.557
        82 -11.4944    188.5285     91.0700   8.2928233532e+01   2.4914726549e+01    0.9655337      0.49966 -59.86  0.003453355    2.836    0.647
        83 -11.2580    163.1082     98.6315   9.0118182342e+01   2.9574870764e+01    0.7182009    0.4226949  23.95  0.002535162    2.951    0.661
        84  -9.8782    148.1546     99.5070   9.3796970766e+01   3.2884263434e+01    0.3142205    0.2125839 -21.06  0.001334327    1.911    0.477
        85  -9.0424    206.7384     98.6741   8.1476150098e+01   1.9276364305e+01    0.2553239    0.2280247  30.68 0.0008450293    1.274    0.215
        86 -10.6132    177.5941     94.3583   8.5919666904e+01   2.6933201932e+01    0.3061645    0.2454518  70.18  0.001511798    1.318    0.241
        87  -8.7907     81.6444     95.7051   1.1100297357e+02   4.6886543089e+01    0.1451251    0.1055511 -10.33 0.0007032427    1.692    0.409
        88 -10.0052    199.9834     93.4678   8.1412076031e+01   2.1774906486e+01    0.4061511    0.2514535  68.05  0.001775036    1.840    0.457
        89 -10.0192    202.7019     91.6671   8.0489228102e+01   2.1453394314e+01    0.3827056    0.2540489 -53.43  0.001786967    1.559    0.358
        90  -9.4901    232.1213     91.6849   7.5737096572e+01   1.4773804125e+01    0.3770273    0.1774257 -44.94  0.001607367    1.973    0.493
        91  -9.1681    242.7837    102.1442   7.6480487805e+01   1.0745529383e+01    0.3719144    0.1545022 -47.14  0.001493777    2.288    0.563
        92 -10.6697    164.6523     91.8110   8.7970112358e+01   3.0487569276e+01    0.4592339    0.2172553 -51.49  0.001654031    2.543    0.607
        93  -8.3830    243.3289     89.3130   7.3608260073e+01   1.2765925357e+01    0.2118988    0.1513821  13.66 0.0009859828    2.481    0.597
        94  -8.9408    246.1700     85.9942   7.2505611848e+01   1.2709218530e+01    0.2012682    0.1703166   8.15 0.0009574198    1.655    0.396
        95 -10.8013    204.5655     85.1511   7.8581096780e+01   2.2138868737e+01    0.5804244    0.4135342 -73.07  0.002770978    1.666    0.400
        96  -9.1260    211.4979     86.4931   7.7750606575e+01   2.0292815933e+01    0.3583286    0.2354312  43.50  0.001593593    1.723    0.420
        97  -9.0896    208.9933     83.7661   7.7508544076e+01   2.1335185665e+01     0.269743    0.2179437  82.53 0.0006537638    1.287    0.223
        98 -10.6828    188.3249     83.2669   8.0985815782e+01   2.6326591574e+01    0.5045135    0.3002054  79.37  0.001980142    2.437    0.590
        99  -9.3020    143.1214     84.1408   9.0771750073e+01   3.6939548511e+01    0.2411238     0.205221  19.52  0.001225249    1.293    0.227
       100  -8.8812    232.1578     81.9470   7.3548039861e+01   1.6371412687e+01     0.227503     0.170876 -67.26   0.00121887    1.350    0.259
       101 -10.0916    167.9315     80.0609   8.4126177669e+01   3.1796608559e+01    0.4974594    0.2149135 -37.84  0.001861081    2.389    0.581
       102  -9.0903    239.3600     80.5075   7.2231480331e+01   1.5034961377e+01    0.3250694    0.2245656  72.17  0.001723924    1.538    0.350
       103  -9.8631    196.3351     79.5899   7.8623635104e+01   2.5027924417e+01    0.3050694    0.2179451  73.88  0.001273638    1.497    0.332
       104 -11.5481    182.2444     74.8656   7.9950061102e+01   2.9208001214e+01    0.7482039    0.3724785 -34.25  0.003041544    2.160    0.537
       105 -10.4116    239.2783     75.3499   7.1116484222e+01   1.5869631847e+01    0.6071978    0.2852701  50.76  0.002670854    2.377    0.579
       106  -8.5769    189.0431     73.9740   7.8487549422e+01   2.7708216156e+01     0.225204    0.1797589  16.48  0.001087026    1.677    0.404
       107  -9.5154    135.2236     73.6006   8.9655206079e+01   4.0599324806e+01    0.2230666    0.1296754  40.99 0.0009600572    1.718    0.418
       108 -11.1145    209.6738     70.2863   7.4170359191e+01   2.3370128320e+01    0.5176008     0.384345  81.15  0.002694514    1.398    0.285
       109  -8.5926    154.5026     71.5058   8.4609710888e+01   3.6460541725e+01    0.1474988    0.1401697  57.61 0.0008106477    1.009    0.009
       110  -9.0692    119.0000     69.9725   9.2706483465e+01   4.4783813950e+01    0.2345719   0.08189706 -37.94 0.0008051647    2.961    0.662
       111  -9.3208    238.4894     66.7943   6.9358773689e+01   1.7361841002e+01     0.246657    0.1810369  68.63 0.0008832184    1.370    0.270
       112  -8.7524    221.0229     65.8256   7.1462923326e+01   2.1423178289e+01    0.2316561    0.1537597  36.53  0.001098667    2.098    0.523
       113 -10.8350    212.9579     61.3162   7.1556950789e+01   2.3977587466e+01     0.585025     0.307968  44.92  0.002529825    2.313    0.568
       114  -9.3085    201.4919     61.5187   7.3311093681e+01   2.6663650366e+01    0.2953224    0.1364308 -36.45  0.001226004    2.219    0.549
       115  -8.7240     64.3165     79.3396   1.1202263556e+02   5.2776531377e+01    0.1405821   0.09412392 -17.77 3.117989e-05    1.705    0.414
       116  -9.8443    121.3414     58.7618   8.8648142381e+01   4.6095458161e+01    0.2613849    0.1968643  41.33  0.001323175    1.240    0.194
       117 -10.3108    226.4891     55.7979   6.8463456657e+01   2.1667843101e+01    0.5989928     0.289428  48.79  0.002619786    2.437    0.590
       118 -10.3408    206.6884     57.0865   7.1459873280e+01   2.6083369044e+01    0.2718976    0.2359103  54.51  0.001459072    1.228    0.185
       119 -10.2093    203.0320     54.4753   7.1366646247e+01   2.7333474936e+01    0.2886285    0.2375014 -51.69  0.001638441    1.212    0.175
       120  -8.5199    159.3264     57.6700   7.9711696787e+01   3.7469840364e+01    0.1486986    0.1101668 -76.79 0.0003304482    1.706    0.414
       121  -9.2641    155.3824     56.8076   8.0263336984e+01   3.8546846415e+01     0.195666    0.1406268 -18.07 0.0009521356    1.692    0.409
       122  -8.3103    190.5121     56.4560   7.3784555220e+01   3.0061628458e+01    0.1409581    0.1297107  73.92 8.493324e-05    1.044    0.042
       123  -9.5914    213.6644     52.1107   6.9307240692e+01   2.5156154879e+01     0.415418    0.1538687  69.71  0.001496287    3.098    0.677
       124  -9.4379    167.4789     48.4899   7.5618230532e+01   3.6802720773e+01    0.2668931    0.2296981  -2.35  0.001352015    1.411    0.291
       125  -9.2666    197.5010     48.0002   7.0601851488e+01   2.9573130075e+01    0.2025992    0.1329783 -39.44 0.0005665087    1.581    0.368
       126 -10.0917    224.4006     45.0546   6.6334611489e+01   2.3655500425e+01    0.4206115    0.2760177  26.13  0.001921799    2.883    0.653
       127  -9.7249    212.5860     45.4293   6.7901549148e+01   2.6339102006e+01    0.3464803    0.2349154 -66.92  0.001826153    1.517    0.341
       128  -8.7120    124.4824     48.9980   8.4809736583e+01   4.6842048459e+01    0.2027999    0.1382017 -29.41  0.001028351    1.579    0.367
       129  -9.3709    169.0000     42.0292   7.3591071955e+01   3.7295819479e+01    0.2132936    0.0804728 -31.49  0.000800715    2.931    0.659
       130  -9.8548    243.3948     35.8005   6.2279383883e+01   2.0670239886e+01    0.3562026    0.2130454 -26.79  0.001855186    2.194    0.544
       131  -9.2604    165.0149     36.0000   7.2631095052e+01   3.9024875844e+01     0.234069   0.07101278  61.53 0.0008016665    2.937    0.660
       132  -9.3965    108.9965     34.0094   8.3800199545e+01   5.2144047639e+01    0.1672075    0.1454166  31.82  0.001022729    1.002    0.002
       133  -8.7899    176.2727     33.7745   7.0201136002e+01   3.6564299628e+01    0.2279487   0.08314256  54.37 0.0006619589    2.390    0.582
       134  -8.1483    229.3038     38.3024   6.4291834187e+01   2.3448588706e+01    0.1190358   0.09863577  40.71 0.0004639312    1.593    0.372
       135  -8.6450    183.2757     26.0218   6.7177314668e+01   3.5782102344e+01    0.1835982    0.1692464 -78.65  0.001161949    1.113    0.101
       136  -8.6432     82.3291     24.3249   8.7772341145e+01   5.8514426527e+01    0.1339053   0.08294673  18.63 0.0006670283    1.700    0.412
       137  -8.7849    226.9766     22.4784   6.1169072147e+01   2.5950403486e+01     0.192707    0.1087374  71.71  0.001029932    1.588    0.370
       138  -8.7915    209.9020     21.5934   6.2787755945e+01   2.9962271760e+01    0.2601834    0.1347394 -67.21  0.001198131    2.268    0.559
       139  -8.4306    142.3027     22.3601   7.2784019886e+01   4.5994987247e+01    0.1397148   0.09010821  32.68 0.0007037822    1.722    0.419
       140  -8.6170    110.3290     21.6600   7.9303975919e+01   5.3247866935e+01    0.1234259    0.1006182 -75.98 0.0004050657    1.738    0.425
       141  -8.7679    192.5216     14.5303   6.3167708801e+01   3.4827064875e+01    0.1302932     0.108148  85.60 8.395944e-05    1.030    0.029
       142  -9.4919    202.9875    218.0043   1.0798329107e+02  -2.0277987754e+00    0.2763185    0.1958775 -68.91  0.001326678    2.511    0.602
       143  -8.7948    182.9021    217.8334   1.1200619262e+02   1.6013176614e+00    0.2180491    0.1745091  14.74 0.0008823205    1.296    0.228
