#   1 NUMBER                 Running object number                                     
#   2 MAG_AUTO               Kron-like elliptical aperture magnitude                    [mag]
#   3 X_IMAGE                Object position along x                                    [pixel]
#   4 Y_IMAGE                Object position along y                                    [pixel]
#   5 X_WORLD                Barycenter position along world x axis                     [deg]
#   6 Y_WORLD                Barycenter position along world y axis                     [deg]
#   7 A_WORLD                Profile RMS along major axis (world units)                 [deg]
#   8 B_WORLD                Profile RMS along minor axis (world units)                 [deg]
#   9 THETA_WORLD            Position angle (CCW/world-x)                               [deg]
#  10 FWHM_WORLD             FWHM assuming a gaussian core                              [deg]
#  11 ELONGATION             A_IMAGE/B_IMAGE                                           
#  12 ELLIPTICITY            1 - B_IMAGE/A_IMAGE                                       
         1 -11.5178     80.3652     23.4308   7.6157309092e+01   6.2443741657e+01    0.6339183    0.3188625  36.05 0.0006476872    2.322    0.569
         2  -9.3792     27.0623     21.1016   1.0189666572e+02   7.1383937292e+01    0.6304153    0.3527134 -50.49  0.003322131    1.498    0.333
         3  -8.9147     45.8949     20.8404   9.0691722792e+01   6.9135660087e+01    0.4187896    0.2132094 -49.23   0.00149295    1.852    0.460
         4  -9.6163     78.9378     12.7515   7.1119432254e+01   6.4414882147e+01    0.5921766     0.313187  43.60  0.002608074    1.887    0.470
         5  -8.9634     74.4873     13.4943   7.3230580956e+01   6.5265521435e+01    0.3571687    0.2584852   1.17  0.001415956    1.595    0.373
         6  -9.3970     64.1851     13.6150   7.7639745896e+01   6.7331693332e+01     0.455831    0.2692914 -22.65  0.002096056    1.847    0.458
         7  -9.6050    133.8452     13.6024   5.6800397319e+01   5.0459887872e+01    0.3187227    0.2462312  53.02 0.0002506952    1.242    0.195
         8  -9.2660    107.4584     12.3916   6.2093906952e+01   5.7628992597e+01    0.5617821     0.241693  30.95  0.001708808    3.883    0.742
         9  -8.5828     96.6489     12.2125   6.4975469013e+01   6.0363256737e+01    0.3204635    0.2073431  21.42  0.001088945    1.865    0.464
        10  -9.7208     31.2900     10.6218   9.4034427699e+01   7.3079101964e+01    0.6123336    0.4259252  23.76  0.002189473    1.576    0.366
        11  -8.8770     32.0640      6.0454   9.0846480836e+01   7.3851797220e+01    0.2154845     0.180847  14.14 0.0003456821    1.247    0.198
        12  -8.8737    125.3916     10.1819   5.6979857000e+01   5.3142938428e+01    0.2763116    0.2035227  39.40 0.0003221672    1.370    0.270
        13  -8.4478     87.9507     13.1398   6.8170128369e+01   6.2319267217e+01    0.2758604    0.1791102  12.84  0.000973305    1.984    0.496
        14  -9.7033     20.2162      8.8421   1.0077295246e+02   7.4616537329e+01    0.3188272    0.2105309 -22.96 0.0008252629    1.577    0.366
        15  -8.0883    142.4256      9.8084   5.3709552313e+01   4.8502639440e+01    0.2056577    0.1444287   2.07 0.0004606579    1.653    0.395
        16  -8.1857    155.8419      7.6427   5.0827240679e+01   4.4985111161e+01    0.3137903    0.1745011 -19.39  0.001326519    1.878    0.467
        17  -9.5055     46.6305      6.2717   8.2035996075e+01   7.1670934597e+01    0.2926247    0.2323419  14.58 0.0003664942    1.288    0.223
        18  -9.0047     41.1046      6.0346   8.5092330781e+01   7.2584949265e+01    0.3678636    0.2547653 -10.45  0.000984317    1.624    0.384
        19  -8.5306     77.4797      6.5496   6.8158138239e+01   6.5591115835e+01    0.3164003    0.1848635  38.12  0.001458725    1.748    0.428
        20  -7.9748     76.4386      3.4973   6.6740649818e+01   6.6212414796e+01    0.2257328     0.159925  21.78 0.0007053215    1.498    0.333
        21  -9.9574      7.8494      5.4779   1.0870390724e+02   7.6265485358e+01    0.4803628    0.2343074  -9.48  0.002358427    2.695    0.629
        22  -8.4192     71.8430      9.0772   7.1776996930e+01   6.6471883714e+01    0.2008737    0.1880291 -53.24 0.0004571719    1.251    0.200
        23  -8.4793     99.9598      5.7108   6.0707538061e+01   6.0320665440e+01       0.3197    0.1694954 -41.96  0.001338624    2.071    0.517
        24  -9.0546     92.6963      5.3402   6.2524686073e+01   6.2170997520e+01    0.3923166    0.2075393  45.15  0.001700257    1.819    0.450
        25  -9.7966     84.9229      5.4493   6.4971858795e+01   6.4023978375e+01    0.2887192    0.2657539 -12.68  0.001672544    1.080    0.074
        26  -8.1790    131.4227      5.2074   5.3658536674e+01   5.2009523036e+01    0.2268533    0.1501735 -18.91 0.0006004697    1.576    0.365
        27  -7.6388    134.0187      3.0141   5.2269221106e+01   5.1502594112e+01    0.2142827    0.1613689  40.66 0.0003450768    1.336    0.251
        28  -8.0636    125.7624      3.8657   5.4089872923e+01   5.3693208942e+01    0.2312384    0.1888417  32.42  0.000584761    1.246    0.197
        29  -8.5784    110.1827      1.6230   5.6172377253e+01   5.8102496174e+01    0.2251446    0.2085726 -55.08 0.0008899928    1.173    0.147
        30  -8.5835     57.2375      3.4365   7.4703076869e+01   7.0221556101e+01    0.2830124    0.2203972  46.31 0.0008543485    1.374    0.272
        31  -7.9716    172.1104      2.3652   4.6905538748e+01   4.0961234312e+01    0.2360439    0.1941696  -1.17  0.000489359    1.344    0.256
        32  -9.9384    119.2431      6.9315   5.6770918474e+01   5.5150430548e+01    0.2755721    0.2495396  15.97 0.0002228489    1.121    0.108
        33  -7.5969    180.7772      2.4009   4.6017976247e+01   3.8585932533e+01    0.2067494    0.1223801  60.62 0.0009356464    1.641    0.390
        34  -8.2481    143.0632      2.0891   5.0469874825e+01   4.9072986018e+01    0.2200453    0.2075855  62.89 0.0003940552    1.019    0.019
        35  -8.1666    105.0270      1.9704   5.7519085948e+01   5.9418587861e+01    0.2500215    0.1558782  32.88  0.001126909    1.698    0.411
        36  -7.7708      2.8785      1.3670   1.1106151113e+02   7.7411114897e+01    0.1575147   0.09651253 -16.37 0.0004081572    1.756    0.431
        37  -7.9302    109.2818    106.8173   9.4957012996e+01   3.9411291616e+01    0.2705207    0.1966212  10.77  0.001216981    2.035    0.509
        38  -9.1208    239.9382    249.9580   9.3086268241e+01  -2.8186868462e+00    0.1712565    0.1089974  26.48 0.0004412114    1.150    0.130
        39  -9.2010    218.1859    249.0589   9.6254879214e+01  -9.4072344345e-02     0.219115    0.1278939 -28.39   0.00164385    2.153    0.536
        40 -11.0130    188.8541    248.9937   1.0089799766e+02   3.6703949367e+00    0.5389614    0.1783874  38.05  0.002954935    2.124    0.529
        41  -8.5369     13.8004    105.7980   1.2471346395e+02   5.2216282212e+01    0.2215524    0.1639785 -49.07     0.001216    1.558    0.358
        42  -8.1454     67.4564    104.5048   1.0711529105e+02   4.6941376775e+01    0.2334431     0.139639  18.92  0.001031354    2.336    0.572
        43  -7.8734     94.7303    103.2174   9.8360273426e+01   4.2893907774e+01    0.2246007    0.1179481  29.55  0.000879121    2.386    0.581
        44  -9.0355    248.4996    102.0091   6.5501948683e+01   1.0924280179e+01    0.2088552    0.1119936 -25.16  0.001049682    1.640    0.390
        45  -8.1871    217.9263    100.4086   6.9580042240e+01   1.7158959167e+01    0.2247327    0.1788747 -34.26 0.0005278445    1.264    0.209
        46  -7.3287    140.3163     99.3326   8.4861227934e+01   3.4543121239e+01    0.1546844    0.1195887   7.04 0.0003171507    1.688    0.407
        47  -7.7524    130.0322     97.0194   8.6868331574e+01   3.7246882027e+01     0.243787    0.1886697   6.23  0.001127226    1.737    0.424
        48  -9.9538     12.3236     93.8783   1.2418241922e+02   5.5151151009e+01     0.364486    0.2524094 -40.33   0.00170744    1.741    0.426
        49  -7.4326     83.1885     93.6278   9.9744354741e+01   4.7084769313e+01     0.197562    0.1380228  25.40  0.000565812    1.718    0.418
        50  -8.5315     43.6649     92.1433   1.1293810093e+02   5.2894602351e+01    0.3006592    0.1922305 -38.61  0.001494362    1.936    0.483
        51  -8.1984     96.4163     90.6651   9.4812564266e+01   4.5425171110e+01    0.3760113     0.247354 -16.33   0.00146779    2.789    0.641
        52  -8.1857    110.1406     90.6428   9.0667385251e+01   4.2757861824e+01    0.3590797    0.2290543  15.34  0.001353181    2.791    0.642
        53 -10.2972     37.0531     81.1936   1.1348592006e+02   5.6254730508e+01    0.6802447    0.3941176 -13.98   0.00296916    3.020    0.669
        54  -8.0768     66.0135     84.3132   1.0339372244e+02   5.1968860225e+01    0.2403059    0.1840665 -37.77 0.0007241373    1.479    0.324
        55  -7.8687    127.0228     83.5013   8.3916300140e+01   4.0645295606e+01    0.2191893    0.1308075  26.10 0.0008093631    2.478    0.597
        56  -9.5026      6.9549     78.3346   1.2467050731e+02   5.9204628895e+01     0.554095    0.2362834 -37.20  0.002466606    3.147    0.682
        57  -8.6066     88.2406     78.8138   9.4260672152e+01   4.9611822170e+01    0.4347669    0.2683879  18.13  0.001417717    2.625    0.619
        58  -7.6307    184.4443     78.0372   6.9414311660e+01   2.7979940089e+01    0.2223285    0.1435062 -30.77 0.0004756894    1.521    0.342
        59  -8.9491     49.9587     76.8653   1.0765833675e+02   5.5900552237e+01       0.4055    0.2323398   7.20  0.001701981    2.918    0.657
        60  -7.9212    119.9114     76.2348   8.3700801677e+01   4.3705234743e+01    0.2898737    0.2064063 -10.65  0.001221652    2.053    0.513
        61  -7.9507    105.1215     76.8922   8.8266124882e+01   4.6749548911e+01    0.2431221    0.1903447  -2.77  0.001127502    1.746    0.427
        62  -8.8130     28.9991     69.4692   1.1458276063e+02   5.9867738255e+01    0.2827429    0.1860397 -24.64  0.001326933    1.988    0.497
        63  -9.1510     23.8264     73.8629   1.1745683380e+02   5.9211073839e+01    0.4841876     0.185414 -54.16  0.002117856    2.329    0.571
        64  -7.8558     23.4588     69.4673   1.1689625603e+02   6.0315098363e+01    0.2318966    0.1773574 -86.72 0.0005390777    1.191    0.160
        65  -8.5510     74.8603     74.2720   9.7648357324e+01   5.2973290156e+01    0.2715019    0.2149196 -28.17 0.0003566809    1.490    0.329
        66  -8.0894     48.4925     71.3289   1.0697530494e+02   5.7418858234e+01    0.2259345    0.1286953  29.26  0.001076248    1.951    0.487
        67  -7.7437    129.4246     68.8457   7.8762983741e+01   4.2970893020e+01    0.2176486    0.1499152 -24.71 0.0009393995    1.680    0.405
        68  -7.6330    116.3648     68.7320   8.2340991504e+01   4.6015540784e+01    0.2177288    0.1443716 -31.76 0.0006401549    1.654    0.395
        69  -8.1691    106.5031     67.1225   8.4766598781e+01   4.8517472715e+01    0.2633356    0.2153063  21.40  0.001289841    1.422    0.297
        70  -8.8179     83.7313     64.0691   9.1369560414e+01   5.3742056762e+01    0.4455715    0.3020212 -16.52  0.001887604    2.283    0.562
        71  -8.4435    120.3316     63.3219   7.9409998107e+01   4.6170295715e+01    0.3314969    0.2664483   5.13  0.000590087    1.554    0.357
        72  -8.2898     11.7161     61.2768   1.2066583769e+02   6.3085523450e+01    0.4005244    0.1714753  69.11  0.001645854    3.137    0.681
        73  -7.7062     16.3413     64.3124   1.1909491183e+02   6.2071200091e+01     0.204762    0.1537258 -53.42 0.0006450439    1.269    0.212
        74  -9.0324     19.3239     61.1289   1.1725547256e+02   6.2649839674e+01    0.2717881    0.1894962 -42.68 0.0008899162    1.484    0.326
        75  -9.8028     62.4889     61.0970   9.8552979955e+01   5.7972037710e+01    0.8411196    0.4021427  21.53  0.002865858    3.398    0.706
        76  -9.5666     37.5562     58.7832   1.0857892374e+02   6.1664526787e+01    0.4461676    0.2615539 -25.31  0.001587957    2.420    0.587
        77  -8.6671     31.8335     59.2842   1.1126664046e+02   6.2098930621e+01    0.2867893    0.2223036 -84.68  0.001602522    1.268    0.212
        78  -8.8228     27.5175     60.0262   1.1337016431e+02   6.2296363899e+01    0.2422801    0.1609003  45.50 0.0008541285    1.668    0.401
        79  -7.9261    111.5227     58.3144   8.0228662063e+01   4.9174123007e+01    0.2647952      0.18177  28.32 0.0008750794    1.785    0.440
        80  -7.9612     99.3980     55.8508   8.3144208672e+01   5.2347525362e+01    0.2137735    0.1415814 -31.35 0.0006465329    1.645    0.392
        81 -10.0624     74.8598     49.8690   8.9784005039e+01   5.8444637460e+01    0.3785949    0.3342547 -82.18  0.000388149    1.298    0.229
        82  -7.7757    216.0661     51.4602   5.6982935226e+01   2.4085247266e+01    0.2042975    0.1393608  60.95 0.0008884197    1.555    0.357
        83  -8.4594    118.4630     51.0984   7.5596332675e+01   4.8902410925e+01    0.2755162    0.2153343  59.68 0.0005300893    1.331    0.249
        84  -9.2096     45.4764     48.7486   1.0211733939e+02   6.3150409328e+01    0.3641242    0.2319736 -30.96  0.001330555    1.852    0.460
        85  -8.0420    106.7548     48.5729   7.8084992492e+01   5.2125133738e+01    0.2946934    0.2214168   9.90 0.0009654217    1.749    0.428
        86  -9.1278     56.0145     43.7527   9.5513079095e+01   6.2859942695e+01    0.8073549    0.3473445 -32.17  0.002506408    4.372    0.771
        87  -9.0520     10.6087     47.2027   1.1889201587e+02   6.6546788650e+01    0.3738197    0.1735521 -64.69 0.0009272213    1.690    0.408
        88  -9.2837     13.6931     45.6898   1.1703396130e+02   6.6739245441e+01    0.2624057    0.1813343 -58.02 0.0002779785    1.219    0.180
        89 -10.9731     83.0800     40.1861   8.2777280081e+01   5.8851567614e+01    0.4104024    0.2914196 -21.43            0    1.636    0.389
        90  -8.8707     87.5082     38.0045   8.0220981669e+01   5.8352368266e+01    0.2905949    0.2560114 -46.32 0.0005967146    1.148    0.129
        91  -9.2845      3.1350     42.3178   1.2189218900e+02   6.8053118118e+01     0.703075    0.1399224 -60.64   0.00272802    3.055    0.673
        92  -9.1144      6.0255     34.0597   1.1878895319e+02   6.9892964768e+01    0.4355383    0.2153485 -11.52   0.00217614    2.641    0.621
        93  -9.3643      1.9504     30.3874   1.2042277024e+02   7.0915474591e+01    0.4226133    0.1927334 -87.57  0.002019142    2.272    0.560
        94  -7.1174    142.9621     44.0000   6.6851868813e+01   4.3895957505e+01    0.2530991   0.08787172  58.90 0.0007904091    2.860    0.650
        95  -7.9160    113.7749     42.0874   7.3459726298e+01   5.1629323918e+01     0.308767     0.189686  28.92  0.001098059    2.139    0.532
        96  -8.7993     35.6981     37.6501   1.0329354792e+02   6.6824127339e+01    0.3663532    0.1636436 -60.53  0.001337392    2.041    0.510
        97  -9.2808     38.9211     35.3362   1.0076481257e+02   6.6985143670e+01    0.2963991    0.2316141  12.26  0.001718025    1.466    0.318
        98  -8.4126     92.0486     37.5375   7.8414936509e+01   5.7463326250e+01    0.3260291    0.2020749 -50.82  0.001284783    1.791    0.442
        99  -9.2284     62.9488     37.5638   8.9937070845e+01   6.3096090515e+01    0.3216397    0.2429036  62.21  0.001645852    1.712    0.416
       100  -9.3937     68.8320     36.9394   8.7107885304e+01   6.2207849397e+01    0.4453158    0.2918167  14.15  0.001968703    2.222    0.550
       101  -8.4903     74.1584     34.1721   8.3676652610e+01   6.1766527043e+01    0.2661443    0.2179842   4.10 0.0007464355    1.389    0.280
       102  -9.4595     19.4822     36.2143   1.1167142138e+02   6.8610978067e+01    0.3371331    0.2390126  21.23  0.001702285    1.637    0.389
       103  -9.4270     21.4003     32.0636   1.0935554439e+02   6.9430951609e+01    0.3777112    0.2281017  20.54 0.0007676804    1.913    0.477
       104  -7.8878    105.5336     36.4969   7.3595014309e+01   5.4565966668e+01    0.2744436    0.1313974  42.98  0.001030356    2.204    0.546
       105  -8.4699     55.5083     35.4267   9.2469139363e+01   6.4730722106e+01    0.2648344    0.2172319 -65.85 0.0008769472    1.359    0.264
       106  -7.5537    161.8115    106.2051   8.1611564380e+01   2.8498254463e+01    0.1977703    0.1645727  13.98  0.001009834    1.312    0.238
       107  -9.3615     64.7052     25.6288   8.3740944180e+01   6.5142453716e+01    0.9772373    0.4760707  38.05  0.002798346    2.220    0.550
       108  -8.5127     42.4050     27.9684   9.5928862241e+01   6.8159280552e+01     0.238367    0.1784888  -2.16 0.0006347795    1.587    0.370
       109  -9.4763    155.9893    249.4476   1.0640956302e+02   7.9630148885e+00    0.2245567   0.09582986  46.49  0.001298872    2.070    0.517
       110  -7.9867    101.8644     25.1794   6.9712455035e+01   5.7269186171e+01    0.2095595    0.1718142  19.11 0.0005631183    1.311    0.237
       111  -8.8554    144.7285     23.3267   5.8681316697e+01   4.6323073561e+01    0.2683954    0.2366981  34.99 0.0003447571    1.164    0.141
       112  -8.1214    129.0538     22.7678   6.1632833718e+01   5.0643097752e+01    0.2948663    0.1938402  43.05 0.0009715986    1.546    0.353
       113  -7.6249     76.3227    106.3677   1.0466892374e+02   4.5201920473e+01     0.143269     0.107601 -28.39 -9.490367e-06    1.797    0.444
       114  -8.3750    140.0174     20.3249   5.8384991001e+01   4.7982102486e+01    0.4098286    0.2148194  37.50  0.001560309    2.246    0.555
       115  -8.9413      8.7528     20.3540   1.1358870856e+02   7.2936591186e+01    0.4545509    0.1998326  31.28  0.002264852    2.622    0.619
       116  -9.1270     12.8290     18.4095   1.1017469119e+02   7.3135662529e+01    0.3671978    0.2099023 -10.30  0.001424767    2.169    0.539
       117  -8.6157     15.3141     15.3325   1.0727803564e+02   7.3644628314e+01    0.2223646    0.1694313 -18.26 0.0005223899    1.372    0.271
       118  -9.1001     92.4824     20.5514   7.0452261617e+01   6.0197260958e+01    0.2660147    0.2590243  12.18  0.001521987    1.043    0.041
       119  -7.1484    151.3683     18.2702   5.5558392012e+01   4.5100918626e+01    0.1629166    0.1062426  38.60 0.0003677829    1.666    0.400
       120  -8.6143    127.2837     16.9258   5.9535051636e+01   5.1854431578e+01    0.2573883    0.2069838  56.84  0.001288051    1.197    0.165
       121  -8.2620    166.6615    245.6926   1.0421125815e+02   6.9497591515e+00    0.1064947   0.06498364  19.09 0.0004703501    1.681    0.405
       122  -7.6580     97.5190    241.9948   1.1597473621e+02   1.6516521883e+01    0.1234961    0.1026877 -78.11  0.001026103    1.580    0.367
       123 -10.1405    133.1778    235.3504   1.0898701490e+02   1.2716152583e+01    0.1838187    0.1426678  39.19 0.0002312411    1.080    0.074
       124  -9.0275    188.2655    234.1028   9.9224867175e+01   5.2452237068e+00    0.1551761    0.1466708  45.55 0.0009257502    1.573    0.364
       125  -7.7500    135.0857    220.9767   1.0714774836e+02   1.4355487864e+01      0.17739    0.1068338  53.31 0.0006790343    1.657    0.397
       126  -7.6620    150.9851     12.9755   5.3585716207e+01   4.5792812206e+01     0.175749    0.1737576  83.95  0.000334408    1.020    0.019
       127  -8.0772      5.1709    221.5941   1.3167339366e+02   2.9580075598e+01    0.1157756   0.08022154  31.60 0.0003286126    1.567    0.362
       128  -8.1171    243.0519    207.8927   8.6697255687e+01   3.1046204008e-01    0.1630261    0.1152759  14.41  0.000521155    1.020    0.020
       129  -7.2825    177.5091    205.4565   9.7320721114e+01   1.0088587550e+01    0.1188371   0.09133084  30.89 3.132678e-05    1.031    0.030
       130  -9.0120    241.4041    189.8703   8.4051250536e+01   2.2572996257e+00    0.2071738    0.1921123   2.79   0.00107528    1.550    0.355
       131  -7.2560    154.2052    187.0508   9.9105805656e+01   1.6309188987e+01    0.1361218      0.10096 -41.18 0.0003731391    1.635    0.388
       132  -8.6335    229.0815    184.6526   8.5121161621e+01   4.6079516748e+00    0.1905925      0.14064  -0.69 0.0004478797    1.203    0.168
       133  -8.9751    230.0249    179.8797   8.4146349270e+01   4.9820013783e+00    0.1806698    0.1400692   3.39 0.0002673157    1.107    0.097
       134  -7.3385    240.6943    179.2940   8.2351855807e+01   3.4354430196e+00   0.09517345   0.09055144  17.68 0.0001990117    1.581    0.367
       135  -8.3511    230.2931    174.9684   8.3237965402e+01   5.4812827052e+00    0.1941654    0.1383147  27.33  0.000360038    1.178    0.151
       136  -7.4858    151.1332    173.9204   9.7718008224e+01   1.8856896849e+01    0.1710826    0.1329971  22.63            0    1.277    0.217
       137  -8.1150     84.4140    173.8449   1.1245068070e+02   2.9430260379e+01    0.2103976    0.1354968  48.36  0.000472272    1.291    0.225
       138  -9.7894    198.3046    172.0333   8.8200262581e+01   1.1040646654e+01    0.2291005    0.1943844  28.81 0.0003062334    1.135    0.119
       139  -8.6121     84.0603    158.3266   1.1069936414e+02   3.2557148721e+01     0.201567    0.1677947  85.09 0.0001932078    1.196    0.164
       140  -8.8631    204.0183    154.2294   8.3851612437e+01   1.2421193856e+01    0.3019752    0.1636472 -31.18  0.001531231    1.933    0.483
       141  -7.5824    133.2910    148.3258   9.7299798739e+01   2.6449183822e+01    0.1331143    0.1060051   2.61 0.0006341217    1.616    0.381
       142  -9.0507     67.3979    144.5760   1.1321692121e+02   3.7770801988e+01    0.4227911    0.2420792  64.89  0.002063904    1.847    0.458
       143  -8.1550    246.6619    142.6658   7.4533222361e+01   6.4903259745e+00    0.1324973   0.07956394  11.61 0.0007051776    1.747    0.428
       144  -7.7191    143.6999    126.6573   9.0565040130e+01   2.8548761469e+01    0.1452732    0.1123022   3.55 0.0007036834    1.674    0.403
       145  -8.0417    133.6226    124.6616   9.2555157418e+01   3.0944085562e+01    0.2262513    0.1761077   4.76 0.0008866853    1.700    0.412
       146  -7.8156    153.3293    124.3287   8.7826908647e+01   2.7024557045e+01    0.1492348    0.1112728   9.34 0.0005959843    1.710    0.415
       147  -7.6072     12.3241    121.3362   1.2628479580e+02   4.8707414685e+01    0.1173635   0.08049028 -51.86  0.000705109    1.716    0.417
       148  -7.9183     99.1306    119.6808   1.0057015647e+02   3.8438325777e+01    0.2909379    0.1869664   9.77  0.001151897    2.944    0.660
       149  -7.6090    119.6829    118.6826   9.4797165775e+01   3.4882627401e+01    0.1436055     0.115903  -0.83 0.0007039392    1.654    0.395
       150  -7.1526    159.4665    117.5076   8.4883849120e+01   2.6979645284e+01    0.1459072    0.1362676  26.38 0.0008096363    1.015    0.015
       151  -8.4803      1.7238    110.2728   1.2876572669e+02   5.1933070317e+01    0.2456287   0.09279445 -61.59  0.001169607    2.524    0.604
       152  -8.1970    133.8210    106.6037   8.8338864588e+01   3.4503711507e+01    0.3362521    0.2008773 -28.14  0.001043507    2.251    0.556
       153  -7.9819    124.0271    107.0188   9.0977704956e+01   3.6452107543e+01    0.2343979    0.1856302   3.23  0.001125958    1.689    0.408
