#   1 NUMBER                 Running object number                                     
#   2 MAG_AUTO               Kron-like elliptical aperture magnitude                    [mag]
#   3 X_IMAGE                Object position along x                                    [pixel]
#   4 Y_IMAGE                Object position along y                                    [pixel]
#   5 X_WORLD                Barycenter position along world x axis                     [deg]
#   6 Y_WORLD                Barycenter position along world y axis                     [deg]
#   7 A_WORLD                Profile RMS along major axis (world units)                 [deg]
#   8 B_WORLD                Profile RMS along minor axis (world units)                 [deg]
#   9 THETA_WORLD            Position angle (CCW/world-x)                               [deg]
#  10 FWHM_WORLD             FWHM assuming a gaussian core                              [deg]
#  11 ELONGATION             A_IMAGE/B_IMAGE                                           
#  12 ELLIPTICITY            1 - B_IMAGE/A_IMAGE                                       
         1 -11.4940     59.7069      3.8749   6.3688950597e+01   6.6757570453e+01     1.028378    0.4064113  43.27  0.002106014    2.206    0.547
         2 -11.6433    128.9000     20.5268   5.1576730217e+01   5.0435432110e+01     1.234418    0.7580383  47.55  0.004229281    1.476    0.322
         3 -11.0962     99.0281      4.5668   5.2124228452e+01   5.8849766151e+01    0.5406495    0.4030106 -82.22  0.002651847    1.959    0.489
         4 -12.5347     91.4773     19.1254   6.0225666881e+01   5.9044056740e+01     2.574552    0.7423403 -19.65  0.007191546    6.144    0.837
         5 -11.0915     65.8199     20.1897   6.9208262692e+01   6.3838750776e+01    0.5662266    0.4312725 -61.63  0.002641185    2.381    0.580
         6 -12.0893    105.4008      8.5649   5.2229662485e+01   5.7082897041e+01     1.870961    0.5979656  53.28  0.007518164    2.476    0.596
         7 -12.7023     86.7173     54.2456   7.5672107345e+01   5.4899658876e+01     1.296912    0.5624909 -42.06  0.001663398    2.301    0.565
         8 -11.7957     54.6713     17.8352   7.2493642058e+01   6.5988688549e+01     1.042939    0.6195756 -49.25   0.00512663    2.749    0.636
         9 -11.7162     59.3063     28.0273   7.5250351245e+01   6.3844273252e+01     1.196216    0.4859848  23.44  0.003955945    4.640    0.784
        10 -11.5737    110.8675     15.5971   5.3710439297e+01   5.5173405495e+01    0.5710419     0.295029 -20.10  0.002416097    2.133    0.531
        11 -11.9902    116.3308     15.0162   5.2241648061e+01   5.3972840940e+01     1.031268      0.45124  36.91  0.004204204    2.528    0.604
        12 -13.1286     69.6089     30.9370   7.2530885224e+01   6.1716437866e+01     1.301686    0.6752134  38.89  0.005440438    1.871    0.466
        13 -11.7354     50.7505     25.0778   7.7484729961e+01   6.5575466743e+01    0.9690119    0.5529394  21.19  0.005101127    1.839    0.456
        14 -10.2682    163.7496      6.0036   4.1098771033e+01   4.3295766073e+01    0.6310942    0.5740407   9.46  0.003410299    1.294    0.227
        15 -10.6273    181.2903     32.0827   4.6248054742e+01   3.6151185180e+01     0.964772    0.4723617 -42.98  0.004244753    2.036    0.509
        16 -10.3820    157.5332      5.3691   4.1734135950e+01   4.4886202704e+01     1.109865    0.3648349 -15.67  0.003800644    4.509    0.778
        17 -11.8063    184.2639     54.9942   5.2260848977e+01   3.2287216210e+01     1.279634     0.543532 -44.21  0.004912317    2.356    0.576
        18 -10.3767    181.6565     15.0988   4.1444581959e+01   3.7993645447e+01     1.163269    0.1818252  61.38  0.003575125    4.199    0.762
        19 -10.2972    177.2205     21.2383   4.3737818174e+01   3.8429809634e+01     0.451524    0.3438046  -5.91  0.002175958    1.660    0.398
        20 -10.2789    161.8569     18.8385   4.5218450190e+01   4.2509438203e+01    0.4670326    0.3258607  63.08  0.001557112    1.294    0.227
        21 -11.1956    168.8325     14.2375   4.2849861774e+01   4.1250910774e+01    0.9774554    0.3802456  58.04   0.00384722    2.216    0.549
        22 -11.0606    154.1156     17.6706   4.6053600397e+01   4.4556504219e+01    0.4689977    0.3394063  41.88 0.0003394841    1.417    0.294
        23 -10.8785    149.6024     15.8976   4.6216217657e+01   4.5855763195e+01    0.7208571    0.4316239 -27.27  0.003608815    1.814    0.449
        24 -11.8445    106.3602     33.0814   6.1618413771e+01   5.4153309155e+01    0.6159136    0.4179387 -13.83 0.0004520128    1.614    0.380
        25 -10.6861     22.8519     29.1064   9.2232123484e+01   6.8234895999e+01    0.6939252    0.3509561 -46.81  0.003812054    1.751    0.429
        26 -12.2748     31.1943     25.5147   8.6627223429e+01   6.8004973029e+01    0.8995126    0.6429935 -28.21  0.005813784    1.158    0.136
        27 -11.0722      7.7015     19.5784   9.6285074170e+01   7.1098548237e+01    0.5788387    0.2780614  15.35  0.002855228    2.219    0.549
        28 -12.7818     18.3705     14.9831   8.8444116715e+01   7.0985272285e+01     1.609336    0.4721983 -49.21  0.006275496    4.148    0.759
        29 -11.5953      4.4586     26.6466   1.0073951635e+02   7.0051021244e+01    0.5340775     0.239688 -26.32  0.002858077    2.126    0.530
        30 -11.7696     11.8378     25.5738   9.6458404949e+01   6.9759789367e+01    0.3901603    0.2032048 -27.55  0.001041321    1.688    0.408
        31 -12.3871     25.2269      8.4869   8.1594702161e+01   7.1233347755e+01    0.6780704    0.3000782 -39.38 0.0008949987    2.159    0.537
        32 -13.3546      5.1332      9.8067   9.3492244443e+01   7.2895954716e+01     0.616472    0.4435512  -3.57  0.003377378    1.253    0.202
        33 -12.4111     10.2242      3.3852   8.7318254204e+01   7.3461609458e+01     0.366491    0.2780887  14.48  0.001717691    1.403    0.287
        34 -12.2745      2.3546      2.8158   9.1793926002e+01   7.4179137481e+01    0.3221046    0.2465053   5.41  0.001757549    1.336    0.252
        35 -10.1064     83.9853     20.1934   6.2953877241e+01   6.0448059026e+01    0.3866132     0.281001  17.63  0.002200067    1.324    0.245
        36  -9.3807    232.8083     18.2089   3.6984703025e+01   2.5631293250e+01     0.420394     0.131463 -45.53  0.001749866    2.677    0.627
        37  -9.9879    225.7004      8.4895   3.5386375442e+01   2.8285233984e+01    0.2761535    0.2232051  -5.27 0.0009081825    1.731    0.422
        38 -10.0111    214.7565     12.6722   3.7303730232e+01   3.0327536236e+01     0.435131    0.2535138 -69.81  0.001707071    1.733    0.423
        39 -10.0109    209.8206     11.4267   3.7463192679e+01   3.1607765299e+01    0.8707998    0.3556727  41.43  0.003012673    4.764    0.790
        40 -10.4936    208.5652      4.3186   3.5858363347e+01   3.2628951621e+01    0.4447762    0.2852047 -75.72   0.00249912    1.480    0.324
        41  -9.6649     79.9956     18.7596   6.3609098350e+01   6.1400731369e+01    0.3662948    0.2268492 -36.71  0.001938683    1.815    0.449
        42  -9.1733     37.3418     12.7125   7.7677515367e+01   6.9175562015e+01    0.2222048     0.179617  24.68  0.001146236    1.355    0.262
        43  -9.4403     38.5684      9.4696   7.5459261251e+01   6.9436398937e+01    0.2482435    0.1387353  25.24  0.001088021    1.695    0.410
        44  -9.1963     36.2800      6.0001   7.4740886829e+01   7.0181899533e+01    0.1883966    0.1674755  15.97 0.0003463568    1.403    0.287
        45 -10.3687     41.8596      3.0340   7.0573513203e+01   6.9737063747e+01    0.3873411     0.214818  -8.52  0.002141199    1.865    0.464
        46  -9.9261     31.4963     11.8946   8.0115237396e+01   7.0027392516e+01    0.2620207    0.1780634 -23.84 0.0009409979    1.249    0.199
        47  -9.1441    233.5300     10.5248   3.5216899844e+01   2.6333059107e+01    0.1883115     0.116395 -62.35 0.0006181017    1.444    0.307
        48  -8.8416    234.3123      6.9579   3.4375523550e+01   2.6546327551e+01    0.1996207    0.1444773 -34.18 0.0004346114    1.453    0.312
        49 -10.7106    200.3399      6.5043   3.7150270541e+01   3.4346262711e+01    0.5703933     0.232059 -44.06  0.002588168    2.306    0.566
        50 -10.1166     77.7922      8.9071   5.9901769793e+01   6.2894392850e+01    0.2294901    0.2065462  10.67 0.0002258841    1.137    0.121
        51  -9.2008     77.7280      4.4143   5.7860061336e+01   6.3333264866e+01    0.2332836     0.128657  24.69   0.00118212    1.859    0.462
        52  -9.6320    250.6044      7.3182   3.3296283771e+01   2.3050544771e+01    0.3703275     0.144564 -49.79  0.001590121    2.102    0.524
        53  -9.0436    248.8245      1.4093   3.2206274834e+01   2.4048941186e+01    0.1800735    0.1564709 -43.97 0.0006209868    1.291    0.226
        54  -8.6427     82.5439      8.5415   5.8278720420e+01   6.1982532660e+01    0.1291257     0.107869  25.42 6.584801e-05    1.001    0.001
        55 -10.1960    132.9152      4.7341   4.5283317375e+01   5.0965970684e+01    0.4362098    0.3915891 -69.23  0.002069135    1.246    0.198
        56 -10.5307    138.5038      3.5273   4.3950781801e+01   4.9711404474e+01    0.4443606    0.2701129  12.85  0.001857591    2.170    0.539
        57  -9.8017     67.5067      6.0164   6.1942105888e+01   6.5141345434e+01    0.2558599     0.191517 -19.15 0.0008183985    1.362    0.266
        58 -10.2209     71.4373      3.7078   5.9515404270e+01   6.4623244863e+01    0.3397848    0.2664695 -35.27  0.002143211    1.580    0.367
        59 -10.3071    216.6098      3.1109   3.4892730855e+01   3.0894415375e+01    0.4228663    0.2038022 -58.67  0.002081098    2.028    0.507
        60 -10.4514    182.2683      3.7926   3.8282863036e+01   3.8953359344e+01    0.3167977    0.3007217 -23.56 0.0009687534    1.243    0.196
        61  -9.7774    243.7826      3.6079   3.2988665650e+01   2.4871186016e+01    0.3337171     0.146682 -39.80  0.001292309    1.944    0.486
        62  -8.9244     84.5104      3.3937   5.5408406179e+01   6.2049917052e+01    0.2820091    0.1443136  19.01  0.001301089    2.363    0.577
        63  -8.3672    230.2984      2.3088   3.3656646047e+01   2.7909034535e+01    0.1102609   0.09004009  46.54 0.0003196726    1.595    0.373
        64 -11.1285     66.5122    134.5093   1.0395295012e+02   4.0076339525e+01    0.3367941    0.2769121  84.73 -5.736822e-05    1.274    0.215
        65  -9.2123    211.1780    250.1975   9.0392773229e+01  -6.5704368774e+00       0.1539    0.1297644  32.70 0.0006858176    1.352    0.260
        66  -9.7191    183.0127    249.5578   9.5536460161e+01  -2.3740964522e+00    0.2296582    0.1810062  18.06  0.001539881    1.107    0.096
        67  -9.8066    162.4804    250.2268   9.9545362093e+01   6.3646457407e-01    0.2456683    0.1441054  36.39  0.001406727    1.384    0.277
        68  -9.2979    124.9394    250.1879   1.0678090065e+02   6.3441145141e+00     0.194706    0.1303971  16.87  0.001083464    2.006    0.502
        69 -10.7947     65.2320    128.5884   1.0322717669e+02   4.1713108630e+01    0.3380167    0.3244429 -26.15  0.001556257    1.161    0.139
        70 -11.6171     68.2010    119.3643   1.0049835956e+02   4.3589691290e+01     1.269775    0.3982413 -51.20  0.004412987    2.772    0.639
        71  -9.9507     82.8598    135.7573   9.9510616512e+01   3.7422646344e+01    0.3142282    0.2386692  -4.80  0.001514262    1.832    0.454
        72 -10.1968     34.5090    130.0057   1.1244420923e+02   4.4833116775e+01    0.6458166    0.2672437 -78.48  0.002544177    2.711    0.631
        73 -10.4333     29.2058    129.3005   1.1386310737e+02   4.5489554236e+01    0.5282395    0.1998506 -58.82  0.002319498    2.105    0.525
        74  -9.6997     50.8767    117.4350   1.0545622129e+02   4.6233762728e+01    0.3643883    0.2301846 -74.19 0.0009472162    1.600    0.375
        75 -11.6872     48.2523    123.9173   1.0743311241e+02   4.4929520063e+01    0.7319651    0.6135898 -32.88  0.004217981    1.330    0.248
        76 -11.1176     44.9297    113.7086   1.0661406945e+02   4.7799947028e+01     1.303053    0.6212211   6.71  0.004747275    4.109    0.757
        77 -12.1889     41.2082    123.2904   1.0943874907e+02   4.5830237668e+01     1.295408    0.5723555 -62.18  0.005785034    1.872    0.466
        78 -10.4189     32.9490    109.6779   1.0968096830e+02   4.9950693366e+01    0.6207471    0.2166022 -53.24  0.002573846    2.291    0.564
        79  -9.8500     37.6456    108.9429   1.0804787365e+02   4.9695073398e+01     0.446984     0.222685 -47.04  0.001578053    1.846    0.458
        80 -10.9623     33.8520    119.4955   1.1103762229e+02   4.7473320958e+01    0.6248569     0.277068 -54.02  0.002868313    1.899    0.473
        81 -11.0234     27.6774    119.3205   1.1287236564e+02   4.8059623064e+01    0.3373325    0.2598633  66.80 0.0006175393    1.432    0.302
        82  -9.6589     73.1135    129.3363   1.0105343729e+02   4.0446726373e+01     0.263547    0.1950454 -71.43 0.0004191714    1.339    0.253
        83 -10.0514     55.8265    126.3592   1.0560227231e+02   4.3452253909e+01      0.38549    0.2000646 -64.12 0.0009072164    1.731    0.422
        84  -8.9048     74.5326    125.0217   9.9761686272e+01   4.1307325535e+01    0.2038898    0.1960463  43.86 0.0003927891    1.130    0.115
        85  -9.9065     92.5842    120.6234   9.3430289487e+01   3.9554835685e+01    0.5902144    0.2915419 -46.68  0.002356314    1.942    0.485
        86 -11.4743     75.5871    120.0079   9.8383935440e+01   4.2384753262e+01    0.2616734    0.2514885  50.32  0.001515915    1.124    0.111
        87  -9.7231     22.1716    108.3027   1.1287270412e+02   5.1171870625e+01    0.5338846    0.2320117  37.86  0.002483607    2.629    0.620
        88 -10.7973     15.6330    100.7746   1.1378063719e+02   5.3437664236e+01    0.5758951    0.2863635 -61.72     0.002688    1.547    0.354
        89 -10.2599      7.5717    115.8063   1.1837122722e+02   5.0361858402e+01     0.457576     0.181045 -72.36  0.001800583    1.996    0.499
        90 -10.5559      3.2079    113.3490   1.1935887663e+02   5.1199749178e+01    0.6131999    0.2696046  -5.29  0.002696939    3.979    0.749
        91  -9.8364      7.4797    106.9915   1.1727454572e+02   5.2465747070e+01    0.4126664    0.2093775 -78.23  0.002135451    1.725    0.420
        92 -11.4555     13.4374    107.3706   1.1547699214e+02   5.2008917302e+01    0.5302975    0.3834769  74.28  0.001949774    1.538    0.350
        93  -9.9492     20.4790    118.1177   1.1485281672e+02   4.8927241210e+01    0.2956473    0.2440124  74.90  0.001663547    1.278    0.218
        94 -10.3497    116.4406    116.3599   8.5507871574e+01   3.6194381361e+01    0.3284568    0.2813546  18.69 0.0007395836    1.292    0.226
        95  -9.8879    104.0980    116.4077   8.9040844473e+01   3.8533505474e+01    0.3407877    0.2718728 -30.79  0.001668337    1.339    0.253
        96  -9.7340    108.6967    114.8590   8.7322438157e+01   3.8039144062e+01    0.3260405    0.2217905 -43.90  0.001474066    1.426    0.299
        97 -10.3192     98.3652    114.4910   9.0246393546e+01   4.0021655780e+01     0.518885    0.3384327 -36.85  0.001922174    1.631    0.387
        98  -9.7542     54.8301    112.9735   1.0334463666e+02   4.6868564398e+01    0.3238266    0.1996098 -60.91  0.001292029    1.434    0.303
        99  -9.9874    129.7500    110.3743   8.0286940402e+01   3.4829148977e+01    0.4435053    0.3821437  32.51  0.002210882    1.206    0.171
       100  -9.9812     73.2003    108.0841   9.6427737048e+01   4.5627865365e+01    0.5879095     0.350574 -15.48  0.002231354    3.030    0.670
       101 -10.3243     88.0334     96.9728   8.8858051227e+01   4.5902546135e+01    0.5105641     0.378821  40.40  0.002538124    1.440    0.306
       102 -10.7672     89.7311     87.9275   8.5751376583e+01   4.7638722845e+01    0.8413895    0.6540542  23.94  0.003329661    1.394    0.282
       103  -9.4588     82.4814     85.9863   8.7557626124e+01   4.9301409835e+01    0.3424653     0.227156 -41.76  0.001202676    1.405    0.288
       104 -10.6229     76.1437    101.9612   9.3988857294e+01   4.6649917842e+01    0.6378254    0.3311301  26.65  0.002631485    2.326    0.570
       105 -11.8779     77.1598     96.5077   9.2249158420e+01   4.7770390966e+01    0.7284271    0.6347255  89.87  0.003214584    1.380    0.275
       106 -10.9851    132.8593     99.9774   7.6590470364e+01   3.6421109720e+01     1.041332    0.3870285 -43.13  0.003427085    2.637    0.621
       107 -10.2457    113.2063    107.5104   8.4107062562e+01   3.8860515127e+01    0.3442603    0.2908253 -47.20 0.0007309852    1.147    0.128
       108 -10.4447    107.3298    103.5694   8.4748953764e+01   4.0899957590e+01    0.5723037    0.3884013  62.46   0.00228902    1.965    0.491
       109  -9.4248     82.7664    114.9948   9.5067843733e+01   4.2513556127e+01    0.2665352    0.2206045  49.54 0.0009414844    1.317    0.241
       110 -11.0398     50.4978    101.3679   1.0230718716e+02   5.0185684329e+01    0.7096614    0.6394792  27.54  0.004325121    1.264    0.209
       111 -10.4681     55.7299     96.2751   9.9376017313e+01   5.0783053366e+01    0.2537638    0.2011447 -33.49 0.0002010503    1.247    0.198
       112  -9.5706     62.7303    102.5268   9.8508467675e+01   4.8410253210e+01    0.3301146    0.2481477 -35.70 0.0009087592    1.335    0.251
       113  -9.4371     67.2383    101.4715   9.6772467625e+01   4.8054304569e+01     0.331701    0.2204904  79.30  0.001414945    2.498    0.600
       114  -9.3530     38.7920    102.7903   1.0650385639e+02   5.1073932225e+01    0.2659056     0.181831  24.60  0.001365164    1.710    0.415
       115 -10.1174     27.5552     84.9497   1.0673480083e+02   5.6290506679e+01    0.6207735    0.3420955  33.08  0.003240618    2.126    0.530
       116 -11.6076     20.1687     60.7006   1.0383489560e+02   6.2264362277e+01     1.074772    0.5493972  -7.36   0.00522283    2.618    0.618
       117 -11.5181     23.3355     96.2338   1.1044681934e+02   5.3971981255e+01    0.6696036    0.5201213  87.45  0.004071154    1.423    0.297
       118 -11.4001     30.5052     72.5472   1.0273123700e+02   5.8861118330e+01    0.8898324    0.3820639 -46.08  0.004156197    1.900    0.474
       119 -10.9444     39.7434     66.8022   9.7532775326e+01   5.9242671166e+01    0.7192562    0.4445943 -29.61   0.00379724    1.606    0.377
       120 -10.3176     20.2195     72.6693   1.0676602884e+02   5.9641767720e+01    0.5773793    0.2644413 -37.03  0.002779839    2.113    0.527
       121 -10.3540     25.2007     66.3592   1.0325000676e+02   6.0661999598e+01    0.5793019    0.1596352 -58.47  0.001885834    2.930    0.659
       122 -12.1464     32.6270     58.7587   9.8064922892e+01   6.1641739877e+01    0.5745296    0.4082678  20.42  0.003446181    1.570    0.363
       123 -10.5267     17.1264     89.5087   1.1135934825e+02   5.5996005570e+01    0.6229606    0.2813439  44.28  0.002881272    2.938    0.660
       124 -10.9057     19.0995     82.1104   1.0922763139e+02   5.7577975734e+01    0.7431059    0.3175401 -29.57  0.002461872    3.050    0.672
       125 -12.6947     41.7952     53.7294   9.2615570345e+01   6.1725418030e+01    0.4904474    0.4265625  32.01 0.0005704471    1.395    0.283
       126 -10.4113     50.3441     53.7957   8.9102204071e+01   6.0694929364e+01     0.311577    0.2425578   8.20   0.00184901    1.308    0.236
       127  -8.7097      4.0525    101.7300   1.1763867953e+02   5.3900031613e+01    0.5982445    0.1800233 -68.56    0.0025573    2.423    0.587
       128 -11.0946      3.2595     89.0565   1.1607500082e+02   5.6900588036e+01    0.9087222    0.1908679 -68.42  0.002304981    3.404    0.706
       129 -10.1883      6.2971     86.3676   1.1459820906e+02   5.7368332167e+01    0.3734795    0.1990437 -57.86  0.001930315    1.413    0.292
       130 -12.0540    142.9032    101.6428   7.4462016719e+01   3.3840038137e+01     1.294575    0.6367683  26.01  0.003567178    4.512    0.778
       131  -9.6106     33.5719     99.6853   1.0763929269e+02   5.2305817944e+01    0.2727364    0.2396955 -23.33  0.001729111    1.250    0.200
       132 -10.0149     17.2740    106.0215   1.1406916913e+02   5.2074390353e+01    0.2357602    0.1383859 -57.32 0.0004459787    1.371    0.271
       133 -10.6506    156.3957     96.4044   6.9711331996e+01   3.1817264338e+01    0.4133341    0.2919196 -31.75 0.0009326161    1.463    0.317
       134 -10.9429     76.0558     43.5826   7.5343544772e+01   5.8638547791e+01    0.7798505    0.4913871 -13.78  0.003765373    1.846    0.458
       135 -12.1133     55.3876     66.6139   9.1352036159e+01   5.7465786451e+01     1.182002    0.5739735 -43.87  0.005401789    1.804    0.446
       136 -11.6571     68.6468     68.6601   8.7043834730e+01   5.5184703840e+01      1.06635    0.6214581  19.22   0.00369712    2.137    0.532
       137  -9.8010    236.2198    249.6042   8.5829769532e+01  -9.9146584471e+00    0.3180095   0.08922871  41.57  0.001249726    4.094    0.756
       138  -9.6085    108.4239    249.2316   1.0985351459e+02   8.9460067484e+00    0.1543553    0.1106516 -86.03 0.0008620056    1.685    0.407
       139 -10.6283    107.2438     59.3785   7.1022818145e+01   4.9920241358e+01    0.3680861    0.2756228 -19.17  0.001477723    1.410    0.291
       140 -10.3477    148.0173    247.2978   1.0195641072e+02   3.3006879430e+00    0.1770631    0.1348658  37.40 0.0003817272    1.073    0.068
       141 -12.2382    102.6182     78.0420   7.8651697798e+01   4.7329640565e+01     1.350566    0.8014157  44.36  0.005945405    1.750    0.429
       142 -12.8420    116.3521     69.2102   7.1718291020e+01   4.6200050289e+01     2.098697    0.8803297  50.13  0.006307048    2.494    0.599
       143  -9.6233      4.0191    245.8673   1.2837291945e+02   2.2317172330e+01    0.2092049    0.1235677 -71.74  0.001491001    1.780    0.438
       144 -10.6710    141.8569    244.5378   1.0280690749e+02   4.6913976095e+00    0.3081055    0.2623263  30.74  0.002081598    1.098    0.089
       145  -9.2263    174.3207    245.0013   9.6544691389e+01  -4.0053702876e-01    0.1836229   0.08944018 -22.57 0.0007045048    4.244    0.764
       146 -10.9552     29.6113     48.3562   9.6077889358e+01   6.4031290687e+01    0.3834585    0.2249797 -34.90  0.001356877    1.455    0.313
       147 -12.0547     31.6152     41.7452   9.2881726962e+01   6.5110935212e+01     1.133871    0.3664598  23.54  0.003435688    3.632    0.725
       148 -11.2089     77.6254     61.2753   8.1329495259e+01   5.5219151908e+01    0.5536703     0.439932  21.16  0.002430717    1.278    0.218
       149 -10.0414    188.6720    244.0730   9.3661158834e+01  -2.4530018515e+00    0.2144599    0.1414779  39.37 0.0005865132    1.372    0.271
       150  -8.5133     77.3180    242.6904   1.1517012490e+02   1.4480612170e+01    0.1251751   0.07215331  62.97 0.0003977125    1.639    0.390
       151  -9.0535    211.3723    239.8256   8.8741747485e+01  -5.2427316093e+00    0.1627713     0.101917 -20.16 0.0009443419    1.708    0.415
       152 -10.4652     14.5419    237.8663   1.2625550165e+02   2.2768619040e+01    0.3049867    0.1413401  71.08  0.001824295    1.830    0.454
       153  -8.4378    220.2968    238.3388   8.6862926919e+01  -6.3339222971e+00    0.1249971   0.07853656   3.62 0.0006683498    1.657    0.397
       154 -12.3889     56.3050     38.0978   8.0728003146e+01   6.2722411006e+01    0.5830419    0.3666717 -12.87  0.002136183    1.756    0.430
       155 -12.0957     49.3002     39.5017   8.4215166459e+01   6.3460882743e+01    0.5120853     0.345523  26.66 0.0001775431    1.519    0.342
       156 -11.5511     79.8970     33.2617   6.9831876294e+01   5.9531170166e+01     0.373811    0.3196674  42.33 0.0004248969    1.279    0.218
       157  -9.3995    172.3863    237.7752   9.5872464371e+01   9.8875805074e-01    0.1651307    0.1133427 -26.97 0.0009511418    1.727    0.421
       158  -9.6810     82.2571     89.9701   8.8779252073e+01   4.8452303691e+01    0.4392943    0.2200389  34.37 0.0008863843    2.161    0.537
       159  -9.8114     39.0951     96.7686   1.0517672357e+02   5.2486799888e+01    0.3506009    0.2288739  -9.56  0.001696277    2.033    0.508
       160 -10.5938     38.8494     80.6326   1.0158110538e+02   5.6272284381e+01    0.6535934     0.409556  80.09  0.002837769    3.053    0.672
       161  -9.7877     41.4961     78.5121   1.0005606865e+02   5.6486120393e+01    0.3078169    0.2105061  -5.19  0.001618583    1.763    0.433
       162  -9.8741     39.5172     92.0320   1.0400960804e+02   5.3566929053e+01    0.3972853    0.2157961 -42.97  0.001419643    1.693    0.409
       163 -10.6619     34.2239     91.7255   1.0580007987e+02   5.4137613875e+01    0.7920029    0.3818615   3.07  0.003228895    3.463    0.711
       164  -9.1715     11.3691     94.6135   1.1420718290e+02   5.5162870671e+01    0.2784707    0.1544202 -52.20 0.0007007126    1.465    0.317
       165  -9.2874    189.1727     94.2775   6.2171833612e+01   2.4518796369e+01    0.3037969    0.2303438  -4.02  0.001393384    1.721    0.419
       166 -12.6307    119.6632     91.2219   7.7665198633e+01   4.1116419202e+01     2.182238     1.059944 -36.40   0.00814267    2.181    0.541
       167 -10.2311     51.8041     92.1132   9.9729900077e+01   5.2230016147e+01    0.3810119     0.273636 -38.72  0.001606333    1.309    0.236
       168  -9.5808    109.1202     83.5425   7.8402639511e+01   4.4902633070e+01    0.2889421    0.2144521 -32.48 0.0005665262    1.346    0.257
       169  -9.0850    103.2085     92.6319   8.2904391079e+01   4.4131333201e+01    0.3794069     0.226699  26.16 0.0009457886    2.094    0.522
       170  -9.3933     67.4863     88.9832   9.3485050366e+01   5.0931361868e+01    0.6102184    0.2538757 -57.33  0.002309339    2.478    0.596
       171  -9.5477    193.9608     89.5441   6.0018219677e+01   2.4253014561e+01    0.2587295    0.2085997 -17.84 0.0003973296    1.380    0.275
       172  -8.3826    187.4528     89.4946   6.1221442931e+01   2.5792494981e+01    0.1522245    0.1439829 -54.29 0.0001108658    1.035    0.034
       173 -10.5140    112.3051     88.1070   7.8851248475e+01   4.3301453680e+01    0.5258045    0.2008896 -37.83  0.001725632    2.825    0.646
       174 -11.1922    146.1435     84.9802   6.8847365077e+01   3.6454985247e+01     1.132427    0.5922484 -23.85  0.003927565    2.754    0.637
       175  -8.9770    131.9301     67.0733   6.6829380082e+01   4.3086560497e+01    0.2401855    0.1995909  22.20 0.0008478248    1.291    0.226
       176 -11.7372    135.9256     81.7942   7.0435881458e+01   3.9437370099e+01     1.093746    0.7379704   2.59  0.004166047    2.360    0.576
       177 -10.9669    145.5288     76.0622   6.6306102074e+01   3.8277311717e+01    0.5493111    0.3931933  11.05 0.0009117182    1.943    0.485
       178 -11.5333    139.5926     69.7155   6.5764938349e+01   4.0826275844e+01    0.7830384    0.6421674  62.15  0.002399432    1.295    0.228
       179  -9.8766    107.0000     88.4616   8.0529797954e+01   4.4294057751e+01    0.5507554     0.208749 -42.92   0.00188994    2.559    0.609
       180  -9.6546     56.7832     86.0082   9.6433067674e+01   5.3039873216e+01    0.4652362    0.2548299   5.80  0.001858889    3.030    0.670
       181  -9.5770     51.7796     86.1881   9.8264286081e+01   5.3606812364e+01    0.3032948    0.1925996 -16.48  0.001028804    2.055    0.513
       182  -8.8498     53.1779     82.1474   9.6700683395e+01   5.4360428313e+01    0.2700087    0.1807323 -56.87 0.0008889008    1.398    0.284
       183  -8.7769     75.8066     83.8529   8.9184519336e+01   5.0845093776e+01    0.2299154    0.1888023  23.66 0.0005006067    1.299    0.230
       184 -11.3635    161.1755     81.8958   6.4468451154e+01   3.3465784105e+01    0.4645118    0.2939427  56.93  0.002009239    1.644    0.392
       185  -9.8793    169.2675     78.4977   6.1764676887e+01   3.2125572235e+01    0.3635925    0.3196367 -80.31  0.001341185    1.250    0.200
       186 -10.5543    166.8564     72.9657   6.0655730011e+01   3.3680691072e+01    0.6363366    0.4256486  23.85  0.002671035    2.092    0.522
       187  -9.8249    164.8902     68.8416   5.9844415910e+01   3.4865090245e+01     0.339762    0.2951382 -33.78  0.001055811    1.162    0.139
       188  -9.0625    156.1489     85.2018   6.6557165082e+01   3.4051309689e+01    0.2355542    0.2096056   5.53 0.0005728858    1.241    0.194
       189 -10.4825    189.4523     77.4478   5.7587378903e+01   2.7429201499e+01    0.5125156    0.2628204  44.52 0.0008902573    2.173    0.540
       190  -9.3303      9.9221     76.9425   1.1159902510e+02   5.9329801262e+01    0.1969593    0.1408277 -44.75  0.000418415    1.194    0.162
       191  -9.8905      5.2303     77.1663   1.1338567608e+02   5.9527152893e+01    0.2202454    0.1825209  80.77 0.0007463669    1.425    0.298
       192 -10.0714      3.7574     72.7906   1.1312791177e+02   6.0583849668e+01    0.3086894    0.1372688 -54.56 0.0009166677    1.628    0.386
       193  -9.2588    203.1608     76.3451   5.4946968923e+01   2.4359820626e+01    0.4760942    0.2222617  36.65  0.001589422    3.572    0.720
       194  -9.5180     70.2416     76.2881   8.8866435073e+01   5.3342454379e+01    0.3003116    0.2429691 -13.39  0.001570898    1.279    0.218
       195 -11.2381    115.5585     23.7263   5.5702310017e+01   5.3225888193e+01    0.5532669    0.3388559  41.49  0.001895953    1.522    0.343
       196 -10.8556    149.0950     34.6227   5.2357594583e+01   4.3857027932e+01       1.3595    0.3542376  53.91  0.004447162    3.193    0.687
       197 -10.5487    136.4745     41.7978   5.7337563920e+01   4.5998160491e+01    0.4615347    0.3846771 -82.68  0.002381862    1.437    0.304
       198 -11.6831    149.3760     66.2861   6.2396559419e+01   3.9081765700e+01     1.116895    0.5266876 -33.74  0.004281114    2.180    0.541
       199 -11.2393    142.3752     44.3949   5.6918223095e+01   4.4201589221e+01    0.8171257    0.3371404  41.32  0.001179977    2.811    0.644
       200 -10.2550    140.1377     52.2805   6.0011275228e+01   4.3582792851e+01    0.5013123    0.2672185  49.35  0.001422047    1.789    0.441
       201 -10.2356    143.8276     58.1635   6.1084488963e+01   4.1767466269e+01    0.3226903    0.2628405  50.89 0.0003576955    1.195    0.163
       202 -12.5142    147.2312     53.8443   5.8943175016e+01   4.1619453663e+01     0.502214    0.3560065  45.94 0.0003135206    1.384    0.277
       203  -9.7637    177.0524     68.5653   5.7384388385e+01   3.1928125177e+01    0.4450245    0.3420333  76.96  0.002178516    1.442    0.307
       204  -8.6980    248.6438     68.3098   4.6707016919e+01   1.5570358726e+01    0.1413496   0.08906462 -63.84 0.0007043009    1.730    0.422
       205  -8.1116     46.2540     68.6403   9.5505836350e+01   5.8144800131e+01    0.1244005    0.1023966 -80.61 0.0002415853    1.616    0.381
       206  -9.1302     82.2830     66.8644   8.1616611211e+01   5.3337711456e+01    0.2789421    0.1550059  48.95  0.001199931    2.182    0.542
       207  -9.0576     55.5531    237.9848   1.1889074623e+02   1.8170073377e+01    0.1644966    0.1024623 -77.58  0.001031869    1.606    0.377
       208 -11.0336    166.3072     53.7820   5.5072141711e+01   3.6918154955e+01     1.277618    0.3159916 -38.04  0.003868613    3.698    0.730
       209 -10.7700    161.4461     51.7562   5.5382235719e+01   3.8428571329e+01    0.5236481    0.3804874 -39.37  0.001695327    1.396    0.284
       210  -9.8886    152.5912     45.2106   5.5073480459e+01   4.1573579614e+01    0.3733849    0.2540925 -19.87    0.0010861    1.678    0.404
       211 -11.0851    157.5420     43.5250   5.3583859772e+01   4.0579970573e+01    0.7465854    0.5458449 -33.27  0.003791365    1.417    0.294
       212  -9.1958    131.9887     62.7387   6.5402437585e+01   4.3825367143e+01    0.2535678    0.2019652 -61.46 0.0001882402    1.501    0.334
       213 -10.2391    127.3612     59.4699   6.5495990593e+01   4.5451513020e+01    0.4620875    0.3434485  72.10  0.002183524    1.685    0.406
       214 -10.6686    121.1352     54.3306   6.5372637853e+01   4.7723275407e+01    0.5397962    0.4666915   6.51  0.002906847    1.200    0.167
       215 -10.1331    208.0664     60.8182   5.0151033299e+01   2.5663605959e+01    0.4836452     0.305997 -22.74  0.001983206    1.855    0.461
       216 -10.4934    172.8656     46.8496   5.1836121977e+01   3.6295722469e+01     1.018592    0.4132309  61.48  0.003858862    2.388    0.581
       217  -9.4552    190.4716    235.9641   9.2080486206e+01  -1.5593765182e+00    0.1467232    0.1136255 -75.32 0.0006981275    2.444    0.591
       218  -9.9906    182.1194    234.8327   9.3524826660e+01  -9.0436018289e-02    0.2652246    0.1300612  50.96  0.001174412    2.687    0.628
       219  -9.0247     21.0617    232.3994   1.2482975935e+02   2.3147740948e+01    0.1544572    0.1091776  58.52 0.0009248748    1.152    0.132
       220  -9.4148     12.5072    231.9691   1.2631556813e+02   2.4088183538e+01    0.2199524    0.1051308  54.13  0.001368505    1.631    0.387
       221 -11.2164    193.3533     53.9732   5.0529180722e+01   3.0212015162e+01    0.6119983    0.4229193   8.14  0.002550074    2.287    0.563
       222  -8.6765    227.0410    231.5575   8.4516049837e+01  -6.4030793450e+00    0.1734409    0.1015185  31.39 0.0003822955    1.501    0.334
       223 -10.2985    179.9529     25.0128   4.4437162327e+01   3.7326626899e+01    0.2324231    0.2102427 -88.93 0.0003324689    1.023    0.022
       224  -8.8771    219.1873    230.7446   8.5814328620e+01  -5.1561984260e+00     0.186498    0.1393998  38.91 0.0008450972    1.469    0.319
       225  -8.6457    202.1723    229.1242   8.8739407448e+01  -2.3651039374e+00    0.1589589    0.1348423  35.85 0.0003955093    1.289    0.224
       226  -9.1106    137.3643    224.7730   1.0107598291e+02   8.7893727401e+00    0.1683262    0.1203441 -40.06 0.0006977811    1.667    0.400
       227  -9.4876     41.0313    221.5159   1.2041621796e+02   2.3129215536e+01    0.2032009    0.1448138 -64.87 0.0006552872    1.554    0.357
       228  -9.4946     13.3141    211.7684   1.2508226366e+02   2.8022682101e+01    0.2327536   0.08355844 -87.76   0.00108941    2.694    0.629
       229  -9.2141    199.9557     59.6413   5.1044794784e+01   2.7769733818e+01    0.3148735    0.2042599  43.06  0.001401671    1.787    0.441
       230  -9.9701    174.3683     56.7862   5.4479897406e+01   3.4462318877e+01    0.4871431    0.2770584 -12.15  0.001831775    2.831    0.647
       231 -11.3743    145.8245     48.3872   5.7486645339e+01   4.2783474356e+01    0.3756464     0.292902  42.73 0.0002534846    1.267    0.211
       232 -10.4420     70.5156     53.1846   8.1015871472e+01   5.7904898368e+01    0.6199481    0.3267445 -45.28  0.002824187    1.902    0.474
       233 -10.6067      3.2555     56.3374   1.0989433178e+02   6.4203737647e+01    0.3494529    0.2637551  36.74  0.002185657    1.751    0.429
       234  -9.7762      4.1850     51.8012   1.0840314759e+02   6.5115720315e+01    0.2435918    0.1564291 -50.23 0.0009222941    1.167    0.143
       235  -9.3270    234.8928     55.7532   4.5416960548e+01   2.0313193935e+01    0.2846198    0.1416446 -55.43  0.001257789    2.104    0.525
       236  -9.0719     11.8892     56.2428   1.0617938179e+02   6.3760935542e+01    0.1731115     0.158715  24.31  0.001051974    1.388    0.279
       237  -9.2774    244.5381     54.7341   4.4098543360e+01   1.8390271634e+01    0.2381546    0.1216196 -30.39 0.0007281047    1.981    0.495
       238 -11.6536     58.3353     48.9165   8.4119423051e+01   6.0538453141e+01    0.7010096    0.6394658 -59.04  0.003267179    1.440    0.306
       239 -10.5523     66.0885     44.1255   7.9256462360e+01   6.0214430443e+01    0.5307829    0.3610621 -10.90  0.002128202    1.584    0.368
       240  -8.8145    238.1482     51.8425   4.4137256995e+01   2.0160551591e+01    0.1659388    0.1540927  45.39  0.001046201    1.318    0.241
       241  -9.0781    211.2278     49.9364   4.6923254625e+01   2.6512198930e+01    0.2904795    0.1811363 -53.98  0.001415959    1.585    0.369
       242  -9.6522    228.3640     49.8743   4.4786352985e+01   2.2587827421e+01    0.2286848    0.1837189  69.09 0.0004353424    1.297    0.229
       243  -8.3731     21.5115     49.4062   1.0002398834e+02   6.4512241530e+01    0.1217879   0.09960929 -35.86 0.0001671481    1.049    0.047
       244  -8.3792    126.2898     47.2990   6.1615069650e+01   4.7628906820e+01    0.1472578    0.1084002  20.31 0.0003129421    1.560    0.359
       245  -9.3661    222.8506     45.6550   4.4414967518e+01   2.4416579957e+01    0.3514389    0.1657321  44.01  0.001412096    3.009    0.668
       246 -10.0616    207.0185     46.0761   4.6488447384e+01   2.8046779778e+01    0.4662547    0.1794438  61.34   0.00184284    2.510    0.602
       247  -9.6846    113.8165     30.9359   5.8839722249e+01   5.2761684856e+01    0.3174736     0.210523 -17.84  0.001006725    1.640    0.390
       248 -11.0444     99.1783     40.1245   6.6382121130e+01   5.4714129722e+01    0.8656105    0.5102996  -0.96  0.003557923    2.596    0.615
       249  -9.2064    124.0060    206.0028   1.0123163548e+02   1.4571327597e+01    0.1932344    0.1752382  46.13  0.001172646    1.025    0.024
       250  -9.7451    193.5062     44.4748   4.7924563348e+01   3.1524762824e+01    0.2603638    0.2231638 -81.34 0.0006308961    1.138    0.121
       251  -9.2879    197.2132     41.8970   4.6709987911e+01   3.0972517177e+01    0.2012181    0.1867076 -78.99 0.0003153796    1.014    0.014
       252 -10.3167    116.6629     49.6543   6.4930561402e+01   4.9476402742e+01    0.4539635     0.354322 -20.69  0.001539544    1.324    0.245
       253  -9.4232    233.8719    199.8236   7.7598432160e+01  -2.9449112984e+00    0.2051073    0.1510283  -1.23  0.001215486    1.244    0.196
       254  -9.9938    239.2133    197.6340   7.6226436549e+01  -3.4401719033e+00    0.1774318    0.1453371 -15.48   0.00112471    1.117    0.104
       255  -9.6133     27.8976    193.8829   1.2095442615e+02   3.0400291216e+01    0.1790702    0.1540226 -73.32  0.001251769    1.279    0.218
       256 -11.7584     17.1723     38.3715   9.8450965990e+01   6.7010852118e+01       1.0261    0.5921803 -10.63  0.005836701    1.878    0.468
       257 -10.9444     15.6115     30.8987   9.6549003467e+01   6.8522056687e+01    0.4472037    0.2728751 -15.13  0.001966384    1.588    0.370
       258  -9.8135     11.0542    192.6460   1.2435306834e+02   3.2271451562e+01      0.28276    0.1350374  45.99  0.001614531    1.900    0.474
       259  -8.7739    230.0125    188.0576   7.6026467324e+01  -5.3218056413e-01     0.179302    0.1615279 -55.59 0.0005843682    1.569    0.362
       260 -10.0892     10.0500    185.3071   1.2407403269e+02   3.3965331279e+01     0.302331    0.1956967   5.22  0.001747882    2.666    0.625
       261  -9.4242     26.6621    179.3420   1.2001729152e+02   3.3784852093e+01     0.301678    0.1444374 -55.63  0.001519056    2.191    0.544
       262  -9.7733      2.5749    177.9182   1.2515822866e+02   3.6214570299e+01    0.2741047    0.2125049 -37.99  0.001868748    1.839    0.456
       263  -8.9367     79.8430    176.9609   1.0723904833e+02   2.7907338992e+01    0.2270669    0.1462635 -40.03 0.0009667536    2.007    0.502
       264  -8.6505     70.4838    174.5083   1.0917972588e+02   2.9799890442e+01    0.1364331    0.1206721  84.04 0.0008104092    1.006    0.006
       265 -10.1771    118.4622     42.1052   6.1756951912e+01   5.0198071872e+01    0.4164383    0.3165908 -20.73  0.002173765    1.374    0.272
       266  -8.9449    213.2061     43.2363   4.4977087607e+01   2.6974908944e+01    0.2202383    0.1363572  28.79 0.0009454085    2.718    0.632
       267  -9.0048    167.0606     42.2490   5.1468741986e+01   3.8380921347e+01    0.3214505    0.2167469  37.37  0.001525298    1.697    0.411
       268  -9.5223     22.8909     41.0854   9.6675500255e+01   6.6036833052e+01    0.2739169    0.1463022 -48.42 0.0008951017    1.560    0.359
       269  -9.4570    173.1570     39.8367   4.9727282664e+01   3.7182807889e+01    0.4104182    0.2318069  34.73  0.001699207    2.403    0.584
       270  -9.7063    219.5989     42.8871   4.4121322478e+01   2.5537394423e+01    0.2274003    0.1817569  89.80 0.0004708001    1.224    0.183
       271  -8.5325     62.6293     40.2340   7.9056766771e+01   6.1413498084e+01    0.1169745    0.1044626  59.35 0.0003582246    1.604    0.377
       272  -9.4080    214.6152     38.7875   4.3695052094e+01   2.7238354488e+01    0.1875532    0.1670674  81.33 0.0008068316    1.115    0.103
       273 -10.6694    133.3201     54.4558   6.2331170326e+01   4.4874389842e+01    0.7330254    0.4088042  -7.21   0.00252013    3.386    0.705
       274 -10.2860    222.4000     35.0807   4.1910834879e+01   2.5920816856e+01    0.5505677    0.3559821  27.77  0.002584728    2.622    0.619
       275  -9.2767    219.8681     32.2934   4.1511476256e+01   2.6854975916e+01    0.2842318    0.1882762  -3.01  0.001027265    2.478    0.596
       276 -10.5839    226.9530     27.4511   3.9635989957e+01   2.5841643127e+01    0.4432341    0.3654319  73.64  0.001547869    1.233    0.189
       277  -8.8678    221.7043     24.9942   3.9573440988e+01   2.7328601281e+01    0.2017145    0.1560251  81.27 0.0005374209    1.228    0.186
       278  -9.9001    202.2034     33.4811   4.3842622529e+01   3.0863082525e+01    0.2408494    0.1795477  -5.58 0.0006863723    1.821    0.451
       279 -10.7613    192.9277     33.2666   4.4971367529e+01   3.3138001885e+01    0.5309469    0.3306835 -28.26  0.002005575    1.724    0.420
       280  -9.7243    135.3295     34.1857   5.4993901236e+01   4.7286743764e+01    0.3904966     0.239407   1.77   0.00144748    2.391    0.582
       281  -9.0740    138.4643     31.5203   5.3429338037e+01   4.6858038650e+01    0.2721744    0.1930771 -44.74 0.0007956263    1.549    0.355
       282 -10.7545    245.8190     33.4126   3.9213653180e+01   2.0978628591e+01    0.4547476    0.2421511  62.36  0.001258105    1.987    0.497
       283  -8.9678      3.2863     34.3462   1.0392880110e+02   6.8670059094e+01    0.3246774    0.1126801 -33.25  0.001387462    2.637    0.621
       284  -9.9527    242.4310     24.7489   3.7612468873e+01   2.2770990231e+01     0.314597    0.1716434 -46.30  0.001603954    1.564    0.361
       285 -10.5395    235.7542     32.6620   3.9984357182e+01   2.3239733042e+01    0.4391739    0.3400643  -2.23  0.001609182    1.895    0.472
       286  -9.8903    237.8579     26.1520   3.8321777709e+01   2.3587059466e+01    0.2560875    0.1862042 -87.39 0.0003669506    1.305    0.234
       287 -10.3465    212.7131     30.8543   4.1941635284e+01   2.8696505060e+01    0.4452753    0.4055262 -39.95  0.002799937    1.187    0.158
       288  -8.7685    207.1169     33.8194   4.3333212178e+01   2.9646083658e+01    0.1807673    0.1507991  50.54 0.0007205742    1.343    0.255
       289  -9.6273    172.5485     31.1065   4.7261569500e+01   3.8445627012e+01    0.4333053    0.2335511  40.57  0.001861326    2.231    0.552
       290 -11.0844    167.4616     28.9808   4.7418798771e+01   3.9971448155e+01    0.3379871    0.2643222 -17.31 0.0006129649    1.467    0.318
       291  -8.9965    145.9310     28.8508   5.1073770021e+01   4.5346841321e+01    0.3142296    0.1674268  51.44  0.001130261    1.717    0.418
       292  -9.2941    150.6978     29.2168   5.0314056952e+01   4.4123231063e+01    0.4084477     0.229363  36.73  0.001748072    2.087    0.521
       293  -9.3238    153.4052     24.7626   4.8414339663e+01   4.3966645536e+01    0.3061656    0.2239473 -33.40  0.001634037    1.454    0.312
       294 -10.3650    105.4230     43.2213   6.5720628125e+01   5.2931006966e+01    0.5817595    0.4067479 -36.53  0.002964289    1.484    0.326
       295 -10.0625    123.1477     35.8000   5.8322593234e+01   4.9980757788e+01    0.6541845     0.209645  54.07   0.00230183    2.801    0.643
       296 -10.2392    204.8046     23.7819   4.1046930356e+01   3.1417768651e+01    0.4280324     0.187552 -29.93  0.001655478    2.351    0.575
       297  -9.4376     94.9705     24.4629   6.1419300510e+01   5.7691086651e+01    0.3839909    0.2284313  -1.68   0.00177987    2.144    0.534
       298 -10.3951    215.0319     23.3946   3.9860762671e+01   2.9055892545e+01    0.4927115    0.3224848 -66.52  0.002671591    1.494    0.331
       299  -8.6039    217.5074     21.4742   3.9148148909e+01   2.8706784073e+01    0.2841393    0.1966298 -84.76  0.001089898    1.390    0.280
       300  -9.3889    160.7425     24.9925   4.7273593260e+01   4.2112722338e+01    0.3558529     0.239706  87.04  0.001757236    1.655    0.396
       301  -8.9473    185.2516     23.8887   4.3419070557e+01   3.6147207605e+01     0.176853    0.1671458 -58.91 0.0003482814    1.105    0.095
       302  -9.4573    147.8936     23.9814   4.9122288351e+01   4.5421736665e+01    0.2694257    0.1774607  60.50 0.0008666216    1.379    0.275
       303  -9.8011    246.5000    171.5188   6.9792699011e+01  -6.0950846940e-01    0.2368418    0.1092904 -44.15   0.00103249    2.371    0.578
       304  -9.2448    229.8285     20.1814   3.7690772814e+01   2.6063271622e+01    0.2756197    0.2611405  85.04  0.001246037    1.218    0.179
       305 -10.8402     32.3062    166.3235   1.1747452413e+02   3.6253075254e+01    0.2358262    0.2077697  68.28 0.0002815115    1.153    0.133
       306  -9.6965    188.9629     19.3673   4.1722993362e+01   3.5744648412e+01    0.2026355    0.1931131   3.50 0.0003433687    1.258    0.205
       307 -10.2877    247.7775     18.8127   3.5897834298e+01   2.2343046924e+01     0.348998    0.1938509  83.76  0.001168799    1.808    0.447
       308  -8.6274    101.4220     18.7553   5.7312823163e+01   5.6957744422e+01    0.1722621    0.1220936  -0.43 0.0002246125    1.530    0.346
       309  -8.9881     74.9801     18.7205   6.5265205802e+01   6.2364045288e+01     0.181319    0.1437795  30.52 0.0005686389    1.134    0.118
       310  -9.6594    211.3068     16.9645   3.8668730898e+01   3.0659588653e+01    0.4661017    0.1643011  62.19  0.001953864    2.579    0.612
       311  -9.2760    222.0606     12.8539   3.6691987720e+01   2.8635338876e+01    0.3416946     0.139899  63.09  0.001576072    2.314    0.568
       312  -8.5745     16.6429    169.1849   1.2141429449e+02   3.7039760386e+01    0.1660119   0.09028629 -68.35 0.0002908215    1.565    0.361
       313  -9.3727     18.9930    165.5173   1.2055339324e+02   3.7686190687e+01    0.1657953    0.1165328  37.36 0.0007633461    1.582    0.368
       314  -8.6158     13.3096    165.3139   1.2185690924e+02   3.8215706885e+01    0.1176166   0.07996766 -52.84 0.0002522641    1.630    0.386
       315  -9.3758      2.1541    161.6563   1.2412961893e+02   3.9918311803e+01     0.316399   0.09042128 -62.58  0.001385361    2.785    0.641
       316  -9.1983    198.3271     16.5388   3.9906294029e+01   3.3784268113e+01    0.2156192    0.1618672  55.85 0.0005466429    1.388    0.279
       317  -9.7279     70.4805     16.9815   6.6045416375e+01   6.3403523900e+01    0.2716984    0.1471989  31.95 0.0009479648    1.768    0.434
       318 -10.9294     22.7811    159.1261   1.1905078421e+02   3.8853494321e+01     0.301004    0.2284294  87.74  0.001846029    1.110    0.099
       319  -8.8045    193.7341     14.6010   3.9905958378e+01   3.5099299047e+01    0.1830028    0.1141431  87.39 0.0009324343    1.586    0.370
       320  -9.1872    249.3066    154.6637   6.5819982850e+01   1.6001432475e+00    0.1273535    0.1014274 -57.14 0.0006526394    1.674    0.403
       321  -9.1195     81.1660    154.6917   1.0344825094e+02   3.3034646609e+01    0.2923155    0.1098772  42.11  0.001086338    2.646    0.622
       322 -11.2775     21.7216    144.7212   1.1781581940e+02   4.2385776012e+01    0.7493941    0.3414341  80.82   0.00315352    2.827    0.646
       323 -13.4330     12.2792    127.0908   1.1836562061e+02   4.7353521339e+01    0.9675409     0.435002 -83.16  0.001459877    2.124    0.529
       324 -11.7339     22.7297    136.2492   1.1656936440e+02   4.4349103499e+01    0.9599735    0.4489948 -70.93  0.004699359    1.747    0.428
       325 -12.1135    101.4312     55.2750   7.1320904947e+01   5.1839163504e+01     1.340043    0.8553842  16.17  0.005836998    2.102    0.524
       326 -11.8623     14.2590    151.8703   1.2043891988e+02   4.1286565361e+01    0.5256467     0.410017 -41.53  0.002200976    1.570    0.363
       327  -9.4816      8.0256    151.4772   1.2193082495e+02   4.1853279152e+01    0.2247334    0.1389588 -71.90  0.000428413    1.307    0.235
       328  -9.7672     45.4089    150.8409   1.1235037072e+02   3.8605741961e+01    0.2740577    0.1948681 -46.89 0.0009356041    1.530    0.346
       329 -10.1146     30.8671    151.4416   1.1621011689e+02   3.9947893900e+01    0.2637289    0.1658823 -65.95 0.0004729545    1.362    0.266
       330 -10.8022     40.6227    146.6980   1.1306815246e+02   4.0130565426e+01    0.5080758     0.338328   3.33  0.001875621    2.282    0.562
       331 -10.5320     37.8768    143.3440   1.1336016018e+02   4.1232188878e+01    0.3839813    0.2615265 -34.15  0.001853133    1.881    0.468
       332  -9.7789      5.1711    147.2407   1.2226045448e+02   4.3050764397e+01    0.1955746    0.1576803 -79.01 0.0005748993    1.077    0.071
       333 -10.1555      6.4517    142.5329   1.2151764520e+02   4.4071337967e+01    0.2525263    0.1778995  87.64  0.001087172    1.207    0.171
       334 -10.9619     29.6849    142.9425   1.1550907698e+02   4.2117296714e+01     0.476628    0.2309099 -64.52   0.00234949    1.698    0.411
       335  -9.4391     47.8018    139.4114   1.1007698748e+02   4.1149013559e+01    0.2786343    0.1727225 -61.08  0.001267927    1.406    0.289
       336 -10.0090     58.8835    138.3163   1.0679155566e+02   4.0115875439e+01     0.234009    0.1845637  53.68 0.0006747136    1.345    0.257
       337 -10.2701     55.3861    133.4233   1.0696761712e+02   4.1755065410e+01    0.3254751    0.2792301  44.14  0.001912591    1.275    0.216
       338  -9.7646      3.3131    136.5493   1.2176455904e+02   4.5692854499e+01    0.2920098    0.1570823  10.44  0.001577115    2.671    0.626
       339 -10.3212    236.2690    136.0526   6.3926432077e+01   6.9994312790e+00    0.3142165    0.1947947  28.38  0.001482272    1.991    0.498
       340  -9.1844     66.4705     12.5226   6.5411616270e+01   6.4643188003e+01    0.2510049    0.1114517  45.83 0.0009953261    2.104    0.525
       341 -10.5715     61.5075    110.3494   1.0067084126e+02   4.6682181430e+01    0.5666184    0.5262431   5.39    0.0033738    1.209    0.173
       342 -10.7211     61.2748    121.2772   1.0300196048e+02   4.4033906295e+01    0.5370473    0.2981896 -61.15  0.002295959    1.617    0.381
