#   1 NUMBER                 Running object number                                     
#   2 MAG_AUTO               Kron-like elliptical aperture magnitude                    [mag]
#   3 X_IMAGE                Object position along x                                    [pixel]
#   4 Y_IMAGE                Object position along y                                    [pixel]
#   5 X_WORLD                Barycenter position along world x axis                     [deg]
#   6 Y_WORLD                Barycenter position along world y axis                     [deg]
#   7 A_WORLD                Profile RMS along major axis (world units)                 [deg]
#   8 B_WORLD                Profile RMS along minor axis (world units)                 [deg]
#   9 THETA_WORLD            Position angle (CCW/world-x)                               [deg]
#  10 FWHM_WORLD             FWHM assuming a gaussian core                              [deg]
#  11 ELONGATION             A_IMAGE/B_IMAGE                                           
#  12 ELLIPTICITY            1 - B_IMAGE/A_IMAGE                                       
         1 -10.5516     32.8686    101.2498   1.0810198444e+02   5.1948394320e+01    0.5272906    0.1360457 -61.36  0.001897238    2.961    0.662
         2 -12.3163    198.9382     39.2246   4.5579870000e+01   3.0887413231e+01    0.9978887    0.9874504 -79.66  0.003850431    1.130    0.115
         3 -12.3381    209.5554     28.2923   4.1484260477e+01   2.9729743082e+01    0.8130478    0.7169018  30.91  0.002508614    1.423    0.297
         4 -11.0106     32.1512     22.3454   8.4824476334e+01   6.8316591523e+01    0.4119369    0.1989637 -35.81  0.002190942    1.794    0.442
         5  -9.9954     21.5943      7.7212   8.3283460380e+01   7.1645984639e+01    0.2656543    0.1138701 -33.24  0.001230072    2.009    0.502
         6 -10.6773    237.0278      3.8206   3.3362067413e+01   2.6269795050e+01    0.5038776    0.3720521  37.81  0.003096588    1.990    0.498
         7 -10.7326    231.4090      3.1623   3.3627303009e+01   2.7553085569e+01    0.4402973    0.3589255  82.47  0.002509425    1.185    0.156
         8  -9.2199     75.0388    219.5266   1.1328611493e+02   1.9338472795e+01     0.495743     0.172096  49.69   0.00208125    2.664    0.625
         9 -11.2918     15.2504    190.6861   1.2329262933e+02   3.2330329413e+01    0.2758242    0.2162462  79.24  0.000568632    1.022    0.022
        10 -13.0231     49.9175    195.1227   1.1622048350e+02   2.7740190559e+01     3.112008     2.091522 -42.39   0.01728825    2.050    0.512
        11 -10.1382     49.6709    217.0066   1.1824983438e+02   2.3091800439e+01    0.5179245    0.2535549  74.51  0.002546681    2.315    0.568
        12 -10.4997    163.1006    224.3060   9.5423873775e+01   4.7861501916e+00    0.2900406    0.1707445  32.84  0.001496486    1.510    0.338
        13  -8.4106     58.5549    220.6902   1.1677267456e+02   2.1253700973e+01    0.2457913    0.1489829  37.77  0.001015325    1.593    0.372
        14 -15.1399      7.3020    244.2943   1.2770993026e+02   2.2318037983e+01      2.56985     1.682873  27.06   0.01815937    2.067    0.516
        15  -8.3272     77.4698    226.2040   1.1345534224e+02   1.7674471184e+01    0.1617319    0.1143843 -77.83 0.0007075063    1.464    0.317
        16  -8.6835     92.2716    216.9131   1.0937562362e+02   1.7433626759e+01    0.2124836    0.1582277  81.42  0.001245707    1.411    0.291
        17  -8.2664     23.9157    207.7774   1.2270636578e+02   2.7841652211e+01    0.2417756    0.1105958  71.36  0.001231831    2.170    0.539
        18  -9.1303    113.8555    206.3600   1.0331323726e+02   1.6262161227e+01    0.2608271    0.1808099  85.88   0.00131783    1.885    0.469
        19 -15.5748      6.4612    204.8873   1.2593466567e+02   3.0083827938e+01     19.26793    0.9218221 -76.51   0.01383736   13.227    0.924
        20  -9.1679    109.7634    201.4166   1.0352863748e+02   1.7943094737e+01    0.2347802    0.1795929 -62.58 0.0005426428    1.395    0.283
        21  -8.4290     66.6746    195.3982   1.1251536009e+02   2.5584253444e+01    0.3343417    0.2140305 -81.04   0.00174512    1.562    0.360
        22  -8.6727     63.0450    201.4870   1.1398297234e+02   2.4719870995e+01    0.1971651    0.1497268 -89.71 -3.750473e-06    1.225    0.184
        23  -8.5539     64.3087    198.6412   1.1340192128e+02   2.5178183536e+01    0.2518504    0.1702067  77.36  0.001218414    1.471    0.320
        24  -9.2114    193.3405    195.2077   8.4175014170e+01   4.6498479611e+00    0.3138778    0.1718126 -58.93  0.001202754    3.450    0.710
        25  -7.9216    128.3790    195.2354   9.8354425615e+01   1.6141099384e+01    0.1889835    0.1338953 -69.00 0.0009449539    1.683    0.406
        26  -9.0955     38.4796    185.9493   1.1788097428e+02   3.1089171253e+01    0.2818156    0.1974253  86.92 0.0008828208    1.259    0.206
        27  -8.4105     39.8589    182.6241   1.1725072248e+02   3.1695688064e+01    0.2111515    0.1446531  69.09  0.001238886    1.351    0.260
        28 -12.7943     57.6991    240.7698   1.1858660491e+02   1.7449134709e+01    0.8878634    0.4269288  58.79    0.0035221    1.865    0.464
        29  -8.8196    150.6775    178.9447   9.0350019851e+01   1.5528883565e+01    0.4335553     0.253239 -69.25  0.001641197    2.964    0.663
        30  -8.1834     99.6673    180.9432   1.0284173952e+02   2.4035707070e+01    0.1936763    0.1749696 -78.05 0.0005156131    1.100    0.091
        31 -10.3068     69.7151    174.7885   1.0926110978e+02   2.9888014170e+01    0.4552944    0.2846558 -34.72   0.00211462    2.365    0.577
        32 -10.2415     73.9330    170.0568   1.0755680407e+02   3.0426142762e+01    0.3339703    0.2540919 -47.82 0.0007258782    1.441    0.306
        33  -8.1181     39.6886    177.3679   1.1676602351e+02   3.2922075281e+01    0.1928081    0.1176721  67.27 0.0005268423    1.624    0.384
        34  -9.4159    114.9843    174.0240   9.7960234678e+01   2.3058290636e+01    0.2351858    0.1728504  74.85 0.0008118202    1.673    0.402
        35  -9.4881    104.8366    172.3547   1.0018035846e+02   2.5158291037e+01    0.2959176    0.2104127  45.50  0.001486521    1.365    0.267
        36  -8.0803    138.0277    169.7634   9.1560540741e+01   1.9850048555e+01    0.2029383    0.1206164  40.15 0.0008821352    1.626    0.385
        37  -9.1120     98.9523    169.4708   1.0116671081e+02   2.6791776607e+01    0.2065541    0.1085726  57.61 0.0007459497    2.391    0.582
        38  -9.4575     33.4977    165.6919   1.1703257723e+02   3.6292350669e+01    0.4183195    0.2165408  53.30  0.002116197    1.965    0.491
        39 -11.5057     58.2939    130.4466   1.0548188966e+02   4.2141154330e+01     1.010633    0.3861021 -73.09  0.003233276    3.789    0.736
        40 -12.0209     70.8658    156.2931   1.0628220372e+02   3.4154940197e+01    0.5723065    0.4918885 -29.82  0.001582106    1.401    0.286
        41 -11.9442     68.6561    144.3365   1.0493142223e+02   3.7379629786e+01    0.9358714    0.6134316  75.39  0.003874619    1.925    0.480
        42 -10.5422     89.3116    154.3199   1.0104656108e+02   3.1928826984e+01    0.6234248     0.446802 -18.50  0.002883654    2.061    0.515
        43  -9.7750     32.4451    155.2377   1.1615461529e+02   3.8882053017e+01    0.3670642    0.1528348 -61.57  0.001692998    2.029    0.507
        44  -9.3971     54.1092    149.2427   1.0969324594e+02   3.8015687926e+01    0.3281955    0.1682847 -79.03  0.001417488    2.153    0.536
        45  -8.2082     38.7885    146.5849   1.1344665135e+02   4.0346598221e+01    0.2568156    0.1364516  47.33  0.001257306    1.999    0.500
        46  -9.5091    133.4125    142.6154   8.7022399264e+01   2.6822158047e+01    0.4786474    0.1578218 -50.37  0.001481353    3.120    0.680
        47  -9.6422    102.5877    139.6709   9.4596150048e+01   3.3275608770e+01    0.5174541    0.3184299 -28.72  0.002078328    2.311    0.567
        48 -10.6551     90.2927    139.4745   9.7977173778e+01   3.5377391456e+01    0.2918849    0.2633426 -35.15 0.0007063881    1.180    0.152
        49  -8.7018    105.9678    130.8595   9.1731697982e+01   3.4788739650e+01    0.3307254    0.2307368 -66.24   0.00149648    1.595    0.373
        50 -10.0973     32.4677    130.4102   1.1300332475e+02   4.4903715748e+01    0.4157468     0.184011 -62.81  0.001924188    1.835    0.455
        51  -9.3041    112.3460    130.1887   8.9798256152e+01   3.3778386727e+01    0.4125528    0.2640461  41.44  0.001553748    1.597    0.374
        52  -9.0689     44.2819    129.5621   1.0944816504e+02   4.3953614238e+01    0.2309074     0.125377  34.57 0.0009412698    2.009    0.502
        53  -9.2997     99.1306    126.1866   9.2614657376e+01   3.7116859578e+01    0.3130414    0.2461992 -19.66  0.001021529    1.539    0.350
        54  -7.6553    156.2208    158.3316   8.4881448087e+01   1.8800649720e+01    0.1471767     0.114001 -17.27 0.0001279064    1.514    0.340
        55  -9.8687    118.8227    123.3748   8.6379802204e+01   3.4134015835e+01     0.511678    0.3159493  -4.72   0.00163178    3.746    0.733
        56 -14.4244     34.8875    249.5886   1.2329270381e+02   1.8505548868e+01     9.378952     2.860053  26.69   0.02362001   12.814    0.922
        57  -8.3587    108.0072    119.0541   8.8362958127e+01   3.7208815764e+01    0.2220771    0.2166399 -23.72 0.0003163468    1.030    0.029
        58 -10.7218     82.3530    161.2113   1.0405201918e+02   3.1328322435e+01    0.5247993    0.3455035  64.17  0.000518794    1.744    0.427
        59  -8.2943    205.2930    110.4009   6.2996287430e+01   1.7968157179e+01    0.1991997    0.1462398  63.69  0.000948263    1.597    0.374
        60  -9.5261    115.4502    109.4114   8.3760367115e+01   3.7999102480e+01    0.3429593     0.238545  32.83  0.001204007    1.538    0.350
        61  -9.3420     39.8827    109.8545   1.0741071834e+02   4.9224122872e+01     0.225408     0.166051   6.34   0.00125121    1.686    0.407
        62 -10.7256     86.1419    222.8804   1.1133201616e+02   1.7124084433e+01    0.4137135    0.2829936  79.71 0.0009706303    1.573    0.364
        63 -10.6378     49.2160    107.3158   1.0388851623e+02   4.8867012446e+01    0.3391581    0.2734768  29.82  0.001954984    1.404    0.288
        64  -8.5922    120.0000    103.9941   8.1004613512e+01   3.8291143209e+01    0.2630875   0.08705178 -45.53 0.0008039912    2.953    0.661
        65  -8.2841     74.8193     85.0400   8.9732504577e+01   5.0701522336e+01    0.2038816    0.1913453 -65.57 0.0004307962    1.197    0.164
        66  -8.5411     44.7133    219.4332   1.1943655523e+02   2.3178046499e+01    0.2404128    0.2247235 -14.30  0.001519784    1.596    0.373
        67 -11.8722    189.0308     46.6394   4.8980265339e+01   3.2297878023e+01    0.8628983      0.60234  35.36  0.002616678    1.766    0.434
        68  -8.8141     80.8723    221.2787   1.1225582479e+02   1.8183603333e+01    0.3093853    0.1868401  58.60  0.001560581    1.554    0.357
        69  -9.1774     59.4512    231.3233   1.1750189762e+02   1.9030495980e+01    0.2353057    0.1657476  79.18 0.0008031218    1.298    0.230
        70  -9.6321    144.0418     48.8551   5.7848996710e+01   4.3100772401e+01    0.3611139    0.2663727 -81.19 0.0006821349    1.825    0.452
        71  -8.0381     54.4833    221.5520   1.1766499679e+02   2.1583279899e+01    0.1215548   0.09627829  67.46  0.000124476    1.022    0.022
        72  -7.8016    146.7541     43.1930   5.5439802576e+01   4.3242845999e+01    0.1954766     0.156318  36.29 0.0005219603    1.278    0.218
        73  -9.9241     32.6974     30.1824   8.7924644223e+01   6.6977357318e+01    0.2851979    0.1246001 -41.17  0.001412461    1.968    0.492
        74  -8.9990     44.3956    230.1663   1.2030596679e+02   2.1073672883e+01    0.2408382     0.150014  71.78  0.001515031    1.407    0.289
        75  -8.2886     83.1576    229.5216   1.1263398432e+02   1.6244275651e+01    0.2395488   0.09637801  42.15  0.001127219    2.058    0.514
        76  -8.4358     48.9322    224.5284   1.1900563768e+02   2.1654777034e+01    0.2374469    0.1419862 -57.18  0.000712822    1.969    0.492
