#   1 NUMBER                 Running object number                                     
#   2 MAG_AUTO               Kron-like elliptical aperture magnitude                    [mag]
#   3 X_IMAGE                Object position along x                                    [pixel]
#   4 Y_IMAGE                Object position along y                                    [pixel]
#   5 X_WORLD                Barycenter position along world x axis                     [deg]
#   6 Y_WORLD                Barycenter position along world y axis                     [deg]
#   7 A_WORLD                Profile RMS along major axis (world units)                 [deg]
#   8 B_WORLD                Profile RMS along minor axis (world units)                 [deg]
#   9 THETA_WORLD            Position angle (CCW/world-x)                               [deg]
#  10 FWHM_WORLD             FWHM assuming a gaussian core                              [deg]
#  11 ELONGATION             A_IMAGE/B_IMAGE                                           
#  12 ELLIPTICITY            1 - B_IMAGE/A_IMAGE                                       
         1 -14.4707    151.6609     57.2632   8.6898544676e+01   3.9816184990e+01      1.37841     1.136449  17.06 0.0009697946    1.219    0.180
         2 -14.9453    163.1839     42.5801   7.9298538878e+01   3.9151928229e+01     1.464656     1.082793  -9.11   0.00348902    1.388    0.280
         3 -14.8258    178.4785      9.3539   6.4911439724e+01   3.8957175150e+01     1.861687     1.058436  54.61  0.006647816    1.623    0.384
         4 -10.3366    160.1095    246.6848   1.2304723114e+02   8.2665812703e+00    0.1600832    0.1167902 -25.49  0.001231761    1.960    0.490
         5 -20.0037     74.7651    172.4124   1.3079430132e+02   3.0985971915e+01     14.33615     5.993316 -68.84   0.07306205    2.551    0.608
         6 -12.5795    161.0001    198.2173   1.1698562227e+02   1.4132201304e+01    0.2978152    0.2304335 -49.93  0.001627612    1.660    0.398
         7 -12.5836    163.5051    202.6890   1.1714920821e+02   1.3122474972e+01    0.3218574    0.2448735  61.22  0.001204567    1.596    0.373
         8 -12.6861    156.5806    199.7330   1.1801939618e+02   1.4625879121e+01    0.4837801     0.324775  70.21  0.002692511    2.379    0.580
         9 -11.2157    153.7903    194.9799   1.1788169266e+02   1.5744101039e+01    0.2782489    0.1740089  58.29   0.00112274    1.901    0.474
        10 -10.7670    104.4761    201.6498   1.2800497363e+02   2.2081568281e+01    0.1876079    0.1231248  44.61 0.0008082655    1.242    0.195
        11 -10.9905    139.6784    200.4259   1.2126784128e+02   1.7160507741e+01     0.281309    0.1773451  39.15 0.0007450999    1.298    0.229
        12 -13.4116    171.9561    175.9557   1.1144954837e+02   1.5474294587e+01    0.5169924    0.2658627  33.00  0.002407706    1.818    0.450
        13 -13.4637    177.8637    170.8250   1.0941067039e+02   1.5182967815e+01    0.6105762    0.3803855 -40.04   0.00333404    1.867    0.464
        14 -11.9300    169.8316    195.3598   1.1492796806e+02   1.3094265752e+01    0.2278037    0.1836907  41.91 0.0006719228    1.138    0.122
        15 -12.8163    180.4338    193.4203   1.1266907035e+02   1.1607126893e+01    0.3721466    0.3641889  30.41  0.001698043    1.319    0.242
        16 -13.8350    165.1806    188.5361   1.1477574921e+02   1.4810018063e+01    0.7013063    0.3801925  41.71  0.003054335    1.523    0.343
        17 -14.3781    174.8382    187.4085   1.1276964514e+02   1.3352507700e+01     1.127922      0.42184 -39.54  0.005068188    3.212    0.689
        18 -11.8619    170.7185    185.3723   1.1322824313e+02   1.4331710963e+01    0.3202299    0.2378323 -55.81  0.001146323    1.869    0.465
        19 -10.4307    112.7431    196.2510   1.2586053675e+02   2.1786393725e+01    0.4116086    0.2659353   4.44  0.001971827    3.661    0.727
        20 -11.3053     16.4507    250.0504   1.4544985683e+02   2.4612700576e+01    0.1096891   0.06592555  84.29 0.0009931966    1.488    0.328
        21 -10.7767    133.8338    245.8618   1.2722346791e+02   1.1959835323e+01    0.1288801    0.1016123  40.15 0.0002937956    1.129    0.114
        22 -13.5900    210.1449    187.2588   1.0626951210e+02   7.3970506354e+00    0.6194609    0.3427254 -50.43  0.002884381    3.559    0.719
        23 -11.6343    200.9834    163.4923   1.0361534352e+02   1.2029599376e+01    0.4322997    0.3526199 -34.20  0.002642143    1.463    0.317
        24 -13.5377    206.4767    178.2778   1.0534987229e+02   9.1202052515e+00    0.5893359    0.3674693  28.32   0.00333624    1.370    0.270
        25 -12.6885    203.3740    172.1968   1.0481138240e+02   1.0441849037e+01    0.5907543    0.3909707 -24.68   0.00313095    1.642    0.391
        26 -11.8822    125.0723    243.9660   1.2847342203e+02   1.3358093437e+01    0.1757265    0.1320389 -61.39  0.000826913    1.801    0.445
        27  -9.8538    137.4816    244.4138   1.2649556542e+02   1.1640647922e+01    0.1053519   0.07342096  45.90 0.0001705534    1.082    0.075
        28 -12.2944    118.3823    181.5448   1.2296727671e+02   2.3368983798e+01    0.5551886    0.2679718  62.49  0.002337308    3.397    0.706
        29 -11.3511    108.5837    182.6639   1.2507543833e+02   2.4622315610e+01    0.2247334    0.1810731  62.72  0.001537391    1.161    0.139
        30 -10.4805     30.4774    182.8798   1.4033037720e+02   3.3825321501e+01    0.1438563    0.1212487  50.80 0.0002685512    1.282    0.220
        31 -12.2871    199.4398    179.2409   1.0680761456e+02   1.0221867524e+01    0.3658998    0.2743224 -68.46  0.001930752    2.766    0.638
        32 -13.4063    195.6819    169.5531   1.0575861775e+02   1.2168820115e+01    0.4613902    0.3909585 -22.91 0.0008813099    1.323    0.244
        33 -12.7170    193.8244    164.6915   1.0520157386e+02   1.3174908962e+01    0.4107369    0.2978976  23.14  0.001651836    1.239    0.193
        34 -13.9923    138.3593    171.2091   1.1742230532e+02   2.1949122000e+01    0.7803215    0.5588533  49.50  0.004651505    1.287    0.223
        35 -14.2832    145.3223    169.8424   1.1577402979e+02   2.1011418618e+01      0.76346    0.5291473  80.54  0.003875406    2.426    0.588
        36 -10.1010     11.9159    173.9731   1.4329849850e+02   3.7013596406e+01    0.1225311    0.1007597 -68.29 0.0002780385    1.469    0.319
        37 -11.8742    165.3451    172.0515   1.1209027199e+02   1.7211399911e+01    0.2278699    0.1958927  61.98  0.001432792    1.383    0.277
        38 -11.7975    126.0025    171.9678   1.2009107747e+02   2.3819854848e+01    0.2630884    0.2354318 -84.08    0.0010619    1.255    0.203
        39 -10.6478     34.0358    169.8984   1.3881904503e+02   3.5859979942e+01    0.1532785    0.1282375  78.96 0.0006279065    1.106    0.096
        40 -11.9635    230.0145    166.8135   9.9015218949e+01   6.3946797079e+00    0.2789131    0.1648924 -42.74  0.001411098    2.477    0.596
        41 -12.0947    122.1453    165.4674   1.1994151276e+02   2.5565026798e+01    0.5033343    0.2213083  56.80  0.001990274    3.258    0.693
        42 -10.8059     25.3562    165.1339   1.4022267073e+02   3.7534600884e+01    0.1444896    0.1303436  61.44 0.0005855143    1.270    0.213
        43 -12.4603    129.4068    161.7315   1.1781397452e+02   2.5053606007e+01    0.4417894    0.2027783  40.18  0.001531817    1.956    0.489
        44 -12.5397      5.8477    177.4646   1.4456656555e+02   3.6857946115e+01    0.3080463    0.1586571  56.25  0.001555892    1.531    0.347
        45 -13.6478    162.2314    154.2416   1.0953788100e+02   2.0587260006e+01    0.5189517    0.4228833 -80.44  0.002135394    1.802    0.445
        46 -11.0283     28.7830    242.4064   1.4342340003e+02   2.4547561329e+01    0.1736593   0.07419008 -86.43  0.001248913    2.372    0.578
        47 -12.4365    174.1409    148.5725   1.0596080406e+02   1.9268081299e+01    0.3078851    0.3061729 -15.49  0.001176368    1.225    0.184
        48 -10.8300     22.8768    156.0776   1.4013393395e+02   3.9476533384e+01    0.1628889    0.1334032  61.47  0.000522274    1.166    0.142
        49 -10.1504    150.7587    243.4926   1.2423802809e+02   9.9257058722e+00    0.1296579   0.07633091  34.45 0.0003171241    1.363    0.266
        50 -10.9794    139.0254    250.2677   1.2679441169e+02   1.0746455589e+01     0.152721    0.1032149  35.13  0.001097126    1.231    0.188
        51 -10.2133      1.8313    139.9173   1.4356893430e+02   4.4205870564e+01    0.1421851    0.1131299 -82.25 0.0003795407    1.183    0.155
        52 -11.1880     21.6895    240.1634   1.4438208569e+02   2.5514140876e+01    0.1066611   0.07620442  83.08 0.0008341195    1.313    0.238
        53 -11.3758      7.8506    138.1344   1.4216876606e+02   4.4161063209e+01    0.2237288    0.1982608  20.37  0.001096879    1.537    0.349
        54 -11.0759    131.2311    237.3925   1.2685456960e+02   1.3349994791e+01    0.1266283     0.119873  52.12 0.0004260228    1.295    0.228
        55 -10.1921      7.7089    237.8019   1.4633373182e+02   2.7066263012e+01    0.1012553   0.05582606  77.03 0.0008514412    1.433    0.302
        56 -12.9372    160.5389    127.9114   1.0449351844e+02   2.5396375919e+01    0.4136014    0.3631595 -86.07  0.001920721    1.509    0.337
        57 -10.7550     30.6546    232.6694   1.4275963478e+02   2.5763061823e+01    0.1374667    0.1080354  63.62  0.001183946    1.187    0.158
        58 -10.9632    167.6361    112.6420   9.9323127243e+01   2.6604983271e+01    0.2831193    0.2217562 -84.45   0.00131242    2.044    0.511
        59 -10.2934     25.8438    228.9640   1.4334583515e+02   2.6755532990e+01   0.09528692   0.05420233 -86.82 0.0003757236    1.671    0.401
        60 -10.8168    205.3353    110.2327   9.0959875422e+01   1.8815411122e+01    0.3102979    0.1902055  39.91 0.0008735093    1.543    0.352
        61 -10.3790     22.5165    221.0049   1.4354605565e+02   2.8255686011e+01    0.1105001   0.07505626 -81.94 0.0005696828    1.506    0.336
        62 -10.5130     23.3797    215.6862   1.4319198532e+02   2.8999448809e+01    0.1008056    0.0739133 -82.35 0.0003798502    1.434    0.303
        63 -10.4128    130.3198    212.6192   1.2444620229e+02   1.6791381926e+01    0.1625271    0.1225118 -83.18 0.0006848848    1.780    0.438
        64 -10.6498    144.0602     80.6707   9.6195250091e+01   3.7511174454e+01    0.2181259    0.1930021  34.14 0.0006002915    1.116    0.104
        65 -12.3828    116.2637    212.1220   1.2692802686e+02   1.8858378205e+01    0.2438904     0.181115  79.60  0.001342257    1.584    0.369
        66 -13.1281     11.5800    205.9278   1.4471075545e+02   3.1573773256e+01    0.3433698    0.2315871  28.26  0.002802607    1.897    0.473
        67 -13.7402    154.1725    185.9080   1.1649522479e+02   1.7013889205e+01    0.6590806    0.4399561 -67.14    0.0036462    2.359    0.576
        68 -13.1532    167.1131     34.2582   7.5594131086e+01   3.9245303539e+01    0.4967389    0.4165675  24.28 0.0008621464    1.154    0.134
        69 -10.8809     13.4221     59.8979   1.3252281285e+02   6.0732573718e+01    0.1681015    0.1502244  85.93 0.0004382575    1.235    0.191
        70 -10.4887    143.7597     33.6342   8.0270282482e+01   4.5328261918e+01     0.252043    0.1936981  66.02 0.0007262879    1.496    0.331
