#   1 NUMBER                 Running object number                                     
#   2 MAG_AUTO               Kron-like elliptical aperture magnitude                    [mag]
#   3 X_IMAGE                Object position along x                                    [pixel]
#   4 Y_IMAGE                Object position along y                                    [pixel]
#   5 X_WORLD                Barycenter position along world x axis                     [deg]
#   6 Y_WORLD                Barycenter position along world y axis                     [deg]
#   7 A_WORLD                Profile RMS along major axis (world units)                 [deg]
#   8 B_WORLD                Profile RMS along minor axis (world units)                 [deg]
#   9 THETA_WORLD            Position angle (CCW/world-x)                               [deg]
#  10 FWHM_WORLD             FWHM assuming a gaussian core                              [deg]
#  11 ELONGATION             A_IMAGE/B_IMAGE                                           
#  12 ELLIPTICITY            1 - B_IMAGE/A_IMAGE                                       
         1 -12.1449    129.3757     19.0931   6.5224776754e+01   4.9764958293e+01     1.448223    0.8614689  59.57   0.00785913    1.540    0.351
         2 -12.7857    118.2823     66.3463   8.2015696164e+01   4.5677938603e+01     2.149025     1.261244  44.33   0.01028219    1.646    0.392
         3 -12.2169     55.7620      5.9236   8.0477063158e+01   6.4258930516e+01     0.955497    0.5058345  14.63  0.002421455    2.081    0.519
         4 -11.4520     42.0133      2.6645   8.4051510555e+01   6.6404086367e+01    0.4794249    0.2461976  -0.29  0.002702761    2.352    0.575
         5 -12.6649     15.5834     56.5877   1.1188861386e+02   6.1216830944e+01     1.490559    0.8581744  18.68  0.008081829    1.959    0.490
         6 -11.4236     69.9003     19.0606   8.0712996934e+01   6.0794374950e+01    0.8262784    0.4171144  22.63  0.003994682    2.239    0.553
         7 -12.1281     14.1586     38.1920   1.0735440554e+02   6.4415963207e+01    0.9878429    0.4449371 -39.69  0.005951001    1.702    0.412
         8 -12.4342      8.6500     26.1479   1.0580534246e+02   6.6644599164e+01    0.7676547    0.5137761 -15.86  0.005069936    1.211    0.174
         9 -13.3517     76.9447     31.1292   8.2719648934e+01   5.8250396722e+01     2.923234     1.517758  42.58   0.01574075    1.871    0.466
        10 -11.3936     23.4780     30.7189   1.0143620851e+02   6.4838078250e+01     0.922739    0.2636428 -45.68  0.004299054    3.095    0.677
        11 -11.6422     30.5889     19.4051   9.4769516907e+01   6.5749218865e+01     1.365453    0.3617448 -41.12  0.006130239    3.560    0.719
        12 -11.4641    110.4972     30.9164   7.3221285777e+01   5.2309952709e+01    0.8401958    0.5459424  70.88  0.004231961    2.284    0.562
        13 -11.7749     24.8969      5.5021   9.1788500201e+01   6.8014746087e+01    0.6747513    0.4664029  30.42  0.005097528    1.679    0.404
        14 -12.0008     37.4475     41.8644   9.9785196874e+01   6.1851178493e+01     1.335699    0.7244746  -4.62  0.007116843    2.370    0.578
        15 -12.3219     54.9926     37.4281   9.2092246360e+01   6.0524505770e+01    0.7805047    0.5117904  26.79  0.004939143    1.479    0.324
        16 -11.9969     50.2158     24.7657   8.9395028309e+01   6.2847749925e+01    0.7578444    0.4339429   0.96  0.001021975    2.038    0.509
        17 -12.3677     40.8050     16.8699   8.9950240724e+01   6.4965583833e+01    0.8397599     0.498178 -22.52  0.004759332    1.491    0.329
        18 -12.9267     99.1468     54.9391   8.3832945646e+01   5.1142180521e+01     1.810216    0.7250495  33.06  0.005449467    3.124    0.680
        19 -12.3299    111.9250     20.5496   6.9578993799e+01   5.3199030950e+01    0.8026588    0.6195019 -25.93  0.005104039    1.436    0.303
        20 -12.5712     19.5382     13.7152   9.7092689461e+01   6.7521218075e+01    0.8546407    0.6813954  39.61  0.006167135    2.086    0.521
        21 -12.5960     99.5942      7.6216   6.8361838757e+01   5.6847786583e+01    0.8372822    0.5004752  44.71  0.001729484    1.382    0.276
        22 -12.0369    113.2045      7.9310   6.5280730985e+01   5.4175952446e+01     1.021784    0.4643496  65.73  0.004625987    2.710    0.631
        23 -13.4142      3.7754      9.5599   1.0219323193e+02   6.9287764626e+01    0.7940817    0.3915128 -28.64 0.0006463114    1.566    0.361
        24 -13.1685     54.8136     69.5171   1.0194839207e+02   5.5270386180e+01     3.204239     1.585971  46.61   0.01477557    3.009    0.668
        25 -12.1753    118.1478     50.6206   7.7378924841e+01   4.8168466752e+01     1.378162    0.7958419 -47.87  0.006581414    2.101    0.524
        26 -11.6931    136.8748      5.0901   5.9668631844e+01   4.9497459601e+01    0.9165984    0.6916233  83.04  0.004235772    1.481    0.325
        27 -10.9726    157.9457     40.9634   6.5722936843e+01   4.0860953514e+01      1.13693    0.7977576  13.60   0.00568033    2.071    0.517
        28 -11.5902    214.0673      4.6033   4.8900382723e+01   3.2246160132e+01    0.9467869    0.2754107  65.95  0.001984099    2.739    0.635
        29 -11.0845    215.6215     24.7140   5.2967272516e+01   2.9584833754e+01    0.6333483    0.5236844 -57.02  0.002777478    1.233    0.189
        30 -10.9920    211.6441     17.4175   5.1867201820e+01   3.1362475778e+01    0.5748003    0.2919255  56.79  0.002947776    1.882    0.469
        31 -10.3802    212.7815     11.7677   5.0534975431e+01   3.1752125343e+01    0.4388612    0.2463271  79.19  0.001809439    1.592    0.372
        32 -10.6970    203.0561     18.2088   5.3067696171e+01   3.3222132760e+01    0.6026256    0.3069586  42.22  0.002492611    2.816    0.645
        33  -9.4841    199.1059     16.1828   5.3105051473e+01   3.4355911035e+01    0.3307197    0.2589658  34.45  0.001279112    1.708    0.415
        34  -9.3587    243.9521      5.3592   4.6223428434e+01   2.5691001862e+01    0.2582684    0.1709399 -26.93  0.001556404    2.191    0.544
        35 -10.4409    243.3955     12.0102   4.7513246987e+01   2.5034417535e+01    0.4714864    0.2471168 -34.15  0.002060745    2.279    0.561
        36 -10.0024    232.1908     18.7349   4.9898958378e+01   2.6634194115e+01    0.4108431    0.3577684 -41.63  0.001874203    1.425    0.298
        37 -10.5918    232.9888      9.9085   4.8081287818e+01   2.7506943463e+01    0.3976237    0.3236349 -35.30  0.001441522    1.573    0.364
        38 -10.9517    236.4199     32.0203   5.2114786765e+01   2.4014026967e+01    0.6245178    0.4526593 -23.92  0.003591557    1.993    0.498
        39 -10.4472    240.9590     22.0930   4.9674293177e+01   2.4319198017e+01    0.4283922    0.2768565 -44.21  0.001562476    1.572    0.364
        40 -10.6330    247.0168     19.1241   4.8520087173e+01   2.3403190640e+01    0.4503969    0.2287779  67.79  0.001456459    1.790    0.441
        41 -10.0643    240.1575     16.4617   4.8663273262e+01   2.5188454152e+01    0.4749825    0.2036104 -74.63  0.001913108    3.381    0.704
        42  -9.6307    176.3331     14.8898   5.5866644174e+01   3.9723556840e+01    0.3974304    0.3275826  40.69  0.001362864    1.366    0.268
        43 -10.0103    187.0036     19.1248   5.5377829998e+01   3.6805189890e+01    0.6348169    0.3631495 -83.18  0.003035173    2.214    0.548
        44 -10.1573    167.3367     12.5919   5.6628279489e+01   4.2018331156e+01     1.562646     0.653603  82.14  0.005147278    4.673    0.786
        45 -10.7982    164.1883      4.8353   5.5129948073e+01   4.3484293004e+01    0.7483019    0.4688088  49.42  0.003402937    1.487    0.328
        46 -12.2262    166.4087     24.6032   5.9862028504e+01   4.0934426120e+01    0.8423809     0.295345  55.00  0.003493346    2.366    0.577
        47 -11.1988    158.9908     19.6972   5.9815520567e+01   4.3173566002e+01    0.7814895    0.4672699  42.67  0.002627301    1.715    0.417
        48 -11.6277    149.6020     16.6767   6.0628094812e+01   4.5604286095e+01    0.8427182    0.3331001  46.20  0.001651278    2.396    0.583
        49 -10.1201    149.9912     10.5004   5.8871032360e+01   4.6130535064e+01    0.5792868    0.3153807  82.37  0.002698189    2.462    0.594
        50 -11.6195    177.9678     27.8921   5.8841305910e+01   3.7877535086e+01    0.7858948     0.616235  17.11  0.004154963    1.757    0.431
        51  -8.5300     85.0965     15.0826   7.4745045598e+01   5.8747998840e+01    0.3701582    0.2649151  80.86  0.001949809    3.011    0.668
        52 -10.1109    222.0338     11.2456   4.9437278708e+01   2.9750013015e+01    0.4303939     0.271029 -73.14  0.002097253    1.519    0.342
        53  -9.3369    225.9909      8.8006   4.8543936237e+01   2.9156029278e+01    0.2448846    0.1843422  43.49 0.0009470328    1.839    0.456
        54 -10.3448    181.0244      4.6215   5.2745501859e+01   3.9693361571e+01    0.5083482    0.3008169  64.02  0.001189376    1.393    0.282
        55  -8.7940    174.2575      8.6212   5.4624266893e+01   4.0840402577e+01     0.302071    0.2086386 -21.68  0.001784229    1.858    0.462
        56  -9.1201    174.5144      4.7384   5.3641315153e+01   4.1159192852e+01    0.3610149    0.1299464  45.52  0.001443037    3.298    0.697
        57 -10.8951    199.6345      5.1121   5.0582733487e+01   3.5426633417e+01    0.5546145    0.3163959 -50.62  0.002628232    1.832    0.454
        58  -9.6233    189.0233      8.7022   5.2670370641e+01   3.7465493802e+01    0.5061669    0.1699616  51.51  0.002081645    2.937    0.660
        59  -9.6973     77.3656      8.8877   7.4778237932e+01   6.0666726725e+01    0.2151538    0.1908677  23.95  0.001549464    1.206    0.171
        60  -9.3203     77.7868      4.4306   7.3049533419e+01   6.1010858054e+01    0.3041773    0.1643216  16.88  0.001672073    2.110    0.526
        61  -9.3021    250.0329      7.8752   4.6165529188e+01   2.4131619141e+01    0.2372445    0.1326645 -82.47  0.001362698    1.639    0.390
        62  -8.0664     82.6471      8.7132   7.3200892305e+01   5.9795666460e+01     0.123569   0.07208002  24.43 0.0004634126    1.667    0.400
        63  -8.1859    238.2543      7.3456   4.7098754520e+01   2.6670122787e+01    0.1021713   0.08911925  50.48 0.0002189176    1.587    0.370
        64 -10.2983     70.3520      3.3952   7.4857624093e+01   6.2314595588e+01    0.3981702    0.2832064  30.28  0.002611065    1.144    0.126
        65  -8.4212     82.4965      2.0305   7.0869615483e+01   6.0422193961e+01    0.1818272    0.1218142  12.91  0.001177493    1.455    0.313
        66  -9.7169    248.6159      2.0752   4.5233354706e+01   2.5090590545e+01    0.2106396    0.1626705 -87.95 0.0006128853    1.075    0.070
        67 -12.3399      3.2100     17.4574   1.0518869832e+02   6.8253471552e+01    0.2752525    0.1806723 -19.32 0.0003452467    1.141    0.124
        68  -8.5076    112.3109      1.8021   6.3538510289e+01   5.4879622771e+01    0.1528217    0.1407972 -65.27 0.0004849987    1.408    0.290
        69  -8.5608    124.6711    249.7018   1.1777112996e+02   5.3362690744e+00    0.1171997   0.09992596  13.10 0.0004823557    1.638    0.390
        70  -9.7755    212.1580    249.8411   1.0089335708e+02  -9.4187908536e+00    0.3601026    0.1827845  21.84  0.001605485    2.595    0.615
        71  -9.2419    183.6889    250.1258   1.0639785246e+02  -4.7744730776e+00    0.2343255    0.1569026  47.22   0.00131992    1.384    0.278
        72  -8.7664    161.5139    250.4771   1.1075416796e+02  -1.0554625518e+00    0.1295352    0.1107011  45.31  0.000810084    1.002    0.002
        73  -9.0672     30.8213    247.3921   1.3435795064e+02   1.9331926663e+01    0.1329339    0.1007954  40.84 0.0004573682    1.683    0.406
        74  -9.6217      3.3713    246.1582   1.3860573361e+02   2.2561716850e+01    0.2312933    0.1092618 -63.66  0.001428254    2.234    0.552
        75  -8.9268    206.1808    244.6166   1.0118353421e+02  -7.6541099883e+00    0.1879989    0.1053291  29.89 0.0009460214    1.727    0.421
        76 -12.1437      9.5718    112.0968   1.2476095500e+02   5.0570894809e+01     1.119683    0.5365895 -36.72  0.003637681    2.314    0.568
        77 -12.2459     20.1046     99.1507   1.1965253580e+02   5.2603087340e+01      1.40093    0.8801818 -62.35  0.008630496    1.329    0.247
        78  -9.7516    142.4961    243.2938   1.1346376818e+02   3.4921204220e+00    0.2980004    0.1965613  34.17  0.001307968    1.550    0.355
        79  -8.9214      1.9969    241.7529   1.3856416765e+02   2.3538374776e+01    0.1487637    0.1042731  76.50   0.00053213    1.065    0.061
        80 -11.6569     77.8766     61.7082   9.2271599030e+01   5.3562208650e+01    0.7135528    0.3476666 -31.16  0.003272616    2.204    0.546
        81  -8.1880    211.2807    240.6105   9.9541719276e+01  -7.8661731217e+00    0.1185798    0.1015288  83.41 0.0007001641    1.741    0.426
        82 -10.4675     14.7081    236.4946   1.3623021865e+02   2.3259945152e+01    0.3810925     0.157535 -76.77  0.001095695    1.996    0.499
        83  -9.8373     12.9674    231.8826   1.3620618110e+02   2.4356203646e+01    0.2818309    0.1596404  75.31  0.001619296    1.425    0.298
        84  -9.5752    180.9310    234.5390   1.0448988376e+02  -1.6781701363e+00    0.2741985    0.1156405  44.02  0.001161425    2.143    0.533
        85 -12.4291     24.1115     82.2504   1.1506608977e+02   5.5768171777e+01    0.9671147    0.7694152   1.27  0.002484442    1.414    0.293
        86 -12.3133     27.2390     70.0502   1.1124506863e+02   5.7889292342e+01    0.7694349    0.5759133 -52.68  0.001862962    1.248    0.199
        87 -11.6542     73.1320     49.1875   8.9893811319e+01   5.6291378057e+01    0.9619815    0.4773192 -15.92  0.003773258    3.613    0.723
        88  -8.1709     50.3278    235.6788   1.3010059987e+02   1.9254059450e+01    0.1288414   0.07093111  70.89 0.0005749012    1.688    0.408
        89 -12.0442     42.1116     50.2376   1.0070108226e+02   6.0032588626e+01     0.873816      0.63247  11.38  0.004333245    1.373    0.272
        90  -9.2083    227.2423    231.3643   9.4910657761e+01  -9.0129855163e+00    0.2188775    0.1650524  13.48 0.0006459109    1.292    0.226
        91  -9.0259    136.1729    229.6468   1.1279578446e+02   7.1906318651e+00    0.2803906    0.1494593 -34.26  0.001099367    3.418    0.707
        92  -9.3631    202.1896    229.0149   9.9342134729e+01  -4.4448289316e+00    0.2204522    0.1720391  36.02 0.0003901723    1.171    0.146
        93  -8.5931     50.4609    227.9254   1.2937635447e+02   2.0829001849e+01    0.1792258    0.1016484 -76.36 0.0008032568    1.573    0.364
        94  -8.6898     52.9998    224.2751   1.2856297395e+02   2.1265169505e+01    0.1755803    0.1365113  70.44   0.00116056    1.092    0.084
        95 -11.8647     81.8036     53.1167   8.8411151247e+01   5.4356431921e+01     1.845055    0.4960442  35.06  0.003251935    4.556    0.781
        96  -8.9027     41.1466    221.0452   1.3045613287e+02   2.3427895717e+01    0.1894292    0.1167579 -51.38  0.001076203    2.130    0.531
        97  -8.6720      2.7879    213.0470   1.3662887183e+02   2.9172139394e+01    0.1489691   0.06859684 -79.05 0.0004794359    1.683    0.406
        98  -8.8073     13.5472    212.4969   1.3472032286e+02   2.8257795424e+01    0.1160538   0.08397434  85.95 0.0001377097    1.017    0.016
        99  -8.8973     26.6726    211.6713   1.3229076655e+02   2.7071423847e+01    0.1091286    0.0816543 -53.80 0.0007050835    1.705    0.414
       100  -8.9525    244.5311    204.3067   8.6720711700e+01  -7.4405669321e+00    0.1782764    0.1152143 -26.18 0.0009352486    1.547    0.354
       101  -8.2792     78.1291    136.0994   1.1054174194e+02   3.8085930517e+01    0.1874539    0.1548036  85.80            0    1.329    0.248
       102  -9.2217    237.4924    135.4728   7.3987180133e+01   6.3686712416e+00    0.1425398    0.1311617 -47.22 0.0008099921    1.010    0.010
       103  -8.5312     61.3024    135.3021   1.1483527457e+02   4.0525512454e+01    0.1336897   0.09534729 -35.38 0.0003944441    1.590    0.371
       104  -9.2826     86.3063    134.1794   1.0799106013e+02   3.7320302794e+01    0.3183852    0.2049055  14.22  0.001405102    2.359    0.576
       105  -9.3899     54.8963    132.9387   1.1610149339e+02   4.1843924206e+01    0.3325105    0.1915884  16.31  0.001493761    2.525    0.604
       106 -10.4601     47.4153    129.9833   1.1756317401e+02   4.3361642743e+01    0.5973768    0.2635046 -43.82  0.002629461    2.371    0.578
       107 -10.1151     47.6499    124.3110   1.1649469932e+02   4.4628497154e+01    0.3812076    0.1727329  45.16  0.001720437    2.694    0.629
       108  -9.3380     34.9103    130.7852   1.2097935296e+02   4.4439664609e+01    0.3617117    0.1376422 -66.40  0.001429787    2.320    0.569
       109  -9.2099     59.7950    111.9943   1.1069348481e+02   4.6011522235e+01    0.3758254    0.2055309 -57.33  0.001467382    1.631    0.387
       110 -10.3172     65.7627    131.0204   1.1285441989e+02   4.0954242466e+01    0.2612275    0.2102513 -64.71  0.001511707    1.124    0.111
       111  -9.9811     56.5109    125.2941   1.1426739397e+02   4.3410245238e+01    0.2965419    0.2464854 -76.10  0.001023086    1.198    0.165
       112 -10.3112     59.4996    120.6756   1.1255157768e+02   4.4103908686e+01    0.3901079    0.2688445 -61.14  0.001788497    1.306    0.234
       113 -11.4100     67.7289    122.1133   1.1056117601e+02   4.2743264498e+01     1.004367    0.3812663 -44.52   0.00386883    2.664    0.625
       114  -9.5766     64.5241    113.8746   1.0974301313e+02   4.5009912256e+01    0.2922754    0.1988134  44.91  0.001344118    1.693    0.409
       115  -9.9638     72.9539    129.5269   1.1062834981e+02   4.0342165346e+01    0.3080029    0.1807712 -54.90 0.0003793392    1.513    0.339
       116 -11.3310     38.2523    122.9660   1.1879973801e+02   4.5887077709e+01    0.8150055    0.5502823 -87.40  0.004537628    1.739    0.425
       117  -9.4038     22.0146    128.7025   1.2398282299e+02   4.6033836901e+01    0.2268471    0.1700775 -63.17 0.0007888473    1.062    0.059
       118  -9.4591     25.8282    127.0565   1.2275413937e+02   4.6087821000e+01    0.3496168    0.2047706  54.09  0.001754873    2.173    0.540
       119 -11.1836     43.1664    115.6438   1.1613140492e+02   4.7039670791e+01    0.5516048    0.3860883 -51.81  0.001705598    1.204    0.170
       120  -9.2635     75.1470    124.7241   1.0905601857e+02   4.1143409463e+01    0.2404056    0.1945796  88.43 0.0008057948    1.439    0.305
       121  -8.6327     27.9421    119.4863   1.2099182020e+02   4.7594632846e+01    0.2681513    0.1489157  35.20  0.001492155    2.127    0.530
       122  -9.4776     91.9378    120.8191   1.0360268459e+02   3.9511695048e+01    0.4899061     0.221649 -49.03  0.001834204    2.040    0.510
       123  -9.4580     92.5140    115.4430   1.0221391192e+02   4.0626377793e+01    0.2503604    0.2022162 -58.31 0.0005402633    1.208    0.172
       124  -8.5875     90.6876    112.6531   1.0207041830e+02   4.1538459183e+01    0.2710664     0.189972  27.27  0.001355634    1.620    0.383
       125  -8.9313    132.0244    119.6752   9.2706658567e+01   3.2432422579e+01    0.2077148    0.1966546  43.42 0.0004693214    1.081    0.075
       126  -9.9162    104.3416    116.8439   9.9298492017e+01   3.8320443082e+01     0.502956    0.2995998  65.27  0.001960655    2.744    0.636
       127  -9.3711     98.6364    113.1080   9.9969926938e+01   4.0131382209e+01    0.3850986      0.26942  -7.55  0.001731906    2.144    0.534
       128  -9.0254     50.9636    117.3741   1.1428141132e+02   4.5831873197e+01    0.2515225    0.1515154 -40.33  0.001306979    1.656    0.396
       129  -8.8149    116.4599    116.5446   9.5978752712e+01   3.6177733877e+01    0.1469954    0.1419693 -40.82 7.489159e-05    1.024    0.023
       130 -10.1777     82.2909    114.7022   1.0489803457e+02   4.2378621781e+01    0.3998349    0.2654466  14.79  0.001903784    2.036    0.509
       131  -9.9369    107.8862    110.2187   9.6732610539e+01   3.9146206838e+01    0.6450712    0.2295262 -50.71  0.002225183    2.796    0.642
       132  -8.7653    104.4386    109.4606   9.7487919155e+01   3.9926023886e+01    0.2264706    0.2129336 -42.22 0.0007054868    1.015    0.015
       133  -9.1422    133.1301    111.8593   9.0499254560e+01   3.3902925318e+01    0.2884926    0.2327533 -32.32  0.001433351    1.318    0.241
       134  -8.5632     54.5318    112.5028   1.1230272098e+02   4.6516431132e+01    0.1326513    0.1118413 -46.83 3.929033e-05    1.055    0.052
       135 -10.1407     32.6147    108.9066   1.1784978884e+02   4.9514365730e+01    0.4427756    0.2714497 -50.21  0.002346745    1.343    0.256
       136  -9.6020     41.7443    108.9880   1.1525812611e+02   4.8647048897e+01    0.2760545     0.195742 -47.27 0.0004446959    1.211    0.174
       137  -9.8096     37.5135    108.9843   1.1646865251e+02   4.9053560056e+01     0.463359    0.2432926 -71.69  0.002243701    2.138    0.532
       138 -10.6777     68.2333    106.4459   1.0704418971e+02   4.6166981948e+01    0.5796292    0.3085565 -29.56  0.002450691    2.582    0.613
       139 -10.0155     74.8258    107.1869   1.0530398909e+02   4.5112387445e+01    0.4307474     0.244845  30.69  0.001614113    1.976    0.494
       140 -10.9115     77.5499    102.0943   1.0331130862e+02   4.5824672748e+01    0.6975464    0.3463527  34.57  0.003147544    2.190    0.543
       141  -9.2880    149.3557    106.2260   8.5076769007e+01   3.1636028733e+01    0.4201675    0.1435821 -41.66  0.001341498    3.013    0.668
       142  -9.6197    114.0268    107.0278   9.4275193653e+01   3.8702325809e+01    0.2293743     0.218482 -26.15 0.0008104161    1.046    0.044
       143 -10.0553     37.4324     97.5994   1.1422431674e+02   5.1501867999e+01    0.6388658    0.3698106 -24.02  0.003322006    2.161    0.537
       144 -10.0209     36.4226     75.9345   1.0965104437e+02   5.5976195175e+01    0.2697666    0.1667264 -50.39 0.0007822015    1.379    0.275
       145 -10.6216     41.9871     80.1031   1.0886756328e+02   5.4635664266e+01    0.8276711    0.4775253  -7.30  0.004191194    2.427    0.588
       146 -11.4683     35.7553     91.4624   1.1343193983e+02   5.2934122740e+01    0.7053756    0.3193938  22.16  0.003214359    2.670    0.625
       147  -9.6152     43.0196     86.4611   1.1005514917e+02   5.3266966928e+01    0.3544964     0.199696 -36.58  0.001348434    1.663    0.399
       148 -11.1740     57.1737     84.6212   1.0517015108e+02   5.2098312742e+01    0.5173678    0.4331463 -46.77  0.001550801    1.128    0.113
       149 -10.5254     52.1042     85.4577   1.0696621515e+02   5.2512449057e+01     1.931049    0.3534608 -50.77  0.006252362    4.172    0.760
       150 -11.3172     48.0509     97.6785   1.1105331873e+02   5.0434679541e+01    0.8400647    0.7639185   9.42  0.004116167    1.235    0.191
       151  -9.4382    133.9353    103.0350   8.8051440739e+01   3.5591677516e+01    0.4072644    0.1769325 -45.34  0.001512055    2.290    0.563
       152  -8.7498    234.1584    200.1017   8.7839350312e+01  -4.9954402761e+00    0.2510844    0.1490635 -31.60  0.001231102    1.701    0.412
       153  -9.4281    171.1892    102.6765   7.9201879196e+01   2.7447704191e+01    0.3832085    0.2486892  29.83  0.001592014    2.073    0.518
       154  -9.8738    141.5334    102.3646   8.5983614228e+01   3.4123646441e+01    0.3200687    0.2638861 -22.51  0.001207132    1.374    0.272
       155  -8.6935    105.4854    103.0189   9.5587739185e+01   4.1118840268e+01    0.2161641    0.1364721 -45.16 0.0005083638    1.521    0.342
       156 -10.3257     51.7777     93.0605   1.0887929313e+02   5.0998306075e+01    0.3531505    0.2678534  -1.08  0.001660972    1.516    0.340
       157 -10.8230      4.0717     99.4231   1.2429384768e+02   5.3579752298e+01    0.5683586    0.2770215 -58.15  0.003347524    1.495    0.331
       158  -8.9343      5.4245     82.4931   1.2094906120e+02   5.6945599503e+01    0.1876321    0.1573188  67.63  0.001144427    1.621    0.383
       159  -9.7997      1.4241     90.9332   1.2365334390e+02   5.5467314226e+01    0.2189023    0.1199142 -64.62 0.0006821615    1.460    0.315
       160  -9.6812      6.0734     86.3770   1.2147240600e+02   5.6133979608e+01    0.5157808     0.199402 -35.51  0.002544274    2.696    0.629
       161  -9.6404      1.9326     84.4821   1.2237831320e+02   5.6738041226e+01    0.2413533    0.1875167  15.57  0.001607524    1.613    0.380
       162 -10.7476    116.7362    100.2114   9.1801052823e+01   3.9620022040e+01     0.399139    0.2907775  -1.54  0.001828852    1.943    0.485
       163  -9.1243     82.4439     97.0000   1.0062592362e+02   4.6179923540e+01    0.3667041    0.1472736  33.38  0.001440161    2.788    0.641
       164  -8.8665     88.1868    100.6291   9.9867061939e+01   4.4534050728e+01    0.2097057    0.1919409 -61.93 0.0007139801    1.156    0.135
       165 -10.1634     89.3851     96.8786   9.8573847769e+01   4.5129123628e+01    0.5478175    0.2966187  27.28  0.002395493    2.240    0.554
       166 -11.0342     88.5340     90.6810   9.7213141287e+01   4.6531742026e+01    0.6669728    0.4120912 -39.21  0.002587239    1.552    0.356
       167  -9.7805     92.5223     88.5195   9.5474689443e+01   4.6317551687e+01    0.2713295    0.2363221 -78.14 0.0007784394    1.438    0.304
       168  -8.4123    110.7861    100.5924   9.3509767933e+01   4.0662909965e+01    0.1778898    0.1383419  52.00 0.0002191015    1.395    0.283
       169  -9.3757     63.2205     98.1933   1.0661734446e+02   4.8577890158e+01    0.2733333    0.2099888  50.98  0.001464668    1.602    0.376
       170  -9.1960    160.3725     96.7543   8.0092543148e+01   3.1081228260e+01    0.3824376     0.244462  32.75  0.001040455    1.932    0.483
       171  -9.3248    156.6703     94.6744   8.0396335770e+01   3.2323018881e+01    0.3622342    0.2822619  59.23  0.001790287    1.307    0.235
       172 -10.3040    114.5685     95.4765   9.1142145674e+01   4.1002444364e+01    0.4737076    0.2054105  49.79  0.001767767    2.617    0.618
       173  -8.5100    141.2383     95.3916   8.4237870633e+01   3.5588314898e+01    0.2024531    0.1400077  59.81 0.0003808963    1.598    0.374
       174 -10.3964    124.6306     93.0985   8.7831744562e+01   3.9507731449e+01    0.5023854     0.402611  89.63   0.00196515    1.661    0.398
       175 -11.2040    120.0689     86.8893   8.7353245541e+01   4.1629021431e+01    0.8854693    0.2956181  48.27  0.002966599    3.188    0.686
       176  -9.8491    123.9951     81.8251   8.4924648362e+01   4.1799478349e+01     0.503568    0.3032803 -54.03  0.002235221    1.961    0.490
       177 -10.8145    105.4653     91.0374   9.2461015942e+01   4.3581462349e+01    0.6835233    0.4255656 -18.26  0.002884774    2.383    0.580
       178 -10.0252    109.0036     84.0027   8.9558342173e+01   4.4304150037e+01    0.3347602     0.252356  -6.12  0.001124068    1.634    0.388
       179  -7.9880    101.2398     88.3379   9.2922138224e+01   4.4868615647e+01    0.1394125    0.1038629 -17.46 0.0001953275    1.550    0.355
       180  -9.5914    140.8356     84.5300   8.1434177042e+01   3.7759978334e+01    0.3815809    0.2343934  64.61  0.001162716    2.072    0.517
       181  -9.6621    150.4478     77.8042   7.7350786440e+01   3.6859235107e+01    0.5127216    0.2696219  35.44  0.002003629    2.396    0.583
       182  -9.5742    146.0902     86.3977   8.0678080562e+01   3.6262143697e+01    0.3604726    0.2780949 -30.78  0.001030333    1.399    0.285
       183  -9.0281    146.6043     82.2450   7.9440280036e+01   3.6916874168e+01    0.2617381    0.2105834 -14.98 0.0006977338    1.485    0.327
       184  -8.9150    224.7012     85.0197   6.5020264242e+01   1.8441444036e+01    0.1943462    0.1708156 -59.02 0.0001667868    1.075    0.070
       185 -10.6298    100.7792     69.3004   8.7683935869e+01   4.8484973654e+01    0.5824964    0.3868896 -55.01  0.002414907    1.876    0.467
       186 -10.6179     91.8691     77.9502   9.2759413143e+01   4.8460356235e+01    0.4887469    0.3601429  22.02  0.001661659    1.448    0.310
       187 -10.6742     99.1192     77.1625   9.0427628085e+01   4.7370450685e+01    0.4951212     0.320505  33.12  0.001709043    1.592    0.372
       188 -11.0282    102.3507     81.5162   9.0730933141e+01   4.5987454080e+01    0.6373533    0.3706526  20.62  0.002684514    2.460    0.593
       189  -9.9056    105.9700     75.9569   8.8141219392e+01   4.6361506408e+01    0.3234295    0.2867987 -77.81  0.001663806    1.427    0.299
       190  -8.1000    169.3831    200.6998   1.0105938773e+02   6.8895021984e+00    0.1512916     0.110686  73.55 0.0007020615    1.776    0.437
       191  -9.8249    160.8710     81.7495   7.6076780542e+01   3.3789000938e+01    0.4448118    0.3164705  48.75  0.001962143    1.371    0.271
       192 -10.6621    133.7422     79.4345   8.1780271340e+01   4.0217084866e+01    0.5453565    0.3347735 -53.62  0.001485048    1.905    0.475
       193  -9.1171    188.1881     79.7306   7.0026852005e+01   2.7783462267e+01    0.3485301    0.2243742  80.72  0.001299602    2.010    0.503
       194  -9.4474    217.0813     78.7764   6.4810813906e+01   2.1240422101e+01    0.2438368     0.200605 -50.66 0.0009689791    1.181    0.153
       195 -11.4192    138.4438     68.7621   7.7658484901e+01   4.1069935422e+01    0.6573265    0.3331408  54.25 0.0005386365    1.996    0.499
       196  -9.0109    131.8433     67.5117   7.8902082972e+01   4.2694785318e+01    0.2137834    0.1339053  48.84  0.001014452    1.536    0.349
       197 -10.6435    146.1694     75.3351   7.7663971632e+01   3.8248316249e+01    0.4497133    0.3219004  12.15  0.001205314    2.013    0.503
       198 -11.0479    140.4798     74.9854   7.8907020900e+01   3.9560918430e+01    0.3935985    0.3636252 -18.70 0.0008296847    1.139    0.122
       199  -8.6732      9.7358     76.7175   1.1846456382e+02   5.7832713487e+01    0.2815385   0.09828258 -50.81 0.0009480141    2.005    0.501
       200  -8.6250      5.3552     77.6621   1.2004150214e+02   5.7900029239e+01    0.2146804      0.16899 -69.90  0.001567699    1.337    0.252
       201 -10.8293      5.5326     71.5085   1.1874129078e+02   5.9077878384e+01     0.468267    0.1887596 -35.49 -8.324725e-05    2.306    0.566
       202  -9.8093    248.1627     75.7995   5.9666484422e+01   1.4912154067e+01    0.2757566     0.126675 -52.51 0.0009622884    2.073    0.518
       203  -9.8053    163.4527     74.9127   7.3719818127e+01   3.4401243563e+01    0.2718692     0.231442  83.22 0.0003909205    1.257    0.204
       204  -8.6056    193.6664     74.9170   6.7842816114e+01   2.7328807025e+01    0.1949614    0.1797313 -69.00 0.0003782031    1.061    0.057
       205  -8.6298    213.2984     74.6239   6.4461235437e+01   2.2810893244e+01    0.1531151    0.1009077 -71.14 0.0007026201    1.752    0.429
       206  -8.8663     94.9496     71.5046   9.0010936625e+01   4.9116319453e+01    0.2868044     0.180125 -62.36 0.0009535282    2.501    0.600
       207  -9.0839    179.0021     69.3782   6.9164241375e+01   3.1707807208e+01     0.489741    0.1679501  42.33  0.001437075    4.285    0.767
       208  -8.8140    169.7070     70.3813   7.1240695692e+01   3.3718687126e+01    0.2109216    0.1270133  46.95 0.0008988719    1.651    0.394
       209  -9.7663    163.7530     68.5651   7.1978042898e+01   3.5404495810e+01    0.4191104    0.2765248 -56.18   0.00154448    1.736    0.424
       210 -10.0666    165.9161     62.7250   6.9991422036e+01   3.5848740871e+01    0.3998949    0.3149477 -46.35  0.001446373    1.330    0.248
       211 -10.3602    174.3988     56.5732   6.6748433666e+01   3.4820832617e+01    0.5715392    0.3449014 -11.64  0.002001955    3.054    0.673
       212 -10.9498    170.2102     51.2220   6.6137360627e+01   3.6595854660e+01     1.212134    0.6734756  29.68  0.004716459    3.088    0.676
       213 -10.4171    149.8386     59.2373   7.2402410843e+01   4.0081407034e+01    0.8989027    0.2557637  57.59  0.002687909    4.054    0.753
       214 -10.5300    160.0346     51.3986   6.8138680907e+01   3.8931658174e+01    0.5549019    0.4005337  51.79   0.00214901    1.283    0.221
       215 -11.3032    139.8478     52.0988   7.2605258307e+01   4.3379355939e+01     1.104352    0.5163885  41.71  0.003325719    2.197    0.545
       216 -10.9812    136.8191     42.0253   7.0377838266e+01   4.5449164405e+01    0.6412635    0.4644119  67.05  0.003476772    1.487    0.328
       217 -12.4872    147.4369     53.4186   7.1303738336e+01   4.1501799856e+01    0.4733102    0.4620447  66.10 0.0005099147    1.058    0.055
       218 -10.9554    145.3703     42.9625   6.8802590309e+01   4.3439436821e+01    0.6452696     0.395317 -62.52  0.002922095    2.448    0.592
       219 -10.0170    148.8002     41.1624   6.7586421279e+01   4.2911355075e+01    0.2818806    0.2064665  30.96 0.0003250466    1.522    0.343
       220 -10.3236    150.9838     66.7683   7.4225656651e+01   3.8621899399e+01    0.3837752    0.3724008  82.23  0.001534758    1.052    0.049
       221  -9.9192     84.2925     68.0249   9.2171849232e+01   5.1483719256e+01    0.3693753    0.2267439  36.87  0.001868712    1.658    0.397
       222  -8.5868     93.4236     65.7460   8.8766191236e+01   5.0380900474e+01    0.1754077    0.1199932 -26.86 0.0005310444    1.491    0.329
       223  -9.2721     66.8664     62.9012   9.6128232705e+01   5.4931920859e+01    0.1840006    0.1584591 -19.50  0.000465959    1.028    0.028
       224  -8.7431     27.6764    194.3211   1.3052664227e+02   3.0725437519e+01    0.1274375   0.07383779  73.73  0.000704619    1.678    0.404
       225  -9.1636    180.5596     60.8489   6.6709340745e+01   3.2714367934e+01    0.2547518    0.1780802  61.53 0.0006345127    1.346    0.257
       226  -9.2459    200.7190     59.6502   6.2970727721e+01   2.8159442144e+01    0.2550671     0.208223  63.25 0.0007819659    1.176    0.149
       227 -10.3932    185.6391     54.4469   6.4204902754e+01   3.2497654158e+01    0.5257749    0.3186991 -17.10  0.002134093    2.666    0.625
       228 -10.5324    181.9523     51.2075   6.4029376099e+01   3.3844165316e+01     0.649621    0.3255385 -28.32  0.002212513    2.550    0.608
       229 -10.2555    222.6713     56.7218   5.9031639303e+01   2.3545127555e+01    0.3959279     0.313076  55.68  0.001554098    1.367    0.269
       230  -8.8375    211.9459     59.3282   6.1158421797e+01   2.5597975757e+01    0.1900163    0.1652257  76.40 0.0003428587    1.087    0.080
       231  -8.8798    137.7476     59.0504   7.5073121623e+01   4.2789749839e+01    0.2478784    0.1600886  38.23 0.0006277349    1.578    0.366
       232  -8.9912     10.9736    192.2780   1.3356657537e+02   3.2806672327e+01    0.1607648    0.1273745  85.79 0.0007496059    1.093    0.085
       233  -9.2949    243.5168     55.0775   5.5985533024e+01   1.9185501976e+01    0.2908507    0.1969523 -65.44  0.001619406    1.370    0.270
       234 -10.2344    194.9156     54.2892   6.2622010328e+01   3.0338834521e+01    0.5433865    0.2356679  65.50  0.002169431    2.367    0.577
       235  -8.8424    234.2862     54.5849   5.7029263951e+01   2.1271970626e+01    0.2596731    0.1221914  69.82  0.001150083    2.199    0.545
       236  -9.6200    127.5054     51.7922   7.5401430204e+01   4.6074104569e+01    0.3905098    0.2455411 -61.15  0.001207554    2.477    0.596
       237  -9.0103     54.7727     49.5911   9.6103832453e+01   5.8704310472e+01    0.2039216    0.1955745  15.97 0.0009077807    1.364    0.267
       238 -11.0219     59.4976     48.0878   9.4026157810e+01   5.8348525873e+01    0.6901594    0.2982467 -48.47  0.003181625    2.730    0.634
       239 -10.0423     54.4737     45.4900   9.4909952203e+01   5.9385934060e+01    0.3010324    0.2024234  41.52  0.001409433    1.838    0.456
       240  -9.4468    211.7800     50.3349   5.9133902453e+01   2.6994886302e+01    0.3486733    0.2213312 -25.90  0.001331449    2.114    0.527
       241  -9.3109     65.8937     51.1271   9.2856406063e+01   5.7018602411e+01    0.1848681    0.1458872 -10.28 0.0005514197    1.139    0.122
       242  -9.1159    225.0240     49.8280   5.7209808904e+01   2.4047873601e+01    0.2212583    0.1761205 -24.78  0.001257849    1.664    0.399
       243  -9.4503    196.3305     49.5955   6.1270132241e+01   3.0699393949e+01    0.2557875     0.125476  66.55  0.001029133    2.001    0.500
       244 -10.1950    130.5353     42.1600   7.1836257380e+01   4.6783656074e+01    0.5641358    0.2857002 -23.99  0.001786979    2.471    0.595
       245  -9.6034    125.3439     44.0704   7.3625651861e+01   4.7619373048e+01    0.2907984    0.2877575   8.20 0.0009182368    1.118    0.105
       246 -10.1351     66.6526     43.7311   9.0237694624e+01   5.8048252181e+01    0.4223021    0.2074958 -33.39   0.00139351    1.951    0.487
       247  -9.0110    230.9506     45.8539   5.5606197117e+01   2.3300329941e+01    0.1839371    0.1672246  67.33 0.0004491836    1.268    0.212
       248  -9.2473    221.2832     46.1639   5.6904611942e+01   2.5426672896e+01    0.3014046     0.217582 -47.43  0.001708884    1.379    0.275
       249  -8.7784    219.9219     42.5128   5.6285988308e+01   2.6254622242e+01    0.1912497    0.1748575  60.77 0.0005317144    1.277    0.217
       250 -10.4527    207.3663     45.9279   5.8760054942e+01   2.8653444618e+01    0.3138552    0.1978744  70.18 0.0005949045    1.482    0.325
       251  -8.1520    207.6478     41.7144   5.7758277412e+01   2.9180359903e+01    0.1723973    0.1257679   3.98 0.0006881908    2.470    0.595
       252  -8.7113     24.3327     46.1481   1.0588639010e+02   6.2355360365e+01    0.1721243   0.07414783  19.71 0.0009169881    2.577    0.612
       253 -10.2873    214.4329     41.5926   5.6805495880e+01   2.7635346668e+01      0.40798    0.2845127 -14.40  0.002064854    2.317    0.568
       254 -10.6127    219.8052     34.0396   5.4465442738e+01   2.7439717020e+01    0.4371245    0.3105007  75.62   0.00109924    1.252    0.202
       255  -8.7694    215.5206    189.4951   8.9359140110e+01   2.6156481193e-01    0.1408918    0.1311128  -2.86 -2.060127e-05    1.038    0.037
       256 -10.0551    245.1268    187.3967   8.3338510902e+01  -4.6541137595e+00    0.2422132    0.2100535 -23.61 0.0004533404    1.051    0.049
       257  -9.7014      1.5154    187.5649   1.3496145258e+02   3.4645353267e+01    0.2443904   0.08602773 -74.67  0.001213478    2.175    0.540
       258  -9.3328     11.6826    184.4332   1.3274485710e+02   3.4448992986e+01    0.1926695     0.106846 -60.07 0.0006244692    1.668    0.401
       259  -8.5368     32.3349    184.3196   1.2857319343e+02   3.2463858018e+01    0.1185294   0.08442697 -48.00 0.0007049307    1.701    0.412
       260 -10.2237     19.5895    183.6619   1.3110458334e+02   3.3890018672e+01    0.4233592    0.2054671  35.53  0.002343575    2.351    0.575
       261  -9.1865    179.9549     44.5218   6.2688599753e+01   3.5264289201e+01    0.2271888    0.1953823   8.36 0.0008080805    1.516    0.340
       262  -9.5148    203.5271     27.8572   5.5171997625e+01   3.1955789420e+01    0.3097531    0.2648924  78.60  0.001737357    1.060    0.057
       263  -9.3289    198.5635     35.7631   5.7667973103e+01   3.2091864923e+01    0.2524246      0.23007 -87.07  0.001164009    1.084    0.077
       264  -9.7015    190.7973     40.6700   5.9985707598e+01   3.3249417862e+01    0.3623012    0.2557814 -17.62  0.001532568    1.977    0.494
       265  -9.5200    192.4791     36.4996   5.8729002071e+01   3.3412854865e+01    0.3484128    0.1935963  65.61  0.001711201    1.625    0.385
       266 -10.5769    193.2948     31.9724   5.7533241191e+01   3.3807614143e+01    0.5436902    0.3628319  33.82  0.002375683    2.114    0.527
       267  -9.8258    199.4917     30.9433   5.6419598437e+01   3.2499476357e+01    0.2455353    0.2349979  -8.85 0.0008508565    1.355    0.262
       268  -8.6366     72.0425     42.1746   8.7974156097e+01   5.7498476421e+01    0.1761567     0.135417  -0.21 0.0004530645    1.206    0.171
       269  -8.9213     22.6107     40.8545   1.0495542404e+02   6.3353693838e+01     0.143777   0.09339075 -52.57 0.0009305548    1.716    0.417
       270  -9.7298    181.6948     33.9962   5.9773773141e+01   3.6255222676e+01    0.2147198    0.1912796  59.15 0.0002708697    1.128    0.113
       271 -10.3492    180.1851     37.7130   6.0941043373e+01   3.6127940393e+01    0.5768833     0.338999 -73.27  0.002561895    2.425    0.588
       272 -10.4062    174.5107     38.5933   6.2107033517e+01   3.7337980800e+01    0.3418139     0.203298  48.04 0.0008075236    1.661    0.398
       273  -9.4436    202.4702     38.4112   5.7727860578e+01   3.0831509310e+01    0.2340687    0.2173112  54.47  0.000719677    1.250    0.200
       274  -8.2505    229.2819     38.2853   5.4218570935e+01   2.4738171349e+01    0.1144735   0.09854988  45.20 0.0002082987    1.520    0.342
       275 -10.4225    148.0124     34.6445   6.5920266061e+01   4.3923989524e+01     0.528504    0.2392972  61.64  0.001915549    2.154    0.536
       276  -9.7321    143.3111     34.0071   6.6688118243e+01   4.5050596957e+01    0.2552769    0.2089375 -51.50 0.0004240379    1.402    0.287
       277  -9.3032    123.9946     35.6216   7.1398637665e+01   4.9006051072e+01     0.291792    0.2206298  18.53  0.001310915    1.446    0.309
       278 -10.3143    134.8251     33.8763   6.8436462183e+01   4.6924631834e+01    0.2598198    0.2152923  37.03 0.0004065718    1.139    0.122
       279  -9.4578    138.7068     31.3147   6.6866010050e+01   4.6390752508e+01    0.2422136    0.2151761  46.65 0.0005695195    1.017    0.016
       280  -9.7186    248.6334     26.0464   4.9679283969e+01   2.2180343596e+01    0.3076764    0.2630652  39.68  0.002020245    1.777    0.437
       281  -8.9201      6.3294    182.2950   1.3360072787e+02   3.5380548389e+01    0.1086464   0.07433833 -53.91 0.0002692417    1.632    0.387
       282  -8.5752     37.2169    179.4030   1.2700425460e+02   3.3053651277e+01     0.167323    0.1028522  52.33 0.0009482043    1.674    0.403
       283  -9.9782      1.7979    178.0920   1.3412068003e+02   3.6665608583e+01    0.2528684    0.1313368 -78.99  0.001506858    1.478    0.324
       284  -8.6758     79.8472    176.9639   1.1717381683e+02   2.8170118416e+01    0.2285792     0.141058 -41.96  0.000835769    2.034    0.508
       285 -10.5429    247.3968     32.3993   5.1025519358e+01   2.1600685517e+01    0.6439553    0.2768697  56.04  0.002437005    2.513    0.602
       286  -9.3258      7.4154    174.3953   1.3267595780e+02   3.7016526150e+01    0.2109065    0.1310082 -79.06  0.000568723    1.233    0.189
       287  -9.8180     17.9617    165.0108   1.2953147550e+02   3.8203825674e+01    0.3038214    0.1893236  71.80  0.001232408    1.669    0.401
       288 -10.0935     11.0718    164.2961   1.3093194983e+02   3.8948151173e+01    0.3845734    0.1479983  50.63   0.00184616    2.970    0.663
       289 -10.3661      2.7604    160.2598   1.3228663224e+02   4.0488016278e+01    0.4472682    0.2181253 -73.96  0.002298995    1.560    0.359
       290  -9.5500    155.3555     32.6261   6.3946011278e+01   4.2514386555e+01    0.2475295    0.2045558  35.09 0.0005903361    1.279    0.218
       291 -10.1492    227.5001     30.1443   5.2728999048e+01   2.6227160768e+01    0.4446778    0.2416564 -61.00  0.001432186    1.872    0.466
       292  -9.6369     15.2915    160.0136   1.2956569498e+02   3.9554420359e+01     0.223891    0.1188823 -65.43 0.0009065325    1.476    0.322
       293  -9.1984      9.6457    158.2797   1.3060965606e+02   4.0400454588e+01    0.2319959    0.1243348 -46.99  0.001006249    2.068    0.516
       294  -9.5260     33.0638    156.1680   1.2509116962e+02   3.8808481844e+01    0.1814146    0.1426321 -58.78 0.0002703858    1.208    0.172
       295  -9.3651     15.4350    142.7017   1.2750053404e+02   4.3424580876e+01    0.3656393    0.1249411 -73.24  0.001554534    2.679    0.627
       296  -9.1387    147.6307     23.9260   6.2996552006e+01   4.5269434163e+01    0.8227575    0.3667493  71.99  0.003200154    3.106    0.678
       297 -12.1215     20.8518    147.3561   1.2681093483e+02   4.1936003608e+01    0.7849171    0.5742913 -13.40  0.004887403    2.021    0.505
       298  -8.4342     45.8716    149.8604   1.2115643754e+02   3.8934598834e+01    0.1758253    0.1500182 -70.53  0.001117739    1.034    0.033
       299  -9.5957     31.3851    134.8739   1.2251607231e+02   4.3839131075e+01    0.2561142    0.2211708  56.78  0.001564089    1.330    0.248
       300 -10.4122     45.9795    144.9422   1.2038319608e+02   4.0065760125e+01    0.3996421    0.2806947 -32.19   0.00200907    1.800    0.444
       301  -9.9235     35.0457    150.8210   1.2390875072e+02   3.9842064414e+01    0.3311192    0.2439669  87.87  0.002023508    1.331    0.248
       302 -10.6126    182.9944     27.3038   5.7926818067e+01   3.6780789723e+01    0.5090246    0.2721421  44.86  0.001700266    2.094    0.522
       303  -8.8484    146.9454     28.7974   6.4490541372e+01   4.4867296330e+01    0.2091028    0.1614727  37.29  0.001221672    1.304    0.233
       304  -9.6129     30.7757    151.2619   1.2498162470e+02   4.0155420807e+01     0.246832    0.1608212 -56.97 0.0008877004    1.352    0.260
       305  -8.9845     61.7780     15.7889   8.2159823715e+01   6.2366258331e+01    0.1321888    0.1157644  22.55 0.0002052762    1.294    0.227
       306  -9.4963     67.4147     13.6068   7.9530266328e+01   6.1768946560e+01    0.2215024    0.1252038  41.03 0.0008260455    1.641    0.391
       307 -11.0665     27.5992    138.1448   1.2394460053e+02   4.3437653028e+01     1.010077    0.4622226 -84.38  0.004221896    3.030    0.670
       308 -10.5059     22.7356    136.2921   1.2488780096e+02   4.4273791345e+01    0.5038813    0.2127713 -60.36  0.002530577    1.811    0.448
       309 -10.9064     39.8096    146.8559   1.2219513837e+02   4.0275434497e+01    0.4536403    0.4271933 -54.09  0.003048876    1.208    0.172
       310 -10.3057     37.8043    143.3722   1.2217625466e+02   4.1282000342e+01    0.4307016    0.2531932  17.73  0.001881437    2.400    0.583
       311  -9.5325     87.1817    149.1469   1.1069005979e+02   3.3660188018e+01    0.2186264    0.1898515 -45.95   0.00102568    1.195    0.163
       312  -8.1650    197.3255     10.2424   5.1991134583e+01   3.5413218640e+01    0.1203273   0.08197273  51.98            0    1.530    0.346
       313 -10.0520     66.4169    147.9356   1.1573759548e+02   3.6912136526e+01    0.2862195    0.2560779 -31.89  0.001735972    1.302    0.232
       314 -11.2074      5.6539    142.7082   1.2978214353e+02   4.4148624401e+01    0.3394633    0.3141842  60.79 0.0005150235    1.322    0.244
       315 -10.7528      4.8506    147.2132   1.3047222978e+02   4.3211167420e+01    0.2460121    0.2023713  38.36 0.0003989062    1.528    0.345
       316  -8.7819     97.8738    140.8120   1.0631168344e+02   3.3918563584e+01    0.1975799    0.1653117  86.53 0.0004659437    1.303    0.232
       317  -8.7955     80.3280    140.9577   1.1090348284e+02   3.6626728341e+01    0.2022335    0.1670915 -58.71 0.0004714489    1.100    0.091
       318  -9.5283     49.7238    138.7541   1.1844627704e+02   4.1088490705e+01    0.4367516    0.1710817  49.02   0.00173004    3.365    0.703
       319 -10.0295     55.6523    137.3667   1.1667934210e+02   4.0729741298e+01    0.2555756     0.211486 -48.45  0.001240749    1.181    0.154
       320 -11.3135     17.5289    120.3595   1.2390076405e+02   4.8227028183e+01    0.6392906    0.4772135 -71.09  0.001600862    1.143    0.125
       321  -9.5422    235.0557    249.2964   9.6526743719e+01  -1.2876049718e+01    0.2530851    0.1388132  38.28  0.001392366    1.683    0.406
       322 -12.3135     11.1140    130.4977   1.2697216002e+02   4.6459732012e+01    0.9616961    0.6278023 -58.06  0.006202998    1.240    0.193
       323  -9.4539    218.7920    248.2800   9.9385505623e+01  -1.0238927767e+01    0.2794344     0.178486  59.25 0.0008746655    2.511    0.602
       324 -10.4352    211.2314     32.2521   5.5153985167e+01   2.9626420256e+01    0.4633185    0.4197803 -83.34  0.001978874    1.117    0.105
