#   1 NUMBER                 Running object number                                     
#   2 MAG_AUTO               Kron-like elliptical aperture magnitude                    [mag]
#   3 X_IMAGE                Object position along x                                    [pixel]
#   4 Y_IMAGE                Object position along y                                    [pixel]
#   5 X_WORLD                Barycenter position along world x axis                     [deg]
#   6 Y_WORLD                Barycenter position along world y axis                     [deg]
#   7 A_WORLD                Profile RMS along major axis (world units)                 [deg]
#   8 B_WORLD                Profile RMS along minor axis (world units)                 [deg]
#   9 THETA_WORLD            Position angle (CCW/world-x)                               [deg]
#  10 FWHM_WORLD             FWHM assuming a gaussian core                              [deg]
#  11 ELONGATION             A_IMAGE/B_IMAGE                                           
#  12 ELLIPTICITY            1 - B_IMAGE/A_IMAGE                                       
         1 -13.3080    196.5488     31.5169   6.5968865740e+01   3.2461496837e+01      1.24633     1.013336  60.66  0.007118213    1.237    0.192
         2 -13.7742    212.3777     13.0576   5.9866179710e+01   3.0930040218e+01     1.238739    0.9396412  40.56  0.007452449    1.800    0.444
         3 -11.8830      2.3728      5.5489   1.1103548975e+02   7.1679703969e+01    0.5701202    0.2001157 -37.98  0.003258347    2.258    0.557
         4 -10.3156     14.5109     12.6522   1.0820382837e+02   6.9752293571e+01     0.168391   0.08708911  22.33 0.0008153214    1.888    0.470
         5 -12.4043    248.4961    248.4970   1.0419758723e+02  -1.4361278275e+01    0.5310135    0.4713934  15.60  0.003909418    1.318    0.241
         6 -15.3451      7.8630    147.9404   1.4124105436e+02   4.3317036973e+01     6.666494     2.115934 -80.63   0.02481308    3.593    0.722
         7 -10.2879     53.4355    228.9404   1.3964264924e+02   2.0225561678e+01    0.2362434    0.1332445  58.88 0.0007085214    1.538    0.350
         8 -12.7595     32.7235    228.9633   1.4350387756e+02   2.2810289151e+01    0.3113822    0.2541212 -73.57 0.0007526628    1.384    0.278
         9 -12.1668    140.1954    248.3625   1.2485221496e+02   2.9317153185e+00    0.5462971    0.3941736  82.47  0.003064401    1.801    0.445
        10 -11.1427     75.5413    216.2181   1.3392793270e+02   1.9839437980e+01    0.5953476    0.1788799  52.79   0.00205444    3.704    0.730
        11 -10.2517    172.4091    247.2005   1.1832936388e+02  -2.3421262035e+00    0.1611561    0.1255801 -63.73 0.0009502067    1.687    0.407
        12  -9.0437    152.7288    212.9702   1.1694397845e+02   7.3485734806e+00    0.1812027    0.1751154  72.91 0.0002890568    1.079    0.073
        13 -11.3358     64.9630    248.3189   1.3924183210e+02   1.4762561032e+01    0.3133235    0.2170142  79.03 0.0007266945    1.250    0.200
        14 -11.6377     60.0079    195.7219   1.3481906447e+02   2.6634392912e+01    0.3525098    0.2417287 -50.36  0.001077604    1.718    0.418
        15  -9.7989    192.5061    193.9922   1.0501397156e+02   3.5192403272e+00    0.3421422    0.1309392 -54.77  0.001028932    4.351    0.770
        16 -10.9882     81.7253    249.0811   1.3622436540e+02   1.2200405066e+01     0.304193    0.1304229  53.69  0.001468407    2.032    0.508
        17 -11.7913     66.2612    187.9133   1.3244718526e+02   2.7585807706e+01    0.2964815    0.2472011 -53.32 0.0004494056    1.371    0.271
        18 -10.8525     76.5089    175.7366   1.2832783698e+02   2.8990092156e+01    0.2620998    0.2231795 -67.51 0.0004700292    1.134    0.118
        19 -14.4145     38.7755    221.3021   1.4175470154e+02   2.3689164900e+01     1.574957      1.19156 -36.39  0.008785516    2.284    0.562
        20 -13.2496     63.2047    173.3671   1.3116803187e+02   3.1456107007e+01    0.5344576    0.2834022 -45.77  0.001670224    2.273    0.560
        21 -11.9501     84.2244    166.4733   1.2495336916e+02   3.0040009389e+01    0.6794814    0.6134852  80.99  0.003922445    1.049    0.047
        22 -11.5079    125.5282    249.9447   1.2793456325e+02   5.1088059044e+00    0.4269105    0.1516563  42.79  0.001805332    2.332    0.571
        23 -10.0449     97.2613    151.0649   1.1879698075e+02   3.1635624005e+01     0.325818    0.2675337 -53.37 0.0008892798    1.187    0.158
        24  -9.2904    100.1458    147.1051   1.1724265399e+02   3.2092946771e+01    0.2222462    0.1983968 -29.05 0.0004129924    1.280    0.218
        25 -12.1206     85.6792    150.0635   1.2164245100e+02   3.3798239355e+01    0.3130297    0.2545649 -45.17 0.0006302729    1.286    0.223
        26 -12.3737     67.6878    143.8938   1.2528800385e+02   3.7981522328e+01     0.771602    0.5106068  69.55  0.002877793    1.883    0.469
        27  -9.7449    109.2327    136.5611   1.1256427084e+02   3.2975975181e+01    0.3939324    0.2619409 -21.19  0.001549749    2.367    0.578
        28 -10.4527     96.3212    133.5897   1.1540235430e+02   3.6011469764e+01    0.2755095    0.2330859 -29.26 0.0003034174    1.328    0.247
        29  -8.6902    192.2219    144.0461   9.4420416985e+01   1.3674713759e+01    0.1986514    0.1234658 -41.93 0.0003985185    1.573    0.364
        30 -11.0227    120.3478    239.6093   1.2765016836e+02   7.8822826899e+00    0.2363341    0.1655111 -58.22  0.001343934    1.612    0.380
        31 -11.1476     50.5510    129.8564   1.2745657947e+02   4.3548649111e+01    0.3144095    0.2196953  52.13  0.001172955    1.639    0.390
        32  -9.2391    106.5502    123.3186   1.1021851294e+02   3.6593352137e+01    0.1895927    0.1414151 -41.70 0.0002989654    1.342    0.255
        33 -10.9596     53.9012    120.9875   1.2481274336e+02   4.5253043500e+01    0.4108768    0.1637244 -63.50  0.001615025    2.448    0.592
        34 -10.1199    167.8815    112.8242   9.2098509459e+01   2.5730557417e+01    0.3410457    0.2745275  85.59 0.0008773403    1.467    0.318
        35  -9.3175    203.4772    111.5208   8.4504686612e+01   1.7712777648e+01    0.1502138    0.1438677 -57.31 0.0001115917    1.035    0.033
        36 -12.1234     52.1688    236.8933   1.4058731125e+02   1.8760863373e+01    0.4830657    0.2969427  77.44  0.001631364    1.449    0.310
        37 -10.2789    162.4238    248.7716   1.2052616053e+02  -9.0918637806e-01    0.2256451    0.1288796 -54.57  0.001156886    2.182    0.542
        38 -13.8806      9.3184    207.4448   1.4620666890e+02   2.9854829488e+01     1.628423    0.7853548 -88.57  0.003869923    1.750    0.429
        39 -14.8125     14.9940    242.0091   1.4748331145e+02   2.2194620326e+01     7.105988     2.794082  30.05   0.03162203    4.031    0.752
