#   1 NUMBER                 Running object number                                     
#   2 MAG_AUTO               Kron-like elliptical aperture magnitude                    [mag]
#   3 X_IMAGE                Object position along x                                    [pixel]
#   4 Y_IMAGE                Object position along y                                    [pixel]
#   5 X_WORLD                Barycenter position along world x axis                     [deg]
#   6 Y_WORLD                Barycenter position along world y axis                     [deg]
#   7 A_WORLD                Profile RMS along major axis (world units)                 [deg]
#   8 B_WORLD                Profile RMS along minor axis (world units)                 [deg]
#   9 THETA_WORLD            Position angle (CCW/world-x)                               [deg]
#  10 FWHM_WORLD             FWHM assuming a gaussian core                              [deg]
#  11 ELONGATION             A_IMAGE/B_IMAGE                                           
#  12 ELLIPTICITY            1 - B_IMAGE/A_IMAGE                                       
         1 -12.0871      6.0203     42.9249   9.5822820380e+01   6.7547637310e+01     1.613294          nan -53.28  0.004608446    6.155    0.838
         2 -14.3172     16.5936     67.1391   9.7770297374e+01   6.1864742518e+01    0.9514216    0.6915196 -74.27  0.002925975    1.717    0.417
         3 -13.4558     36.9483     48.4607   8.2375700165e+01   6.3664001804e+01     1.211463     0.700356 -44.43   0.00638875    1.670    0.401
         4 -11.8209      8.0125      9.1457   8.0888926206e+01   7.3057793385e+01    0.4565624     0.285407  13.49  0.001619923    1.389    0.280
         5  -9.9255     15.1001     13.8921   7.9017393607e+01   7.1685512867e+01    0.2007943    0.1499961  -3.25 0.0008675405    1.026    0.026
         6 -10.6893     16.1316      6.6509   7.4744450704e+01   7.2538671645e+01    0.5099555    0.2251186 -32.09  0.002810578    2.121    0.528
         7 -11.0191     12.0518      2.2594   7.4792236789e+01   7.3543706668e+01    0.2763873    0.1685901  -4.85  0.001136393    1.424    0.298
         8 -11.7207     22.0457      7.0185   7.1612603068e+01   7.1781000291e+01    0.5566173    0.4158408 -43.58  0.003648337    2.068    0.517
         9 -10.9954     26.7077      2.6265   6.6794811402e+01   7.1662324967e+01    0.3375607    0.1932675  44.38  0.001631036    2.081    0.519
        10 -12.0261     23.0275     24.7504   7.9683220497e+01   6.9237295725e+01    0.5685601    0.2549298 -30.20   0.00256824    2.129    0.530
        11 -11.0378     19.2447     17.2836   7.8304589882e+01   7.0758806902e+01    0.4480918    0.2957752   8.23  0.002884734    1.297    0.229
        12 -12.1760      4.6782     18.1939   8.7210513694e+01   7.1997590250e+01    0.4148981    0.3717879  49.00  0.002498663    1.983    0.496
        13 -10.7779      9.5736     16.0467   8.3291218295e+01   7.1914020992e+01    0.3081582    0.1712329 -16.38  0.001273409    1.643    0.391
        14 -12.2753    128.8410     18.9168   4.1845049403e+01   4.9792690545e+01    0.2902422    0.2268093  32.57 0.0003903313    1.402    0.287
        15 -12.4031    165.4302     23.1849   3.7393361532e+01   4.0720628565e+01    0.3959405    0.2550594  82.93            0    1.489    0.328
        16 -11.7255    107.1501     18.2331   4.5986492188e+01   5.4870473359e+01     0.504585    0.2116989  47.08  0.002229527    2.067    0.516
        17 -10.8233     33.5580     16.3620   7.0355965187e+01   6.9093943305e+01    0.4717638    0.2167884  19.11   0.00162921    2.650    0.623
        18 -11.3708     48.2488     15.5473   6.3258481776e+01   6.6952802219e+01     0.740788    0.4296241  21.21  0.003277428    1.678    0.404
        19 -11.1550     39.8466     11.1119   6.4806247910e+01   6.8798888973e+01    0.3135124    0.2163804  42.38 0.0008909294    1.565    0.361
        20 -11.5552     40.0988     15.6189   6.6885763661e+01   6.8235019543e+01    0.2946914    0.2475087   9.06  0.001113703    1.147    0.128
        21 -10.1248     43.8237      8.5252   6.1764873376e+01   6.8446311277e+01    0.2782719    0.2514385  56.74  0.001937283    1.674    0.403
        22 -10.8131     70.8512     13.4379   5.3914248710e+01   6.3067618219e+01    0.4098691    0.2337973  10.38  0.001717635    2.210    0.548
        23 -11.2043     77.8027     11.0497   5.0761517517e+01   6.1896584943e+01    0.3938786    0.1777194  49.75  0.001128876    1.801    0.445
        24 -10.0945     61.6179     14.4364   5.7514169335e+01   6.4730388308e+01    0.2215096    0.1550944  35.54 0.0008051247    1.189    0.159
        25 -12.3259    128.6481     11.4246   3.9526702068e+01   5.0544430924e+01    0.3847548    0.2716911  87.96  0.002201833    1.498    0.332
        26 -10.6640    117.9755     11.5788   4.1477017195e+01   5.3011419092e+01    0.4666371    0.2217629 -20.95  0.002229612    2.553    0.608
        27  -9.8789    100.0259     12.4755   4.5533313773e+01   5.7007647901e+01    0.3095583    0.1557755   6.23  0.001277468    3.437    0.709
        28 -10.6111    157.1121     11.7017   3.5422167579e+01   4.3843754609e+01    0.2130489    0.1581636 -52.74  0.000816601    1.406    0.289
        29 -10.7030    178.1920      9.9928   3.2545978330e+01   3.9143993587e+01    0.2563338    0.1644003  58.28 0.0008997672    1.542    0.351
        30  -9.7566    138.2174     11.2056   3.7925683402e+01   4.8321806224e+01    0.1763623    0.1352863 -81.18   0.00050091    1.358    0.263
        31 -10.4376    240.9323      9.7960   2.7361626053e+01   2.5937074666e+01    0.1552738    0.1279378 -80.00 0.0004113632    1.177    0.151
        32 -10.7642    164.0126      9.0151   3.3867773687e+01   4.2492449213e+01    0.2189951    0.1694983 -44.89 0.0003228507    1.383    0.277
        33 -10.2333    164.5609      5.5139   3.2903627612e+01   4.2688410413e+01    0.2264721    0.1568213 -61.29 0.0005660991    1.447    0.309
        34 -12.6514    213.7896      5.9573   2.8496297333e+01   3.1776724441e+01    0.7262774    0.3970998 -77.61  0.004218205    1.677    0.404
        35 -11.0170    146.1797      6.9885   3.5560665879e+01   4.6830482562e+01    0.3317919    0.2417236  33.46  0.001185166    1.663    0.399
        36 -11.5498    148.6081      2.3206   3.3941427553e+01   4.6660882765e+01     0.432366    0.3134992  84.61  0.001821712    1.221    0.181
        37 -11.2043    190.3383      6.6254   3.0573702161e+01   3.6750810204e+01    0.3985551    0.2923564  87.85  0.002606975    1.137    0.120
        38 -11.1803    194.4981      2.0069   2.9179099688e+01   3.6283707816e+01     0.344614    0.1700421  87.04  0.001835274    1.864    0.464
        39 -10.2917    156.2123      6.3423   3.4095659083e+01   4.4547175859e+01       0.2158    0.1683501  45.66 0.0007988802    1.423    0.297
        40 -10.8936     89.9869      6.8910   4.5813406582e+01   5.9687041496e+01    0.5591847    0.1463332  53.12  0.002222871    2.720    0.632
        41 -10.5351     72.7760      5.7983   5.0029986729e+01   6.3377115485e+01    0.2828345    0.2223591 -85.82 0.0005774776    1.981    0.495
        42 -10.1372     74.3196      2.3644   4.8109584429e+01   6.3340891860e+01    0.2256433     0.177372  74.45 0.0008870687    1.574    0.365
        43  -9.5329     81.5835      5.7646   4.7522069225e+01   6.1568299044e+01    0.1488474    0.1149285 -30.56 0.0004445175    1.549    0.354
        44 -10.6637    234.4791      5.4804   2.6971188308e+01   2.7650683163e+01    0.1125172   0.08537722 -72.66 0.0008098861    1.023    0.022
        45 -11.7098    178.9830      4.1815   3.1071287614e+01   3.9520909395e+01     0.217839    0.1785514 -76.19 0.0002839545    1.089    0.082
        46 -10.6578     98.1145      3.7804   4.2759066904e+01   5.8153430499e+01    0.3056975    0.2054503  27.35   0.00179653    1.567    0.362
        47  -8.9445     61.5452      5.4277   5.3455117074e+01   6.5606029826e+01    0.1233774    0.0964246  30.43 0.0001710785    1.014    0.013
        48 -11.0694    223.5250      3.7309   2.7357552603e+01   3.0008815668e+01    0.2378184    0.1620304  62.68 0.0009860395    1.658    0.397
        49 -10.9744    243.0208      3.0112   2.5993923422e+01   2.6270534930e+01    0.1716055    0.1265436 -69.90 0.0006453597    1.015    0.015
        50 -10.3011    126.5089      2.7856   3.7175802582e+01   5.1765125215e+01    0.2286977    0.1536839  46.07  0.000457069    1.424    0.298
        51 -10.7558    237.4828      2.3191   2.6196838725e+01   2.7400634382e+01    0.1886657   0.08549348  79.41   0.00108191    2.000    0.500
        52 -10.8470    230.8498      1.7196   2.6493315429e+01   2.8755052596e+01    0.1567413    0.1300483 -86.71 0.0004121226    1.209    0.173
        53 -10.8360     67.8724      3.8796   5.0689868342e+01   6.4513753506e+01    0.2251207     0.169905  45.21 0.0009109934    1.140    0.122
        54  -9.6642     81.6027      1.4240   4.5745779925e+01   6.1902300753e+01    0.2448525   0.06943289  49.66  0.001020531    2.525    0.604
        55 -10.0919     32.6073      1.4543   6.3232917080e+01   7.0927110440e+01     0.231185      0.09705  42.04  0.001195871    2.147    0.534
        56 -13.1092     49.4685    161.6842   1.0440040857e+02   3.5168954826e+01    0.5354735    0.4304168  47.17  0.002901085    1.296    0.229
        57 -12.4696    226.4029    245.4372   7.6078507851e+01  -9.1966899661e+00    0.6662208       0.3387  -8.22  0.003201973    2.506    0.601
        58 -11.6127    234.9977    248.7694   7.5051064508e+01  -1.0664619995e+01    0.2933394    0.1828281 -12.77  0.001833276    1.376    0.273
        59 -12.2480    232.4693    245.1108   7.4907242948e+01  -9.8641270447e+00    0.5910324    0.2063987 -31.36  0.002657277    2.787    0.641
        60 -11.5491     89.0324    249.4834   1.0539838937e+02   9.1940564277e+00    0.3058043    0.2397895  37.12  0.000809845    1.135    0.119
        61 -10.1550     72.6405    250.2220   1.0897712218e+02   1.1254231276e+01    0.2106393    0.1585251  -1.69  0.001092776    1.985    0.496
        62 -13.1114     18.7522    237.1169   1.1912447145e+02   2.0311999748e+01     1.629989    0.4667583  56.30  0.006466051    3.434    0.709
        63 -11.7884      5.3085    236.1295   1.2172281425e+02   2.1833129077e+01     0.603012    0.3416975  46.82  0.003729655    1.499    0.333
        64 -13.2529      5.9059    245.2087   1.2205972604e+02   1.9898117921e+01    0.9328836    0.5332646  36.41  0.004938662    1.675    0.403
        65 -12.5736     22.0833    249.0503   1.1917557103e+02   1.7495069417e+01    0.7778268    0.2354115  33.80  0.003550466    2.827    0.646
        66 -11.3274     17.2615    247.4073   1.2001267864e+02   1.8328384919e+01     0.278793    0.1776377  47.21 0.0008577382    1.324    0.245
        67  -9.4308     99.1838    164.8194   9.0668086745e+01   2.7190878572e+01     0.205809    0.1786778 -23.10 0.0003553115    1.269    0.212
        68  -9.9690      4.6878    168.9712   1.1748771337e+02   3.7510718215e+01    0.1853205    0.1406458 -84.23 0.0004657066    1.084    0.077
        69 -12.7296     21.3086    157.4105   1.1189183171e+02   3.9144856308e+01     0.639811    0.4914328   5.94  0.000887822    1.644    0.392
        70 -10.0062    177.3347    150.8501   6.7748671273e+01   1.5746225219e+01     0.279133    0.2105208  70.55  0.001271092    1.881    0.468
        71  -9.5605    216.2247    155.1718   6.0914679034e+01   7.6990650332e+00    0.1821311    0.1547059 -54.49 0.0003521939    1.301    0.231
        72 -10.6356     18.5468    146.5669   1.1141756013e+02   4.2184941310e+01    0.2815798    0.1853051 -26.80  0.001341264    1.901    0.474
        73 -10.1093    207.0789    146.5233   6.0744930178e+01   1.0991659368e+01    0.1969206    0.1446858  42.65  0.000585732    1.523    0.344
        74 -10.2722     11.1889    153.4403   1.1430330880e+02   4.0974353084e+01    0.2797221    0.1271221  23.54  0.001284322    2.511    0.602
        75  -9.6591    220.2462    143.9608   5.7814752776e+01   9.1211948960e+00    0.1874542    0.1052905 -41.35 0.0006067913    1.542    0.351
        76  -9.8384      9.6571    144.5534   1.1379221587e+02   4.3366129302e+01    0.3481114    0.1320366   0.97   0.00115801    5.210    0.808
        77  -9.5515     49.3048    142.2636   1.0140040154e+02   4.0312530730e+01    0.1441553    0.1046587 -33.55  0.000199988    1.524    0.344
        78  -9.9672     14.2655    139.9947   1.1189762290e+02   4.4213665878e+01    0.1965429    0.1629513   0.38 0.0007846965    1.475    0.322
        79  -9.4505     17.4786    137.4707   1.1060150107e+02   4.4627690689e+01    0.2218497    0.1007397 -60.69  0.000698733    1.775    0.437
        80  -9.5268    230.3373    139.6877   5.5213748352e+01   8.1640487877e+00    0.1342648     0.101985 -67.53 0.0007045803    1.690    0.408
        81 -10.2679     54.3979    138.7511   9.9176069499e+01   4.0628108299e+01     0.291189    0.1381067 -66.91  0.001131648    2.087    0.521
        82 -10.8283      9.1416    136.7605   1.1306026244e+02   4.5402993029e+01     0.263427    0.1538624 -68.03 0.0006871901    1.392    0.281
        83  -9.2880    143.5556    137.4734   7.2608412110e+01   2.5540843667e+01    0.1581613    0.1528262 -40.97 0.0001865206    1.026    0.026
        84 -10.3055      2.5823    136.2622   1.1497654466e+02   4.5939890926e+01    0.2650866    0.1108238 -78.76  0.001144704    2.118    0.528
        85  -9.6548     20.8523    135.1479   1.0924325068e+02   4.4968101401e+01     0.198626    0.1331656 -54.13 0.0009957486    1.317    0.241
        86  -9.8859    249.2166    134.2060   5.1200905231e+01   6.0187385303e+00    0.1746312    0.1348761 -54.30 0.0005472173    1.306    0.234
        87  -9.8320    112.0000    132.5359   8.0007121519e+01   3.3030384801e+01    0.3536966   0.08929659 -50.57 0.0009249086    3.856    0.741
        88  -9.8732     79.9469    132.9787   8.9871353530e+01   3.8547536381e+01    0.1850622    0.1775713 -42.96 0.0004902967    1.017    0.017
        89 -10.8423     54.4447    132.6327   9.8020779822e+01   4.2229380282e+01    0.3719074    0.2564035  43.47  0.001088901    1.594    0.373
        90 -11.2645     36.2535    130.6940   1.0362256888e+02   4.4759835389e+01     0.445085    0.2757178 -38.99  0.002124395    1.676    0.403
        91 -11.1518     73.9298    129.2344   9.0975059833e+01   4.0439271937e+01    0.3389492    0.3144708 -52.90 0.0008857934    1.025    0.024
        92  -9.1300      9.2860    129.3248   1.1211109766e+02   4.7300171474e+01    0.1404029   0.08128123 -47.34 0.0002659966    1.604    0.377
        93  -9.8110     48.4049    125.6351   9.8671486742e+01   4.4777276224e+01    0.2818643    0.1366458 -67.37  0.001116708    2.081    0.519
        94 -11.0048     24.1927    126.0027   1.0682909581e+02   4.7069465046e+01    0.2525406    0.1991609  26.98 0.0004907251    1.454    0.312
        95 -10.8925     20.8780    121.7195   1.0726481092e+02   4.8436453888e+01    0.3281151    0.2061342 -23.23  0.001630831    1.897    0.473
        96 -10.4751     17.8225    125.1976   1.0880444577e+02   4.7772645476e+01    0.3156921    0.2021905 -42.77  0.001313985    1.509    0.337
        97 -10.6363     13.4812    125.5914   1.1027683208e+02   4.7979245357e+01     0.249732    0.2093373 -87.78 0.0005343291    1.181    0.153
        98 -11.1906     10.8399    122.8519   1.1076090434e+02   4.8854630017e+01    0.2933337    0.2352953 -69.48  0.001418695    1.058    0.055
        99  -9.9790    220.0342    124.2918   5.3591768259e+01   1.2835223808e+01    0.1909605    0.1734031 -45.16 0.0004892812    1.054    0.051
       100 -10.3434      2.8284    122.8660   1.1335958518e+02   4.9327099819e+01    0.2010487    0.1415496 -51.75 0.0003347998    1.257    0.205
       101  -9.1425     32.4776    121.5466   1.0330898788e+02   4.7496702736e+01    0.1442625    0.1210773 -50.14 1.215008e-05    1.071    0.066
       102 -11.1551     14.9663    117.2858   1.0857855522e+02   4.9998682847e+01    0.4504927    0.2352694 -53.80  0.001982126    1.571    0.363
       103  -9.8295      1.4240    119.0037   1.1333493414e+02   5.0375936364e+01    0.1989563    0.1064361 -71.75 0.0003202528    1.528    0.345
       104 -10.1366     72.4882    117.7340   8.8820011962e+01   4.3584208946e+01    0.2935959    0.1481134 -59.49 0.0007899701    2.023    0.506
       105  -9.6727    179.2034    116.3975   5.9234836239e+01   2.2574172064e+01    0.2010807    0.1463531  62.10 0.0005955914    1.585    0.369
       106  -9.8162    214.0480    115.5020   5.2627007026e+01   1.5600549252e+01    0.1886594     0.141671  50.46 0.0004639126    1.509    0.337
       107 -11.0318    249.4217    112.3783   4.6760456009e+01   9.7106019456e+00    0.2424572      0.18585 -51.75  0.000630435    1.139    0.122
       108 -10.1816     94.9039    112.4003   8.0121903089e+01   4.1133503570e+01    0.2693589    0.2179696 -58.26  0.001242541    1.290    0.225
       109 -11.6552     37.1336    110.4130   9.9562467296e+01   4.9891492732e+01    0.4549661    0.3329843  66.29  0.002299085    1.783    0.439
       110 -11.9156     55.1499    109.5216   9.2892961049e+01   4.8066817381e+01    0.4711144     0.272708 -47.72  0.001351968    1.553    0.356
       111 -10.0545     70.5914    108.4580   8.7190432338e+01   4.6170639137e+01    0.2889252    0.1738358 -55.67 0.0008714082    1.618    0.382
       112 -10.9863      1.8498    107.4919   1.1165689881e+02   5.3229465835e+01    0.4309644    0.1055827 -60.85  0.001655297    2.628    0.619
       113 -11.1766     23.6852    106.4382   1.0366464569e+02   5.2094180176e+01    0.2792211    0.2674081 -49.84  0.001162674    1.127    0.113
       114  -9.8890    243.5521    104.5175   4.5922193843e+01   1.2046990210e+01    0.1316925    0.1074877 -47.52 0.0001126656    1.008    0.008
       115 -11.3142    120.5063    100.9500   6.9272987760e+01   3.8651683086e+01    0.7069253      0.33222 -27.93   0.00210421    3.710    0.730
       116 -10.3123     37.6692    103.3187   9.7866513319e+01   5.1609914031e+01    0.2786038    0.2137292 -72.26 0.0009814785    1.380    0.275
       117  -9.4835     25.9547    102.4741   1.0206075717e+02   5.2896106495e+01    0.1784993    0.1355186  17.17  0.000369586    1.485    0.326
       118 -10.0553     76.5094    101.4618   8.3298633093e+01   4.6919090430e+01    0.1524547    0.1406027 -24.13 0.0002103278    1.018    0.018
       119 -10.8729     21.0133     92.9398   1.0200278208e+02   5.5615447614e+01     0.559357   0.06820983 -58.18   0.00153494    4.129    0.758
       120 -10.0395     19.3135    101.2807   1.0431032397e+02   5.3707709673e+01    0.2836419    0.1031717 -35.48 0.0007769135    3.211    0.689
       121 -10.1277     22.9305     98.9971   1.0250424332e+02   5.3996218739e+01      0.30731    0.1791635  25.30  0.001141413    1.923    0.480
       122 -10.9365     25.6035     91.2873   9.9838816769e+01   5.5647870216e+01     0.312897    0.2046784 -53.84  0.001100704    1.290    0.225
       123 -11.3793     21.9292     87.1219   1.0037661201e+02   5.6932062750e+01    0.3183096    0.2904995   5.46 0.0009650948    1.229    0.186
       124 -11.5267    143.6239     98.4449   6.2507383134e+01   3.4097275563e+01    0.6918743    0.4288407  49.63  0.002983378    1.640    0.390
       125 -10.6241     66.7783     98.2361   8.5867317881e+01   4.9197825622e+01    0.2608777    0.1969614 -42.65 0.0003404826    1.227    0.185
       126  -9.6905     50.9362     99.2851   9.1966319680e+01   5.1108078404e+01    0.1932834    0.1782188  -7.05 0.0004888782    1.106    0.096
       127 -12.6577    158.0302     89.9962   5.6890880594e+01   3.2476970943e+01     1.348869      0.55683 -55.08  0.004102079    3.719    0.731
       128 -11.8840    163.8289     89.1472   5.5438330014e+01   3.1306785366e+01    0.5775775    0.3024846 -29.42  0.001944729    2.362    0.577
       129 -12.2461    166.4917     84.0066   5.3530618434e+01   3.1636550518e+01    0.7674239    0.7535347 -65.68  0.004409198    1.050    0.048
       130 -11.9822     14.4788     97.6294   1.0544693023e+02   5.4938053060e+01    0.4584468    0.3004095 -44.56  0.002427673    1.304    0.233
       131 -11.5315     10.8483     90.6260   1.0552643054e+02   5.6858795965e+01    0.3893118    0.3338582  46.20 0.0008433147    1.450    0.310
       132 -10.1641      5.0390     97.9812   1.0905483801e+02   5.5405816917e+01    0.2634621    0.1697201 -17.21  0.001447752    1.731    0.422
       133  -9.7783      1.2146     96.0135   1.1016109829e+02   5.6071886808e+01    0.2457351    0.1099424 -70.92 0.0007100967    1.928    0.481
       134  -9.2378    250.3046     95.6844   4.3278106208e+01   1.2317541779e+01    0.1300419   0.08325053 -62.74 0.0005336467    1.623    0.384
       135 -11.2599     37.4283     94.7431   9.6002489133e+01   5.3725204166e+01    0.2749927    0.2457087  33.83 0.0003146971    1.293    0.227
       136 -11.1900     62.3190     98.7939   8.7634413951e+01   4.9715159115e+01    0.3890632    0.3081928  12.98  0.001368446    1.342    0.255
       137  -9.5123    113.4263     93.5026   6.9162354523e+01   4.1739447565e+01    0.1548889    0.1463102  -7.02 0.0001299128    1.054    0.051
       138  -9.5711     46.5927     92.7377   9.1960302768e+01   5.3195409549e+01    0.1840303    0.1313334 -63.94 0.0003052036    1.494    0.331
       139 -12.3771     13.8265    109.2986   1.0771570183e+02   5.2091582022e+01    0.5545326    0.3420126  -7.24  0.002853892    1.981    0.495
       140 -10.8873     57.4858     90.1176   8.7083964287e+01   5.2417596530e+01     0.399911    0.2626953   9.60  0.001793827    1.782    0.439
       141 -10.6332     96.7958     89.7332   7.3128516811e+01   4.5915041527e+01    0.3724416    0.1833676  34.42  0.001419654    2.181    0.542
       142  -9.9922     83.0591     88.9061   7.7444465809e+01   4.8654195852e+01    0.2281163    0.2060161 -16.71 0.0005707403    1.054    0.051
       143 -11.2174     78.3239     87.9861   7.8818192844e+01   4.9680002202e+01    0.3407355    0.3017535 -57.25  0.001562009    1.257    0.205
       144 -11.0794      6.9967     83.0000   1.0557828723e+02   5.8881937897e+01    0.4210046    0.1992194 -41.67  0.002026798    1.771    0.435
       145 -10.1098     65.1486     87.6473   8.3497030855e+01   5.1875735248e+01    0.2205064     0.209539 -84.71 0.0008924439    1.285    0.222
       146 -11.5775     66.6297     83.5777   8.1739241338e+01   5.2548757374e+01    0.4818331    0.2703913  34.93  0.002150956    1.832    0.454
       147 -10.3353     46.2286     87.3841   9.0694159697e+01   5.4487709932e+01    0.2631591     0.215789  64.56  0.001411306    1.666    0.400
       148  -9.2418    139.2846     87.6989   6.0555587743e+01   3.7211883150e+01    0.1501279    0.1200851 -79.28 0.0006972319    1.554    0.356
       149  -9.7816    121.0607     86.8504   6.5035088730e+01   4.1460990525e+01    0.2246411    0.2097847 -87.89 0.0007311807    1.197    0.164
       150 -11.3539     30.9084     81.8269   9.5425162222e+01   5.7395001834e+01    0.3753808    0.2987192 -18.57  0.001268337    1.202    0.168
       151  -9.3837    116.9930     83.7713   6.5244245542e+01   4.2957196286e+01    0.2040796    0.1242125  45.63 0.0007169499    1.624    0.384
       152  -9.8097     42.9316     82.8104   9.0764768289e+01   5.5917572574e+01    0.2189099    0.1490106  49.53  0.001070712    1.980    0.495
       153 -11.3093      4.5011     85.4923   1.0707023387e+02   5.8427344006e+01    0.5922899    0.1585055 -55.78  0.002402684    2.446    0.591
       154 -12.7911     44.6703     75.2139   8.7874684519e+01   5.7395963089e+01    0.2959651     0.275726  33.69  0.000467301    1.289    0.224
       155 -12.0410     36.9326    243.8919   1.1589196345e+02   1.6931682080e+01    0.6857145    0.3058473 -86.93  0.002969584    2.503    0.600
       156 -11.6562     44.1777     38.3856   7.5132850829e+01   6.4439845658e+01    0.3786194    0.2477665  36.19  0.002126649    1.600    0.375
       157 -12.1131     30.7044     63.4753   9.0334889594e+01   6.1424994908e+01    0.7763836    0.7181216 -73.65  0.003726307    1.441    0.306
       158 -10.5806    250.0244    246.5151   7.2017896488e+01  -1.2011132489e+01    0.1845247    0.1231167 -20.35  0.001032272    1.195    0.163
       159 -12.2920     12.0582     48.7365   9.4581784470e+01   6.6007417946e+01    0.8905903    0.4529757 -55.74  0.004662302    1.873    0.466
       160 -12.3568     26.8969     51.4876   8.8198426552e+01   6.4201950574e+01    0.8656722     0.317508 -50.82  0.003714055    2.526    0.604
       161 -13.0951     74.6868    238.2391   1.0735935246e+02   1.3437082219e+01    0.8612906    0.5848662 -70.18  0.004891265    1.579    0.367
       162 -12.2364      6.1236     68.0041   1.0270241195e+02   6.2339522065e+01    0.2625328    0.1794582 -47.51 0.0003749666    1.153    0.133
       163 -12.7561      3.1420     62.8087   1.0281876124e+02   6.3630910032e+01    0.5218446    0.3243946 -64.69  0.001990156    1.550    0.355
       164 -10.4521     71.1099     79.1026   7.8698280680e+01   5.2792278960e+01    0.2175914    0.1995919 -19.59  0.000817368    1.042    0.041
       165 -11.1400     61.8322     72.7984   8.0209709258e+01   5.5565554209e+01     0.462999    0.1648531 -42.89  0.001397818    2.662    0.624
       166 -10.3984     54.0089     74.3054   8.3785797129e+01   5.6384197603e+01     0.286047     0.225819 -45.40   0.00110702    1.248    0.199
       167 -12.1752     50.2627     68.6018   8.3501710616e+01   5.8078394176e+01    0.4438311    0.3561907 -30.35 0.0007619059    1.116    0.104
       168 -11.7805     51.5431     62.8708   8.1068014767e+01   5.9051336398e+01    0.4140787    0.3604317  64.60  0.002376487    1.683    0.406
       169 -10.9523     91.9085     74.2107   6.9864859126e+01   5.0024044344e+01    0.4320084    0.3658614   8.16  0.001821883    1.204    0.169
       170 -10.7892     75.3107     75.0648   7.5873980977e+01   5.2917306530e+01    0.3920456    0.2580388  16.07  0.001805083    1.772    0.436
       171 -11.4987     77.7850     70.1258   7.3357923727e+01   5.3459266616e+01    0.4409664    0.2846875  32.35  0.002116747    1.535    0.349
       172 -10.0883    145.6507     74.3984   5.5253510647e+01   3.8187211978e+01    0.2903681     0.186476 -35.45  0.001324545    1.621    0.383
       173 -10.5879    207.5108     73.4244   4.4014156835e+01   2.4264290768e+01     0.219151    0.1993562 -66.33 0.0002145091    1.054    0.051
       174 -11.9393    157.2278     83.0142   5.5161638715e+01   3.3956476311e+01    0.9116511    0.5398436  34.40  0.003736252    2.214    0.548
       175  -9.8529    101.8682     72.7256   6.6227482356e+01   4.8293639456e+01    0.4412526    0.2541756  72.99  0.001254715    5.304    0.811
       176 -10.0146    173.4641     83.5129   5.2051272406e+01   3.0125113246e+01    0.2694195    0.1353135 -42.12 0.0007490541    1.911    0.477
       177  -9.6573    128.9736     71.5109   5.8330212696e+01   4.2556121738e+01    0.2214533    0.1414323  49.03 0.0004242319    1.512    0.339
       178 -10.6494    167.8383     69.8871   4.9504135070e+01   3.3755991797e+01    0.2196941    0.1949457  64.57 0.0003185063    1.114    0.102
       179  -9.8524    122.9818     69.2214   5.9150048820e+01   4.4320645479e+01    0.1988643    0.1934138  21.85 0.0002400866    1.023    0.023
       180  -9.9501     42.7369     68.3188   8.6574461414e+01   5.9092579871e+01    0.2284527    0.1829581   8.40  0.001213232    1.228    0.185
       181 -11.1395     94.2094     66.1861   6.6466534022e+01   5.1060575029e+01    0.4365074    0.3001603   3.22 0.0008749658    1.953    0.488
       182 -11.4430    122.8704     64.1174   5.7580046210e+01   4.5213469563e+01    0.2524423    0.2422579 -33.59 0.0002756038    1.089    0.081
       183 -10.5123    119.7941     61.1185   5.7416519123e+01   4.6405946841e+01    0.3025495    0.1974087  49.05 0.0008387298    1.449    0.310
       184  -9.1895    127.5198     66.5091   5.7157939075e+01   4.3749230967e+01    0.1453906      0.13991  46.86 0.0008102843    1.005    0.005
       185 -10.4302    153.0512     63.7125   5.0635600634e+01   3.8230975596e+01    0.2047735    0.1736014  57.32 0.0004034441    1.143    0.125
       186  -9.7480    143.9404     64.5010   5.2753461446e+01   4.0254029086e+01     0.210121    0.1385493  57.17 0.0003392215    1.468    0.319
       187 -10.8748     76.6800     63.6991   7.1568176738e+01   5.4868028821e+01    0.3257564    0.2701338  29.75  0.001807742    1.167    0.143
       188 -10.7893    201.8202     61.4910   4.2017770552e+01   2.7353242002e+01    0.2332289    0.2056098 -62.96 0.0004570936    1.046    0.044
       189  -9.1052    113.4653     61.4651   5.9205641890e+01   4.7771351314e+01    0.1428988    0.1374074  50.30 0.0008076498    1.070    0.065
       190 -10.3705     85.5186     61.5139   6.7724374768e+01   5.3609173193e+01    0.1430376    0.1312037  10.52 -1.32111e-05    1.017    0.017
       191  -9.5049     98.4002     60.4413   6.3211249690e+01   5.1197772855e+01    0.1413314    0.1324782  16.50 9.883825e-06    1.021    0.021
       192 -10.4118     69.4175     59.8167   7.2883409992e+01   5.6850025233e+01    0.2078585    0.1225588 -28.15 0.0009546107    1.800    0.444
       193  -9.7059     65.2941     60.3129   7.4636679367e+01   5.7450325921e+01    0.1429933    0.1003297  -5.97            0    1.595    0.373
       194 -11.6496     59.2675     58.7459   7.6461257350e+01   5.8700424958e+01    0.4451796    0.3118684 -16.51  0.001792736    1.472    0.320
       195 -10.7006     61.5401     52.9917   7.3460076145e+01   5.9372083309e+01    0.4102814    0.1993916 -32.04  0.001792546    2.159    0.537
       196 -10.7175    147.4174     57.3473   4.9937892024e+01   4.0554696388e+01    0.3596523    0.2274955 -60.96  0.001435853    1.964    0.491
       197  -9.4199    124.4732     58.0180   5.5251513690e+01   4.5831000072e+01    0.2025622    0.1430429 -34.42  0.000371937    1.497    0.332
       198 -11.2934     75.2435     56.1239   6.9405258700e+01   5.6473115367e+01    0.2272479    0.2121956  -7.25 0.0002873572    1.114    0.102
       199 -12.7583    105.3664     52.6532   5.8503342291e+01   5.0959624187e+01    0.4030951    0.3111473  43.53 0.0004952429    1.203    0.169
       200 -11.3455     13.0686     77.3499   1.0183729189e+02   5.9829026222e+01    0.3267887    0.2340632 -45.44  0.001400563    1.124    0.111
       201  -9.6979    230.8102     54.9944   3.7124862284e+01   2.2232966219e+01    0.2174472    0.1105121 -58.67 0.0009743306    1.900    0.474
       202 -10.1294    133.1509     53.9273   5.1940692390e+01   4.4437367101e+01     0.220903    0.1929832 -82.23  0.001193247    1.264    0.209
       203  -9.8751     82.1181     54.3314   6.6336373301e+01   5.5488910438e+01    0.1874986     0.169494  23.79 0.0004910436    1.068    0.064
       204 -10.4479     55.6721     53.7766   7.6130381246e+01   6.0154147718e+01    0.2950495    0.1890936   4.51  0.001441503    1.830    0.454
       205 -10.0120    120.1972     52.5349   5.4545758540e+01   4.7652364588e+01    0.2778674    0.1845918  31.19 0.0008326734    1.712    0.416
       206 -10.2814    168.8132     51.7414   4.4481226164e+01   3.6316885532e+01    0.2526946     0.155263 -62.05  0.000813175    1.872    0.466
       207 -10.4149     87.9139     51.3730   6.3333982219e+01   5.4826465621e+01    0.2682733    0.1991704 -20.44 0.0009004009    1.418    0.295
       208  -9.8264    237.4054     51.2225   3.5684959839e+01   2.1465073606e+01    0.1810531   0.09062203 -49.04 0.0009512646    1.654    0.395
       209 -11.1391    199.9278     49.6224   3.9482765232e+01   2.9496401388e+01    0.2468728    0.2024422  88.40 0.0003408626    1.133    0.118
       210 -11.6907    129.1633     49.1471   5.1344310942e+01   4.6068952544e+01    0.4638964    0.3638678  -7.42  0.001839681    1.554    0.356
       211 -12.3669      8.2664     73.7957   1.0309244698e+02   6.0927185949e+01    0.7873743    0.4341698  -5.55  0.004101183    2.037    0.509
       212 -10.7661     78.6141     47.8115   6.5148619175e+01   5.7205411289e+01    0.3989791    0.2098325 -25.86  0.001461762    2.180    0.541
       213 -10.3580     52.9387     50.0347   7.5879193666e+01   6.1224816867e+01    0.2100136    0.1791162  -0.80 0.0007916247    1.019    0.019
       214  -9.2770    205.9709     48.7583   3.8542092533e+01   2.8292724704e+01    0.1532559    0.1022911  70.53 0.0001897212    1.473    0.321
       215  -9.0953    104.2812     47.3217   5.6968534037e+01   5.1991955564e+01    0.1414965    0.1028987  17.93 0.0005371862    1.588    0.370
       216 -10.5493    142.9699     45.2111   4.7247433728e+01   4.3356427967e+01    0.2377481    0.2127536 -70.30 0.0004097549    1.165    0.142
       217 -10.4851    139.0883     43.1581   4.7393924582e+01   4.4553932399e+01    0.2595137    0.2289327 -28.61 0.0007552686    1.252    0.201
       218 -10.3262     83.5956     45.1551   6.2465260158e+01   5.6640280692e+01    0.3200536    0.2180128  68.79  0.001426622    2.321    0.569
       219 -10.3816    100.8023     36.0933   5.3951566041e+01   5.4282430210e+01    0.2686782    0.2048331 -79.09  0.001390611    1.948    0.487
       220 -10.9392     91.2368     41.8051   5.8791124031e+01   5.5568075245e+01    0.5667992     0.348391 -58.03  0.002473273    2.739    0.635
       221 -10.0734     95.7798     42.9233   5.7838580423e+01   5.4454888638e+01    0.2110099    0.1673837  19.91 0.0005693847    1.276    0.216
       222 -10.3233     97.7205     39.2483   5.5946473427e+01   5.4541603654e+01    0.3211941    0.2058806  39.07  0.001159739    1.449    0.310
       223 -10.6298    124.9083     43.2251   5.0417243211e+01   4.7882787748e+01    0.3075039    0.2263399 -37.26 0.0009157029    1.467    0.318
       224 -11.0657     69.8775     36.3117   6.3799321345e+01   6.0541100599e+01    0.4781394    0.2381443 -21.46  0.002084396    2.472    0.596
       225 -12.4611     72.5443     43.1727   6.5535876895e+01   5.9054099179e+01    0.3031679    0.2896433  65.70 0.0006774433    1.381    0.276
       226 -11.7449     67.2624     41.7630   6.6937446590e+01   6.0223163294e+01    0.8346021    0.2650932  43.60  0.003103456    3.018    0.669
       227 -10.2698    131.1197     41.9930   4.8668152863e+01   4.6591728816e+01     0.265544    0.2121451 -58.21 0.0009133141    1.411    0.291
       228  -9.8277    107.0051     42.7729   5.4648757724e+01   5.2030723204e+01    0.1960928    0.1629524  48.23 0.0003731736    1.107    0.096
       229 -11.2705     23.8375     41.3519   8.6064647408e+01   6.6391826871e+01    0.6338198     0.456627 -78.25   0.00319047    3.064    0.674
       230 -10.4641     18.5248     42.3055   8.9115204686e+01   6.6717900728e+01    0.4558697    0.1472961 -41.37  0.001961456    2.548    0.608
       231 -12.8472     27.6390     38.1034   8.2902597206e+01   6.6564060635e+01    0.4790012    0.2919277 -26.87 0.0003518952    1.461    0.316
       232 -11.5373     24.4047     35.1560   8.3367596052e+01   6.7413636458e+01     0.251793    0.1984248  -3.56 0.0004401114    1.077    0.072
       233 -11.6960     53.1919     40.7905   7.2172363198e+01   6.2720350510e+01    0.4047639    0.2543084  34.31 0.0009443663    1.524    0.344
       234 -12.9681     57.5839     34.5781   6.7812363824e+01   6.2948400101e+01      0.32591    0.2683062  -2.43 0.0003728353    1.088    0.081
       235 -10.6450    152.5743     39.1029   4.3714447154e+01   4.1875487820e+01    0.2422762    0.2038749  73.25 0.0005128837    1.089    0.082
       236 -10.2849    112.7220     46.1174   5.4303620158e+01   5.0284672210e+01    0.2822996     0.182524  47.04 0.0008953064    1.414    0.293
       237 -11.1189    225.2560     38.2562   3.4192851300e+01   2.5637370095e+01    0.2268735    0.1771826 -79.48 0.0003605545    1.110    0.099
       238  -9.6132     85.8845     38.8775   5.9360878618e+01   5.7075669471e+01    0.1640491     0.150908  50.18            0    1.211    0.174
       239  -9.1798    160.4428     38.4104   4.2222852155e+01   4.0095629899e+01    0.1340037    0.1189008  83.54 3.937609e-05    1.021    0.020
       240 -10.0225      1.5938     37.8277   9.6525456810e+01   6.8786330543e+01     0.191427    0.1065445 -37.81 0.0006580027    1.378    0.274
       241  -9.7927     84.6811     34.7309   5.8157297934e+01   5.7873701427e+01    0.1799617   0.09999926  46.39  0.000254944    1.614    0.380
       242 -11.2440     81.3508     35.8923   5.9674201364e+01   5.8392803890e+01    0.4063183     0.276172 -35.25  0.001032913    1.613    0.380
       243 -11.9610     75.1641     35.7045   6.1680428833e+01   5.9629541621e+01    0.5441907    0.3121603  13.74  0.002314462    2.471    0.595
       244  -9.5924    172.5041     36.1225   3.9806864740e+01   3.7545346337e+01    0.2473341    0.1269089  46.74  0.001116983    2.261    0.558
       245 -10.2195    109.5467    242.9133   1.0014607186e+02   7.5778499141e+00    0.2509045     0.152939  47.95 0.0006352674    1.567    0.362
       246  -9.9569    195.4758    238.8777   8.0992718015e+01  -4.2349525446e+00    0.2203051    0.1548843   1.84  0.001280315    1.328    0.247
       247 -11.0082    244.0289    237.2086   7.1505999607e+01  -1.0073274068e+01     0.211914    0.1434677 -25.16 0.0008996068    1.246    0.198
       248 -10.1464     31.3112    236.6623   1.1653677186e+02   1.9081158900e+01    0.2025068     0.128227  78.50  0.001161409    1.458    0.314
       249 -11.0846      8.1926     33.6888   9.1453846516e+01   6.9117815888e+01    0.3958508    0.3373617 -38.89  0.002066091    1.317    0.241
       250 -10.3448      1.6535     25.7669   9.2164111672e+01   7.0962039114e+01    0.2047692    0.1394798 -39.67 0.0006362286    1.267    0.211
       251 -11.1752     29.5185    233.0056   1.1665260030e+02   2.0062445296e+01    0.3222756    0.2883528 -68.63  0.002245169    1.323    0.244
       252 -10.3303    159.8267    236.1534   8.8050739077e+01   1.3573540934e+00    0.1850502    0.1433187  -1.07 0.0004031082    1.304    0.233
       253 -11.7844     17.6485     31.0878   8.5274976005e+01   6.8775005972e+01    0.5176457    0.2558512  13.15  0.002705238    2.072    0.517
       254  -9.7157    221.3982    234.8040   7.5229454664e+01  -7.0102439573e+00    0.1737534   0.09752335 -25.80 0.0005898679    1.640    0.390
       255  -9.7309    177.3882    234.8402   8.4070093587e+01  -1.0032894706e+00    0.1856484     0.112451 -29.89  0.000946876    1.727    0.421
       256 -10.0388     22.4995     13.0383   7.4445052383e+01   7.0965120521e+01    0.1676816   0.09901515 -27.42 0.0009763972    1.555    0.357
       257 -10.8850      8.2337     24.9944   8.8019273048e+01   7.0614287746e+01    0.4492622    0.1540976  20.33  0.002102479    2.883    0.653
       258 -10.6447     14.6508     22.7296   8.3382357858e+01   7.0416100572e+01    0.3565854    0.1742622 -19.31  0.001551242    2.177    0.541
       259 -10.7580     86.8260    233.3473   1.0410647454e+02   1.2801503726e+01    0.2794292   0.09110469  40.61 0.0009584851    2.576    0.612
       260 -10.1584     23.9538    232.5573   1.1777757568e+02   2.0751077465e+01    0.2057643    0.1494515 -66.22 0.0006673888    1.479    0.324
       261  -9.8239     94.2985     34.8408   5.5308079146e+01   5.5849754828e+01    0.2977284    0.1544483  65.22  0.001219475    2.668    0.625
       262  -9.5634    201.5515     34.4465   3.5784317610e+01   3.1154949707e+01    0.1725564     0.107141  62.71  9.14942e-05    1.597    0.374
       263 -10.9085    205.8743     32.4776   3.4877782543e+01   3.0457543757e+01    0.2220651    0.1859457 -86.32 0.0007089517    1.066    0.062
       264 -10.2315    108.4274     34.1817   5.1291719988e+01   5.2825846447e+01    0.2443477    0.1730447  51.42 0.0005209823    1.256    0.204
       265 -11.1694    221.7842     32.1568   3.3247068833e+01   2.7128282036e+01    0.2177016    0.1615365 -65.36 0.0003044725    1.120    0.107
       266  -9.6465    134.4785     36.0054   4.6117132000e+01   4.6562833420e+01    0.1959365    0.1357845 -31.22  0.001033012    1.593    0.372
       267 -10.9884    235.8388     30.6164   3.1709587952e+01   2.4488587090e+01    0.3872149    0.2105013  47.17  0.001987316    2.945    0.660
       268  -9.2239    234.4316     27.4707   3.1205042038e+01   2.5153266061e+01    0.1189928     0.091397 -67.96 1.740602e-05    1.017    0.017
       269 -10.1938    166.4986     32.0546   3.9592196145e+01   3.9451363966e+01    0.1857909    0.1293842 -34.28 0.0006880095    1.563    0.360
       270  -9.9855     44.0922     31.6398   7.2345818210e+01   6.5489229249e+01    0.1930277    0.1588463 -26.28 0.0005982153    1.288    0.223
       271 -11.0653     48.3109     31.7515   7.0518743461e+01   6.4841436421e+01    0.2525848     0.179522  12.13  0.001488222    1.284    0.221
       272 -10.7280     50.2256     27.6133   6.7898778363e+01   6.5122350958e+01    0.2925965    0.1693858  13.05   0.00115869    1.992    0.498
       273 -10.8103     97.5718     31.1264   5.3022071282e+01   5.5601471882e+01    0.3249519    0.2062535  48.93  0.001703677    1.384    0.277
       274 -11.8398    102.5156     28.8822   5.0902560626e+01   5.4777797471e+01    0.4703102    0.2996978  74.35  0.000979371    2.045    0.511
       275  -9.6702     89.0126     31.5287   5.5605421129e+01   5.7382405821e+01    0.2019463    0.1185794  49.56 0.0007162834    1.530    0.346
       276 -10.8081    111.2353     27.9116   4.8437632951e+01   5.2925967836e+01    0.3102531    0.2301998  13.99  0.000997102    1.593    0.372
       277 -11.1651     69.1910     26.9982   6.0231907415e+01   6.1891755420e+01    0.4452521    0.2763817  16.00  0.001508773    1.816    0.449
       278 -10.7285     67.8005     21.7007   5.8486762009e+01   6.2782098556e+01    0.3678724     0.177305  53.02  0.001252895    2.168    0.539
       279 -10.8872     60.0645     27.0946   6.3662065510e+01   6.3541159988e+01    0.2359269    0.1773192 -33.25            0    1.501    0.334
       280 -11.3764     59.6897     22.1484   6.1657678809e+01   6.4219735851e+01    0.3549245     0.295519  66.15  0.002013654    1.786    0.440
       281 -10.0830    204.6274     26.4652   3.3666957718e+01   3.1458994613e+01    0.2494984    0.1073932 -57.07 0.0009047062    2.376    0.579
       282 -11.2352    193.6194     26.1434   3.4737207651e+01   3.3921197944e+01     0.302682    0.1661673 -59.41  0.001569355    1.808    0.447
       283 -10.8267    132.5637     25.4770   4.3218004539e+01   4.8235106987e+01    0.2885537    0.2268134  35.05  0.001141612    1.374    0.272
       284 -10.4662    128.3008     26.6727   4.4400634102e+01   4.9107947398e+01    0.2512871    0.1762581  79.01 0.0006238017    1.512    0.339
       285 -10.5217    128.5143     23.4914   4.3350630752e+01   4.9400749749e+01    0.2717638    0.2133833  38.26   0.00101763    1.313    0.238
       286 -10.1641     38.2311    232.8390   1.1480299497e+02   1.9132423332e+01     0.184892    0.1396393  69.17 0.0005210325    1.137    0.120
       287 -10.1163    214.5862     25.8324   3.2577332850e+01   2.9403334378e+01    0.1867873    0.1476933  76.38 0.0004901935    1.251    0.201
       288 -10.0018    152.1902    229.5418   8.8693450503e+01   3.7436132409e+00    0.2328019     0.171315 -81.73   0.00114149    2.303    0.566
       289 -10.3860    185.9223     22.9148   3.4821895114e+01   3.6023886772e+01    0.1959935    0.1586416 -83.89 0.0006250562    1.064    0.060
       290 -10.5856     90.2066     20.6000   5.1068751285e+01   5.8368094616e+01     0.474395    0.2423633  63.49  0.002185808    2.182    0.542
       291 -10.1887    106.1833     22.9065   4.7864581400e+01   5.4614697807e+01    0.2163856    0.2080785 -84.86 0.0006275267    1.197    0.164
       292  -9.6132    169.8535    228.8632   8.4699254785e+01   1.1752237242e+00     0.172997    0.1600991  45.50 0.0005948973    1.336    0.252
       293 -11.0762     99.2288     22.6604   4.9471427246e+01   5.6191679456e+01    0.4498257     0.251008  44.55  0.002282539    1.569    0.363
       294 -10.3454     93.9992     22.3181   5.0700204115e+01   5.7371461663e+01    0.2755151    0.2247763  75.75  0.001021483    1.458    0.314
       295  -9.4313    120.4647     20.9974   4.4108854788e+01   5.1539872841e+01    0.1708285    0.1316302 -22.28 0.0004474467    1.497    0.332
       296 -10.4080    172.8278     20.1556   3.5668331572e+01   3.9327943981e+01    0.2003561    0.1492391 -79.42 0.0006414861    1.264    0.209
       297  -9.7792    139.2684     19.7992   4.0318641631e+01   4.7248305234e+01    0.1857204    0.1342182  47.61 0.0009760112    1.357    0.263
       298 -11.2223    120.8434    226.3429   9.5356484158e+01   9.2365127286e+00    0.2234734    0.1948927 -78.88  0.000797442    1.341    0.254
       299 -11.0961      4.5040    226.5950   1.2138271014e+02   2.3946013671e+01    0.2995548     0.175377  53.60  0.001825191    1.441    0.306
       300  -9.4001    190.4922    226.4700   7.9919137964e+01  -1.4570445006e+00    0.1357844    0.1113503  -0.34 3.254115e-05    1.044    0.042
       301 -10.5891     21.0642    221.8291   1.1765962143e+02   2.3411034125e+01    0.2340449    0.1323633  79.05 0.0009596838    1.659    0.397
       302 -11.2524    238.1906     17.9128   2.9069763792e+01   2.5551539834e+01    0.1916802    0.1563218 -62.62 0.0002679033    1.150    0.130
       303  -9.9766     66.0481    226.3292   1.0807025486e+02   1.7160618176e+01    0.2061097     0.176443 -62.45 0.0007133819    1.279    0.218
       304 -10.0671     82.4190     17.7873   5.2164906181e+01   6.0296943357e+01    0.1675115    0.1521402 -19.03 0.0003789424    1.266    0.210
       305  -9.8378    194.8943     17.0780   3.2519509195e+01   3.4661447203e+01    0.1806843     0.135556 -72.66   0.00034677    1.162    0.139
       306  -9.8711     74.9607     16.1656   5.3760802229e+01   6.1981097971e+01    0.4395636    0.1570728  47.48  0.001910946    2.274    0.560
       307  -9.8383     37.9852    217.6866   1.1362473980e+02   2.2547193989e+01    0.1810774    0.1501604  53.11 0.0007506529    1.131    0.116
       308 -10.9679      9.9706    217.5364   1.1973533267e+02   2.5448972018e+01    0.2987526    0.1916004  45.98  0.001495617    1.431    0.301
       309  -9.6791    234.3208     16.6721   2.9110594800e+01   2.6449918562e+01    0.1252563   0.06528986 -64.99 0.0004348964    1.687    0.407
       310 -11.3831     29.7712    215.8223   1.1531327270e+02   2.3874180462e+01    0.3221089    0.2753155  -5.79  0.001448373    1.640    0.390
       311  -9.4442     73.6800    216.2986   1.0518113900e+02   1.8406416417e+01    0.1439915   0.09351567  62.38 0.0006593588    1.619    0.382
       312 -11.7479    236.0070    214.1875   6.8897179170e+01  -5.6586256954e+00    0.2576759    0.1665466 -18.01  0.000650644    1.365    0.267
       313  -9.5967    136.6454    215.7032   9.0031674105e+01   8.9630899084e+00    0.1468768    0.1070267  -4.61 0.0007034308    1.694    0.410
       314  -9.8319     31.0449     12.6777   6.9797002430e+01   6.9903886326e+01    0.1626784     0.120005  15.44  0.000596727    1.103    0.093
       315  -9.7049    169.6458     12.6995   3.4156193176e+01   4.0834379478e+01    0.1261622   0.08466396  46.76 0.0007037674    1.702    0.412
       316 -10.6900     88.7978    241.3336   1.0456692950e+02   1.0860884356e+01    0.2355808    0.1570107 -34.52  0.001215958    2.091    0.522
       317 -10.3750     21.5747    212.7344   1.1689953244e+02   2.5430723156e+01    0.2356061    0.1153055  51.60  0.001187241    1.850    0.459
       318  -9.5583    208.6939    211.8766   7.3625921268e+01  -1.5608731478e+00    0.2141084    0.1403292 -20.76 0.0008829125    1.458    0.314
       319 -10.3332     10.9119    208.2970   1.1893988904e+02   2.7473873837e+01    0.2291002    0.1814752 -49.47 0.0005500065    1.563    0.360
       320 -12.0600      4.8364    207.7583   1.2022934873e+02   2.8135892357e+01     0.551854    0.3078395  80.32  0.003063683    1.586    0.369
       321  -9.2089    188.2672    205.3268   7.6590914727e+01   2.7060318267e+00    0.1421418   0.09800307 -11.84 0.0003567665    1.572    0.364
       322  -8.7826    107.6308     10.6832   4.3221555806e+01   5.5457486274e+01    0.1402312    0.0787758  38.05 0.0007036296    1.784    0.440
       323 -11.1145     20.0375    199.4238   1.1622572632e+02   2.8717298209e+01    0.4051632    0.2189496 -78.46  0.002091451    1.643    0.391
       324 -10.3869    175.4065    202.6865   7.8874470567e+01   5.2810851354e+00    0.2378591    0.2067987  23.93 0.0004477879    1.138    0.121
       325 -10.1905    243.7658    202.3689   6.5366464077e+01  -4.7681065320e+00    0.1652484    0.1070796  16.16 0.0009468996    1.627    0.385
       326  -9.8016    117.0039    202.0000   9.2540722607e+01   1.5168386465e+01    0.2433179   0.08012516  34.31 0.0007971497    2.906    0.656
       327  -9.3398    238.6736    200.6919   6.5941523279e+01  -3.8309438756e+00    0.1330407   0.08404455  -9.91 0.0007037809    1.654    0.395
       328 -10.9257     16.7301    193.1895   1.1650342163e+02   3.0531763432e+01    0.3380105    0.2457379  24.65    0.0018528    1.622    0.384
       329  -9.1418    101.6806    191.7101   9.4747298306e+01   2.0079022652e+01    0.1474965    0.1155742 -16.45  0.000280198    1.600    0.375
       330 -10.1784    244.9158    188.3292   6.2536494825e+01  -2.6250566352e+00    0.1756908    0.1428542 -10.13 0.0004800717    1.108    0.097
       331  -9.6036    212.1918    188.3800   6.8468604039e+01   2.1181732092e+00    0.1780605    0.1276307  43.55  0.000805355    1.682    0.405
       332 -10.8699     41.5197     19.4646   6.8056829107e+01   6.7543778946e+01    0.2345689    0.1544544  34.11  0.001060677    1.412    0.292
       333  -9.3820      1.6923    187.6980   1.1963233451e+02   3.3128995782e+01    0.1207281    0.0840622 -52.40  0.000405215    1.601    0.375
       334 -10.8371     16.5674    184.2373   1.1579784500e+02   3.2743224502e+01    0.3682997    0.1997145 -75.10  0.001271852    1.587    0.370
       335 -10.0367     15.0019    180.7285   1.1588276602e+02   3.3751676763e+01    0.1970426     0.188201 -14.59 0.0006058852    1.331    0.249
       336  -9.4845     61.6360    184.8294   1.0426243111e+02   2.7662807538e+01    0.2074523    0.1285872 -81.12 0.0009449451    1.724    0.420
       337 -10.3078    167.7878    183.6054   7.6890974556e+01   1.0497806261e+01    0.2075905    0.1376377  44.90 0.0006115398    1.643    0.391
       338  -9.7107     58.7750    182.1893   1.0467105309e+02   2.8704047600e+01    0.1964249    0.1625612 -41.91 0.0009138976    1.350    0.259
       339  -9.9011    244.4762    178.4813   6.0720741447e+01  -9.1064017509e-01    0.2397487    0.1000041 -31.58  0.001025375    2.278    0.561
       340 -10.6676     46.4951    177.7452   1.0738874066e+02   3.1338477123e+01    0.3133475    0.2475502  86.36  0.001316533    1.214    0.177
       341  -8.9713     69.3245    178.3050   1.0127198296e+02   2.8296382337e+01    0.1473901    0.1107093 -29.96 0.0003997389    1.643    0.391
       342 -10.7756     34.0303    174.1069   1.1029832969e+02   3.3634531768e+01    0.2401029    0.1721003 -73.77 0.0003907774    1.241    0.194
       343 -10.7952     18.0133    173.3136   1.1444108477e+02   3.5353271495e+01    0.3670453    0.2176023  60.86  0.001444168    1.732    0.423
       344 -12.2586     37.1529    164.6406   1.0830624377e+02   3.5760579226e+01    0.7899269    0.6002827 -71.81  0.004141162    1.171    0.146
