#   1 NUMBER                 Running object number                                     
#   2 MAG_AUTO               Kron-like elliptical aperture magnitude                    [mag]
#   3 X_IMAGE                Object position along x                                    [pixel]
#   4 Y_IMAGE                Object position along y                                    [pixel]
#   5 X_WORLD                Barycenter position along world x axis                     [deg]
#   6 Y_WORLD                Barycenter position along world y axis                     [deg]
#   7 A_WORLD                Profile RMS along major axis (world units)                 [deg]
#   8 B_WORLD                Profile RMS along minor axis (world units)                 [deg]
#   9 THETA_WORLD            Position angle (CCW/world-x)                               [deg]
#  10 FWHM_WORLD             FWHM assuming a gaussian core                              [deg]
#  11 ELONGATION             A_IMAGE/B_IMAGE                                           
#  12 ELLIPTICITY            1 - B_IMAGE/A_IMAGE                                       
         1 -15.3115     68.5302    144.2593   1.0858565062e+02   3.7098825451e+01     5.295929     2.697887  69.92  0.004612302    3.200    0.688
         2 -14.5156    210.0455     23.8586   4.4039689368e+01   2.9982278751e+01     1.495046     1.093881   0.24  0.006509358    1.916    0.478
         3 -14.2857    198.5977     36.2916   4.8823679134e+01   3.1244362276e+01     1.673841     1.317249  22.66  0.006112102    1.639    0.390
         4 -13.2503      2.3876     23.1899   1.0440314087e+02   7.0446563817e+01     2.122545    0.2404942 -58.30  0.005598457    8.403    0.881
         5 -14.2286      2.6695      6.9875   9.7792725698e+01   7.3260349085e+01     2.794526     1.051857 -49.35   0.01503947    2.177    0.541
         6  -9.4016    121.0477      8.9825   5.2997526100e+01   5.3768337158e+01    0.2083753    0.1588517 -67.73 0.0006480293    1.708    0.414
         7 -10.6399     60.8514      7.8180   6.9747968668e+01   6.6282907554e+01     0.153855    0.1440955  -3.30 0.0004441951    1.323    0.244
         8 -11.8345    234.1460      1.9698   3.6422645317e+01   2.6743882282e+01     0.619386    0.2029264  74.52  0.002504456    2.894    0.654
         9 -11.3501     61.7424      1.9930   6.6475491130e+01   6.6767229956e+01    0.2861257    0.1411756  38.30  0.001491382    1.831    0.454
        10 -10.8287    149.5318     45.3519   5.9986131757e+01   4.2395630688e+01    0.2801473    0.2502945 -74.93 0.0003956287    1.232    0.188
        11 -11.1736    139.9326    248.9254   1.0726415957e+02   4.7397441092e+00    0.3299295    0.2082474 -75.63   0.00186981    2.452    0.592
        12 -10.8523    134.4468    248.5054   1.0822390296e+02   5.6462156135e+00    0.3015197    0.1890103 -79.00  0.001691408    2.465    0.594
        13 -13.0130     71.4171    175.4755   1.1234220031e+02   2.9354695247e+01     1.052129    0.5380834 -34.47  0.003523608    5.230    0.809
        14 -14.9241     86.6448    228.4779   1.1506043046e+02   1.6204548144e+01     2.247213     1.202499  49.21  0.005478907    1.538    0.350
        15 -14.9820     45.6610    204.8658   1.2086980249e+02   2.6227552564e+01     2.016268    0.7875488  44.87   0.01021022    2.181    0.542
        16 -14.4927     54.5463    194.6449   1.1816495108e+02   2.7310438437e+01     1.264656     0.973981  56.39  0.008266031    1.192    0.161
        17 -16.1212     64.9409    248.0907   1.2065951603e+02   1.5615258446e+01     8.671072     2.708766  30.50   0.01118355    9.697    0.897
        18 -17.1340     10.6625    243.0694   1.2935859458e+02   2.2679293785e+01     6.391638     2.611285 -81.82   0.02865898    2.149    0.535
        19 -16.7475      6.7035    208.1563   1.2839160525e+02   2.9614910925e+01      5.39121     1.230772 -69.01   0.02429668    3.525    0.716
        20  -9.4601     95.4477    188.3031   1.0860787861e+02   2.2975098567e+01    0.1691381    0.1216204 -82.67 0.0004618081    1.440    0.305
        21  -9.5908    150.3111    187.6507   9.6395090029e+01   1.3695172439e+01    0.1423287    0.1078881  77.07 0.0007045381    1.716    0.417
        22  -9.8085    147.3943    184.7896   9.6530005063e+01   1.4797091622e+01    0.1896182    0.1324926 -38.51 0.0009446833    1.623    0.384
        23 -10.5807     99.4043    180.7430   1.0664952734e+02   2.4001007921e+01    0.2337378     0.226423  59.26  0.000541542    1.167    0.143
        24 -10.0511     41.3903    178.7039   1.1943034314e+02   3.2355217429e+01    0.1666414   0.09878762 -67.68  0.000938303    1.533    0.348
        25 -13.5954     89.2674    156.0146   1.0520595617e+02   3.1262731442e+01     2.021142     1.044974 -76.90   0.00553834    2.567    0.610
        26 -10.6684    172.4690    242.5751   1.0043763477e+02   5.9481877931e-01    0.3447031    0.2101644 -65.66   0.00156693    3.012    0.668
        27 -13.7278     70.6420    158.5960   1.1023394129e+02   3.3380640028e+01    0.6165708    0.4956807 -42.66   0.00162478    1.496    0.332
        28 -10.5944    137.8050    171.1026   9.6212572732e+01   1.9403181947e+01    0.2941129    0.1763142 -74.18  0.001164979    2.621    0.618
        29  -9.8246     48.5108    171.4794   1.1710788066e+02   3.3178652480e+01    0.2804833    0.1722482 -38.16  0.001388419    2.578    0.612
        30 -10.9763     45.7635    166.2487   1.1716362145e+02   3.4697660497e+01    0.2899322    0.2259448 -24.91  0.001698491    1.985    0.496
        31 -10.9639     32.4347    165.1704   1.2010933220e+02   3.6374730025e+01    0.2180125    0.1709356 -54.12 0.0007447796    1.482    0.325
        32  -9.8059    161.4803    166.2630   8.9923127057e+01   1.5844366809e+01    0.1985054    0.1422428 -60.44 0.0009375811    1.640    0.390
        33 -10.3218    134.3230    148.6485   9.2601814449e+01   2.4990500996e+01    0.3261177    0.2272457 -73.12  0.001357591    1.816    0.449
        34 -11.3643    133.8115    143.2561   9.1573115105e+01   2.6305009211e+01    0.7901582    0.2821613 -56.70  0.002363392    3.636    0.725
        35 -10.4134    174.7101    148.9566   8.3311406451e+01   1.6666785777e+01    0.2773002    0.2432801 -86.11 0.0008979239    1.389    0.280
        36 -10.1777     40.5030    146.9565   1.1617067509e+02   3.9807723313e+01    0.1887025    0.1652333  71.20 0.0008361416    1.156    0.135
        37 -10.8078     84.8833    144.1433   1.0428401994e+02   3.4771227707e+01     0.357464     0.236212  69.40  0.001491247    1.813    0.448
        38 -11.2368    103.0220    140.7069   9.8879586383e+01   3.2637039849e+01    0.5807972    0.3518818 -27.54  0.002244652    2.783    0.641
        39 -12.4828     90.3779    140.8855   1.0224153970e+02   3.4696409244e+01    0.2821134    0.2566615 -55.41 0.0004706456    1.124    0.111
        40 -10.0773     39.5956    141.7868   1.1574765535e+02   4.1137571399e+01    0.1846427    0.1406217  51.21  0.000408296    1.388    0.279
        41  -8.9796     38.9298    137.9620   1.1542077395e+02   4.2123698531e+01    0.1506417    0.1255247 -80.43 0.0009434319    1.015    0.014
        42  -8.9163    174.2906    137.7054   8.0816107836e+01   1.9044694070e+01    0.1487341    0.1231163 -84.33 0.0002062443    1.553    0.356
        43 -11.3096     45.6724    136.5469   1.1344709651e+02   4.1755112433e+01      0.35228    0.2160824 -55.82  0.001451249    1.508    0.337
        44 -12.1200     44.6208    129.7797   1.1273843068e+02   4.3507547185e+01    0.4293543    0.2730835  82.92  0.002207495    1.744    0.427
        45 -10.3608    105.9811    130.7705   9.6020844653e+01   3.4479876226e+01    0.3341126     0.291695 -75.22  0.001139298    1.144    0.126
        46 -10.8839     32.2265    131.4147   1.1632990417e+02   4.4350219833e+01    0.2529192    0.1698015 -51.19  0.001451937    1.499    0.333
        47 -10.4322    112.0234    130.8116   9.4414988129e+01   3.3371166423e+01    0.3200463    0.2634594  13.93 0.0008686607    1.509    0.337
        48 -11.0734    136.0000    127.0106   8.7303842367e+01   2.9533611354e+01    0.7991486   0.09020012 -48.24  0.001388475    9.572    0.896
        49  -9.8764     81.9507    194.9799   1.1240404351e+02   2.3564242961e+01    0.2029144    0.1708133  70.81 0.0006353959    1.014    0.014
        50 -11.8521    118.8550    126.0092   9.1505392353e+01   3.3203924039e+01    0.8858154    0.4971579 -45.72  0.003684599    1.755    0.430
        51 -11.1653     98.8995    127.0623   9.7138187533e+01   3.6606907743e+01    0.3790956    0.2854035  21.67  0.001377975    1.647    0.393
        52 -12.1680     26.8337    121.5457   1.1648074818e+02   4.7199250960e+01     0.338863    0.2108583  44.31  0.001885619    1.801    0.445
        53 -10.0286    108.0971    119.5547   9.2893320394e+01   3.6750954388e+01    0.2112185    0.1952474 -53.42 0.0003169165    1.037    0.036
        54  -9.5179    167.9779    112.9091   7.6049667117e+01   2.5555717625e+01    0.2577657    0.1970057 -80.80   0.00112616    1.782    0.439
        55  -9.6074    134.6851    112.5001   8.3995352610e+01   3.3063255127e+01    0.2859771     0.141072 -45.20  0.001070576    1.975    0.494
        56 -12.6872     82.6350    163.0943   1.0796592336e+02   3.0608865215e+01    0.7369255    0.3967301  61.79 0.0004552527    2.235    0.553
        57  -9.9396    205.5357    110.2186   6.7627878781e+01   1.7470906361e+01    0.2646841     0.215705  48.02 0.0006644619    1.294    0.227
        58 -11.4816    117.7460    108.0593   8.7351309778e+01   3.7563193219e+01    0.4239269     0.311789 -55.31  0.001986977    1.360    0.265
        59 -11.3428     32.3645    107.8158   1.1280100473e+02   5.0014614439e+01      0.23414    0.2154295 -32.24  0.001564293    1.267    0.211
        60 -12.1109     43.5142    109.1962   1.0965360553e+02   4.8613989173e+01     0.407876    0.2520329 -66.03  0.001444885    1.378    0.274
        61  -9.3714    103.8639    101.1395   8.9451551209e+01   4.1820446368e+01    0.1969836    0.1728516 -15.56            0    1.261    0.207
        62 -11.3835     52.5149     90.5027   1.0290821651e+02   5.2088992586e+01    0.4147707    0.3347639  55.30  0.002402585    1.485    0.327
        63  -9.1566    107.7692     92.6272   8.5955565125e+01   4.2994379303e+01    0.2094263    0.1412607  55.43  0.000552631    1.740    0.425
        64 -10.5110     41.8968     91.9637   1.0677637007e+02   5.2890697768e+01     0.201061    0.1693445 -54.09 0.0006781612    1.032    0.031
        65 -11.1849     73.7984    188.3524   1.1338546955e+02   2.6151213759e+01    0.3209179    0.1967473  67.87  0.001052446    1.659    0.397
        66  -9.5917     66.1747     65.0305   9.1082241276e+01   5.5998654095e+01    0.2217715    0.1616043 -75.20  0.001086853    2.047    0.511
        67 -11.2107     13.4881     59.8692   1.0988616690e+02   6.2435906555e+01    0.2288018    0.1787701 -56.86 0.0004905855    1.079    0.073
        68 -10.4980    198.6934    222.8020   9.2560249162e+01  -7.6176123972e-01    0.2150512    0.1451542  28.31  0.000475994    1.290    0.225
        69 -13.3831    189.3055     43.0521   5.2086036596e+01   3.2660079038e+01     1.007903    0.6841592  33.65  0.001224859    1.856    0.461
        70  -9.7210    130.5045    212.9461   1.0452419232e+02   1.2320766799e+01    0.1729899    0.1293531 -62.52 0.0005259351    1.514    0.340
        71 -14.7164     46.8667    221.5383   1.2193768238e+02   2.2739967254e+01     1.640293     1.059967  36.14  0.003487479    1.715    0.417
        72 -10.5069    107.9881    203.7060   1.0795538044e+02   1.7784832555e+01    0.1876829    0.1583096  57.69 0.0007500011    1.038    0.037
        73 -11.4768    147.8385     51.8325   6.2494576995e+01   4.1826312713e+01    0.5213379    0.3397741 -79.24  0.001666157    2.518    0.603
        74  -8.8609    142.6398     17.3343   5.1805495899e+01   4.7687754853e+01    0.1472549    0.1029707 -67.36 0.0007039381    1.809    0.447
        75  -9.6886    189.7010     15.0133   4.4014659143e+01   3.6045881527e+01    0.1868067     0.175059 -57.13  0.000609183    1.101    0.092
        76 -10.7295    209.9508    199.5099   8.6392091020e+01   8.5191870251e-01    0.2217284     0.182179 -48.40 0.0006656858    1.541    0.351
        77 -11.8892    193.5471    195.4445   8.8823442622e+01   4.3760373687e+00    0.8813204    0.4901124 -65.03  0.002880948    5.366    0.814
        78 -13.2229     16.8220    191.3793   1.2552474019e+02   3.2115574363e+01     0.367651    0.2631494  65.82 0.0006068844    1.170    0.145
        79 -10.6810    112.8221    198.5991   1.0623582009e+02   1.8036780606e+01    0.3769869    0.1916579  66.44   0.00145255    3.093    0.677
