#   1 NUMBER                 Running object number                                     
#   2 MAG_AUTO               Kron-like elliptical aperture magnitude                    [mag]
#   3 X_IMAGE                Object position along x                                    [pixel]
#   4 Y_IMAGE                Object position along y                                    [pixel]
#   5 X_WORLD                Barycenter position along world x axis                     [deg]
#   6 Y_WORLD                Barycenter position along world y axis                     [deg]
#   7 A_WORLD                Profile RMS along major axis (world units)                 [deg]
#   8 B_WORLD                Profile RMS along minor axis (world units)                 [deg]
#   9 THETA_WORLD            Position angle (CCW/world-x)                               [deg]
#  10 FWHM_WORLD             FWHM assuming a gaussian core                              [deg]
#  11 ELONGATION             A_IMAGE/B_IMAGE                                           
#  12 ELLIPTICITY            1 - B_IMAGE/A_IMAGE                                       
         1 -15.5970      7.7673     96.8376   8.0894621963e+01   5.5741026324e+01     2.265038     1.224469  87.05   0.00779512    1.939    0.484
         2 -14.8125     35.1660     66.2212   6.2952718415e+01   6.1105925647e+01     2.177465     1.650217  44.65   0.01025087    1.515    0.340
         3 -13.0553      4.9805     31.2217   6.8889069339e+01   7.1443096232e+01    0.5673965    0.5018628  -8.71  0.002819275    1.172    0.147
         4 -14.9192      8.1253     17.2538   6.1227507767e+01   7.4042798397e+01     1.750248     1.065485  42.99  0.007525247    2.314    0.568
         5 -14.4091     18.3860      6.6826   4.8036639008e+01   7.4874849266e+01     1.692221      1.00948  26.83  0.009884764    1.618    0.382
         6 -13.7324     14.8397     45.6237   6.7434736709e+01   6.7669211269e+01      1.56111     1.011745 -58.62  0.008222144    1.401    0.286
         7 -14.5667    244.4933     25.2930   1.4385231070e+00   2.2317846293e+01     1.509119    0.7135791 -49.85  0.008200214    1.706    0.414
         8 -13.9695    245.3166      7.6611   3.5767816106e+02   2.4075336709e+01     0.946716    0.8058885 -43.74  0.007002966    1.235    0.190
         9 -13.4202     84.8349     12.7105   2.0040074593e+01   6.1800113954e+01    0.8923653    0.8073321 -37.54    0.0054699    1.246    0.198
        10 -12.5421     69.9977      9.8542   2.3354670507e+01   6.5450424152e+01    0.6345642    0.4386582  41.33  0.002703526    1.287    0.223
        11 -12.6939    197.5960      6.4399   4.7856492308e-01   3.4421540287e+01    0.7240155    0.5429764  61.57  0.004423838    1.448    0.310
        12 -11.5460    134.2707      5.6149   6.9094826913e+00   5.0185156470e+01    0.3985185    0.2496254  87.88  0.001793312    1.606    0.378
        13 -14.8721     88.3656    175.3914   6.6171621320e+01   2.6900214121e+01     2.151236     1.250966  57.27  0.006969682    1.925    0.480
        14 -14.5426    208.2141    240.6640   4.9804348898e+01  -2.4525331166e+00    0.8712391    0.7997336 -47.67  0.006420625    1.850    0.459
        15 -14.9214    229.2651    245.2178   4.6842682633e+01  -5.4795222245e+00     1.416447    0.6348171  24.11  0.008277308    1.914    0.478
        16 -14.1614    177.0876    248.1893   5.6580003187e+01   5.2895125554e-01    0.9907434    0.4783496  31.03  0.004974169    1.651    0.394
        17 -12.0212    102.2552    244.5968   7.1166454542e+01   1.1119321532e+01    0.5068766    0.2691495 -64.15   0.00280981    2.427    0.588
        18 -13.8512    106.8953    230.9629   6.8760543229e+01   1.2846531481e+01    0.9433692    0.7758841  -2.33  0.005536234    1.482    0.325
        19 -15.0930    155.9799    247.8905   6.0613474653e+01   3.3567907257e+00     1.833885     1.486146  56.91   0.01027663    1.673    0.402
        20 -14.7137    134.0731    247.8413   6.4975836735e+01   6.3171156396e+00     1.071283    0.7626474  48.55   0.00410842    1.453    0.312
        21 -15.0172    117.4994    245.5785   6.8108388090e+01   8.9149941620e+00     1.253613     1.002702 -82.74  0.008450305    1.699    0.411
        22 -13.3092     95.9574    215.9436   6.9511479471e+01   1.7174568103e+01     1.040306    0.6545821  74.00  0.005278208    2.163    0.538
        23 -12.4235     55.7067    159.7377   7.3019825100e+01   3.5197222821e+01     1.436047     0.606715 -75.28  0.005565771    2.658    0.624
        24 -15.7716     80.7946    234.8236   7.4789330381e+01   1.5651986066e+01     2.279405      1.28621  77.74   0.01121366    2.478    0.596
        25 -13.5573     45.7824    234.7582   8.2242150295e+01   1.9902657680e+01    0.7056236    0.3353359  55.37  0.003042764    1.814    0.449
        26 -14.7843     60.7026    236.3231   7.9202592654e+01   1.7876321799e+01     1.542349     0.782232 -85.58  0.008173214    2.460    0.594
        27 -14.2634     50.7529    209.9351   7.9377949071e+01   2.4288624532e+01     1.200442    0.6123585  56.40  0.005570788    1.815    0.449
        28 -15.5493     56.2944    191.5648   7.6413644615e+01   2.7615029888e+01     2.820361     1.244647 -88.68   0.01106479    3.223    0.690
        29 -14.5918     65.9212    189.5427   7.3781232265e+01   2.6847282109e+01     1.207651    0.7556479  74.95  0.004702363    1.812    0.448
        30 -15.6257     31.8557    185.8190   8.2042293604e+01   3.1686168767e+01     2.605644     1.388828  73.56   0.01172843    1.909    0.476
        31 -14.5604     24.1686    151.7261   8.1265308156e+01   4.0600668572e+01     2.374684    0.8573782 -75.18   0.00963131    2.537    0.606
        32 -15.0785     39.6290    244.1170   8.4058243449e+01   1.8843600542e+01     1.417543    0.5339984  57.27   0.00666283    2.406    0.584
        33 -14.0480     12.1407    183.9220   8.6801829878e+01   3.3978178691e+01     1.935744    0.8833708 -89.85  0.009585802    2.070    0.517
        34 -15.3107      4.6748    162.0198   8.7461683848e+01   3.9680154780e+01     3.541403    0.6339862 -79.56    0.0109976    4.910    0.796
        35 -14.2220      3.7729    217.2008   9.0191866497e+01   2.7555682269e+01    0.7381844    0.2730651  63.63  0.003365038    2.308    0.567
        36 -14.1315     18.2654    227.5916   8.7596908879e+01   2.4164474088e+01     1.525354    0.5725063  70.20  0.007277961    2.730    0.634
        37 -14.9927     18.4152    210.4096   8.6749741405e+01   2.7624657126e+01     2.439699    0.5085989  51.44  0.009236918    3.664    0.727
        38 -13.3286     29.4901    250.0206   8.6359847128e+01   1.8853168253e+01    0.4266044    0.1455708  33.09  0.001754464    2.282    0.562
        39 -14.1163      7.4946    247.3761   9.0468923691e+01   2.1471514740e+01    0.8452262     0.153626  51.86  0.003752135    3.220    0.689
        40 -12.5800      1.4204    238.1601   9.1344102000e+01   2.3700591776e+01    0.3217072    0.1263386  84.23  0.001756057    2.442    0.590
        41 -13.7323     94.2178    191.8526   6.6961259747e+01   2.2363136303e+01    0.8452672    0.5724251  75.70  0.003613454    1.869    0.465
        42 -10.7982     42.2461    175.6633   7.8493819416e+01   3.2939485926e+01    0.3123854    0.1556138  85.73  0.001365289    2.341    0.573
        43 -11.2276     45.9440    167.5879   7.6679158481e+01   3.4453945750e+01    0.2844365    0.2032032 -75.29 0.0009068197    1.358    0.264
        44 -14.1906     78.3762    198.8890   7.1726687944e+01   2.3120832367e+01     1.227969    0.6774875 -88.47  0.004944597    2.523    0.604
        45 -12.6961    239.2288    147.4965   2.8191513891e+01   6.2345206215e+00    0.3904642    0.2233546 -10.43  0.001807028    2.336    0.572
        46 -13.7382     95.3567    201.1017   6.7878895025e+01   2.0242586758e+01    0.8947424    0.5946414  48.06  0.003076174    1.372    0.271
        47  99.0000     53.1809    112.4609   6.6388417758e+01   4.7521314897e+01     2.752369     2.522643 -14.57   0.01562127    1.212    0.175
        48 -13.7334     34.2874    125.9196   7.5174848644e+01   4.6196686197e+01     1.885623    0.9543111 -81.67  0.008128821    2.080    0.519
        49 -12.5478     21.2816    120.4674   7.8880438718e+01   4.8774275045e+01    0.9672247    0.5444915  65.27  0.003995736    1.983    0.496
        50 -15.3885     22.6741    105.2599   7.6350311750e+01   5.2567786156e+01      1.55438     1.141521 -81.66  0.006093808    1.279    0.218
        51 -10.8862     21.3087    248.0327   8.7858063576e+01   2.0035004799e+01    0.1408762    0.1130682 -68.83 0.0008526103    1.591    0.372
        52 -11.0105      1.6648    119.8672   8.5441445673e+01   5.0259475062e+01    0.7148463    0.2008984 -89.37  0.002287896    4.253    0.765
        53  -9.6259     13.2695    121.3536   8.1701729202e+01   4.9153737916e+01    0.1375427   0.08500055 -50.11 0.0006994264    1.632    0.387
        54 -12.8324    131.2966    110.6404   4.1269929682e+01   3.3946742939e+01    0.8177245    0.6478731 -58.84  0.003788416    1.358    0.264
        55 -13.1305    211.1541    110.0338   2.4527567329e+01   1.7049864620e+01    0.6781989    0.4242048 -35.85  0.003424931    1.442    0.306
        56 -11.1659     16.5301    133.8726   8.1895017114e+01   4.5729393752e+01    0.3694709    0.2081168 -87.11  0.001427334    1.662    0.398
        57 -12.8873     24.7839     86.4612   7.2349135611e+01   5.7171736791e+01    0.6579803    0.5631862  -8.50  0.002558236    1.289    0.224
        58 -11.4897    134.3167     96.4051   3.6642382043e+01   3.6286961764e+01    0.4336747    0.3010623 -34.15  0.001935714    1.531    0.347
        59 -14.3945     92.1223     83.5458   4.5261519351e+01   4.8146901298e+01     1.892597     1.133519 -52.29  0.007012572    1.735    0.424
        60 -13.6929     79.4361     79.4175   4.8434030473e+01   5.1499068663e+01     1.466951    0.7391239 -54.38  0.005529799    2.117    0.528
        61 -11.4448     53.4494     87.7875   6.0803450975e+01   5.3691864362e+01    0.3927197    0.3256519  58.74  0.001673085    1.361    0.265
        62 -14.1246    185.9483    239.8144   5.3757647018e+01   4.9386430764e-01    0.6561594    0.4470099   0.87  0.004215337    1.431    0.301
        63 -12.3117      1.9856     41.2920   7.3716818098e+01   6.9409425640e+01    0.7394639    0.1688161 -62.70  0.002835511    3.117    0.679
        64 -14.1993    173.7045    230.1244   5.4727214880e+01   3.5117321920e+00     1.157779     0.839379  51.95  0.006975857    1.885    0.470
        65 -12.3651     10.3846    237.3327   8.9575336988e+01   2.3045898036e+01    0.4811999    0.1586592  62.85  0.002221773    2.655    0.623
        66 -13.4699    245.1139    232.0322   4.2263600865e+01  -5.7645809620e+00    0.5023367    0.3224524  28.41  0.003124191    1.543    0.352
        67 -10.7158     18.4962     79.3550   7.3703556186e+01   5.9437532060e+01      0.29551    0.1783163  16.46  0.001513283    1.856    0.461
        68 -11.4354     15.2880     74.8202   7.4271255762e+01   6.0781269051e+01    0.3851696    0.2773847  88.66  0.001288244    1.533    0.348
        69 -11.0448     61.2132     74.5797   5.3980333260e+01   5.5700886927e+01    0.3260404    0.2366968  22.78   0.00156555    1.484    0.326
        70 -12.3219    159.5396     68.4492   2.2847844700e+01   3.5541893847e+01    0.4982598    0.3821039  68.12  0.002487795    1.344    0.256
        71 -13.7284    234.5644     53.7533   8.5132468709e+00   2.0782365779e+01    0.5708858    0.4808946  88.50  0.002163192    1.260    0.206
        72 -13.9765    234.7512     45.7338   6.6912709211e+00   2.1785543109e+01     0.732243    0.4203742 -52.00  0.002996399    1.523    0.343
        73 -11.0445    200.8855     55.7509   1.2771488646e+01   2.7698279775e+01    0.4073558    0.2307392 -85.20  0.001748289    2.485    0.598
        74 -12.5087    192.6352     49.4775   1.2207385077e+01   3.0476527133e+01    0.7269259    0.4321443 -46.55  0.002848055    1.559    0.359
        75 -11.6922      2.3757    229.4498   9.0891197430e+01   2.5263578089e+01    0.4173756    0.1149373  63.24  0.001847818    3.188    0.686
        76 -11.0445     59.9812     50.7773   4.6298690826e+01   6.1015815185e+01    0.2583957    0.2064977 -39.61  0.001404892    1.228    0.186
        77 -13.0073    146.7099     44.1847   1.7855894680e+01   4.2508320705e+01    0.6385413    0.5002806 -57.28  0.003312075    1.321    0.243
        78 -11.8871     88.1753     47.4478   3.4039549815e+01   5.6146849964e+01    0.3842653    0.2818664  13.40    0.0018357    1.695    0.410
        79 -12.6157    135.9163     38.9266   1.8210098996e+01   4.5984074375e+01     1.011557    0.3479702  55.71  0.003603991    2.589    0.614
        80 -11.6987    103.0123     37.4884   2.5501211192e+01   5.4348750143e+01    0.2317308    0.2039939 -28.12  0.001204245    1.199    0.166
        81 -12.6949    245.4396    247.3259   4.4515773524e+01  -7.4767492428e+00    0.5983928    0.2309881  32.29  0.003452611    2.344    0.573
        82 -10.4099     11.2492    229.6974   8.9119654121e+01   2.4418293736e+01    0.1153115   0.06040188  59.47 0.0004004037    1.498    0.332
        83 -10.2773     47.3186     34.3195   4.5322323016e+01   6.6201109679e+01    0.1400781    0.0977729  -5.88 0.0007042071    1.662    0.398
        84 -11.8236     58.9993     31.5034   3.8523561471e+01   6.4694896888e+01    0.4525429    0.2994956  -4.57  0.002168713    1.968    0.492
        85 -12.6648     58.8354     26.0115   3.5977352211e+01   6.5597572298e+01     0.497903    0.3087336  58.04  0.002365257    2.124    0.529
        86 -11.4727     32.8821     29.8495   5.0997337384e+01   6.9092126682e+01      0.47063    0.2879162 -54.40  0.002426524    1.888    0.470
        87 -10.8629     33.6175     23.8022   4.7685545857e+01   7.0082559055e+01    0.2477727    0.1964094 -40.44   0.00151044    1.307    0.235
        88 -12.3679    220.6110     27.8642   3.8306795532e+00   2.6928493707e+01    0.4231632    0.2808873 -58.39  0.002472386    1.321    0.243
        89 -11.6854     51.3569     28.8562   4.0798382409e+01   6.6484481519e+01    0.3679583    0.2500867 -47.43  0.001939856    1.687    0.407
        90 -12.3541    199.6242     26.6916   5.4603335118e+00   3.1759519129e+01    0.4359203    0.3234406 -10.24  0.002394381    1.774    0.436
        91 -12.3581    248.4822    220.5142   3.9911946130e+01  -4.8143576849e+00    0.3579792    0.2026461 -20.90  0.002323346    1.514    0.339
        92 -10.6159     40.4404    211.6042   8.1872593904e+01   2.5112704646e+01     0.225933    0.1126239 -75.83   0.00104553    2.078    0.519
        93 -13.4322    110.4922    185.5980   6.2035650877e+01   2.1184858772e+01     1.319051    0.9235831 -26.07  0.006486261    1.916    0.478
