#   1 NUMBER                 Running object number                                     
#   2 MAG_AUTO               Kron-like elliptical aperture magnitude                    [mag]
#   3 X_IMAGE                Object position along x                                    [pixel]
#   4 Y_IMAGE                Object position along y                                    [pixel]
#   5 X_WORLD                Barycenter position along world x axis                     [deg]
#   6 Y_WORLD                Barycenter position along world y axis                     [deg]
#   7 A_WORLD                Profile RMS along major axis (world units)                 [deg]
#   8 B_WORLD                Profile RMS along minor axis (world units)                 [deg]
#   9 THETA_WORLD            Position angle (CCW/world-x)                               [deg]
#  10 FWHM_WORLD             FWHM assuming a gaussian core                              [deg]
#  11 ELONGATION             A_IMAGE/B_IMAGE                                           
#  12 ELLIPTICITY            1 - B_IMAGE/A_IMAGE                                       
         1 -14.9441    211.8092      7.1134   4.1821440810e+01   3.0772113519e+01     2.807703     1.883789  39.99   0.01116958    1.829    0.453
         2 -14.2453    188.5975     37.9919   5.3395357151e+01   3.3090816747e+01     1.075795     1.035349  53.04  0.003876546    1.071    0.066
         3 -13.5711    193.1956     31.8949   5.0918913303e+01   3.2689045083e+01    0.6908843    0.5892032  61.89   0.00119561    1.152    0.132
         4 -12.7869     53.9290      5.8538   7.3984932710e+01   6.7400243639e+01    0.7893955    0.3727726  16.54  0.003296233    3.236    0.691
         5 -14.0658    173.9533     51.8296   6.0094266852e+01   3.4928931316e+01     1.889483     1.403494  28.17  0.005374858    1.574    0.364
         6 -12.2942    152.2944    195.1006   1.0026175124e+02   1.2329826265e+01    0.4760678    0.3562684 -18.00  0.001943699    1.844    0.458
         7 -12.5853    248.2732    246.3167   9.0927718053e+01  -1.0664277265e+01     0.585994    0.3099309 -20.98  0.003627107    2.002    0.500
         8 -18.3966     41.5325    243.9895   1.2637495071e+02   2.0082508830e+01     6.675722     5.313627  38.83   0.05263279    1.658    0.397
         9 -11.2491     80.2758    194.6023   1.1514088663e+02   2.4370614430e+01    0.3859114    0.2194108  53.36  0.001441605    1.582    0.368
        10 -11.4247     97.0758    192.6889   1.1142283781e+02   2.2248709389e+01    0.4168752    0.3022872 -23.55  0.001978073    2.518    0.603
        11  -9.7323     93.3667    205.3193   1.1373637487e+02   2.0299597634e+01    0.2154359    0.1885467  -4.29  0.001077849    1.774    0.436
        12 -11.2125      8.4429    192.8620   1.2899545487e+02   3.3077855797e+01    0.2134697    0.1123051  36.09  0.000957243    2.103    0.524
        13 -10.1915     87.4586    203.1198   1.1466202850e+02   2.1611341103e+01    0.2147162    0.1965863 -67.63 0.0008664559    1.318    0.241
        14 -11.5588    153.1818    185.3592   9.8421504353e+01   1.3966459850e+01    0.4300382    0.2905579 -37.61  0.001894716    1.713    0.416
        15 -12.8123    122.7512    185.4464   1.0492458102e+02   1.9477086765e+01    0.4955527    0.3626313  78.25  0.002639041    1.579    0.367
        16  -9.1399     53.2547    188.4049   1.2000408614e+02   2.9257791702e+01    0.1142757   0.08382207 -52.44 0.0002705262    1.717    0.417
        17  -9.8490     60.8375    186.5660   1.1826118752e+02   2.8693650454e+01     0.249456     0.191229  21.36 0.0004723012    1.896    0.473
        18 -11.7677    128.6362    184.1660   1.0345340703e+02   1.8697273192e+01    0.2902356    0.1707177 -67.17  0.001340189    2.105    0.525
        19 -12.2811    146.3445    183.1205   9.9478904730e+01   1.5671386599e+01     0.516114     0.315646  62.09  0.002158669    2.019    0.505
        20 -12.4491    142.4532    173.1054   9.8536575345e+01   1.8379456643e+01    0.7401084    0.5953066 -80.33  0.003954675    1.467    0.318
        21 -11.9014     96.9854    200.5255   1.1243388157e+02   2.0689335881e+01    0.3872571    0.3118402 -36.17  0.001202629    1.774    0.436
        22 -12.0453    193.9708    196.7621   9.2221615388e+01   4.3886024122e+00     1.160067    0.6238177 -60.63  0.004273186    4.301    0.767
        23 -11.3757     99.3099    180.8373   1.0932375898e+02   2.4359083726e+01    0.2499108    0.2340699  63.07 0.0006472173    1.141    0.123
        24 -10.8740    204.6212    175.9259   8.6157775447e+01   5.7567319001e+00    0.3155438    0.2994431  25.71  0.000870768    1.142    0.124
        25 -10.5173    196.6888    175.9049   8.7705680530e+01   7.2898942926e+00    0.3179042     0.282837  50.82  0.001842633    1.243    0.195
        26 -10.3338    188.5724    175.3830   8.9221551190e+01   8.9605753167e+00    0.2886294    0.2322415 -51.28 0.0009246371    1.452    0.311
        27  -9.4693     68.0681    177.4725   1.1570304528e+02   2.9694951483e+01    0.1739626    0.1150437  46.04 0.0004225912    1.471    0.320
        28 -12.5907    204.3781    197.3397   9.0336762242e+01   2.4169939988e+00    0.6465436    0.3643683  24.01  0.003043707    2.012    0.503
        29  -9.3386     68.2783    172.6239   1.1506383060e+02   3.0729269973e+01    0.1370378    0.0851623  76.93 0.0001134069    1.702    0.413
        30 -10.0757    185.7179    169.3555   8.8582447159e+01   1.0591151839e+01    0.2522936    0.1775404 -51.49 0.0009249232    1.659    0.397
        31 -19.2059     17.9181    102.6073   1.1828783945e+02   5.2250431390e+01     17.05246     1.524809 -68.96   0.03622413   10.020    0.900
        32  -9.1119     67.6708    167.1270   1.1450074103e+02   3.2032831046e+01    0.1754879    0.1029253 -58.55            0    1.664    0.399
        33  -9.8821    161.1258    199.7835   9.9238482862e+01   9.8911340683e+00    0.1938497    0.1653575  58.10 0.0004645367    1.200    0.167
        34  -9.8366    188.3064    153.6590   8.4705823479e+01   1.2927703574e+01    0.1452939     0.119761 -82.72 0.0003782577    1.684    0.406
        35 -11.7342    133.8476    145.5085   9.5073903890e+01   2.5863978144e+01     1.225833    0.3153755 -54.42  0.003046969    5.483    0.818
        36 -10.3872    113.4227    151.2943   1.0115751275e+02   2.8437861853e+01     0.318057     0.215148  84.13  0.001158081    2.020    0.505
        37  -9.6373     42.9269    200.0429   1.2307548887e+02   2.8090182736e+01    0.1287641   0.09787598  75.52 0.0003114672    1.014    0.014
        38  -9.1589    191.6475    151.3338   8.3502102641e+01   1.2657109874e+01    0.1487584    0.1203583 -86.60 0.0007045836    1.785    0.440
        39 -10.6185    174.3660    148.5002   8.6497608926e+01   1.6850205905e+01    0.3698123    0.2909797 -65.26  0.001393901    1.570    0.363
        40 -11.3105    144.2587    146.9006   9.2913822177e+01   2.3473163444e+01     0.580343    0.2754751 -60.86  0.001965101    3.134    0.681
        41  -9.6760    118.8336    148.6864   9.9341460550e+01   2.8036367366e+01    0.3391702   0.09346411 -47.40   0.00101677    3.767    0.735
        42 -12.1462    108.5522    138.9241   9.9921703763e+01   3.2120549504e+01    0.6417844    0.4624973 -42.23  0.003166161    1.490    0.329
        43 -12.5723     96.7545    138.1023   1.0276108251e+02   3.4348378463e+01    0.3107588    0.2806382  86.79 0.0004624914    1.071    0.066
        44 -11.5775    106.0021    130.7773   9.8869341087e+01   3.4454421622e+01    0.4257211    0.3435187 -76.48  0.001220519    1.302    0.232
        45 -11.3542    103.1786    125.0130   9.8353927618e+01   3.6292840571e+01    0.3129791    0.2547321 -21.06  0.001020505    1.541    0.351
        46 -11.2598    135.7775    128.1127   9.0690939905e+01   2.9294926120e+01     0.727263    0.2045192 -50.59  0.002033493    3.914    0.744
        47 -10.9916    115.4018    129.2665   9.6103386546e+01   3.3076465898e+01     0.327742    0.2656313 -30.91 0.0007307504    1.408    0.290
        48 -10.3651    160.6861    127.9667   8.4718985101e+01   2.3968624699e+01    0.4148819    0.2784175 -55.52  0.001804261    1.672    0.402
        49 -10.9462    120.6226    123.0198   9.3311090855e+01   3.3493015942e+01    0.4531115    0.2969651 -15.08  0.001723914    2.744    0.636
        50  -9.6937    152.6421    119.9686   8.4592204541e+01   2.7425799279e+01    0.2225834    0.1959561 -42.81 0.0005786108    1.125    0.111
        51 -10.1699    110.4957    118.5217   9.4905359698e+01   3.6459983741e+01    0.2423235    0.2321797 -65.49 0.0005286008    1.009    0.009
        52 -11.8092     65.0173    113.8625   1.0655673546e+02   4.4829173908e+01    0.3965964    0.2497472 -54.39 0.0005473941    1.399    0.285
        53 -10.4066    167.8566    112.7415   7.9200777802e+01   2.5453829965e+01    0.3872978    0.2986936 -86.54  0.001375526    1.795    0.443
        54 -10.8105    135.0000    112.0546   8.6873801350e+01   3.2980114863e+01    0.5355912   0.08714743 -44.84  0.001163447    6.006    0.833
        55 -10.1134    134.5710    105.2847   8.5174955475e+01   3.4537881825e+01    0.4421733    0.1482759 -43.76  0.001379402    2.906    0.656
        56 -11.7973    119.0936    110.1776   9.0529188715e+01   3.6689642233e+01    0.5940656    0.4318566  58.69  0.002768349    1.563    0.360
        57 -10.3923    205.4741    110.2392   7.0796690604e+01   1.7146898875e+01     0.309549    0.2409112  38.72 0.0009186228    1.341    0.254
        58 -10.1198     51.7071     90.6375   1.0560545531e+02   5.1911182353e+01    0.3341798    0.1453672  38.82  0.001473621    2.630    0.620
        59 -10.5551    186.9991     87.0004   6.8068541229e+01   2.5762158234e+01    0.3937096    0.3109983 -69.26   0.00142752    1.519    0.342
        60  -9.1546    153.5354     81.4676   7.3601211484e+01   3.5015405754e+01    0.1565952     0.152838 -11.53 0.0001056887    1.010    0.010
        61 -12.5958    164.3509     64.7867   6.6043340883e+01   3.5321017824e+01     0.785873    0.7034704  89.07 0.0005604845    1.233    0.189
        62 -10.9269    158.1819    235.5755   1.0510987386e+02   4.6468510945e+00    0.2293187    0.2155213  37.27 0.0009070355    1.168    0.144
        63 -10.0646    167.8626    233.4881   1.0304911735e+02   3.3589575685e+00     0.300884    0.1679624  57.03  0.001534558    2.155    0.536
        64 -10.5144     72.0086    231.3302   1.2033770318e+02   1.8484182849e+01    0.2136593    0.1273682  89.56 0.0009780239    1.710    0.415
        65  -8.8050     93.6636     62.3165   8.3641049093e+01   5.1750408506e+01    0.1408051    0.1169373 -80.57 0.0006501883    1.697    0.411
        66  -9.9498     46.7767    198.0906   1.2217455956e+02   2.8035422372e+01    0.1461372    0.1152001  81.13            0    1.046    0.044
