#   1 NUMBER                 Running object number                                     
#   2 MAG_AUTO               Kron-like elliptical aperture magnitude                    [mag]
#   3 X_IMAGE                Object position along x                                    [pixel]
#   4 Y_IMAGE                Object position along y                                    [pixel]
#   5 X_WORLD                Barycenter position along world x axis                     [deg]
#   6 Y_WORLD                Barycenter position along world y axis                     [deg]
#   7 A_WORLD                Profile RMS along major axis (world units)                 [deg]
#   8 B_WORLD                Profile RMS along minor axis (world units)                 [deg]
#   9 THETA_WORLD            Position angle (CCW/world-x)                               [deg]
#  10 FWHM_WORLD             FWHM assuming a gaussian core                              [deg]
#  11 ELONGATION             A_IMAGE/B_IMAGE                                           
#  12 ELLIPTICITY            1 - B_IMAGE/A_IMAGE                                       
         1 -14.2935     10.9336     70.6538   8.3731925697e+01   6.1615845732e+01     2.299673     1.496611 -18.47    0.0129922    1.972    0.493
         2 -12.1257     51.3891     34.4430   5.3911609205e+01   6.5617278591e+01     1.067361    0.8947172  26.13  0.006268298    1.279    0.218
         3 -14.1094     43.8993     73.3491   7.0786976446e+01   5.8021630024e+01      1.77429    0.9547047 -42.81  0.007306955    1.881    0.469
         4 -11.8226     40.9796     20.4837   5.2135875466e+01   6.9723301927e+01    0.9430273    0.5654528 -32.85  0.004123938    1.518    0.341
         5 -13.6851     54.2205     57.9730   6.1953405086e+01   6.0281482572e+01     2.267352     1.376971  77.62  0.008052364    4.099    0.756
         6 -14.1728     11.4503     36.1364   7.5315683556e+01   6.9677558528e+01     1.984902     1.436684 -71.76   0.01226357    1.368    0.269
         7 -12.7764     25.4454     39.7364   6.8969224068e+01   6.7746386170e+01     1.451381    0.3486709 -53.22  0.004903189    3.019    0.669
         8 -11.4070    235.4088     37.7807   1.4185274589e+01   2.1820507934e+01     1.043912    0.4838279 -63.82  0.004225329    2.796    0.642
         9 -10.5603    224.1991     11.1729   8.2294260866e+00   2.7431429702e+01     0.994854    0.5701463 -78.75  0.004970151    1.831    0.454
        10 -14.1937    244.6857      9.1967   6.3735857618e+00   2.3031774709e+01     1.178491    0.5310544 -71.40  0.005358517    2.492    0.599
        11 -11.2237    231.7994      1.6197   5.2842529427e+00   2.6652121241e+01    0.3915303    0.1545281  84.30  0.001285775    2.719    0.632
        12 -12.6407    219.5535     29.9550   1.3619535689e+01   2.6409241942e+01    0.9795424    0.5239859 -87.27    0.0038426    2.295    0.564
        13 -12.6440    226.0202     22.4078   1.1031714220e+01   2.5779198066e+01    0.5421373    0.3998608  73.81  0.001455215    1.440    0.306
        14 -13.0683    189.3857     35.9263   1.8693507800e+01   3.3094636088e+01     1.328449    0.8331081 -45.71  0.006252493    1.498    0.332
        15 -13.2644    200.0262     34.3598   1.6920586461e+01   3.0611132901e+01     1.738721    0.8053992 -38.72  0.007333179    1.896    0.473
        16 -11.3639    193.8971     19.1888   1.3113184780e+01   3.3965499873e+01      0.53253    0.3616284  62.89  0.002664282    1.505    0.336
        17 -12.9884    173.5574     41.9947   2.2840576439e+01   3.6356480283e+01     1.384428    0.9407837  22.79  0.004685437    2.031    0.508
        18 -13.7724     80.7751     42.4800   4.5504098058e+01   5.8913998210e+01     1.392617    0.8084087  50.24   0.00629398    1.878    0.467
        19 -12.8862     60.1017      6.3710   3.5083942817e+01   6.8557165404e+01    0.9339447    0.8369953 -67.03  0.005802112    1.515    0.340
        20 -10.7536    246.2966     23.1461   9.6434091980e+00   2.1171369648e+01    0.3354956    0.2299024 -44.47  0.001035079    1.192    0.161
        21 -11.5969    241.3159     22.8693   9.9420593277e+00   2.2281426314e+01    0.3715895    0.2903339  38.41   0.00078597    1.678    0.404
        22 -11.7551    209.5685     21.2976   1.2181865132e+01   2.9821108733e+01    0.4695024    0.2654829  45.83  0.002147161    2.189    0.543
        23 -11.4613    130.4136     19.5790   2.2204726488e+01   5.0596959216e+01    0.3578238    0.2845419 -86.45 0.0005633227    1.385    0.278
        24 -12.7512     73.1259      4.4973   2.9254131487e+01   6.6095896798e+01     1.035534    0.5363497  72.51  0.004241888    3.028    0.670
        25 -10.2820    138.7807     17.2148   1.9765880886e+01   4.8669515481e+01    0.4279675    0.2213359 -29.58  0.001295671    1.903    0.474
        26 -10.7516    102.8419     16.1562   2.6747619633e+01   5.7965118572e+01    0.4089207    0.1967548 -19.94  0.001666689    2.257    0.557
        27 -10.1593    125.1780     16.8450   2.2099835935e+01   5.2269180478e+01    0.3240099    0.1713205 -32.62  0.001191706    1.863    0.463
        28 -11.4615    160.0635     14.3571   1.5515647067e+01   4.3326709237e+01    0.2956949    0.2216475 -32.97 0.0001575635    1.327    0.246
        29 -11.5756    151.5518     13.5367   1.6393989042e+01   4.5676474727e+01    0.6149763    0.3546428  88.49  0.002005583    1.981    0.495
        30 -12.0535    116.0638     10.2540   2.1097153458e+01   5.5316069382e+01    0.5397337     0.320471  -4.35  0.001268032    2.028    0.507
        31 -10.6635    117.7757      2.8333   1.7512067839e+01   5.5578814648e+01    0.4001822    0.1852903 -38.06  0.001250023    2.229    0.551
        32  -9.9680    173.6340     11.8474   1.3009002417e+01   3.9998450224e+01    0.2245118    0.1846084  78.10  0.001228269    1.176    0.150
        33 -11.3349    173.1619      6.5406   1.1328526702e+01   4.0648142469e+01    0.4254178    0.2425574  -9.94  0.001151451    2.130    0.531
        34 -11.0979    131.3797     11.6280   1.8824163634e+01   5.1212179348e+01    0.4311586    0.2535224  83.62  0.001358737    1.950    0.487
        35 -11.1217    123.9435     10.7604   1.9793837731e+01   5.3239247751e+01    0.4144981    0.2734303  18.45  0.001359335    1.838    0.456
        36  -9.5663     88.4787     11.6029   2.8377597893e+01   6.1890903571e+01    0.2185587    0.1625187 -21.43 0.0006533024    1.335    0.251
        37 -13.9855     71.0962     20.8467   3.8899282926e+01   6.4437590435e+01     1.411064     1.286408 -54.88  0.004046482    1.310    0.237
        38  -9.8792    101.0287     10.9818   2.4759634693e+01   5.8988205898e+01     0.238699    0.1544323  24.75 0.0009139619    1.754    0.430
        39 -10.3725    145.6050      9.4525   1.5737279593e+01   4.7670371626e+01    0.4377094    0.1879761  62.15   0.00175807    2.100    0.524
        40  -9.6416    145.5879      6.2307   1.4531261230e+01   4.7981982154e+01    0.2509452    0.2211809  24.49 0.0005898598    1.239    0.193
        41  -9.8129    110.4698      9.8523   2.2079316871e+01   5.6772259002e+01    0.1989382    0.1381462 -20.36 0.0004506745    1.481    0.325
        42 -10.2660     27.2125      9.4453   5.3613900542e+01   7.3470028837e+01    0.2442308    0.1762665   3.13  0.001244703    1.444    0.307
        43 -11.7838    193.9606      7.6774   9.6793749048e+00   3.5164109871e+01    0.3227736    0.3075641  86.55  0.001950466    1.117    0.105
        44 -10.1101     84.6062      8.1164   2.7691000788e+01   6.3164888539e+01    0.3646962    0.1833644 -19.00  0.001611535    2.075    0.518
        45 -12.1529     86.1522      1.7481   2.3885682188e+01   6.3450399171e+01    0.5217451    0.1798777  54.54  0.002060395    2.485    0.598
        46  99.0000     31.0961     20.2616   5.7400483020e+01   7.1086341672e+01     1.195466    0.7244797 -69.02  0.005177324    3.381    0.704
        47 -10.8993      2.9765      6.2958   6.8621326676e+01   7.6420587585e+01    0.2376131    0.1873547  -5.51 0.0009550582    1.304    0.233
        48 -10.4214    211.5596      6.0768   7.7953313565e+00   3.0958474258e+01      0.24329    0.1758634  72.39  0.001086048    1.415    0.293
        49  -9.6108    101.1196      4.9237   2.1830866679e+01   5.9577806495e+01    0.3609144    0.2570968  32.66  0.001475667    1.413    0.292
        50 -12.6456     58.9006     29.1291   4.8038605943e+01   6.5373350211e+01     4.572608     2.514142 -64.95   0.01391498    5.760    0.826
        51  -9.8600     47.7533      5.5729   3.9969982503e+01   7.0939998427e+01    0.2355411    0.1122116  40.57  0.001121742    2.111    0.526
        52 -10.8149    183.7798      3.2662   9.2547897950e+00   3.8193245795e+01    0.3049478    0.2320075 -80.73 0.0006780688    1.251    0.201
        53 -10.0109    111.9473      4.1477   1.9188659651e+01   5.6949136708e+01    0.2154263    0.1794205 -80.94  0.001182884    1.338    0.252
        54 -10.2903    217.6930      2.2514   6.3317811201e+00   2.9863534171e+01    0.2334907    0.2063472 -85.63  0.001475666    1.137    0.120
        55 -11.1780     93.9195     11.6665   2.6904820228e+01   6.0616224744e+01     0.284988    0.2073057  54.91 0.0003736195    1.335    0.251
        56 -10.1735    142.2026      1.9818   1.3383158213e+01   4.9259320969e+01    0.2434375    0.1966108  74.98 0.0007431575    1.172    0.147
        57 -11.6540     49.0349      1.5094   3.6741705972e+01   7.1224134990e+01    0.4410872    0.1289066  47.74  0.001233494    3.287    0.696
        58  -9.6520      1.2448      1.2131   6.7148563514e+01   7.7489905627e+01    0.1054698   0.06682003 -28.19 0.0006556825    1.363    0.266
        59 -12.1321     86.9492     74.4930   5.5217182332e+01   5.1139513569e+01     0.584873    0.3522684 -48.77  0.001480713    1.559    0.359
        60 -12.6894     72.9810     73.6641   5.9801681833e+01   5.3809150309e+01     1.475512    0.6862664  37.30  0.005932494    2.365    0.577
        61 -13.3140     63.9463     91.6379   6.7954810657e+01   5.0924244651e+01    0.7708811    0.5139785  65.98  0.003607671    1.890    0.471
        62 -11.2691     57.1867     89.1535   6.9723795224e+01   5.2482416866e+01    0.2851065    0.2389337 -69.26  0.000401202    1.086    0.079
        63 -11.9770     61.1166     83.9372   6.7016083075e+01   5.3211621218e+01    0.5049903     0.282232 -33.20  0.001019129    2.464    0.594
        64 -10.8720     70.9595     88.0137   6.4619393502e+01   5.0746510973e+01    0.3508188    0.3077573 -55.80  0.001183888    1.056    0.053
        65 -12.4133     67.0702     82.2821   6.4438052097e+01   5.2728483733e+01    0.5190692    0.4160771 -69.83  0.001010983    1.234    0.189
        66  -9.9478    140.9875    119.7590   5.2587922144e+01   3.0006520245e+01    0.2087219    0.1945464  53.39 0.0003017673    1.078    0.072
        67  -9.8829    232.8828     94.8830   2.8874977337e+01   1.4480950065e+01    0.1997136    0.1638717 -14.00 0.0004092952    1.192    0.161
        68 -10.5358    206.3727     94.1673   3.2684775577e+01   2.0231147420e+01    0.2211943    0.1195376 -42.99 0.0004905798    1.766    0.434
        69 -10.6904    170.2259     97.8335   4.0295229940e+01   2.7852774125e+01    0.3601958    0.3062788 -37.74  0.001420022    1.133    0.117
        70 -10.1003    211.3051     93.3275   3.1677579599e+01   1.9279155092e+01    0.1462944    0.1099935   7.99 0.0003573856    1.650    0.394
        71 -11.4568     96.5720     90.9053   5.7065961814e+01   4.5572765341e+01     0.523782    0.3980035  70.34   0.00248574    1.582    0.368
        72 -11.2830     79.7893     90.9038   6.2414997148e+01   4.8610419456e+01    0.2523364    0.2236509 -31.60 0.0004059093    1.235    0.190
        73 -10.1753    172.6462     91.1739   3.7959044544e+01   2.8515453803e+01    0.2517009    0.2088751  70.26 0.0005802775    1.341    0.254
        74  -9.4779     85.9824     90.0687   6.0168766791e+01   4.7731785246e+01    0.1800352     0.167091 -62.83 0.0005802182    1.006    0.006
        75 -12.7123     50.5943     86.4415   7.1458248263e+01   5.4009705461e+01    0.5541019    0.3795601  43.66  0.001199997    1.605    0.377
        76 -12.3275    192.4504     75.6398   2.9953518202e+01   2.6467508908e+01    0.3667381    0.3348926  38.47  0.001137402    1.187    0.157
        77 -12.9401    191.7744     68.8272   2.8121519515e+01   2.7723796110e+01    0.8621192    0.5684155  32.68  0.003810887    1.946    0.486
        78 -13.3992    193.0069     84.8373   3.2424187767e+01   2.4819347467e+01    0.8314034    0.6030005  84.11  0.003868626    1.810    0.448
        79 -12.9520    202.4498     80.6040   2.9710797465e+01   2.3311351279e+01    0.6315965    0.3529195  37.14  0.002277751    2.301    0.565
        80 -12.2384    199.3883     76.1253   2.8966837865e+01   2.4741215872e+01    0.4886734    0.2874676  59.75 0.0004263151    1.841    0.457
        81 -12.7520    202.1918     70.2071   2.6891781032e+01   2.5007030339e+01    0.5169404    0.4784036  42.34  0.002909795    1.184    0.155
        82 -13.7690    203.1085     61.6913   2.4374388021e+01   2.6078908772e+01     1.059512    0.7813184 -10.35  0.003743869    1.587    0.370
        83 -12.2288    215.0956     59.2871   2.2091501003e+01   2.3594882805e+01    0.6572859     0.470258   4.84  0.002524233    1.894    0.472
        84 -11.8931    209.6820     58.5770   2.2602778302e+01   2.4967229408e+01    0.4139391    0.2196331 -37.01 0.0003100211    1.660    0.397
        85 -12.9198    221.0708     56.6150   2.0629717889e+01   2.2591179735e+01     1.412389    0.4284165 -45.67  0.004676481    3.272    0.694
        86 -13.0482    148.9967     62.0955   3.3989443463e+01   3.9541290183e+01     2.092231     1.214558  50.08  0.008640549    1.759    0.432
        87 -12.1223    236.2400     85.7381   2.6184349307e+01   1.5134946420e+01    0.5802384    0.3340079  76.94  0.001713609    2.716    0.632
        88 -13.2998    219.4542     69.4439   2.4243186024e+01   2.1127755601e+01     0.868608    0.5113873  85.62  0.003688576    2.543    0.607
        89 -13.2380    214.1084     83.7871   2.8771486234e+01   2.0161726606e+01    0.8028225    0.3720428  45.04  0.003227015    2.491    0.599
        90 -11.8659    176.8056     84.9040   3.5373296239e+01   2.8651110797e+01    0.8553666    0.3987518  35.29  0.002721749    3.384    0.704
        91 -12.2461    168.8420     80.5757   3.5667863922e+01   3.1344764103e+01    0.4764093    0.3860955  79.52    0.0014108    1.418    0.295
        92 -11.3233    167.9773     76.4776   3.4620853558e+01   3.2284068258e+01    0.4128691    0.2667789  54.35 0.0008127511    1.598    0.374
        93  -9.5700     57.6798    119.6714   7.5737753944e+01   4.4819145288e+01    0.1399365    0.1022499 -38.21  0.000704794    1.688    0.407
        94 -11.4527    248.6098     82.1059   2.3767038726e+01   1.3166593780e+01    0.5052068    0.3043795 -25.59  0.001564157    1.490    0.329
        95 -11.5682    250.0412     75.2829   2.1970190321e+01   1.3819979665e+01    0.3166465    0.2077381 -19.04 0.0003336919    1.519    0.342
        96 -12.2824     27.4704     81.3984   7.9086739608e+01   5.7730009701e+01    0.4512653    0.3042524  36.01  0.002518288    1.686    0.407
        97 -10.6883     83.2515     83.0554   5.9073659754e+01   4.9861783943e+01    0.2965677      0.21897  39.81 0.0009107245    1.456    0.313
        98 -10.8930     55.2487     81.8386   6.8618465829e+01   5.4534972637e+01    0.2303984    0.2176319 -54.33 0.0002023066    1.083    0.077
        99  -9.5738    241.4675     81.5762   2.4502631596e+01   1.4664807311e+01    0.1357229    0.1170609 -31.94 6.518623e-05    1.010    0.010
       100 -12.8722    221.6867     78.6553   2.6350136141e+01   1.9267189652e+01    0.7704002    0.4521487 -65.89   0.00184219    2.544    0.607
       101 -11.9050    162.3824     84.4184   3.8116343973e+01   3.2211447681e+01    0.9117015    0.4311741  47.83  0.003427358    2.194    0.544
       102 -10.8035    232.2487     78.7935   2.4976995683e+01   1.6970338977e+01    0.2695022    0.1954078  71.81  0.001431243    1.675    0.403
       103 -11.4731    226.0260     76.1970   2.5130387716e+01   1.8682511200e+01    0.3255954    0.1739223 -37.66  0.001041312    1.619    0.382
       104 -11.0018    155.1301     76.4299   3.7252999621e+01   3.5451909461e+01    0.3626274     0.295799  64.13  0.001081525    1.295    0.228
       105 -10.6527    151.0650     73.2052   3.7132117411e+01   3.7043692321e+01    0.3182611    0.2158807 -35.74 0.0005318766    1.441    0.306
       106 -10.5051    105.4834     74.4886   4.9337398161e+01   4.7417664525e+01    0.4298903    0.3090695  -1.69  0.001805161    2.165    0.538
       107 -12.0610    176.7621     70.6273   3.1209990290e+01   3.1119056594e+01    0.7342427    0.4939535 -81.15 0.0002150538    2.100    0.524
       108 -10.2703    161.4742     66.5479   3.2853778493e+01   3.5630104976e+01    0.2830983    0.2328704 -21.95 0.0007261832    1.282    0.220
       109 -11.5045    166.6118     64.3441   3.1164465494e+01   3.4707685543e+01    0.7599045    0.6787441 -39.84  0.002936406    1.076    0.071
       110  -9.8603    242.8205     73.3714   2.2334671289e+01   1.5536404648e+01    0.2420049    0.1658111  30.34  0.001245255    1.910    0.477
       111 -11.2149    183.2462     69.0331   2.9596238011e+01   2.9779223056e+01    0.2877374    0.2362283  49.55 0.0004799953    1.293    0.226
       112  -9.6245    163.7233    118.6682   4.7118959828e+01   2.5325691383e+01     0.150916    0.1184692  -1.28 0.0002123326    1.600    0.375
       113 -13.2460    237.3884     62.1174   2.0160080653e+01   1.8219900160e+01      1.08233    0.9695558 -81.78  0.006669528    1.230    0.187
       114 -10.3261    204.2236    116.1096   3.8570691814e+01   1.7069013247e+01    0.3080403    0.2053323  72.99  0.001111669    2.296    0.565
       115 -13.0858    235.2001     47.5607   1.6701618875e+01   2.0629790114e+01    0.7973446    0.3267719 -46.00  0.001652448    2.200    0.545
       116 -11.7989    228.4616     50.6905   1.8217973353e+01   2.1718367063e+01    0.5825517    0.5066316 -19.08  0.002077468    1.201    0.167
       117 -13.3303    222.0372     38.3264   1.5626478988e+01   2.4794555959e+01    0.8904191    0.5935044 -80.56    0.0018341    1.692    0.409
       118 -10.6310    178.4694    114.4963   4.2998753898e+01   2.2888315280e+01    0.2264655    0.1485042  60.64 4.716342e-05    1.796    0.443
       119  -9.6820    163.2888    115.3136   4.6372318575e+01   2.6075944653e+01    0.1510159    0.1194567   2.30 0.0002748432    1.586    0.370
       120  -9.6053     90.6895    115.7281   6.5066037957e+01   4.0767468777e+01    0.1401214    0.1173249 -18.46 0.0001500526    1.549    0.354
       121  -9.5921    171.1376    113.9052   4.4347048404e+01   2.4614636808e+01    0.2079316    0.1753406  -5.63 0.0005442511    1.331    0.249
       122 -11.3150    182.7131     62.3898   2.7710095965e+01   3.0974890019e+01    0.5128242    0.3183466 -52.34  0.001596872    1.696    0.410
       123 -13.4434    189.9623     57.3309   2.5048942289e+01   2.9945048740e+01     1.423711    0.9357236  82.53  0.006399336    1.848    0.459
       124 -11.7153    162.2007     56.0064   2.9333678633e+01   3.7192904963e+01    0.7635243    0.4197826 -37.48  0.003156316    1.722    0.419
       125 -11.5559    164.4160     48.0698   2.6331696920e+01   3.7851087883e+01    0.5604615    0.2593213  61.06  0.001110439    2.172    0.540
       126 -12.7437    197.0071     49.1927   2.1638296794e+01   2.9378537877e+01    0.9052238    0.5272863  43.38  0.003938469    2.055    0.513
       127 -11.8280    187.6266     45.4938   2.1842118108e+01   3.2251372204e+01    0.9660174    0.4062563  61.52  0.003039653    2.380    0.580
       128 -10.8706    134.0514    113.6594   5.2772034534e+01   3.2782838332e+01    0.2919152    0.2260136 -37.83 0.0005831189    1.335    0.251
       129 -11.3674    173.6307     53.3249   2.6440661095e+01   3.4679838101e+01    0.5258259    0.3648754  64.07  0.001896471    1.489    0.328
       130 -12.0776    209.4003     45.8310   1.9088382188e+01   2.6811527681e+01     1.227916     0.579456 -74.19  0.003946367    4.113    0.757
       131 -10.1119    143.1842    112.9140   5.0347583314e+01   3.0974989713e+01    0.2309834    0.2068258 -84.27 0.0004938179    1.224    0.183
       132  -9.7789    211.0440    112.0514   3.6416146827e+01   1.6314540550e+01    0.2727628    0.1891132  51.70 0.0008941492    1.579    0.367
       133  -9.2557    191.4685    112.4419   3.9969021025e+01   2.0416337834e+01    0.1476944     0.136518  -7.10 0.0008060075    1.068    0.064
       134 -11.0114    249.1095     61.1299   1.8657767348e+01   1.5904004350e+01    0.2584587    0.1993108 -62.85  0.001209666    1.367    0.269
       135 -11.3821    247.8460     56.3884   1.7632275475e+01   1.6784545426e+01     0.392042    0.3169728 -43.81  0.002190771    1.063    0.059
       136 -11.8757    127.1910     58.8148   3.7933358982e+01   4.5536468789e+01    0.5744068    0.3273169  35.48  0.002224487    2.220    0.550
       137 -10.9056    132.9131     53.4514   3.4624655359e+01   4.5067453271e+01    0.3650553     0.315704   6.25 0.0009424458    1.318    0.241
       138 -10.6876    137.6735     52.8552   3.3313752664e+01   4.3972909145e+01    0.3383644    0.2648861  79.34 0.0004118138    1.453    0.312
       139 -10.0387    108.5197     55.5600   4.1792524018e+01   5.0541387327e+01    0.4781829    0.2222122 -47.23  0.001771297    2.264    0.558
       140 -10.7120    101.0031     53.8580   4.3390607263e+01   5.2545386660e+01    0.6519828    0.3422568  50.21  0.002670498    1.984    0.496
       141 -10.3719    138.5067    112.4846   5.1370984467e+01   3.2079511983e+01    0.1514846    0.1496035 -33.87 0.0002807705    1.036    0.035
       142 -11.2713    144.9665     53.5198   3.1946334819e+01   4.2011861147e+01    0.6323074    0.3669264  32.06  0.002402188    2.405    0.584
       143 -11.4548     90.5722     51.1577   4.5675207035e+01   5.5292445296e+01     0.242943    0.2324342  10.04 0.0002794212    1.068    0.064
       144  -9.5854     93.6616     48.2995   4.3525746361e+01   5.5178295336e+01    0.1968125     0.139559  41.33 0.0009363895    1.472    0.321
       145 -10.7983    247.2017     42.5162   1.4300810843e+01   1.8682987814e+01    0.3509657    0.2322645 -83.63   0.00164811    1.773    0.436
       146  -9.8940    245.1897     50.1983   1.6375074602e+01   1.8138765040e+01    0.1789088    0.1291361 -52.28 0.0003317081    1.274    0.215
       147 -11.6478    248.6348     47.3958   1.5362984394e+01   1.7773208812e+01    0.3578196    0.2611847 -45.34  0.002090907    1.160    0.138
       148 -11.2371     99.0603     48.0362   4.1714847794e+01   5.4051035516e+01    0.3704668    0.2658295 -17.92  0.001727815    1.610    0.379
       149 -10.4778    142.5233     46.3446   2.9938129697e+01   4.3787582663e+01    0.3631588    0.2474566  32.33   0.00158965    1.780    0.438
       150 -10.1047    150.4180     45.3040   2.7978295759e+01   4.1905538901e+01    0.3917072    0.2326098 -20.13  0.001607998    1.944    0.486
       151 -10.8765    148.6474     39.1202   2.6136404048e+01   4.3277933932e+01    0.6262375    0.4368449 -26.86  0.002930022    1.460    0.315
       152 -11.8032    127.3772     45.2136   3.2904788604e+01   4.7815458206e+01    0.7492849    0.4626633  80.07  0.002973391    2.304    0.566
       153 -10.9242    132.3691     40.0576   2.9809573700e+01   4.7355113398e+01    0.5183524    0.2812885  56.41  0.001523076    1.811    0.448
       154 -10.6631    135.7340     43.3306   3.0294492831e+01   4.5996725779e+01     0.347926    0.2485165  -3.95  0.001384226    1.787    0.440
       155 -10.0479    105.6168     43.8401   3.8071095631e+01   5.3301514104e+01    0.3101115    0.2000623 -28.43 0.0009949229    1.591    0.371
       156 -10.5591    215.6516     42.9975   1.7576615682e+01   2.5694336695e+01    0.3244056       0.2201 -28.45  0.001245513    1.392    0.282
       157  -9.2883    119.5872     42.7420   3.3864028799e+01   5.0144248890e+01    0.1602177    0.1108752  28.94 0.0001089638    1.743    0.426
       158 -10.2197    100.1535     40.7810   3.8419108800e+01   5.5071001551e+01    0.3264086    0.2199205  52.82   0.00153659    1.529    0.346
       159 -10.0108    250.0655     38.5909   1.3097847668e+01   1.8562957374e+01    0.2247387    0.1479471 -43.85 0.0008181367    1.252    0.201
       160 -10.6521    200.8842     20.2944   1.2731151996e+01   3.2080358318e+01    0.3011941     0.288359 -52.75  0.001412273    1.097    0.089
       161  -9.4835    124.6529     37.2932   3.0495626657e+01   4.9726666502e+01    0.2633798     0.174822 -52.51  0.001171674    1.684    0.406
       162  -9.8053    122.7664     33.6745   2.9498173690e+01   5.0731337731e+01     0.219503    0.1322791 -39.49 0.0009561673    1.650    0.394
       163 -11.0271    110.8340     34.7140   3.2875506592e+01   5.3528766474e+01    0.4991644    0.3182756   3.34 0.0008623333    2.334    0.571
       164  -9.1974    106.4120     35.2415   3.4288128119e+01   5.4507955906e+01    0.1555119    0.1060811  29.69 0.0006917655    1.705    0.413
       165 -10.8740    152.2106     33.5756   2.3512844843e+01   4.3111107804e+01    0.3902088    0.2013438 -30.70 0.0003612376    1.889    0.471
       166 -10.8262    150.7054     22.3054   1.9711286432e+01   4.4929111421e+01    0.3281579    0.2653986  65.72  0.001008743    1.207    0.172
       167 -11.7218    149.1701     28.3495   2.2162267250e+01   4.4596487374e+01    0.3588942    0.2910415   3.19 0.0005566719    1.433    0.302
       168 -10.9736    146.6981     25.6469   2.1597666017e+01   4.5588474909e+01    0.4244453    0.2861442  24.23   0.00173349    1.893    0.472
       169  -9.9445    132.1549     33.9991   2.7540319381e+01   4.8291651966e+01    0.2216316    0.1857901 -60.21 0.0002977125    1.272    0.214
       170 -11.3811     92.4998     32.9877   3.7398535888e+01   5.8059772458e+01    0.3860825    0.2841786 -10.78  0.001166095    1.522    0.343
       171 -10.2646    247.2430     32.8604   1.1937197934e+01   1.9844861337e+01    0.1922049    0.1374664 -48.26 0.0002926282    1.177    0.150
       172 -11.1069    169.9643     32.8637   2.0408439911e+01   3.8526528468e+01     0.402413    0.2389898  61.06  0.001049193    1.664    0.399
       173 -10.4064    238.9597     30.5857   1.2052613579e+01   2.1905521954e+01    0.4087535    0.1999865  67.90  0.001951148    2.220    0.550
       174 -10.2768    163.3083     20.9136   1.7342374179e+01   4.1744330652e+01    0.2238328     0.198912  78.09 0.0004308921    1.098    0.090
       175 -11.0305    162.4754     29.5272   2.0416102648e+01   4.0927120497e+01    0.4306377     0.250484 -52.59 0.0005629718    1.831    0.454
       176 -10.4828    160.0229     25.5738   1.9426953140e+01   4.2066084333e+01     0.405683    0.2741863  36.58 0.0009576053    1.734    0.423
       177  -9.7585    104.4553     29.0742   3.2166961795e+01   5.5889957573e+01    0.3196921    0.1270414 -35.92  0.001186562    2.412    0.585
       178 -11.0557    138.2266     26.6947   2.3514635038e+01   4.7688983891e+01    0.5321981    0.2986565 -68.26  0.001706629    2.639    0.621
       179 -11.4604     86.4079     28.4081   3.7254254427e+01   6.0108662417e+01    0.2665085    0.2443369 -50.38 0.0005957368    1.204    0.170
       180  -9.4840    112.9140     27.2990   2.9212574757e+01   5.4082677712e+01    0.4253818    0.2568443 -62.83  0.001721387    2.417    0.586
       181 -10.5059    196.0524    107.7092   3.7936228109e+01   2.0238815110e+01    0.2940108     0.242575 -47.75  0.001237569    1.237    0.191
       182 -10.0020    233.3355     26.3527   1.1446616132e+01   2.3654221274e+01    0.2228364    0.1911006  66.22 0.0007778392    1.326    0.246
       183  -8.8603    234.3264     23.6749   1.0683223407e+01   2.3739615300e+01    0.2062633    0.1364806 -59.52 0.0007190935    1.405    0.288
       184 -10.7292    176.1705     23.9412   1.6634976604e+01   3.8000774846e+01    0.3704919    0.2045177 -26.08  0.001351132    1.812    0.448
       185  -9.8225    179.9744     20.5599   1.5081632760e+01   3.7397356768e+01    0.3544489    0.2496155   7.32   0.00138349    1.876    0.467
       186  -9.4726    123.3438     28.0017   2.7073338236e+01   5.1370044230e+01    0.2969035    0.1796981 -81.72  0.001139918    2.632    0.620
       187  -9.7453    153.2956    108.2971   4.6783584008e+01   2.9690027123e+01    0.1516207    0.1221986   4.27 0.0003339098    1.567    0.362
       188 -10.6062    184.0290    104.3064   3.9291969119e+01   2.3505847521e+01    0.4490869    0.2139534 -37.50   0.00176304    1.989    0.497
       189 -12.4552    160.9706     38.4728   2.3711493053e+01   4.0137090166e+01    0.5653397     0.520398 -61.59  0.001927644    1.060    0.057
       190 -10.5898    118.5868     21.7407   2.5524290068e+01   5.3381667054e+01    0.4496887    0.2563209  -4.04  0.001457376    2.414    0.586
       191  -9.9558    210.4567    105.5041   3.4899867689e+01   1.7500835922e+01    0.2754192    0.1435046  52.68  0.001159805    2.088    0.521
       192 -10.6424    205.0952     18.0561   1.1683356161e+01   3.1283394910e+01    0.5829548    0.2733753 -69.15 0.0009321328    2.653    0.623
       193 -11.0311    155.7877    105.4216   4.5456632081e+01   2.9704932564e+01    0.2141093    0.1458604  38.72 0.0004313744    1.581    0.368
       194 -10.7797    144.7976    102.8078   4.7294184527e+01   3.2718687439e+01    0.3844318    0.2917201   5.71  0.001701466    1.848    0.459
       195 -10.8332    235.3172    102.5069   3.0371952247e+01   1.2866833412e+01    0.2668503    0.2224057  48.34 0.0009950638    1.365    0.267
       196 -13.0802    118.7640     97.1837   5.2391947525e+01   3.9646992676e+01     1.083641    0.5139744 -60.76  0.003505716    3.125    0.680
       197 -10.5543    109.4651    102.9918   5.6556989219e+01   4.0258643845e+01    0.2377861    0.1467427 -50.16 0.0005187884    1.568    0.362
       198 -10.8444    112.5031     17.1355   2.4891989558e+01   5.5466482030e+01    0.3656598    0.2263571  48.63  0.001464664    1.555    0.357
       199 -10.0889    165.4950    101.9735   4.2408777164e+01   2.8162857478e+01    0.2375946    0.1479502 -38.74 0.0005897935    1.557    0.358
       200 -10.8541     96.0160    101.2633   6.0028753522e+01   4.3260063220e+01    0.2824933    0.2088555 -30.64 0.0008151256    1.638    0.390
       201  -9.7360      3.4025     17.1651   7.3416231315e+01   7.4242742084e+01    0.1565153     0.100619 -69.55 0.0004012979    1.641    0.391
       202 -10.3894     98.0733     21.8199   3.0642061746e+01   5.8399660375e+01    0.2544921    0.2154452  15.53  0.000905947    1.211    0.174
       203  -9.7558    213.6541     12.7736   9.4658955402e+00   2.9764082495e+01    0.1886569    0.1036443 -38.89 0.0002967445    1.572    0.364
       204 -12.7153     85.7432     98.9330   6.2587379688e+01   4.5664911764e+01    0.6512071     0.403913  34.60  0.002922941    1.804    0.446
       205 -12.1863    153.9664     95.9227   4.3261002545e+01   3.2006385190e+01     0.655892    0.4039713  43.68  0.001903334    1.706    0.414
       206 -10.1836    112.3147     99.3225   5.4770951020e+01   4.0515804524e+01    0.1541802    0.1239199  -9.12 0.0005486398    1.660    0.398
       207 -12.1816    106.4219     97.0648   5.5837839100e+01   4.2223558579e+01    0.4124854     0.319586 -26.69 0.0008389817    1.545    0.353
       208 -12.2922    107.7140     92.1966   5.4099839211e+01   4.3066218178e+01    0.5913306    0.2862532  38.49  0.002216439    2.325    0.570
       209 -11.4062    200.0365     96.5264   3.4356253058e+01   2.1253679155e+01     0.437839    0.2643277 -55.75   0.00137103    2.047    0.511
       210  -9.0967    176.2750     98.2332   3.9184988098e+01   2.6376524701e+01    0.1413595    0.1159077  15.98            0    1.431    0.301
       211 -14.1341    139.5999     82.3275   4.2622664625e+01   3.8075208664e+01     1.804693     1.497177 -51.93  0.003848445    1.200    0.167
       212 -11.3638    113.2810    246.6620   7.8591665630e+01   1.0997897513e+01    0.2675712    0.1973131 -38.47   0.00187908    1.967    0.492
       213 -13.1737      5.0674     54.3368   8.3265855442e+01   6.5868059907e+01    0.9421872    0.5714015 -68.42  0.003396236    1.314    0.239
       214 -11.0261     36.6397    248.5710   9.2349986393e+01   2.0160815974e+01     0.186775    0.1112294  86.36  0.001356938    1.625    0.385
       215 -14.5495    122.5106     82.2772   4.6978436295e+01   4.2039103103e+01     3.139126     1.799027  54.23   0.01279469    1.877    0.467
       216 -14.5057    117.4045     62.4964   4.1811058167e+01   4.7182282718e+01     2.316525       1.3905  49.71  0.009650862    1.707    0.414
       217  -9.9007     15.8515    238.2043   9.5514159007e+01   2.4033427836e+01    0.1230916    0.1044218  72.02 0.0003962121    1.328    0.247
       218  -9.2681    223.0063    124.7870   3.7465424230e+01   1.1902869676e+01    0.1681074    0.1107433  47.12 0.0008547332    1.649    0.394
       219 -12.5802     55.1790     71.8796   6.5935008885e+01   5.6937869688e+01    0.5966802     0.340657 -62.46 0.0002645694    1.695    0.410
       220 -10.5767    152.9753    124.0525   5.0823882985e+01   2.6569617392e+01    0.2148467    0.2120098 -62.24  0.001192327    1.027    0.026
       221 -13.5257     39.5313     56.5931   6.7836721791e+01   6.2484840914e+01     1.005969    0.8902316 -31.17  0.004563355    1.138    0.121
       222 -12.7020     51.4464     45.2926   5.8489021588e+01   6.3429812560e+01    0.9686525    0.6024348  16.24   0.00209588    2.154    0.536
       223 -13.6623     78.6534     59.1685   5.2864589803e+01   5.6019374429e+01     1.779916    0.6910332  48.77  0.006288469    3.044    0.672
       224 -12.9843     81.8895     49.2440   4.7901570297e+01   5.7415995974e+01    0.6468878    0.4828507  -6.67  0.002100047    1.694    0.410
       225 -11.8143     75.9542     52.0424   5.1167490976e+01   5.7991023577e+01    0.2901848    0.2359804 -47.93 0.0003097712    1.188    0.158
       226 -11.4427     12.1489     97.1843   8.7161229123e+01   5.4996075841e+01    0.2706347    0.2093644 -63.62  0.001079307    1.184    0.155
       227 -11.0905     13.5000     93.5592   8.6228450140e+01   5.5802448569e+01    0.2076704     0.161969 -74.02 8.295452e-05    1.052    0.049
       228  -9.6464    225.6612     97.3315   3.0505745053e+01   1.5593929249e+01    0.1447735    0.1022352 -59.49 0.0007051853    1.741    0.426
       229 -11.4055     73.0103     96.1445   6.5993690216e+01   4.8450582085e+01    0.3316875    0.2419194  52.18  0.001269494    1.478    0.324
       230 -12.3741     48.7876     95.0630   7.4003183586e+01   5.2090364962e+01    0.4559266    0.2814774  35.65 0.0008781811    1.779    0.438
       231 -12.2480     56.7720     94.9388   7.1201947889e+01   5.1107123058e+01    0.3938136    0.2666946  80.12  0.000603623    1.828    0.453
