#   1 NUMBER                 Running object number                                     
#   2 MAG_AUTO               Kron-like elliptical aperture magnitude                    [mag]
#   3 X_IMAGE                Object position along x                                    [pixel]
#   4 Y_IMAGE                Object position along y                                    [pixel]
#   5 X_WORLD                Barycenter position along world x axis                     [deg]
#   6 Y_WORLD                Barycenter position along world y axis                     [deg]
#   7 A_WORLD                Profile RMS along major axis (world units)                 [deg]
#   8 B_WORLD                Profile RMS along minor axis (world units)                 [deg]
#   9 THETA_WORLD            Position angle (CCW/world-x)                               [deg]
#  10 FWHM_WORLD             FWHM assuming a gaussian core                              [deg]
#  11 ELONGATION             A_IMAGE/B_IMAGE                                           
#  12 ELLIPTICITY            1 - B_IMAGE/A_IMAGE                                       
         1 -10.8539     37.3887      9.9214   1.0588509934e+02   6.9872648262e+01    0.8692564    0.3813396 -42.02  0.002792722    2.199    0.545
         2 -10.3348     10.5344     18.6467   1.2315811730e+02   7.0999337938e+01     1.293069    0.4377668 -25.13  0.004124334    6.985    0.857
         3 -10.9686     18.9652      6.6606   1.1349594801e+02   7.2325899052e+01      1.21736    0.9141823  69.26  0.006747767    3.733    0.732
         4 -10.9008     23.9510     32.2486   1.2172142156e+02   6.7514844468e+01     1.311241    0.4247193 -43.52  0.003904658    2.424    0.587
         5  -9.6238      2.3151     14.5325   1.2587612060e+02   7.2233187388e+01    0.4160688    0.2841901 -73.37  0.002151417    2.042    0.510
         6 -10.3703      5.0883      4.7633   1.2026253999e+02   7.3723081281e+01    0.4330234    0.3197329 -26.62  0.001481617    1.057    0.054
         7 -10.2909      4.5403     42.0593   1.3330518185e+02   6.6897415302e+01    0.9121208    0.3386473 -68.98   0.00372985    2.665    0.625
         8 -10.1292      7.1860     28.3312   1.2821540265e+02   6.9434542297e+01    0.3174217    0.2996501  69.79  0.001040234    1.478    0.324
         9  -9.8969    102.7438     22.2617   8.7685393454e+01   5.7020372423e+01     1.186158    0.3908892 -20.23  0.003520109    4.836    0.793
        10  -9.2074     53.4113     38.7411   1.1152812653e+02   6.3163814321e+01    0.8110241    0.2567318 -35.26  0.002781691    3.925    0.745
        11  -9.6869     59.9682     33.2081   1.0674360108e+02   6.3221859555e+01    0.5607367    0.2881363 -46.39  0.002540719    1.974    0.494
        12  -9.5813     63.1648     21.6392   1.0050200832e+02   6.4559795398e+01    0.4326069    0.2854857 -48.02 0.0009480102    1.885    0.469
        13 -10.3570     64.3296     13.5739   9.6284316501e+01   6.5490037556e+01     0.717908    0.4213835 -24.29  0.002418049    1.594    0.373
        14  -8.5822     72.0550      8.5183   9.1024110963e+01   6.4775727124e+01    0.3320083    0.1855492  -7.36   0.00163263    2.072    0.517
        15 -10.1189     73.6051     17.2613   9.4634969988e+01   6.3416139302e+01    0.9151523    0.2528256 -31.75  0.003325214    3.485    0.713
        16  -9.3758     78.1140      4.6550   8.7115035898e+01   6.4072526929e+01     0.558054    0.3057997   1.49  0.001741853    2.262    0.558
        17  -9.3776    100.9851     31.8091   9.2115915763e+01   5.6106465027e+01    0.5514625     0.317589 -38.67  0.001562511    1.784    0.440
        18  -8.7271     44.9914     15.9690   1.0536962328e+02   6.8023310712e+01    0.2386974    0.1369439 -30.79 0.0008063882    1.518    0.341
        19 -10.1994     46.2608     29.7936   1.1092604910e+02   6.5644219692e+01    0.5205059    0.2553733 -50.19  0.000975013    2.160    0.537
        20 -10.1203     51.8309     13.7208   1.0134481713e+02   6.7407022544e+01    0.6951649    0.3862088  12.89  0.003427229    2.409    0.585
        21 -10.3738    143.7992     25.9131   7.9368668912e+01   4.6824408909e+01    0.3242805    0.2708895  13.05 0.0002878474    1.303    0.233
        22  -9.1589     96.1400     15.2881   8.6565723580e+01   5.9274231093e+01    0.6807262    0.2833369 -15.60  0.001916017    3.240    0.691
        23  -9.4468     96.4052      4.7827   8.1818376463e+01   6.0333863851e+01    0.4748845    0.3042848 -35.26  0.001904615    1.729    0.422
        24  -9.5879    118.9678     20.7208   8.2855206794e+01   5.3542802266e+01     0.698198    0.3266355 -13.10  0.002224899    2.880    0.653
        25  -8.4968    125.0443     13.1060   7.8465087176e+01   5.2935389901e+01    0.2790789    0.2214417   4.09 0.0007309662    1.340    0.254
        26  -8.4186    120.9948      6.0024   7.6506300367e+01   5.4609212027e+01    0.3259726    0.2383741  75.01  0.001739586    1.500    0.333
        27  -8.3437    126.6961      9.2935   7.6625213753e+01   5.2916621585e+01      0.25814    0.1816339  34.98 0.0006010479    1.392    0.282
        28  -9.1291    125.5717      5.7302   7.5456412277e+01   5.3527208419e+01    0.4374165    0.2688107  12.57    0.0020779    1.966    0.491
        29  -9.0518    138.9764     18.6978   7.7712203403e+01   4.8886184377e+01    0.4573005    0.2788185  21.10  0.001691842    2.102    0.524
        30  -8.9372    132.6053      9.7846   7.5632175044e+01   5.1412006479e+01    0.3013271    0.2036252 -27.78  0.001543545    1.571    0.363
        31  -8.1141    130.8398      5.8589   7.4473475385e+01   5.2220698883e+01    0.2473639    0.2011995 -17.97 0.0007907689    1.321    0.243
        32  -8.8558    134.8711      2.1392   7.2316467335e+01   5.1544489532e+01    0.4654156    0.2348699  37.19  0.002038129    2.093    0.522
        33  -9.0917    115.2554      4.2448   7.7023121773e+01   5.6133205686e+01    0.3610776    0.2363594 -42.94  0.001357526    1.802    0.445
        34  -8.8932    111.2789      3.9283   7.7779422102e+01   5.7089342967e+01    0.3251345    0.1842515   8.31  0.001489992    2.188    0.543
        35  -8.8121    112.1931     15.6297   8.2444513657e+01   5.5699280469e+01    0.3565859    0.2449618 -47.52  0.001812594    1.769    0.435
        36  -9.2134    113.9443     10.1107   7.9745855273e+01   5.5879263697e+01    0.4191212    0.2257344  33.04 0.0004470281    1.983    0.496
        37  -8.9389     88.6566      2.8022   8.3040760349e+01   6.2157453293e+01    0.3809566    0.3460875  12.42  0.001552939    1.095    0.087
        38  -8.0032     80.4986     12.5108   9.0086510274e+01   6.2740620004e+01    0.2515036    0.1804081 -46.08  0.001396786    1.783    0.439
        39  -9.4336     85.0695     12.9215   8.8815928321e+01   6.1806421922e+01    0.5505356    0.2688859 -40.19  0.001349384    2.366    0.577
        40  -8.3331     84.4598      7.0191   8.6260463661e+01   6.2584260387e+01    0.4359085    0.2410126  14.76  0.002022265    2.269    0.559
        41 -10.2804    132.4077     16.4562   7.8204447748e+01   5.0775013584e+01    0.5479827    0.4057248  25.80  0.001806453    1.430    0.301
        42  -8.5649    102.0147      8.4353   8.1965807713e+01   5.8751837826e+01    0.2312019    0.1757495 -38.37  0.000629796    1.498    0.333
        43  -9.6064     63.7036      2.9118   9.1200230113e+01   6.6879339941e+01    0.3352075    0.2465118 -50.90  0.001691659    2.069    0.517
        44  -8.4105    104.2478      2.4453   7.8790796915e+01   5.8826034347e+01     0.324393    0.1871899  24.37  0.001181487    1.884    0.469
        45 -10.4885      4.5957     87.2756   1.4171125348e+02   5.7281931199e+01     1.209437    0.3026288 -69.63  0.004179838    2.850    0.649
        46 -11.1173    191.0808    247.4676   1.2180421835e+02  -1.0086365747e+00    0.6235862    0.3660506  47.17  0.003840669    1.462    0.316
        47 -10.2058     78.1494    112.3217   1.2402872281e+02   4.4118829179e+01    0.7742504    0.3581725 -66.17  0.002671543    2.392    0.582
        48  -7.5699      1.3409    115.8349   1.4591334841e+02   5.1157019459e+01    0.1703817   0.07408611 -67.63  0.000940259    1.727    0.421
        49  -8.1011    152.7956    115.2014   1.0509879597e+02   2.9075739054e+01     0.212719     0.185031 -11.57 0.0009769379    1.346    0.257
        50 -10.0093     91.9322    113.0245   1.2030440160e+02   4.1774993612e+01    0.5903291    0.3953154  79.84  0.001624841    2.077    0.519
        51  -8.5397     91.6695    104.1495   1.1832255647e+02   4.3839695872e+01    0.4259587    0.2962694 -12.21  0.001715571    2.431    0.589
        52  -9.6086     65.1771    105.2860   1.2631716652e+02   4.7572926943e+01    0.5035829    0.2960725 -69.92  0.002447002    1.715    0.417
        53  -9.3907     68.7800    102.9772   1.2475880382e+02   4.7617722370e+01    0.3341711    0.2157076  56.20    0.0016807    1.813    0.448
        54 -10.1430     65.4987    110.9896   1.2737604249e+02   4.6211590532e+01    0.5270313    0.3982797  74.21  0.001420069    1.468    0.319
        55  -9.3930     59.0577    109.3400   1.2891870842e+02   4.7421597640e+01    0.2445516    0.1678834 -81.37 0.0006533902    1.506    0.336
        56  -9.2454     34.8208    111.3235   1.3623766994e+02   4.9605283259e+01    0.2713588    0.1872134  27.37   0.00163651    1.787    0.440
        57  -9.8293     29.7336    108.9800   1.3733407582e+02   5.0605628498e+01    0.2703814    0.2530017 -42.39  0.001266888    1.289    0.224
        58  -9.6513     14.1158    111.4941   1.4204236522e+02   5.1278986708e+01    0.3791787    0.2016899  79.49  0.001535208    2.042    0.510
        59  -8.5351     14.1738    105.1180   1.4123617216e+02   5.2708220922e+01    0.2239523    0.1207472 -54.83 0.0006791246    1.648    0.393
        60  -7.9973    158.6500    111.9351   1.0290319895e+02   2.8397788238e+01    0.2197635    0.1892368 -46.08 0.0004549163    1.174    0.148
        61  -7.9638    187.2558    108.0171   9.5700639358e+01   2.2373523871e+01    0.2086533    0.1971067 -38.03 0.0002124327    1.061    0.058
        62  -9.0566     40.0968    107.3991   1.3409463509e+02   4.9994886550e+01    0.2059233    0.1503818 -85.46 0.0006264059    1.301    0.231
        63 -10.8795     44.6289    102.4214   1.3188474149e+02   5.0674971141e+01    0.8038354    0.4106812  71.86  0.002945323    3.546    0.718
        64 -10.7394     20.5473    100.3648   1.3873652116e+02   5.3316100214e+01     1.120723    0.4904006  84.92  0.004432579    3.729    0.732
        65  -9.9275     20.1097     84.0148   1.3625740957e+02   5.7020776624e+01    0.8880651    0.2229922 -64.98  0.003554903    2.925    0.658
        66 -10.4069     25.6545     78.0089   1.3328405670e+02   5.7935844662e+01    0.6583691    0.3812155  75.87  0.001899325    2.641    0.621
        67 -10.3711     32.6915     63.7157   1.2754884587e+02   6.0455755499e+01     1.096163    0.4151388 -34.31  0.003735828    4.045    0.753
        68 -10.1717     34.3813     90.6866   1.3287124758e+02   5.4358546005e+01    0.5663636    0.2634467 -80.76  0.001534422    2.850    0.649
        69  -9.9294    138.7740     91.8095   1.0220549739e+02   3.7069227248e+01    0.6654634     0.326216 -42.41  0.001915073    2.029    0.507
        70  -9.8329    149.4532    103.4366   1.0281636234e+02   3.2250723193e+01    0.4486715    0.2937957 -54.43 0.0009978036    1.663    0.399
        71 -10.1768     36.3463     81.3968   1.3036596087e+02   5.6264918168e+01    0.7984145    0.4087311 -17.79  0.003173872    4.162    0.760
        72  -9.3805      5.5892    103.8550   1.4350777173e+02   5.3551638863e+01    0.3833113    0.2582535  46.14  0.002179467    1.701    0.412
        73  -8.3201    165.9402    103.8461   9.9121910109e+01   2.8287138928e+01    0.2687079    0.2180601 -46.12 0.0004646804    1.245    0.197
        74  -9.7160    244.3304    102.0099   8.4193325732e+01   1.0170080007e+01    0.3508368    0.2623663  38.63   0.00102433    1.457    0.314
        75  -7.6896    191.0112    103.2615   9.3705999685e+01   2.2339594697e+01    0.2080446    0.2019387  35.35 0.0003691325    1.036    0.035
        76  -9.2729     41.2757    121.9077   1.3602778623e+02   4.6532472873e+01    0.4526236    0.2004341 -81.27  0.001931589    2.606    0.616
        77  -8.7461    159.1992    101.5671   1.0002838916e+02   3.0341992171e+01    0.3166826     0.242253 -76.41 0.0005688883    1.664    0.399
        78  -9.3871     81.4604    100.2938   1.2037873875e+02   4.6371594684e+01    0.4013363    0.2562776 -75.78 0.0008268778    1.958    0.489
        79  -7.9499     82.2302     93.9986   1.1860833842e+02   4.7671627188e+01    0.3654312    0.2287153 -16.54  0.001444101    3.055    0.673
        80  -9.2996     94.3216     97.3300   1.1586268805e+02   4.4917013781e+01    0.3137994    0.2529414 -79.74 0.0006185462    1.395    0.283
        81 -10.3802     62.7341     95.6742   1.2498473891e+02   5.0098394712e+01    0.5572634    0.3406619 -87.51  0.001563842    2.410    0.585
        82  -8.8738     64.0700     86.5458   1.2241747198e+02   5.1984294785e+01    0.5758362    0.3292484 -17.69   0.00216966    3.779    0.735
        83  -9.3360    240.6601     95.9091   8.3261882217e+01   1.1916720234e+01    0.4136963    0.2439528  26.09   0.00169015    2.568    0.611
        84  -8.3596    164.2089     94.5613   9.6963962918e+01   3.0503365960e+01     0.263829    0.2047689 -52.72   0.00062608    1.349    0.259
        85 -10.0416    123.3512     91.3125   1.0606784978e+02   4.0580240610e+01    0.5152546    0.4561627  25.91  0.001130825    1.233    0.189
        86  -8.6789    125.6802     84.2055   1.0337558931e+02   4.1539196516e+01    0.5683107    0.3509325  14.54  0.001964272    3.280    0.695
        87  -9.0882     40.7959     20.6324   1.0938439173e+02   6.7827474773e+01    0.2051163    0.1719075 -25.02 0.0002679382    1.113    0.102
        88  -8.9406    220.5141    249.5083   1.1712456607e+02  -5.8254945741e+00    0.2164053   0.07806136  33.99  0.001034817    2.390    0.582
        89 -10.0458     15.5327     71.3061   1.3547153511e+02   6.0133192409e+01    0.5846006    0.2546461 -52.66  0.001158801    1.780    0.438
        90 -10.3503    171.5939    248.7040   1.2531870198e+02   1.9590419874e+00    0.4118235    0.1976646  30.52  0.002082247    2.318    0.569
        91  -9.7556    165.2720    247.2111   1.2623094488e+02   3.1710528838e+00    0.2156456    0.1637319  19.60  0.001453206    1.540    0.351
        92  -9.8297     16.9710     60.4625   1.3267887578e+02   6.2368887974e+01    0.7865524    0.1986834 -60.29  0.003297625    2.763    0.638
        93  -9.1739     64.7453    247.0334   1.4346837993e+02   1.8217171692e+01     0.173746    0.1357912  69.39 0.0003021213    1.158    0.136
        94 -10.8800     21.8299     53.6225   1.2913173596e+02   6.3461130386e+01    0.8037088    0.4387487 -89.09  0.002866664    3.889    0.743
        95 -10.1965     14.9939     44.4624   1.2948536612e+02   6.5807716780e+01    0.6646026     0.320248 -24.69  0.003419946    2.601    0.616
        96  -8.5391    154.5078    245.9791   1.2796126041e+02   5.0729552871e+00    0.1424641   0.09931179 -13.86 0.0008104763    2.643    0.622
        97  -9.0566    140.5312    112.4894   1.0735535309e+02   3.2384811240e+01    0.3130725    0.2326035  -0.27   0.00114006    2.062    0.515
        98  -9.9625    108.6270    114.6216   1.1610506548e+02   3.8450164261e+01    0.5574219     0.362161 -83.79  0.001510805    2.317    0.568
        99  -9.4891      6.5267     32.4998   1.2980944652e+02   6.8675967977e+01    0.2045712    0.1739607 -31.55 0.0008185981    1.173    0.148
       100  -9.3985    188.2125    234.1620   1.2047676056e+02   1.1264664323e+00    0.2436543    0.2079969 -76.86  0.001065095    1.729    0.421
       101  -9.0693    110.5491     90.0447   1.0923185133e+02   4.3483113257e+01    0.7793608    0.3818828  28.21  0.002576638    3.524    0.716
       102  -8.7294     96.2921     90.6874   1.1352975309e+02   4.6035063004e+01     0.466418    0.2924013 -11.61  0.001691285    3.418    0.707
       103 -10.4466     48.2132     83.1764   1.2679741153e+02   5.4662450015e+01     1.036956     0.419766 -54.42  0.002782065    2.019    0.505
       104 -10.6850     55.0587     70.9027   1.2137012763e+02   5.6561641432e+01    0.7597365    0.4847994  69.76  0.001142116    2.757    0.637
       105  -9.1451     55.6638     62.9142   1.1886431036e+02   5.8173172774e+01    0.5345134    0.2914225  26.14  0.002639519    2.205    0.547
       106 -10.1707     62.4369     60.8084   1.1577674446e+02   5.7720302016e+01    0.7399206    0.3504621  27.89  0.003263724    2.625    0.619
       107  -8.5415    174.1714     88.5127   9.3106409118e+01   2.9184344175e+01    0.2663718    0.2170136 -62.75  0.001269535    1.354    0.261
       108  -8.9550    150.2978     88.5259   9.8444146736e+01   3.5027924465e+01    0.3822771    0.2487341 -26.33  0.001598577    1.817    0.450
       109 -10.1297     85.2359     86.5998   1.1575398492e+02   4.8827209849e+01    0.4726566    0.3577262  76.03 0.0009937126    1.747    0.428
       110  -9.5816     87.6286     78.6310   1.1276278114e+02   5.0145365596e+01    0.5709471    0.3687608  17.87  0.001671816    2.232    0.552
       111  -8.6190    163.5197     86.4982   9.4824604263e+01   3.2201129827e+01    0.3826385    0.2225283 -25.58 0.0008551416    2.112    0.526
       112  -9.7570    139.4398    104.7266   1.0560437572e+02   3.4258066531e+01     0.412207    0.2922354 -72.84 0.0007866632    1.867    0.464
       113 -10.2346    103.8841     82.6116   1.0900653580e+02   4.6356697989e+01    0.5470527     0.298191 -54.98 0.0009737053    1.992    0.498
       114  -9.5108    105.4267     70.9531   1.0497248550e+02   4.8434253579e+01    0.8415837    0.4715114 -30.04  0.003020372    2.104    0.525
       115  -9.2382    109.7392     63.9056   1.0139935135e+02   4.8917642250e+01    0.3295165    0.2645602 -62.37  0.000690146    1.460    0.315
       116  -8.9822    110.5189     58.2725   9.9252911113e+01   4.9791740198e+01    0.4148096    0.2999396   7.99  0.001628385    1.825    0.452
       117  -9.0726    157.7309     83.0106   9.5103454717e+01   3.4280085478e+01    0.5591952    0.2679756 -36.90  0.001267873    2.117    0.528
       118  -8.7052    157.0959     76.6204   9.3337294038e+01   3.5617201887e+01    0.3422396    0.2052182 -45.46 0.0005537158    1.712    0.416
       119  -9.4509    140.4755     82.1303   9.8941134233e+01   3.8596374631e+01    0.7669473    0.3489488 -34.61  0.001583761    2.401    0.584
       120  -8.9412    139.9689     75.5065   9.7043432662e+01   3.9982701919e+01    0.4530265    0.2632288 -43.82   0.00145179    1.732    0.422
       121  -7.6279    170.4016     83.2729   9.2400754372e+01   3.1083529213e+01     0.222044    0.1427452 -47.79 0.0005760881    1.619    0.382
       122  -7.5912    211.3722     81.7382   8.4249453868e+01   2.1059271187e+01    0.1992283    0.1428063 -23.32 0.0003020718    1.495    0.331
       123  -8.9707    119.0011     80.5082   1.0407597644e+02   4.3727355876e+01     0.395086    0.2451794 -56.57 0.0009679272    1.855    0.461
       124  -8.5224    119.8123     76.1511   1.0251267584e+02   4.4423995782e+01     0.298896    0.2311898  -2.38 0.0007220373    1.678    0.404
       125  -8.2773     63.3529     81.9189   1.2148528554e+02   5.3107327593e+01    0.2649561    0.1190504 -62.29  0.001033225    2.388    0.581
       126  -8.7256    149.9097     80.1764   9.6068578160e+01   3.6721487423e+01    0.4519578    0.2222557 -38.40  0.001344016    2.039    0.509
       127  -9.0027     74.1719     79.4035   1.1727682971e+02   5.2131937460e+01    0.5916845    0.2255633 -52.32  0.002116612    2.393    0.582
       128  -8.7700    166.0960     78.9370   9.2049938294e+01   3.2948990523e+01     0.304657    0.2185596 -35.61 0.0005832919    1.410    0.291
       129  -8.0567     68.5748     79.8318   1.1922089483e+02   5.2851709390e+01    0.2611821    0.1170357 -50.68   0.00102216    1.963    0.491
       130  -8.2743    184.3285     78.0815   8.8084782221e+01   2.8477462590e+01    0.2630241    0.2121521  42.85  0.000639536    1.284    0.221
       131  -8.6101    130.5151     64.3681   9.5866489310e+01   4.4252590288e+01    0.3910048    0.1999583 -35.51 0.0007951058    1.979    0.495
       132  -9.4675    127.3107     75.1867   1.0018685905e+02   4.2963559723e+01    0.3861617     0.280378 -70.17 0.0008102912    1.839    0.456
       133  -9.1108    128.9229     69.4021   9.7923053443e+01   4.3697125777e+01    0.5786019    0.3357937  18.19  0.001890327    3.597    0.722
       134  -9.8872     81.6217     72.5369   1.1286328037e+02   5.2428374435e+01    0.4299237    0.2961042 -69.29 0.0009002824    1.884    0.469
       135  -9.0117     84.0987     64.2140   1.0943481925e+02   5.3712325556e+01    0.5303411    0.4121465  -6.86  0.002814539    1.530    0.346
       136  -8.2551    162.9072     73.3160   9.1053028096e+01   3.4755335668e+01    0.2966971    0.2052267 -54.23 0.0008871468    1.605    0.377
       137  -9.1274    115.1631     71.9773   1.0249022096e+02   4.6235049243e+01    0.5804329    0.2457475 -36.48  0.001654809    2.502    0.600
       138  -8.4366    169.6098     71.2696   8.9018465003e+01   3.3410143872e+01    0.2532903    0.1816368 -68.29 0.0006702556    1.753    0.430
       139  -8.6980    149.9408     48.0236   8.5773459472e+01   4.2227121250e+01    0.2577333    0.2268739  -4.15 0.0004659233    1.232    0.188
       140  -9.7085    146.7787     57.0092   8.9474828184e+01   4.1598824218e+01    0.8345951    0.3305338 -30.17  0.002824032    2.798    0.643
       141  -9.4388    146.8339     69.2712   9.3428701967e+01   3.9475497822e+01    0.4358511    0.2891292 -58.38  0.001116798    1.840    0.457
       142  -8.4609    156.4704     70.0385   9.1460133142e+01   3.6952099655e+01    0.2249954    0.1951192 -41.92 0.0006863017    1.162    0.140
       143  -8.9681    157.4314     64.0556   8.9375182641e+01   3.7743441181e+01    0.4638641    0.2531093 -36.99  0.001618428    1.833    0.454
       144  -9.0973     97.2314     58.6396   1.0335686518e+02   5.2406765136e+01    0.7175508    0.4139532  -8.90   0.00242118    3.876    0.742
       145  -8.1992     95.0094     54.0690   1.0244460620e+02   5.3673513858e+01    0.3817407    0.1986503 -42.38  0.001671713    1.858    0.462
       146  -8.1240     75.7375     67.0871   1.1313166417e+02   5.4493811983e+01     0.396551    0.1133454 -50.78  0.001297729    3.441    0.709
       147  -7.7967     23.0169     68.9920   1.3233281542e+02   6.0112530781e+01    0.1787995     0.144553 -58.76 0.0003607533    1.019    0.018
       148  -9.2254    121.0839     65.8458   9.8855277915e+01   4.6121392185e+01    0.4435688    0.3138058 -60.44  0.001020608    1.741    0.426
       149  -8.3458    122.3173     61.3330   9.7012792174e+01   4.6670212278e+01     0.295224    0.2125686  26.05 0.0007619021    1.630    0.386
       150  -9.1992    137.9908     65.7255   9.4425514705e+01   4.2248204497e+01    0.4884431    0.2515106 -39.74   0.00141016    1.932    0.482
       151  -7.7385    249.6723     66.7100   7.4870100763e+01   1.4258238521e+01    0.1351653    0.1066867  21.69 0.0001694867    1.618    0.382
       152  -7.6034    170.9853     65.2409   8.6910058772e+01   3.4076314773e+01    0.2108814    0.1295085  58.15 0.0005869032    1.610    0.379
       153  -8.3737    164.4087     60.7605   8.6859802032e+01   3.6509408068e+01    0.2093815    0.1519636 -20.31 0.0006303117    1.555    0.357
       154  -9.1346     87.8826     56.4606   1.0557419183e+02   5.4551551704e+01    0.8413619    0.3104407 -35.62  0.002295836    3.003    0.667
       155 -10.3058     74.3067     55.5585   1.0984108067e+02   5.7012484693e+01     1.418849    0.5730889 -32.16  0.004924724    3.485    0.713
       156 -10.1918     85.0365     48.0561   1.0348645620e+02   5.6595729851e+01    0.4154717    0.3263364 -70.66 0.0009892004    1.822    0.451
       157 -10.5208     89.7641     38.1168   9.8109998114e+01   5.7399112688e+01     1.079214    0.4020921  35.12  0.003686666    3.625    0.724
       158  -7.1984    131.5050    233.4706   1.3060797188e+02   1.0638849009e+01    0.1218872   0.09431209  52.87 2.954505e-05    1.008    0.008
       159  -8.8783    194.0729     59.9465   8.1080208420e+01   2.8924336578e+01    0.2169334    0.2113313 -74.83            0    1.013    0.013
       160  -7.6522    152.5020     60.1594   8.9215025684e+01   3.9643061699e+01    0.2307052    0.1513542 -35.30  0.001014852    1.540    0.351
       161  -8.1378      9.7308     59.6393   1.3524185211e+02   6.2990531792e+01    0.2011271    0.1350208 -64.73 0.0006601908    1.193    0.162
       162  -9.1025    130.1083     57.0949   9.3529171425e+01   4.5623438296e+01    0.5707418    0.2413267 -39.72  0.001137962    2.347    0.574
       163  -8.8658    138.8763     56.7837   9.1252099939e+01   4.3581342678e+01    0.3500733    0.2098473 -45.07  0.000886231    1.756    0.430
       164  -8.1313    138.5396     52.4833   8.9874768315e+01   4.4370367190e+01     0.297571    0.2372397 -54.29 0.0008706648    1.388    0.279
       165  -9.3736    118.2118     54.8167   9.5884644904e+01   4.8733893163e+01      0.55513    0.3036403 -41.16  0.001152245    1.829    0.453
       166  -9.1411    121.1801     47.0833   9.2328802836e+01   4.9350489344e+01    0.3620973    0.2339614 -35.92 0.0004724459    1.547    0.354
       167  -8.2909    122.7579     40.7998   8.9619579390e+01   4.9960393604e+01    0.4755394    0.2535661  22.84  0.001643053    3.301    0.697
       168  -8.5124    153.1332     55.2185   8.7469319454e+01   4.0291623704e+01    0.4084624    0.1745704 -47.50 0.0009308687    2.767    0.639
       169  -8.4502     42.3825    225.6085   1.4581343584e+02   2.4657068390e+01    0.1788313    0.1392264  78.94  0.001046054    1.171    0.146
       170 -10.1370      9.5523    207.5939   1.5043653374e+02   3.1455289529e+01    0.3922189    0.2492588  33.67  0.002808042    1.984    0.496
       171  -8.4039     63.0509     26.5218   1.0271736174e+02   6.3840959661e+01     0.309302    0.2025221  37.31  0.001159813    1.609    0.378
       172  -8.3795    123.9995    205.9993   1.2866337848e+02   1.6514505035e+01    0.1830589    0.1485193  60.18            0    1.046    0.044
       173  -7.1521     61.4846    202.4513   1.4058269901e+02   2.6636301850e+01    0.1201318   0.09109758  71.00 0.0005517681    1.018    0.018
       174 -10.0819     49.8630     53.8039   1.1819928796e+02   6.0735609925e+01    0.6420828    0.3097028 -61.30  0.002142382    2.539    0.606
       175  -9.6423     55.4942     43.6432   1.1253907524e+02   6.1993779732e+01    0.7274966    0.3875382 -12.81   0.00274364    3.915    0.745
       176  -9.2796    162.9294     53.4883   8.4855900490e+01   3.8051463510e+01    0.4839167     0.206967 -29.96  0.001676087    2.482    0.597
       177  -9.1734     43.9858     53.1981   1.2027139804e+02   6.1525227328e+01    0.3508938    0.2581209 -28.63  0.001305469    1.317    0.241
       178  -8.9946    105.1459     52.3996   9.8748655835e+01   5.1955363654e+01    0.4662774    0.2148478 -40.10  0.001211307    2.117    0.528
       179  -9.3561    158.0420     50.2465   8.4802709462e+01   3.9814447641e+01    0.4607708    0.2332143 -56.05   0.00160602    2.857    0.650
       180  -8.6962    141.9187     48.6674   8.7778070540e+01   4.4143032886e+01    0.3128511    0.2096687 -37.64 0.0003529107    1.515    0.340
       181  -7.7674    142.4833     44.5155   8.6217739461e+01   4.4634852756e+01    0.2240244    0.1316403  46.20 0.0001109066    1.669    0.401
       182  -9.7141    130.3914     46.8614   8.9893759135e+01   4.7232086040e+01    0.8670865    0.2865672 -29.32  0.001101278    3.490    0.713
       183  -8.8325    139.3801     39.8002   8.5263127971e+01   4.6098368833e+01    0.4215352    0.2995139 -49.07  0.001494147    1.565    0.361
       184  -8.9535    132.8961     36.2641   8.5475913500e+01   4.8196974457e+01    0.4305821    0.2670926 -39.27  0.001360953    1.678    0.404
       185  -9.5133    134.0575     31.0842   8.3313922433e+01   4.8613961274e+01    0.2539818    0.2264047  31.52 -0.001320134    1.093    0.085
       186 -10.2197     37.7480     42.1139   1.1915713835e+02   6.4364751590e+01    0.5377847    0.3371537 -73.66  0.002115942    2.699    0.629
       187 -10.0847     35.5124     37.8525   1.1861306974e+02   6.5400603633e+01    0.4653962    0.2675854 -11.55 0.0002926402    2.386    0.581
       188  -9.8983    249.1639     45.8501   6.9832559378e+01   1.7256811533e+01    0.2518729    0.2406686 -75.26 0.0003599239    1.102    0.093
       189  -8.5868    111.9619     46.8725   9.4765666179e+01   5.1443493149e+01    0.2636203    0.2011857 -41.68 0.0004317032    1.347    0.258
       190  -8.6098    113.2190     42.2089   9.2681829600e+01   5.1911747016e+01    0.5072767    0.2803488  -1.71   0.00166728    3.903    0.744
       191  -9.7468     94.6966     68.2160   1.0734768249e+02   5.1036017088e+01    0.4550012    0.2501364 -49.28 0.0009387012    1.814    0.449
       192  -9.0112    190.9760    192.5683   1.1336700091e+02   6.6132232790e+00    0.5315983    0.2971256 -64.72  0.001967816    4.313    0.768
       193  -9.9762    185.4800    194.0676   1.1468608477e+02   7.4102441937e+00    0.2331488    0.1880954  39.38 0.0003021687    1.075    0.070
       194  -7.5823    185.9735    179.2731   1.1191708963e+02   9.7334206294e+00    0.1941464    0.1561266  41.46 0.0002332387    1.118    0.106
       195 -10.1756     69.6526     40.7388   1.0608348118e+02   6.0467484101e+01    0.8556229    0.3793295 -37.91  0.002390451    2.090    0.522
       196 -10.0807     76.1586     31.7824   1.0012368554e+02   6.0874673891e+01    0.3781048    0.3519553 -78.92   0.00130507    1.474    0.321
       197  -9.3904     71.7785     25.6390   9.9062675375e+01   6.2560078508e+01    0.4674871     0.254742  32.10  0.002305196    1.954    0.488
       198  -9.7292     79.7815     23.8686   9.5472300550e+01   6.1403660517e+01    0.5321868    0.2816609  24.88  0.001834234    2.445    0.591
       199  -9.2017     84.7274     21.9630   9.2989611196e+01   6.0738011903e+01    0.3165089    0.2647245   1.93 0.0007402102    1.098    0.089
       200  -9.6997    147.8268     42.0568   8.4199343873e+01   4.3649250640e+01    0.4767251    0.3208422 -65.60  0.002071977    1.990    0.498
       201  -8.7517    144.0120     36.6620   8.3139916358e+01   4.5377345541e+01    0.2621945    0.2077108 -40.81 0.0005943207    1.322    0.243
       202  -9.1688    104.8853     41.0999   9.4627299982e+01   5.3886637767e+01    0.4021586    0.2444943 -47.20  0.001252702    1.872    0.466
       203  -8.1442    106.3195     36.3164   9.2361711218e+01   5.4314165213e+01    0.2525637    0.2005838  21.07  0.000936645    1.294    0.227
       204  -8.6801    225.7939    176.8110   1.0393599989e+02   2.4428469869e+00    0.2352286    0.1329505  10.90 0.0009567984    2.870    0.652
       205  -9.3890    152.9022     40.6752   8.2669303992e+01   4.2548217466e+01    0.3669451    0.1947706 -44.14 0.0009347043    2.025    0.506
       206  -8.2117    160.3653     39.2531   8.0719080852e+01   4.0811026093e+01    0.2121966    0.1332325 -40.34 0.0005537492    1.637    0.389
       207  -8.6352    249.0751     35.3828   6.7300501034e+01   1.8636187982e+01    0.2763339    0.1565334  49.15  0.001307214    2.104    0.525
       208  -8.8172    153.2758     34.8953   8.0627716553e+01   4.3245718929e+01    0.2044423    0.1959916  30.99 0.0005779267    1.056    0.053
       209  -8.7797    118.8003     34.3295   8.8204564784e+01   5.1818762717e+01    0.3114599    0.2176333 -31.46 0.0006985471    1.448    0.309
       210  -7.7532    190.0519     33.4972   7.3913393884e+01   3.3725959591e+01    0.2169782    0.1879007 -31.32 0.0003976128    1.210    0.174
       211  -9.2373    110.1805     32.9867   8.9975334379e+01   5.3956554588e+01    0.3662904    0.2385437 -45.68   0.00104969    1.748    0.428
       212  -8.4935    157.5843     91.7267   9.7662428642e+01   3.2655880075e+01    0.2636757     0.189066 -48.80 0.0006037464    1.434    0.303
       213  -8.1478     14.9868    170.7949   1.4726571552e+02   3.8238954019e+01      0.15245    0.1170607 -44.71  0.000670203    1.931    0.482
       214  -7.8254    230.2973    167.6172   1.0129044433e+02   2.9438503799e+00    0.1278861    0.1076552 -69.26  0.000701977    1.767    0.434
       215  -8.6901     42.1520     27.8972   1.1190954594e+02   6.6463854876e+01    0.2141434    0.1482925 -32.80            0    1.209    0.173
       216  -8.8410     46.6268     19.7110   1.0639613210e+02   6.7240763104e+01     0.313815    0.1888469 -18.65  0.001222168    1.707    0.414
       217  -7.4237     13.4112    153.1026   1.4627993778e+02   4.2126651309e+01    0.1416868    0.1208268 -88.51  0.001067713    1.197    0.164
       218 -10.0416    152.6493     27.3026   7.8139138480e+01   4.4379404884e+01    0.4707694    0.3484803  49.71  0.002374084    1.280    0.219
       219  -8.4283    133.5913    146.5467   1.1680243527e+02   2.6567148777e+01    0.5018509    0.1436723 -52.34  0.001525932    3.823    0.738
       220  -7.6127    232.7999     28.6053   6.7267077771e+01   2.3365122337e+01    0.1996376    0.1233022  89.69 0.0009506207    1.736    0.424
       221  -8.9849    234.1484    146.8251   9.6211117639e+01   5.3310444021e+00    0.1997994    0.1547615  13.34  0.001014778    1.343    0.255
       222  -7.2327     59.3117    146.6688   1.3489198820e+02   3.8778623058e+01    0.1364567   0.08572612  74.33 0.0007043466    1.674    0.402
       223  -9.0524     91.2881     26.2820   9.2764430547e+01   5.8868186342e+01    0.3837024    0.2281111 -45.71  0.001009492    2.016    0.504
       224  -8.2657     92.2930     20.8116   9.0109047743e+01   5.9395573805e+01    0.2616779    0.1596746  30.07  0.001178103    1.712    0.416
       225  -8.1855    161.6585     26.8973   7.6370341002e+01   4.2074391938e+01    0.2244283    0.1795789   9.71 0.0009294816    1.464    0.317
       226  -8.2808    136.0546     26.3174   8.1121115197e+01   4.8726121602e+01    0.3767645    0.1770698 -29.99 0.0009378222    2.167    0.539
       227  -7.9192    110.3133     26.3579   8.7302039819e+01   5.4829770245e+01    0.2479075    0.1867455  10.83 0.0007220611    1.435    0.303
       228  -8.1868    111.5855     22.3680   8.5354994646e+01   5.5049069303e+01    0.4252042    0.1420725 -39.58  0.001491468    3.308    0.698
       229  -8.7470    128.4407     25.8636   8.2635138307e+01   5.0655649767e+01    0.2589372    0.2142709 -72.75  0.000732058    1.485    0.327
       230  -7.3189     15.6457    146.7605   1.4525330832e+02   4.3315321633e+01    0.1014184   0.07968291 -51.10 0.0003555055    1.581    0.367
       231  -9.6376     66.8831    144.3627   1.3270265238e+02   3.8315829240e+01    0.5123352    0.2887667  64.74  0.002471901    2.015    0.504
       232  -7.2307    199.7413    142.6581   1.0160927049e+02   1.3213584930e+01    0.1465009    0.1121365   3.22 0.0002179964    1.587    0.370
       233  -8.1942    112.3096    134.0299   1.1941746344e+02   3.3403748666e+01    0.2694939     0.190583  72.81 0.0008094692    1.674    0.402
       234  -8.2462    135.7650    131.8370   1.1314907999e+02   2.9272108551e+01    0.4102852    0.1224256 -45.29  0.001249725    3.506    0.715
       235  -8.6815    154.5932     22.2475   7.6039959982e+01   4.4474488341e+01    0.2850461    0.1296099 -31.89  0.001086403    2.223    0.550
       236  -9.6586     98.9062    129.1259   1.2184992223e+02   3.6909060101e+01    0.6533479    0.3582113  69.24  0.002433267    3.016    0.668
       237 -10.2577     70.2177    126.3641   1.2893236456e+02   4.2004786536e+01    0.6189815    0.5677892 -36.72  0.002101091    1.313    0.238
       238 -10.0303     58.1345    124.5963   1.3188601801e+02   4.3997181010e+01    0.5930703    0.3273077  77.67  0.002503974    2.571    0.611
       239  -8.4560    195.1961    130.1264   9.9604618953e+01   1.6460234228e+01    0.2308914    0.2029392  46.37 0.0002667408    1.122    0.109
       240  -6.8108    160.4926    128.4909   1.0658603849e+02   2.4628514538e+01    0.1524548    0.1468071  70.34 0.0002129378    1.031    0.030
       241  -9.9295    117.7222    123.9447   1.1586520130e+02   3.4628428830e+01    0.9891815    0.4966686 -49.26  0.003088556    1.975    0.494
       242 -11.0498    120.9519    108.9554   1.1144314992e+02   3.7298760414e+01     1.506766     0.692215 -49.31  0.005331394    2.152    0.535
       243 -10.6416    108.6366    100.8277   1.1269113496e+02   4.1519055839e+01     1.022051    0.6983163 -70.62  0.004620083    1.807    0.447
       244 -10.2739    128.1772    101.4469   1.0759336897e+02   3.7411775672e+01    0.8203967    0.4846068 -35.62  0.002366247    1.892    0.471
       245 -10.4567    131.5735    119.5555   1.1132867150e+02   3.2796366662e+01    0.8657501    0.5528886  84.53  0.002436633    2.788    0.641
       246 -10.7743    133.5508    109.5740   1.0834933019e+02   3.4524560324e+01    0.8539973    0.4379708 -48.66  0.002271403    1.962    0.490
       247  -8.7552    128.0827    125.3406   1.1356114165e+02   3.2258506102e+01    0.3668138    0.2339429 -29.03  0.001329331    2.205    0.547
       248  -9.5098     27.3897    122.9997   1.3988537433e+02   4.7613867259e+01    0.4834052    0.2300227  72.53  0.002207696    2.758    0.637
       249  -8.1926     10.1082     13.0428   1.2112826338e+02   7.2001782956e+01    0.1963879    0.1447884  21.47  0.001437174    1.625    0.385
       250 -10.4216    240.9817    121.7919   8.9400101460e+01   7.8158101223e+00    0.2867148    0.2526074  50.66 0.0004774176    1.235    0.190
       251  -7.2898    151.2793     20.6276   7.6073737813e+01   4.5520756908e+01    0.1501939    0.1051105 -59.77   0.00043252    1.696    0.410
       252  -7.3340     97.3436    121.3279   1.2064073018e+02   3.8957899713e+01    0.1433831    0.1138422 -19.22 0.0007050898    1.745    0.427
       253  -9.8219    140.6582    118.3558   1.0879215475e+02   3.1115134554e+01    0.5122185    0.3334286 -71.40  0.001275049    2.171    0.539
