#   1 NUMBER                 Running object number                                     
#   2 MAG_AUTO               Kron-like elliptical aperture magnitude                    [mag]
#   3 X_IMAGE                Object position along x                                    [pixel]
#   4 Y_IMAGE                Object position along y                                    [pixel]
#   5 X_WORLD                Barycenter position along world x axis                     [deg]
#   6 Y_WORLD                Barycenter position along world y axis                     [deg]
#   7 A_WORLD                Profile RMS along major axis (world units)                 [deg]
#   8 B_WORLD                Profile RMS along minor axis (world units)                 [deg]
#   9 THETA_WORLD            Position angle (CCW/world-x)                               [deg]
#  10 FWHM_WORLD             FWHM assuming a gaussian core                              [deg]
#  11 ELONGATION             A_IMAGE/B_IMAGE                                           
#  12 ELLIPTICITY            1 - B_IMAGE/A_IMAGE                                       
         1 -15.9627    195.4277    119.5296   8.0545618038e+01   1.8456175998e+01     3.208719     1.967826 -30.61   0.01383293    1.955    0.489
         2 -14.4131     21.4587     46.1158   1.0941332142e+02   6.4122305372e+01     1.775843    0.5061775 -43.59  0.007793907    2.878    0.653
         3 -15.3181     43.5956     34.9152   9.6463884776e+01   6.3319264020e+01     2.158656     1.208489   7.50   0.01128329    2.183    0.542
         4 -15.7330      8.2662    100.6780   1.2817957596e+02   5.4360611095e+01     3.085435     1.861949  59.17   0.01601159    2.565    0.610
         5 -16.2072      8.3007     71.0538   1.2186423816e+02   6.0607519066e+01     2.457932     1.770882 -62.56    0.0159175    1.455    0.313
         6 -18.1706    238.3205     29.9095   5.5580969841e+01   2.4086472843e+01     3.792345     2.607946 -53.19   0.02493071    1.308    0.236
         7 -12.3340     43.6851      8.7294   8.6085975193e+01   6.6374535328e+01    0.5141522    0.2705432  15.69  0.002892607    2.076    0.518
         8 -11.1704    210.9473      1.6356   5.2588646996e+01   3.2958611175e+01    0.1480137      0.11165  87.81 0.0004376401    1.069    0.065
         9  -9.8859    159.3209      1.2648   5.7762348964e+01   4.4183113331e+01    0.1170656   0.07495761  50.66 0.0003067447    1.557    0.358
        10 -15.3088     23.6273    207.9965   1.3811754737e+02   2.7391122168e+01     2.108891     1.170048  85.13   0.01097672    1.736    0.424
        11 -15.1155    145.7354    235.2452   1.1470303866e+02   3.2680510262e+00     1.097428    0.9075107  33.49  0.005455539    1.129    0.115
        12 -15.5830    131.0811    230.8101   1.1721839589e+02   6.6384918528e+00     1.468997     1.096564  27.84   0.00782874    1.392    0.282
        13 -11.0472    247.3280    225.6750   9.2656406426e+01  -1.0741956838e+01    0.1081842   0.09961417 -67.15 0.0007049849    1.698    0.411
        14 -15.1996    129.0782    246.8671   1.1999587647e+02   3.7235207483e+00     1.983349    0.7926238  41.24  0.008338915    2.201    0.546
        15 -15.5394    113.3209    241.8387   1.2266295193e+02   7.2800444191e+00     1.669426     1.067559  35.34  0.008549338    1.505    0.336
        16 -11.1599     54.7800    165.3611   1.2547376825e+02   3.4240645919e+01    0.2584446     0.194107 -30.31 0.0008085035    1.670    0.401
        17 -12.2908     62.1323    159.9140   1.2261121850e+02   3.4653950128e+01    0.4963566    0.3020681 -29.33  0.002100437    2.413    0.586
        18 -12.1769     67.5699    154.7434   1.2021121299e+02   3.5212108021e+01    0.3335437    0.2541353 -62.67 0.0008459215    1.193    0.162
        19 -10.4032    222.6704    159.2934   8.4221684780e+01   5.0579551541e+00    0.1377923    0.1094781 -77.03 0.0003926509    1.629    0.386
        20 -12.0002     95.0544    247.5044   1.2723826275e+02   8.9860197759e+00    0.1963167    0.1725105  89.06 0.0008061048    1.139    0.122
        21 -12.8125    211.6173    134.1890   8.0860633265e+01   1.2164492131e+01    0.5051954    0.2135184  50.50  0.001951642    2.633    0.620
        22 -12.4192    220.7036    128.5408   7.8059705854e+01   1.1481646697e+01    0.3598716    0.2496527  71.52  0.001241839    1.831    0.454
        23 -11.7274    248.3976    238.2000   9.4684471935e+01  -1.2808856534e+01    0.1599562    0.1028584 -41.83  0.000760154    1.647    0.393
        24 -12.6704     31.5233    232.8006   1.3868338839e+02   2.0865871588e+01    0.2874047    0.2497494  -5.05  0.001610353    1.851    0.460
        25 -11.7027    183.6654    210.5542   1.0225300751e+02   1.7058257091e+00    0.2836579    0.1786958 -47.00  0.001361038    1.615    0.381
        26 -12.1291     22.1125    231.4115   1.4040759088e+02   2.2244006678e+01    0.2613831    0.1828372 -88.70  0.001097164    1.178    0.151
        27 -12.2532    213.0477    116.0272   7.6626794090e+01   1.5443798716e+01    0.3246105    0.2106484  65.60  0.001546052    1.796    0.443
        28 -12.4642    168.4663    114.0663   8.4642486834e+01   2.5469315477e+01    0.3450582     0.272629 -66.96 0.0008056558    1.355    0.262
        29 -10.6986    151.9729    107.0467   8.6535302348e+01   3.0588620320e+01    0.2386724    0.1834763 -84.72 0.0005069227    1.634    0.388
        30 -11.6301    231.6455    105.1667   7.1379802977e+01   1.3718870698e+01       0.3239      0.23124  78.85  0.001210682    1.623    0.384
        31 -11.1215    226.7705    103.6432   7.1774978884e+01   1.4964750251e+01     0.252138    0.1982651  76.96  0.001411378    1.371    0.270
        32 -11.7153    233.7356    100.8972   7.0191576570e+01   1.4072680432e+01    0.2478939    0.1941196  78.77 0.0008956175    1.374    0.272
        33 -12.4791     89.6497     99.4587   1.0112866521e+02   4.4904942286e+01    0.3560546    0.2428671  16.45  0.001620763    1.830    0.454
        34 -14.5762    212.8078     97.0950   7.2487496191e+01   1.9034767389e+01     1.275721    0.6068505 -60.57  0.004858017    2.736    0.634
        35 -12.3358    116.2822    230.1372   1.2038679556e+02   9.2542180007e+00    0.2775078    0.1888413  44.93 0.0009022194    1.356    0.262
        36 -12.6902    189.5743     89.9327   7.4696659263e+01   2.5405967652e+01    0.3655766    0.3112775  12.17   0.00159103    1.636    0.389
        37 -13.6281    135.6780     83.5681   8.4116074905e+01   3.8778112630e+01    0.7591549    0.6424902  66.17  0.004052391    1.229    0.186
        38 -12.3091    165.9600     86.4379   7.8256835842e+01   3.1402175621e+01    0.4519902    0.2547477  40.66  0.001644145    2.100    0.524
        39 -11.8966    149.9538     86.0815   8.1523987193e+01   3.5117808607e+01    0.3062272    0.2096741 -45.43 0.0005273008    1.476    0.323
        40 -12.5407    121.9889     82.1577   8.7115303555e+01   4.2009226723e+01    0.5849997    0.3718514 -51.10  0.002695554    1.734    0.423
        41 -10.9364    172.0201     82.0367   7.5967413138e+01   3.0797874633e+01    0.2137495     0.200284 -87.32 0.0003378151    1.012    0.012
        42 -11.5527    233.0145     80.4007   6.6059107655e+01   1.7740499779e+01    0.2818837    0.2521732  74.22  0.001803527    1.248    0.199
        43 -12.5526    205.5822     75.4315   6.8767708570e+01   2.4355750125e+01    0.3640081    0.3142488 -13.55  0.002071871    1.603    0.376
        44 -11.7566    179.4813     77.0017   7.3356990429e+01   2.9956694894e+01     0.293612    0.2473718  32.89 0.0006242641    1.473    0.321
        45 -12.2642    183.4280     74.5073   7.2067108973e+01   2.9474174586e+01    0.3745608    0.3063281 -51.26   0.00141986    1.200    0.166
        46 -13.8972    163.3233     72.1655   7.5116135596e+01   3.4479095515e+01    0.6806765    0.4936884   9.95  0.001596368    2.280    0.561
        47 -13.5879    194.6671     69.1920   6.8991819374e+01   2.7797158971e+01    0.7522558    0.6315131  70.86  0.004409022    1.158    0.136
        48 -10.7714    220.4759     72.6752   6.6080254853e+01   2.1597210448e+01    0.1645775    0.1236481 -38.68 0.0005419415    1.437    0.304
        49 -11.1643    222.7877     67.9975   6.4793507870e+01   2.1856321609e+01    0.2351737    0.1727465  83.82 0.0005844831    1.325    0.245
        50 -14.4644    145.1190     62.3300   7.6137183512e+01   4.0226261062e+01      1.10169    0.6577495  74.56  0.004654395    2.185    0.542
        51 -12.3091    206.4855     58.4762   6.4875753655e+01   2.6831665642e+01    0.4154494    0.2493329  43.25  0.002002156    2.309    0.567
        52 -11.0915    194.0744     58.4784   6.6605967269e+01   2.9592618958e+01    0.2317439    0.1616949 -61.39 0.0003782008    1.399    0.285
        53 -11.1249    193.9897     48.9498   6.4436400258e+01   3.0994518146e+01    0.1889551    0.1610999 -81.15 0.0003151608    1.030    0.030
        54 -13.0545    151.5564     59.3941   7.4036842183e+01   3.9201690121e+01    0.4813322    0.2356255 -58.95  0.001797269    3.156    0.683
        55 -10.9101     91.6854     46.4221   8.4410451043e+01   5.3892076763e+01    0.2881906    0.1757484   7.35    0.0013149    2.460    0.593
        56 -11.0149    212.9835     44.8769   6.1135611751e+01   2.7373743602e+01    0.1841304    0.1527406 -80.24 0.0003003759    1.010    0.009
        57 -11.1494    205.6819     44.1684   6.1859328016e+01   2.9060313547e+01    0.3563455    0.1444969 -55.82  0.001484797    2.727    0.633
        58 -10.5424    206.4570     31.4760   5.9059476616e+01   3.0553639282e+01    0.1251557    0.1022778 -84.34 6.533257e-05    1.006    0.006
        59 -10.9094    144.5751     28.2930   6.6896637983e+01   4.4852664677e+01    0.2170559    0.1195987 -37.13 0.0009661866    2.003    0.501
        60 -10.6986    206.5453     23.2304   5.7327196824e+01   3.1536920737e+01    0.1954003     0.106905 -43.45  0.000939869    1.812    0.448
        61 -11.5362    159.6924     21.8601   6.2805470172e+01   4.2131762793e+01    0.1680399    0.1547077 -77.47  0.001141855    1.145    0.126
        62 -12.4741      2.0742     20.8212   1.0915220276e+02   6.9606582884e+01    0.2147351    0.1507872 -33.63    0.0011051    1.314    0.239
        63 -12.1856    213.5257     19.6261   5.5893871720e+01   3.0464395865e+01    0.2049211    0.1959639 -53.92  0.001029216    1.412    0.292
        64 -10.6077    176.7442     14.9865   5.8874006247e+01   3.9015296423e+01    0.1599668    0.1394979 -80.32  0.000367271    1.118    0.106
        65 -10.2563    135.0000     14.8774   6.4840447324e+01   4.8364454683e+01    0.1727755   0.07157021 -26.94 0.0007928777    2.877    0.652
        66 -14.4982      7.5366    198.4662   1.4068299819e+02   3.1216103831e+01     1.001344    0.7027992  83.56  0.006292871    1.183    0.155
        67 -13.1408     32.2726    217.0446   1.3713616148e+02   2.4329069947e+01     0.478703    0.3425604 -39.94  0.002354662    2.020    0.505
