#   1 NUMBER                 Running object number                                     
#   2 MAG_AUTO               Kron-like elliptical aperture magnitude                    [mag]
#   3 X_IMAGE                Object position along x                                    [pixel]
#   4 Y_IMAGE                Object position along y                                    [pixel]
#   5 X_WORLD                Barycenter position along world x axis                     [deg]
#   6 Y_WORLD                Barycenter position along world y axis                     [deg]
#   7 A_WORLD                Profile RMS along major axis (world units)                 [deg]
#   8 B_WORLD                Profile RMS along minor axis (world units)                 [deg]
#   9 THETA_WORLD            Position angle (CCW/world-x)                               [deg]
#  10 FWHM_WORLD             FWHM assuming a gaussian core                              [deg]
#  11 ELONGATION             A_IMAGE/B_IMAGE                                           
#  12 ELLIPTICITY            1 - B_IMAGE/A_IMAGE                                       
         1 -10.7614     37.2831      9.6078   9.1215423164e+01   7.0190052976e+01    0.9155869    0.3167294 -46.87  0.003060312    2.779    0.640
         2 -11.1991     23.9083     31.8968   1.0686884938e+02   6.7356595590e+01      1.53004    0.4011769 -47.14  0.004018238    2.857    0.650
         3 -10.2711     10.6053     18.5535   1.0892911367e+02   7.0970763422e+01     1.043773    0.3528201 -27.25  0.003560415    5.952    0.832
         4 -10.6890      6.6791     29.7238   1.1433050149e+02   6.8943800615e+01     0.619594    0.3654216 -64.98  0.002396497    1.391    0.281
         5  -9.6157      2.2952     14.3505   1.1195738789e+02   7.2260116814e+01    0.4647363    0.2149818 -73.58  0.002048905    2.673    0.626
         6 -10.5153      5.1047      4.5958   1.0665077931e+02   7.3963897612e+01    0.4449528    0.3600755 -32.35   0.00168833    1.117    0.105
         7 -11.0306     21.2624      7.4668   9.8593715734e+01   7.2234869735e+01     1.229353    0.7528504  52.34  0.006563936    3.164    0.684
         8 -10.0793     69.4677     40.3435   9.0752261370e+01   6.0297109067e+01    0.9804196    0.3868687 -41.06  0.004012879    2.324    0.570
         9 -10.4017     73.1320     18.2251   7.9963890281e+01   6.3487356192e+01     1.486292    0.3565634 -34.92  0.004799137    3.960    0.747
        10  -9.2921     78.1739      4.1637   7.1196419592e+01   6.4463404910e+01    0.5624123    0.2805497 -12.87  0.001431135    2.372    0.578
        11 -10.0533     63.4277      3.5386   7.6270789649e+01   6.7255727715e+01    0.6774743    0.4131024 -17.12  0.003292378    1.590    0.371
        12 -10.4021     45.7041     29.2500   9.6043754346e+01   6.5688630061e+01    0.4913189    0.3911806 -69.28  0.002340365    1.639    0.390
        13 -10.4011     51.2757     14.9207   8.7264425122e+01   6.7491803147e+01     1.067273    0.6025491  -2.59  0.004645875    3.036    0.671
        14  -9.9838     60.9469     31.4209   9.0531096486e+01   6.3246269711e+01    0.9233707     0.367134 -36.43  0.002900595    2.499    0.600
        15  -9.7907     63.1678     21.2337   8.5220134269e+01   6.4679308361e+01    0.6000589    0.3000323 -53.40  0.001734004    2.995    0.666
        16  -9.7962     64.5586     13.3432   8.0900864058e+01   6.5693558151e+01     0.349572    0.2919077 -18.55 0.0002492517    1.058    0.055
        17  -9.7462     79.6070     23.9571   8.0245249301e+01   6.1433164940e+01    0.5382331     0.314698  18.47  0.001988969    2.442    0.591
        18  -8.8612    102.3205      8.2130   6.5865487720e+01   5.8899978117e+01    0.4360907    0.2215641 -42.63  0.001375235    2.324    0.570
        19  -9.0965    103.1309     21.0475   7.1416412525e+01   5.7104069780e+01    0.4174221     0.213989 -39.60  0.000642711    2.027    0.507
        20  -8.3869    104.8752     14.5265   6.8045038956e+01   5.7571272048e+01    0.3806364    0.2184117  -3.81  0.001622944    2.240    0.554
        21  -9.3411    133.9969     12.1760   6.0136060743e+01   5.0812616425e+01    0.5722322    0.2388448  44.31  0.002159375    2.376    0.579
        22 -10.2458    124.0577      5.4366   5.9417471186e+01   5.4023879277e+01    0.9229385    0.3248303  66.94  0.003161683    3.147    0.682
        23  -9.0276    120.1186     16.1831   6.4857607022e+01   5.3804029773e+01     0.499362    0.2664514  30.80  0.002031785    2.253    0.556
        24 -10.2931    131.5331     17.1398   6.2648554932e+01   5.0872189656e+01    0.5708937    0.5000983  89.03   0.00308294    1.305    0.234
        25  -8.5577    124.9475     13.1427   6.2466116786e+01   5.2979255396e+01     0.282039    0.2661607 -27.25 0.0008073575    1.123    0.110
        26  -8.7352    126.5970      9.1941   6.0459501732e+01   5.3002784651e+01    0.2922395    0.1886353  27.76 0.0006347938    1.676    0.403
        27  -8.9403    112.4164     15.6130   6.6523929398e+01   5.5704931680e+01    0.3893678    0.2073394 -35.62  0.001437731    1.907    0.476
        28  -9.3374    114.1373     10.1245   6.3698647652e+01   5.5944294730e+01    0.4965725    0.2201893  37.69  0.000291122    2.486    0.598
        29  -9.4029     96.3394     14.8395   7.0625781894e+01   5.9408823562e+01    0.8379294    0.2877294 -22.08  0.002760442    3.671    0.728
        30  -8.0470     97.7077      5.6957   6.5947471465e+01   6.0212945996e+01    0.2186559    0.1526958  33.94 0.0002138294    1.369    0.269
        31  -8.7500     95.7625      3.0169   6.5200525721e+01   6.0933573721e+01    0.2495317    0.2085347  -3.56 0.0006417361    1.133    0.117
        32  -8.6015     85.2149      5.7389   6.9686206991e+01   6.2868377454e+01    0.4369243    0.2750401 -13.71  0.002241739    1.595    0.373
        33  -8.5971     89.0061      2.9289   6.7110682511e+01   6.2401139441e+01    0.3419917    0.1754813 -32.62  0.001411359    1.945    0.486
        34  -9.5628     85.2278     13.0074   7.3241832629e+01   6.1950714898e+01    0.4563584    0.2771314 -53.00  0.001540974    2.449    0.592
        35  -7.7443     80.7881     12.9498   7.4703695580e+01   6.2830231347e+01    0.2674716     0.160946 -42.47  0.001318009    1.846    0.458
        36  -8.4954    141.5545     12.4715   5.8763080163e+01   4.8833730871e+01    0.2587534    0.2446589  45.28 0.0006823582    1.014    0.014
        37  -8.1413     67.7517      9.0040   7.7464427825e+01   6.5771640953e+01    0.1813011     0.150606 -16.21   0.00032545    1.078    0.072
        38  -8.7248    144.7910      7.3976   5.6204215539e+01   4.8513070836e+01    0.4131283    0.2004026 -57.42  0.001459747    3.180    0.686
        39  -7.9838    104.6413      2.0357   6.2380446352e+01   5.9031403684e+01    0.1954055    0.1706945   0.42  0.001071728    1.101    0.092
        40  -9.0264    115.3437      4.2452   6.0819396617e+01   5.6280441555e+01    0.2903512     0.247133 -50.24 0.0006190057    1.368    0.269
        41  -8.4062    108.7010      2.3462   6.1524290493e+01   5.8053718139e+01    0.2587866    0.2107318 -74.67  0.001377261    1.607    0.378
        42  -8.7456    110.3014      7.6852   6.3557824170e+01   5.7120960897e+01    0.2058871    0.1712615  -9.04 0.0007471733    1.185    0.156
        43  -8.6342    111.3224      4.3395   6.1802284068e+01   5.7233351323e+01     0.296147    0.1760949  10.01   0.00132488    2.028    0.507
        44  -9.2822    131.5939      6.2158   5.8199709526e+01   5.2047737668e+01    0.3418986    0.2323286  41.49  0.001524588    1.406    0.289
        45  -7.8618    136.5011      1.5069   5.5359170275e+01   5.1235295914e+01    0.1411446    0.1339153  50.14 -1.20917e-05    1.038    0.036
        46 -10.4142    107.9647     99.5347   9.6467717985e+01   4.1398031667e+01    0.7489495    0.5115299  80.18  0.001928152    2.138    0.532
        47 -10.0021    223.7546    249.8996   9.9440227413e+01  -3.1474819600e+00    0.4259584     0.101123  43.75  0.001852201    3.390    0.705
        48 -11.7342    193.0358    246.9053   1.0391677588e+02   1.6169145891e+00     0.905387    0.3223785  41.76  0.004823881    2.034    0.508
        49  -9.0935    140.3763     82.9929   8.3509585038e+01   3.8072198123e+01    0.5456315    0.2482277 -47.41  0.001407488    2.334    0.571
        50  -9.8316     27.2159    122.8190   1.2271677056e+02   4.7026254506e+01     0.518232    0.2296001  73.75  0.001949545    2.780    0.640
        51 -10.6203    124.0547     90.5000   8.9799934795e+01   4.0133938727e+01     1.097987    0.5959507 -36.50  0.002751985    2.031    0.508
        52  -9.8036     41.3214    121.9327   1.1895438590e+02   4.5881572523e+01    0.5538698    0.2391712  88.07  0.002218537    3.335    0.700
        53 -10.4834    131.8560    119.8129   9.5090005667e+01   3.2498761512e+01    0.7269749    0.4342367  71.39  0.002807997    2.747    0.636
        54 -10.3228    140.6144    117.4758   9.2457211394e+01   3.1186012967e+01    0.9188291    0.4163773 -44.17  0.001350578    2.286    0.563
        55 -10.1284    149.5512    103.3929   8.6892633332e+01   3.2047441821e+01     0.605087    0.3952324 -45.83 0.0009670806    1.569    0.363
        56  -9.3796    150.2623     96.8476   8.5003834629e+01   3.3154693432e+01    0.5424439    0.2657574  39.75  0.002049298    2.237    0.553
        57  -8.7335    158.0737    122.0712   8.9515732231e+01   2.6596014424e+01    0.2296894    0.1807764 -88.73 0.0005602228    1.679    0.404
        58  -9.1941    152.8409    115.8121   8.9219057368e+01   2.8919318419e+01    0.2989833    0.2105097 -27.80  0.001393664    1.669    0.401
        59 -10.1617     91.9790    113.1940   1.0388301783e+02   4.1182804445e+01    0.5537223    0.3777476  85.06  0.001778292    1.882    0.469
        60  -8.0259      1.1460    116.2047   1.2876621811e+02   5.0414535625e+01    0.2766198   0.06433842 -81.07  0.001072683    3.703    0.730
        61 -10.2452     78.1085    112.9608   1.0761083956e+02   4.3365848608e+01    0.5465716    0.3170566 -83.70  0.001659798    2.310    0.567
        62  -8.4111     77.4972    106.0140   1.0642771607e+02   4.5016714267e+01    0.2288617    0.1902963 -19.63  0.001255312    1.592    0.372
        63  -8.9954     20.1221    115.9828   1.2384752985e+02   4.9127321169e+01    0.2738292    0.1506281   5.26  0.001182152    3.293    0.696
        64  -8.0231    166.8884    114.1562   8.5690635728e+01   2.6142808963e+01    0.2253163    0.2018854  89.91 0.0004359996    1.284    0.221
        65 -10.0318     65.9223    103.3787   1.0922607125e+02   4.7215844132e+01    0.7533049    0.5101323  20.18  0.003969522    1.997    0.499
        66  -9.0360     64.4118     86.4647   1.0617649584e+02   5.1246618376e+01    0.6110504    0.3419807 -25.91  0.002414776    3.443    0.710
        67  -9.7031     65.9496    111.0358   1.1062435928e+02   4.5477180427e+01    0.4465984    0.2723163  76.13  0.001197083    2.104    0.525
        68  -9.4260     59.8997    109.8350   1.1211083483e+02   4.6516939304e+01    0.4796044    0.2325523  58.78  0.001433927    2.667    0.625
        69  -9.7663     14.1676    111.3232   1.2495771245e+02   5.0606765165e+01    0.4007766    0.1882475  75.71  0.001959256    2.288    0.563
        70  -8.2494    158.6792    111.9423   8.6957031267e+01   2.8381424803e+01     0.208625    0.1857759 -39.61 0.0004181722    1.158    0.136
        71  -8.8357    150.2046    110.7054   8.8584355188e+01   3.0481080275e+01    0.3102285    0.2097597 -59.32  0.001256571    1.759    0.432
        72  -8.6855    245.1717    111.5815   7.0686116396e+01   9.3213275534e+00    0.1938314     0.117607  37.55 0.0005674199    1.691    0.409
        73  -9.2952     36.0529    111.0233   1.1895919304e+02   4.8846807878e+01     0.198024    0.1235583  72.76 0.0005215444    1.673    0.402
        74 -10.8871     44.9038    102.6217   1.1521255765e+02   4.9865407913e+01     0.816536    0.3769447  69.90  0.003081831    3.919    0.745
        75  -8.9598     40.1229    106.8733   1.1723949717e+02   4.9388096921e+01    0.2275402    0.1353716 -87.35 0.0008071778    1.680    0.405
        76 -10.7363     20.8209    100.8648   1.2195803183e+02   5.2438644683e+01      1.03413    0.4089102  77.51  0.003799254    4.428    0.774
        77  -9.9058     20.3028     84.0800   1.1985022139e+02   5.6251719501e+01    0.8791868    0.2349383 -68.21  0.003626464    2.823    0.646
        78  -9.4582     41.5963     52.8785   1.0571090700e+02   6.1349727451e+01    0.4871803     0.362818  46.04   0.00297334    1.630    0.386
        79 -10.5997     25.9397     78.4203   1.1710382299e+02   5.7100415137e+01    0.8482012     0.414617  86.24  0.003764492    2.929    0.659
        80 -10.5498     32.1829     64.3824   1.1217059180e+02   5.9729055364e+01     1.206365    0.4883639 -34.45  0.004471438    4.038    0.752
        81 -10.0093     34.4701     90.7019   1.1641993092e+02   5.3596487230e+01    0.5568137    0.2316426 -80.17  0.002154194    2.870    0.652
        82  -8.2264    240.8053    105.3855   6.9884185539e+01   1.1072961044e+01    0.1974524    0.1190134  39.45 0.0006278469    1.708    0.414
        83  -8.6502     92.6919    103.8121   1.0168694698e+02   4.3144508552e+01    0.4642328    0.2969982   5.04  0.001775655    3.522    0.716
        84  -8.2632    166.0074    104.0314   8.3333935260e+01   2.8207816841e+01    0.2254768    0.2177503 -83.73 0.0005273913    1.104    0.094
        85  -7.5402     36.2998    104.6633   1.1801187678e+02   5.0259143611e+01    0.1270732    0.0811726  75.02 0.0003698355    1.659    0.397
        86 -10.3590     62.9334     95.8436   1.0863079093e+02   4.9314468838e+01    0.5398661     0.317185  88.30  0.001557362    2.469    0.595
        87  -8.4615    159.0539    101.2792   8.4159340790e+01   3.0311614436e+01    0.2591583    0.2017418 -68.54 0.0005319823    1.588    0.370
        88  -9.5496     81.4481    100.2063   1.0408337010e+02   4.5734212549e+01    0.4068573     0.269055 -85.00  0.001002747    1.929    0.482
        89  -8.2573     81.7933     94.7827   1.0277072905e+02   4.6896076481e+01    0.3496215    0.2356585  -3.46  0.001513629    2.811    0.644
        90  -8.3171    167.0170     99.0844   8.1817133870e+01   2.8882208689e+01     0.226902    0.2192915  20.73 0.0003937395    1.026    0.025
        91 -10.1122     37.3065     80.7470   1.1374987168e+02   5.5593127394e+01    0.6628321    0.3482972 -20.11  0.002698394    4.068    0.754
        92  -9.4421     94.3928     97.3051   9.9709696931e+01   4.4297024260e+01    0.3208335     0.247416 -79.63 0.0006642991    1.452    0.311
        93  -8.7614     95.7550     91.2211   9.7827333932e+01   4.5397617780e+01    0.4843762    0.3119951 -15.79  0.001921906    2.990    0.666
        94 -10.0685    242.6189     95.8119   6.7294093872e+01   1.2006316513e+01    0.4121359    0.1928134 -45.60  0.001652609    2.515    0.602
        95  -8.1100    159.3161     97.3283   8.3052221361e+01   3.0992809988e+01    0.1567313    0.1200518  11.06 -5.580195e-05    1.677    0.404
        96  -9.1516    242.1251    122.3099   7.3636971189e+01   8.4840390374e+00    0.2314027    0.1708729  -9.92 0.0006109894    1.317    0.241
        97  -8.8367    164.3317     94.1993   8.1089961050e+01   3.0403813422e+01    0.3795139    0.2346276 -40.93  0.001485572    1.636    0.389
        98  -9.7487    223.4454     92.4494   6.9409236177e+01   1.6728905618e+01    0.2602745    0.2376771   5.83 0.0002546978    1.062    0.058
        99  -9.1325    150.3737     89.0195   8.2827491649e+01   3.4626272454e+01    0.4208168    0.2316786 -25.81  0.001584098    2.390    0.582
       100 -10.5115      5.0652     86.2458   1.2490854407e+02   5.6744595952e+01     1.352606    0.3078722 -68.33  0.004144789    2.889    0.654
       101  -9.0065     40.9320     21.1073   9.4817639800e+01   6.7763510517e+01    0.3039819    0.1484826 -43.13 0.0006039553    1.715    0.417
       102  -9.1007    140.0738     75.6964   8.1413944235e+01   3.9531557453e+01    0.6250178    0.2732468 -43.20  0.001611609    2.293    0.564
       103 -11.2742    121.1629    109.7396   9.5435318585e+01   3.6705414084e+01     1.347879    0.6973382 -56.56  0.003263777    2.130    0.531
       104 -10.0990    138.9460     91.6732   8.6320972763e+01   3.6698509828e+01     1.052413    0.4583811 -51.78  0.003018644    2.742    0.635
       105  -9.8757     15.8724     70.6183   1.1921525178e+02   5.9574659579e+01     0.474178    0.2165794 -66.64  0.001223991    1.681    0.405
       106  -9.6355     17.0553     61.0902   1.1708706693e+02   6.1613059512e+01    0.6090004    0.2729897 -64.23   0.00322913    1.707    0.414
       107 -10.1475     12.4449     45.6750   1.1569410979e+02   6.5261512944e+01    0.7189917    0.3546722 -10.88  0.002904421    3.135    0.681
       108 -10.1638      4.5776     41.7849   1.1816985618e+02   6.6516036953e+01    0.6379789    0.2428435 -63.34  0.002274031    1.881    0.468
       109  -7.5410      6.4213    248.4831   1.3379246544e+02   2.5583151555e+01   0.09233475   0.05742752  64.39 -9.806893e-05    1.014    0.014
       110  -9.7448    167.1025    244.9579   1.0791910179e+02   5.7157158473e+00    0.2376509    0.1141351  57.48  0.001220147    2.767    0.639
       111  -9.1690    247.4635    242.5381   9.4813250823e+01  -5.8290207971e+00    0.1836829    0.1389977  29.05  0.000504718    1.233    0.189
       112 -10.4810     47.9201     83.4627   1.1080878869e+02   5.3903619924e+01    0.9353123    0.3714276 -60.49  0.001447518    2.101    0.524
       113 -10.1838     85.3500     86.6714   9.9754798079e+01   4.8138023859e+01    0.4664592     0.345598  87.18 0.0009744762    1.733    0.423
       114  -9.5813     87.3383     78.8686   9.7094287690e+01   4.9517397766e+01    0.6109719    0.4209367   1.69  0.001714669    2.433    0.589
       115  -8.5431    228.4616     88.5136   6.7608656856e+01   1.6158354341e+01    0.2553473    0.1198907  44.26  0.001023228    2.229    0.551
       116  -8.3260    163.5831     86.5497   7.9128073278e+01   3.1973522023e+01    0.3747759    0.1540848 -32.13  0.001260715    2.730    0.634
       117  -9.5889      6.2407    103.8890   1.2638959553e+02   5.2777567238e+01    0.3922554    0.1966158  70.31  0.001474059    2.043    0.511
       118  -7.9652    116.4867     84.9885   9.0305207536e+01   4.2822476609e+01    0.2252918    0.1425666 -45.57 0.0005718531    1.546    0.353
       119 -10.3623    103.9621     82.6271   9.3167061794e+01   4.5762584968e+01    0.5310392    0.3478289 -63.20 0.0009606432    1.767    0.434
       120  -9.5127    105.0177     71.7506   8.9679637605e+01   4.7822418625e+01    0.7089912    0.4368951 -31.71  0.002542984    1.838    0.456
       121  -8.8148    157.4592     83.5906   7.9646233583e+01   3.3974573218e+01    0.2680326    0.2372549 -48.76 0.0005722936    1.163    0.140
       122  -6.9980    170.6422     83.3075   7.6685416597e+01   3.0845223940e+01    0.1591561    0.1222513 -77.91 0.0007041362    1.729    0.421
       123  -7.8791     63.5853     81.8481   1.0537768456e+02   5.2393690955e+01     0.184974    0.1175454 -70.98  0.000495331    1.646    0.392
       124  -8.5916    225.7935     81.5606   6.6222746115e+01   1.7771406123e+01    0.2635683    0.1337665  51.43  0.000834582    1.985    0.496
       125  -9.3848    150.0779     79.7080   8.0210801151e+01   3.6441905846e+01      0.56669    0.2738653 -30.04  0.001494884    2.424    0.587
       126  -8.8310    119.0033     80.4619   8.8320366582e+01   4.3233831575e+01    0.3514443    0.2139899 -47.08 0.0005696407    1.621    0.383
       127  -8.2355    119.8435     76.1775   8.6820374263e+01   4.3920593297e+01    0.2329897    0.2184732  -3.08 0.0004563119    1.130    0.115
       128  -9.1873     74.2992     79.1684   1.0127449790e+02   5.1499372169e+01    0.6466242    0.2328662 -52.70  0.002164479    2.477    0.596
       129  -7.9963     68.7585     79.6876   1.0318588044e+02   5.2177929785e+01     0.346947    0.1455072 -55.96  0.001453923    2.143    0.533
       130  -8.1037    184.0924     78.1539   7.2489232112e+01   2.8408617396e+01    0.2666399    0.2177102 -25.44 0.0007188423    1.242    0.195
       131  -8.8516    166.4852     78.6214   7.6210854724e+01   3.2680849519e+01    0.2791398    0.2122875 -34.81 0.0006116219    1.320    0.243
       132  -9.0104    157.1798     76.9095   7.7746521378e+01   3.5252014714e+01     0.493504    0.2146701 -47.95  0.001433656    2.665    0.625
       133  -7.4154    174.2647     78.6398   7.4586546804e+01   3.0762620725e+01    0.1575514    0.1180551 -63.32 0.0002281367    1.637    0.389
       134  -8.8916    139.4429     39.8697   6.9573039399e+01   4.5820602295e+01    0.4478592    0.2223505 -38.93  0.001614491    2.022    0.505
       135  -9.6363    142.1027     47.1356   7.1552811421e+01   4.4035604200e+01    0.7598819    0.3721456 -19.40   0.00265561    2.785    0.641
       136  -9.3829    127.3916     75.2088   8.4500957836e+01   4.2486845168e+01    0.3590119    0.2724855 -73.60 0.0008141413    1.716    0.417
       137  -9.2759    130.0293     67.4232   8.1376192320e+01   4.3386366779e+01     0.798407    0.4514955 -22.51  0.003039754    2.427    0.588
       138  -9.3405    138.3363     65.0884   7.8517688830e+01   4.1894501602e+01    0.7157308    0.3635747 -28.74  0.001843374    2.259    0.557
       139  -9.1647    138.9265     56.8873   7.5664702692e+01   4.3199072588e+01    0.5716689    0.3377213 -60.36  0.001163463    2.509    0.601
       140  -7.9664    250.0245     75.0187   6.1121317285e+01   1.3196938408e+01    0.1725765    0.1415894 -24.78 0.0004089168    1.109    0.099
       141  -9.9390     81.6666     72.4665   9.7091636887e+01   5.1825877076e+01     0.430063    0.3035748 -75.44  0.001058085    1.811    0.448
       142  -9.2364     83.1977     64.6375   9.4268387400e+01   5.3233518225e+01    0.5175005    0.3238863 -20.04  0.002221608    2.449    0.592
       143  -8.3093    162.8517     73.0205   7.5325140595e+01   3.4550447606e+01    0.3570388    0.1955172 -45.46 0.0007276245    1.929    0.482
       144  -9.3343    115.2509     72.2191   8.6883914330e+01   4.5670473464e+01    0.5543974    0.2855902 -38.48  0.001093402    1.961    0.490
       145 -10.5945     55.4501     71.1267   1.0548565123e+02   5.5811900739e+01    0.5665877     0.333592  57.84  0.001558412    2.341    0.573
       146  -8.8435    169.6325     70.8948   7.3246998753e+01   3.3226860350e+01    0.5531546    0.2155914 -29.27  0.001655506    2.891    0.654
       147  -8.0554    170.8102     65.1409   7.1251213090e+01   3.3883509843e+01    0.2319168    0.2102696 -71.75 0.0004322172    1.207    0.172
       148  -9.3806    146.9919     69.3151   7.7771213038e+01   3.9073391952e+01    0.4127636    0.2778709 -58.82 0.0008081582    1.841    0.457
       149  -8.3563    156.4928     69.9589   7.5788259248e+01   3.6649945243e+01    0.2281758    0.1519252 -34.86 0.0004183371    1.506    0.336
       150  -9.8292     94.8064     67.9873   9.1604754999e+01   5.0517288843e+01    0.9391242    0.2587267 -47.46  0.001079954    3.473    0.712
       151  -9.4055     97.0469     59.0320   8.8020046357e+01   5.1904651627e+01    0.7714143    0.4454113 -23.75  0.003122599    2.434    0.589
       152  -9.1003    121.1838     66.1636   8.3326851112e+01   4.5590351864e+01    0.3798033    0.2665147 -44.76  0.000721259    1.413    0.292
       153  -8.5796    123.1575     60.5129   8.0930351012e+01   4.6215046744e+01    0.4396137    0.2804846  17.03  0.001727158    2.491    0.599
       154  -8.2167     75.6583     66.4711   9.7321944783e+01   5.4052880042e+01    0.2415821    0.1180714 -50.31 0.0009643345    1.856    0.461
       155  -9.2070    105.5382     51.8295   8.2926511176e+01   5.1596536638e+01    0.6489195    0.2910965 -40.31  0.001825014    2.140    0.533
       156  -9.3588    109.8729     63.9316   8.5784802115e+01   4.8412664345e+01    0.4003195    0.2731674 -54.76 0.0007585008    1.605    0.377
       157  -8.9835    110.8864     58.1731   8.3567201092e+01   4.9305924518e+01    0.3892516    0.2746046  25.85  0.000836281    1.700    0.412
       158  -9.4120     55.4013     62.9052   1.0333976404e+02   5.7623342851e+01    0.3528249    0.2928912   4.14   0.00214268    1.447    0.309
       159 -10.0181     62.9600     60.7654   1.0002036470e+02   5.7107479331e+01    0.5948227     0.262173  31.63  0.001581953    2.693    0.629
       160  -8.5018    157.8194     62.9463   7.3295292378e+01   3.7522990473e+01    0.2673551    0.2061455 -42.21 0.0006144613    1.315    0.240
       161  -8.6623     87.8689     58.4723   9.0762346813e+01   5.3695750531e+01    0.3262251    0.2228051 -58.84  0.000843755    1.638    0.389
       162  -8.7032     88.4872     53.5775   8.8897948989e+01   5.4554646446e+01    0.4348826    0.3009896  -0.20  0.001999061    2.132    0.531
       163  -9.9657     73.0046     59.2070   9.6009324455e+01   5.5989452142e+01    0.5321698    0.2639268 -59.73  0.001001453    2.381    0.580
       164 -10.3826     89.6858     38.3621   8.2850034823e+01   5.7153361059e+01    0.9583077     0.422426  29.98  0.003236493    3.770    0.735
       165  -9.5294     75.6956     50.2623   9.2099848938e+01   5.7386825420e+01    0.6473647    0.4034903  -2.87  0.002660907    2.971    0.663
       166 -10.1951     85.1062     47.9865   8.8038676273e+01   5.6236322530e+01    0.4365511    0.3197128 -69.02 0.0009526888    1.895    0.472
       167  -9.0468     80.1168     46.3113   8.9138332170e+01   5.7423419607e+01    0.3205328    0.2015077 -39.37   0.00031118    1.469    0.319
       168  -8.3339    164.5949     60.2806   7.1005218104e+01   3.6253578292e+01     0.288375    0.1408809 -37.73 0.0008029842    2.014    0.504
       169 -10.2518    188.2616    233.6980   1.0304321274e+02   3.7827532108e+00    0.2844905    0.2177521 -27.21  0.001252795    1.677    0.404
       170  -7.6200    152.4225     60.2208   7.3614044218e+01   3.9327328278e+01    0.2236741    0.1391061 -45.38 0.0009428773    1.686    0.407
       171  -8.5661    146.8188     59.0499   7.4510258574e+01   4.0910268388e+01    0.3853292    0.2527795 -61.32  0.001147005    2.038    0.509
       172  -9.2567    147.7055     53.7492   7.2539000709e+01   4.1576006458e+01    0.5361826     0.261813 -25.97  0.001502502    2.331    0.571
       173  -8.3164    130.3178     54.3253   7.6938427854e+01   4.5684898157e+01    0.2954728    0.2155919  24.81  0.001362619    1.614    0.380
       174  -9.1897     53.5118     39.0576   9.6487279077e+01   6.2820980905e+01    0.2910209     0.171184 -49.21  0.000805621    1.507    0.336
       175  -8.7662     54.4877     35.4912   9.4759725624e+01   6.3386400364e+01    0.3824549    0.1890746 -33.76  0.001753942    2.123    0.529
       176 -10.0541     50.0978     54.6261   1.0294011286e+02   6.0040478746e+01    0.5009354    0.3105529 -74.70  0.001427279    2.131    0.531
       177 -10.0136     55.4910     43.8715   9.7407610777e+01   6.1606690778e+01    0.9761092    0.5128638 -14.78  0.003203915    5.201    0.808
       178  -9.4617    118.2624     54.5779   8.0236843322e+01   4.8382358957e+01     0.549405     0.289406 -42.55  0.001398539    1.881    0.468
       179  -8.9601    121.1131     47.0677   7.6778476869e+01   4.9055735996e+01    0.3477054    0.2050139 -33.50 0.0004712584    1.677    0.404
       180  -7.9641    157.4928     55.5621   7.0980136329e+01   3.8820800112e+01    0.1524693    0.1490476  31.17 9.379399e-05    1.009    0.009
       181  -9.2773    162.9433     53.3107   6.9101355669e+01   3.7785803618e+01    0.4046176    0.2280776 -26.12  0.001637606    1.885    0.470
       182  -8.4064    157.6010     49.6632   6.9001704437e+01   3.9724540796e+01    0.2099432    0.1408661 -40.81 0.0006434648    1.513    0.339
       183  -8.3807    149.9642     48.0000   7.0077108502e+01   4.1929108859e+01    0.2277033    0.2245058   3.67 0.0004009539    1.015    0.015
       184  -9.5715    130.5997     45.8718   7.3878688935e+01   4.7039903991e+01    0.8500627    0.3405782 -23.68  0.001995561    3.607    0.723
       185  -8.4214    112.0260     46.7451   7.9181297251e+01   5.1133999180e+01    0.2690453    0.2302151 -48.00 0.0005193342    1.226    0.185
       186  -8.6459    113.1948     42.2349   7.7163352669e+01   5.1645936674e+01     0.454036    0.2642444  -3.18  0.001594875    3.268    0.694
       187  -9.4077    220.1309     43.7281   5.6733899649e+01   2.4332599782e+01    0.4231084    0.2488855 -23.57  0.001348986    1.710    0.415
       188  -8.6216    130.0129     58.0067   7.8276775070e+01   4.5109454452e+01    0.2960325    0.2131851 -44.39  0.000443921    1.409    0.290
       189  -7.3654    106.2769    236.3492   1.1727993756e+02   1.5779733893e+01   0.09225328   0.08039935  20.83 0.0002171794    1.638    0.389
       190 -10.1135    141.5291    229.3927   1.1051518023e+02   1.1585656859e+01    0.2038271    0.1597554  47.00 0.0002256658    1.039    0.038
       191  -7.7944     13.7969    219.4270   1.3171025308e+02   2.9442305895e+01    0.1121255   0.08210361  41.55 0.0002720583    1.555    0.357
       192 -10.0956     10.1671    207.1160   1.3182979404e+02   3.1858877330e+01    0.3188004    0.2415136  29.14  0.002345135    1.869    0.465
       193  -9.9490     76.2177     31.9959   8.4934245774e+01   6.0704789734e+01    0.4358411    0.3162898  56.18  0.001171754    1.765    0.434
       194  -8.6884    250.1721    199.8042   8.7760352575e+01  -2.2613434606e+00     0.188292     0.140741  -1.89 0.0003222698    1.226    0.184
       195  -8.9379    191.3741    193.2141   9.6624180481e+01   8.3306306445e+00     0.541261    0.2847571 -59.72  0.002131512    4.664    0.786
       196  -9.4940    248.1898    181.6997   8.4876405168e+01  -1.5622577793e-02    0.2510714    0.2397026  -7.42 0.0008494067    1.442    0.306
       197  -7.0843    161.5224    180.5158   1.0019221910e+02   1.5561692777e+01    0.1307864    0.1117588  41.04 0.0001137276    1.019    0.019
       198  -7.6386     19.2700    178.0209   1.2879859586e+02   3.6319492398e+01    0.1475236    0.1060927  75.61 0.0003924615    1.024    0.023
       199  -9.2286    236.4140    176.8761   8.5900528373e+01   2.5232707568e+00    0.2517083    0.1842358  44.03 0.0002849302    1.407    0.289
       200  -9.2634     84.8111     21.8549   7.7499129607e+01   6.0776856759e+01    0.3156875    0.2462523  12.91 0.0007160982    1.323    0.244
       201  -9.9718     37.7957     41.9609   1.0398168117e+02   6.4037048955e+01     0.403813    0.2823675 -86.88  0.001421819    2.125    0.529
       202 -10.6027     35.9179     37.9707   1.0348926623e+02   6.5043714649e+01    0.5756148    0.2969533 -27.94 0.0003594474    2.480    0.597
       203  -9.2161    110.2921     33.2082   7.4462270418e+01   5.3741223897e+01    0.3646323    0.2469734 -47.13 0.0009081822    1.640    0.390
       204  -9.2260    104.9574     41.1315   7.9131091203e+01   5.3611088007e+01    0.4577646    0.2520952 -46.50  0.001089726    1.958    0.489
       205  -8.5228    106.1540     36.1309   7.6820931826e+01   5.4184721850e+01    0.2775351    0.2222744  26.22 0.0006647818    1.295    0.228
       206  -8.3848    122.9670     40.7122   7.3933040014e+01   4.9672810367e+01    0.3746925    0.2328294   4.61  0.001451737    2.570    0.611
       207  -8.8596    144.0670     36.4552   6.7293268136e+01   4.5158336316e+01    0.2902443    0.2403943 -60.88 0.0004722569    1.380    0.275
       208  -8.8614    118.9412     34.8938   7.2763548055e+01   5.1517633402e+01    0.3880396    0.1852945 -36.77 0.0008367737    2.052    0.513
       209  -7.6440    193.6030     36.2569   5.8232861939e+01   3.2146659340e+01    0.1938656    0.1449467 -11.83 0.0004475297    1.473    0.321
       210  -8.8676    132.8420     35.8310   6.9626956137e+01   4.8055722922e+01    0.2878084    0.2103727 -35.12 0.0005904986    1.373    0.272
       211 -10.7837    134.0331     31.0160   6.7523810060e+01   4.8453226824e+01    0.3734261    0.2830488  -0.30  0.001815695    1.487    0.328
       212  -9.2103    101.0055     32.6306   7.6945417351e+01   5.5841263972e+01    0.5010203    0.2463305 -31.67  0.001525789    2.000    0.500
       213  -8.9732    148.7149     42.4388   6.8418368306e+01   4.3097220373e+01    0.4190148    0.2009129  62.11  0.001570454    2.230    0.552
       214  -9.3370    153.2449     40.9623   6.6938003794e+01   4.2154260062e+01     0.363426    0.2682894 -37.23  0.001067609    1.368    0.269
       215 -10.4074    151.9782     30.5558   6.3504571508e+01   4.3933799568e+01    0.8458489    0.3404768 -29.05  0.003067658    2.459    0.593
       216  -9.5361    156.4016     27.2335   6.1457258877e+01   4.3202781100e+01    0.6453415    0.1696777 -39.66   0.00188511    3.833    0.739
       217  -9.1451     91.3682     26.1794   7.7244424072e+01   5.8829125789e+01    0.3824497    0.2553317 -54.21  0.001297817    1.975    0.494
       218  -8.8063     92.0373     20.9942   7.4744288087e+01   5.9466473273e+01    0.2613102    0.2093803  10.89 0.0007357935    1.259    0.206
       219  -8.5702    128.4633     25.9800   6.6868153113e+01   5.0520024318e+01    0.2881081    0.2186197 -50.69 0.0006631262    1.504    0.335
       220  -8.7947    144.1208     25.6085   6.3274868937e+01   4.6618224660e+01    0.2593053    0.1925828 -38.88 0.0006386175    1.396    0.284
       221  -7.9424    110.0275     26.4604   7.1777276700e+01   5.4806896521e+01     0.210427    0.1389928  52.25 0.0006550146    1.527    0.345
       222  -9.0123    237.0094    172.0123   8.4886744918e+01   3.0058712242e+00    0.1870422    0.1546061  17.70            0    1.026    0.025
       223  -8.0506    102.1032     25.6823   7.3714039336e+01   5.6669105798e+01    0.3651792    0.2039338  24.29  0.001470091    2.496    0.599
       224  -9.1444     91.9014    169.0815   1.1295558746e+02   2.9373539145e+01    0.1798162    0.1517751  68.09  0.001175388    1.001    0.001
       225  -8.0186    230.4920    167.9917   8.5208161729e+01   4.6604863853e+00    0.1697991    0.1063307 -52.38 0.0008103204    2.711    0.631
       226  -8.8337    139.8985     22.0902   6.2813850452e+01   4.8147120760e+01    0.3208752    0.1995775 -61.25  0.001155326    2.235    0.553
       227  -8.3513    158.0891    167.9225   9.8762304225e+01   1.8279238424e+01    0.1933426    0.1686299  46.72 0.0002827312    1.024    0.023
       228  -8.3409    247.0324    167.0219   8.2292261604e+01   1.8633117577e+00    0.1650934    0.1553107 -63.43 0.0005379335    1.645    0.392
       229  -9.6465    118.7679     21.3056   6.7329336091e+01   5.3484790649e+01    0.2973084    0.2852089 -52.83 0.0006609382    1.167    0.143
       230  -8.9029    237.2089    167.0678   8.3903856837e+01   3.5762348741e+00    0.2155392    0.1646426  38.48 0.0002554401    1.263    0.208
       231 -10.3200    205.2299    164.6428   8.9011708013e+01   9.7994200764e+00    0.2409589    0.2112537  34.36 0.0004087113    1.095    0.087
       232  -8.6519     90.9836    153.9343   1.1111306367e+02   3.2564441277e+01    0.1830408    0.1598917  73.30  0.001167978    1.011    0.011
       233  -7.9698    134.4154    149.2206   1.0046454974e+02   2.6130362689e+01    0.2331401    0.1350403 -48.31 0.0007538078    1.872    0.466
       234  -7.8630    111.6118     21.8550   6.9411404479e+01   5.5086901173e+01    0.2641852     0.129545 -29.36  0.001103329    2.002    0.501
       235  -8.1981    133.3113    144.9362   9.9916950705e+01   2.7171002392e+01    0.3131117    0.1449392 -58.33  0.001249138    2.657    0.624
       236  -8.9355    225.0780    147.4075   8.1984378073e+01   8.4070082879e+00    0.2269747    0.2007717  -9.43 0.0001231586    1.121    0.108
       237  -8.3135    232.1912    147.3648   8.0761399711e+01   7.0417572806e+00    0.1814857    0.1212783  52.83 0.0007072773    1.683    0.406
       238  -8.1577    210.8077    146.4814   8.4320830480e+01   1.1357658302e+01    0.2434558    0.2162615 -66.70 0.0008968358    1.514    0.340
       239  -9.4857     66.6590    144.0418   1.1545543807e+02   3.8077251852e+01    0.4562589    0.2382428  59.55  0.002275246    2.009    0.502
       240  -7.7447    155.3023     17.6712   5.8203554675e+01   4.4641214151e+01    0.1536927    0.1098651 -60.36 0.0003682927    1.647    0.393
       241  -8.5898    112.2106    133.9648   1.0278859453e+02   3.3257849073e+01     0.293977    0.2011201  84.24 0.0008478746    1.915    0.478
       242 -10.0105    134.0878    131.3217   9.7044564380e+01   2.9724067373e+01    0.5160712    0.4816653  65.63  0.002563047    1.025    0.024
       243  -8.6334     83.3445    131.6779   1.0953373915e+02   3.8445511934e+01    0.5894725    0.2885151  72.03  0.002005932    4.249    0.765
       244 -10.1607     58.4125    124.6547   1.1484802663e+02   4.3362991589e+01    0.7968536    0.3800329  71.97  0.002625175    3.387    0.705
       245  -9.8232     67.1739    128.6818   1.1317564779e+02   4.1362538320e+01    0.3824106    0.2669724 -71.02  0.001547366    1.313    0.238
       246  -8.7004    157.6911     91.0199   8.1697857929e+01   3.2548185983e+01    0.2918089    0.1881194 -42.44  0.001033744    1.570    0.363
       247 -10.0235     71.1778    125.7111   1.1168074725e+02   4.1488095090e+01    0.5091273    0.2964536  89.66  0.001452446    2.148    0.534
       248  -9.7310     98.4801    128.5537   1.0517094562e+02   3.6756163209e+01    0.5730368    0.3296382  75.52  0.002320768    2.824    0.646
       249  -9.6760    110.1570     90.0879   9.3447936603e+01   4.3004072782e+01    0.9385126       0.3522  40.52  0.003313119    2.878    0.652
       250 -10.1347    117.3287    123.4117   9.9435792832e+01   3.4551915470e+01    0.9387801    0.5614753 -53.35  0.002558774    1.697    0.411
       251 -10.9854    133.3129    109.2637   9.2271218283e+01   3.4360303594e+01     0.866394     0.434021 -45.20  0.002590148    2.030    0.507
       252  -9.5260    139.3921    104.4848   8.9596929909e+01   3.4048338147e+01    0.4147415    0.2931501 -70.18 0.0008490316    1.855    0.461
       253 -10.2394    128.5031    100.6391   9.1327512283e+01   3.7124994531e+01     1.035926    0.5412135 -28.18  0.002972616    3.135    0.681
       254 -10.4192    108.7959    112.9042   9.9354626433e+01   3.8359430873e+01     1.053825     0.436081 -53.73  0.002067726    2.434    0.589
       255 -10.8333     21.8574     53.6208   1.1367639138e+02   6.2921327976e+01    0.7748462    0.4014756  85.72  0.003056351    3.456    0.711
