#   1 NUMBER                 Running object number                                     
#   2 MAG_AUTO               Kron-like elliptical aperture magnitude                    [mag]
#   3 X_IMAGE                Object position along x                                    [pixel]
#   4 Y_IMAGE                Object position along y                                    [pixel]
#   5 X_WORLD                Barycenter position along world x axis                     [deg]
#   6 Y_WORLD                Barycenter position along world y axis                     [deg]
#   7 A_WORLD                Profile RMS along major axis (world units)                 [deg]
#   8 B_WORLD                Profile RMS along minor axis (world units)                 [deg]
#   9 THETA_WORLD            Position angle (CCW/world-x)                               [deg]
#  10 FWHM_WORLD             FWHM assuming a gaussian core                              [deg]
#  11 ELONGATION             A_IMAGE/B_IMAGE                                           
#  12 ELLIPTICITY            1 - B_IMAGE/A_IMAGE                                       
         1 -14.9829    249.5305     65.9529   1.7904549036e+01   1.5058456236e+01     2.573897    0.2748961 -35.37  0.007450223    4.619    0.784
         2 -15.4950    246.5422      8.5875   4.5307458130e+00   2.2545982189e+01     3.185741     1.258064 -28.11   0.01487008    2.214    0.548
         3 -12.6377      1.7871     25.3496   7.3190277634e+01   7.2770049741e+01    0.9379693    0.1579769 -62.66  0.002874779    5.286    0.811
         4 -13.2091     25.0923      4.1062   4.6837077721e+01   7.4310025025e+01    0.6290764    0.3705988  13.94    0.0033617    2.059    0.514
         5 -12.7507      2.6192     38.0754   7.6919981362e+01   6.9975307918e+01     1.027888   0.08824157 -61.99  0.003159066    4.806    0.792
         6 -12.2809     13.4827     12.6996   5.9624045972e+01   7.4304544783e+01    0.3358903    0.2168077 -31.82  0.001435491    1.318    0.241
         7 -12.5290     15.5148      7.1803   5.4975588790e+01   7.5039447652e+01    0.5105941    0.3022272 -14.64   0.00262021    1.921    0.480
         8 -13.3690      7.0593     10.7286   6.2930879969e+01   7.5264587487e+01     0.833738    0.4597715 -37.20  0.004359852    1.498    0.332
         9 -12.6439     10.4806      2.0949   5.5158760089e+01   7.6420694434e+01    0.9557158    0.2283564  30.66  0.003608815    4.779    0.791
        10 -13.6954     11.9514     23.4187   6.6001917697e+01   7.2415249134e+01    0.7831732    0.3317101 -38.89  0.003766254    2.118    0.528
        11 -12.0802     26.2189     16.2891   5.3716641444e+01   7.2226388858e+01    0.3132406    0.1375511 -32.25  0.001412645    2.331    0.571
        12 -12.3316     20.0137     13.7993   5.6042418597e+01   7.3405709325e+01    0.3982343    0.1921494 -31.28  0.001962581    2.053    0.513
        13 -11.0039     41.5884      2.2947   3.6747071387e+01   7.1955535456e+01    0.2256323    0.1323367  27.18  0.001190522    1.788    0.441
        14 -11.9440     29.5460    240.6165   9.1546047372e+01   2.1975652437e+01    0.4208141     0.189652  61.01  0.001966075    1.747    0.428
        15 -12.0528    248.9108    225.2143   5.0500784003e+01  -5.4305797254e+00    0.3384237    0.1925051 -13.03  0.001784354    1.640    0.390
        16 -11.5628    245.0435    230.2153   5.1867386365e+01  -5.4601168831e+00    0.2704546    0.1280673 -14.37   0.00152928    2.375    0.579
        17 -12.8751    234.3720    244.2710   5.5602928225e+01  -5.5496768183e+00    0.6057867    0.2831765 -22.41  0.003717605    2.282    0.562
        18 -11.8368    240.0426    239.4193   5.4021119042e+01  -5.7648369481e+00    0.2837143    0.1675785  -6.25  0.001395899    1.622    0.383
        19 -12.0833    243.7617    235.3157   5.2839661556e+01  -5.8131266233e+00    0.2915529    0.1768111  10.02  0.002017794    1.407    0.289
        20 -11.6238    250.0277    232.7928   5.1507282715e+01  -6.3240004697e+00    0.3186924    0.1603933 -23.69  0.001520023    1.899    0.473
        21 -12.4854    242.9709    245.6168   5.4478216796e+01  -6.7147046531e+00    0.5369085    0.2671419 -15.10  0.003404066    2.119    0.528
        22 -12.0905    247.2322    239.3567   5.2917310488e+01  -6.6252476456e+00    0.4206164    0.2171134  -9.68  0.002499647    2.030    0.508
        23 -11.3584    249.6523    249.9153   5.4091391082e+01  -7.8890819924e+00    0.3562871     0.153635  29.51  0.002262319    1.852    0.460
        24 -11.2768    248.9620    245.2607   5.3524582254e+01  -7.3846073411e+00    0.2640163    0.1650878  -0.21   0.00196566    1.347    0.258
        25 -11.9948    225.5776    248.3526   5.7554767892e+01  -4.8707897108e+00    0.2720013    0.1919288  -2.04  0.001772031    1.268    0.211
        26 -12.8807    212.5561    248.0558   5.9591503489e+01  -3.1971650147e+00     0.473833     0.245505  15.00  0.002772752    2.123    0.529
        27 -10.5710    188.3256    250.3114   6.3892074323e+01  -2.6167555498e-01    0.1107453   0.06928702  12.79 0.0005676911    1.660    0.398
        28 -10.7691    183.7764    250.3776   6.4668710572e+01   3.4206272432e-01    0.1615063   0.07982383  29.34 0.0009470986    1.690    0.408
        29 -11.6953    168.9012    250.2787   6.7204388354e+01   2.3792277021e+00    0.2854685    0.1051589  33.46    0.0014279    2.276    0.561
        30 -10.9239     87.5127    250.5166   8.1752751832e+01   1.3438586746e+01    0.2382486   0.08526734  37.61  0.001216711    2.188    0.543
        31 -11.1873     74.4587    250.3233   8.4084438929e+01   1.5129695233e+01    0.3085919   0.09068596  43.06  0.001528059    2.342    0.573
        32 -11.6901     65.3024    249.0799   8.5638846322e+01   1.6458778345e+01    0.3669157    0.1657911  47.60  0.001953088    1.612    0.379
        33 -11.4287     50.2573    250.0339   8.8369291741e+01   1.8090410060e+01    0.3828267    0.1276544  38.40   0.00204399    2.257    0.557
        34 -11.2708     44.8796    245.0631   8.9043709931e+01   1.9528296292e+01    0.3449243    0.1545324  60.94  0.001864621    1.888    0.470
        35 -11.9521     36.7735    248.6771   9.0660088684e+01   1.9832044121e+01    0.4167082     0.166659  53.49  0.002501057    1.808    0.447
        36 -11.9768     20.3442    249.0233   9.3504822561e+01   2.1513870089e+01    0.3623779    0.1663388  49.42  0.001873843    1.493    0.330
        37 -11.0126     27.2017    248.5878   9.2313710083e+01   2.0875594774e+01    0.3093042    0.1206488  52.20  0.001331592    1.770    0.435
        38 -12.0909     12.1597    248.9335   9.4885021440e+01   2.2347865757e+01    0.4200919    0.1406831  46.04  0.001773104    1.920    0.479
        39 -12.3462      2.3310    211.3057   9.5316450210e+01   3.0039882029e+01    0.7336794    0.1960166 -88.38   0.00322381    3.644    0.726
        40 -12.5830     16.1126    240.3542   9.3899844200e+01   2.3409711437e+01    0.5492963    0.2064979  51.27  0.002480154    1.805    0.446
        41 -12.2841      6.7177    236.4047   9.5395183263e+01   2.5013060605e+01    0.5012214     0.209276  57.54  0.003175764    1.679    0.405
        42 -12.1586      4.8096    228.2981   9.5459120114e+01   2.6636128541e+01    0.4578996    0.1829061  61.69  0.001942756    1.855    0.461
        43 -11.9488      2.2716    220.9158   9.5667102006e+01   2.8224897161e+01    0.3847875    0.1640546  79.72   0.00167457    1.994    0.499
        44 -11.7919     14.3075    232.0846   9.3897674739e+01   2.5041554988e+01    0.3999311    0.1862584  64.66  0.002008175    1.659    0.397
        45 -11.6050     11.1931    225.7647   9.4213182620e+01   2.6489952843e+01    0.3590335    0.1420042  54.44   0.00158211    1.804    0.446
        46 -11.5470      3.5531    250.3103   9.6359219764e+01   2.2946908850e+01    0.2970213    0.1513958  32.95  0.001773136    1.987    0.497
        47 -12.7597      3.3269    243.0307   9.6185262082e+01   2.4188817734e+01    0.4741071     0.223746  71.52  0.003210302    1.653    0.395
        48 -11.2887    202.6908    240.4277   6.0159629176e+01  -1.0662245479e+00    0.1855209    0.1180969  -3.24  0.001197672    1.753    0.430
        49 -10.9217     38.2394    240.3998   8.9981004458e+01   2.1066072752e+01    0.2797431    0.1259135  53.98  0.001434339    1.646    0.393
        50 -11.6011    214.7357    239.6191   5.8058106563e+01  -2.5782336151e+00    0.1870955    0.1174937 -13.19  0.001243954    1.673    0.402
        51 -11.7455    107.2838    239.9746   7.7195086307e+01   1.2432527448e+01    0.3464893     0.112929  45.66  0.001610367    2.448    0.592
        52 -11.2979    202.8351    249.5193   6.1374465921e+01  -2.0940001300e+00    0.2089685    0.1353982   9.69  0.001050843    1.486    0.327
        53 -11.4598    128.2928    239.6003   7.3248630004e+01   9.5380297180e+00    0.2384125   0.08461062  41.39  0.001145295    2.182    0.542
        54 -11.1802     45.1695    237.2051   8.8544892478e+01   2.0835401706e+01    0.2971239    0.1231554  51.90  0.001703425    1.805    0.446
        55 -12.2431    231.5768    234.9213   5.4670880313e+01  -4.2551282721e+00    0.3189343    0.1760067 -18.94  0.002058789    1.843    0.457
        56 -11.2094     82.2629    236.3700   8.1568086776e+01   1.6398957375e+01     0.309051    0.1244621  57.89  0.001463182    2.713    0.631
        57 -10.5395     32.8390    236.2169   9.0740606988e+01   2.2385548288e+01    0.2406645     0.101316  60.77  0.001381435    1.947    0.486
        58 -10.4504     64.7754    239.8970   8.5106959858e+01   1.8036595535e+01    0.2295608   0.09483938  54.70  0.001233728    2.050    0.512
        59 -11.5264     72.7927    240.3349   8.3654893609e+01   1.6959997401e+01    0.3316722    0.1451506  51.22  0.001857794    1.822    0.451
        60  -9.9063     67.3294    234.6258   8.4248064027e+01   1.8616667711e+01    0.1251903   0.06390819  61.81 0.0007026402    1.836    0.455
        61 -10.8187     59.5954    232.0948   8.5525757347e+01   2.0017245837e+01    0.3275641    0.1129396  50.63  0.001624231    2.285    0.562
        62 -11.1987     39.8827    231.0834   8.9168133257e+01   2.2516140078e+01     0.310885    0.1569448  68.83  0.001752474    1.785    0.440
        63 -11.1542    217.5599    231.7155   5.6444178734e+01  -2.0809164282e+00     0.192838   0.09760489 -26.46   0.00114036    2.127    0.530
        64 -10.8629     48.7815    230.6573   8.7473074133e+01   2.1569175328e+01     0.292793    0.1467614  71.08  0.001691815    1.966    0.491
        65 -12.1265     25.5627    228.7361   9.1703027655e+01   2.4497718380e+01    0.4906638    0.2396343  72.37  0.003003869    1.794    0.443
        66 -12.1462    236.8038    228.2310   5.2835004307e+01  -4.2204866585e+00    0.2730725    0.1862172  -8.44  0.001703153    1.303    0.232
        67 -10.6210     32.6386    229.3493   9.0422145124e+01   2.3630276345e+01    0.2503797    0.1168078  60.54  0.001265758    1.723    0.420
        68 -10.2670    229.4865    226.9954   5.3800652920e+01  -3.1404140647e+00    0.1556777   0.09663456 -24.13  0.001038617    1.609    0.378
        69 -11.5643     18.8335    221.9966   9.2639345585e+01   2.6430746172e+01    0.3283502    0.1634033  70.11  0.001590577    1.661    0.398
        70 -11.9253     12.2743    217.0547   9.3657557431e+01   2.8009543453e+01    0.4919077    0.2170925  60.53   0.00228748    1.734    0.423
        71 -10.0975     55.6719    222.3416   8.5581281667e+01   2.2253967959e+01    0.1267872   0.06522619  61.80 0.0007051348    1.740    0.425
        72 -10.6325     43.7029    221.3369   8.7847918363e+01   2.3861900946e+01    0.2670619    0.1309362  60.66  0.001537219    1.730    0.422
        73 -12.1995    248.6016    215.0011   4.8908130799e+01  -4.3250964784e+00    0.4081636    0.1875912 -20.68  0.002297044    2.178    0.541
        74 -12.0632    239.3032    219.0958   5.1006540306e+01  -3.5647487462e+00    0.2762362    0.1625988  -9.06  0.001747073    1.668    0.400
        75 -10.2955    227.6162    219.1752   5.2876175543e+01  -2.0187941277e+00     0.158843   0.09103783 -16.98 0.0009585592    1.783    0.439
        76 -11.2529     34.8939    217.5162   8.9327858400e+01   2.5577007019e+01     0.301631    0.1645657  74.80  0.001836223    1.651    0.394
        77 -10.7966     24.4686    217.7366   9.1361810263e+01   2.6654243487e+01    0.2752611    0.1229767  69.69  0.001533944    2.001    0.500
        78 -11.2693     21.7055    211.2457   9.1564308943e+01   2.8188222269e+01    0.3395962    0.1774539  88.17  0.001988341    1.730    0.422
        79 -10.1104    233.3925    211.7756   5.0749130045e+01  -1.9560378416e+00    0.1583669   0.09137312 -16.40 0.0009499158    1.716    0.417
        80 -10.8816     28.8228    211.3598   9.0163631400e+01   2.7422188872e+01    0.2538722    0.1257154  68.29  0.001409064    1.761    0.432
        81 -12.5835     12.5584    205.5591   9.3091142650e+01   3.0213083224e+01    0.5749042    0.2505215  60.60  0.002895254    1.814    0.449
        82 -10.2386     36.1963    207.9743   8.8474596330e+01   2.7282523280e+01    0.2057708   0.09457137  67.65  0.001074141    2.062    0.515
        83 -10.2054    239.9933    206.7349   4.8863605037e+01  -2.2745956788e+00    0.1636542    0.1251955   6.46  0.001167008    1.015    0.015
        84 -10.1689    246.8602    205.4648   4.7583907697e+01  -3.0527881491e+00    0.1893704    0.1112761 -20.60  0.001195386    1.541    0.351
        85 -11.0664     25.8939    203.5475   9.0300336569e+01   2.9278601186e+01    0.2434995    0.1155577  76.62  0.001320953    1.973    0.493
        86 -12.1455     16.2501    196.2419   9.1876558196e+01   3.1738716418e+01    0.3338639      0.14453  56.52  0.001831414    1.848    0.459
        87 -10.4909    243.4815    200.0191   4.7170675173e+01  -1.9741293811e+00    0.1717147   0.09777563 -25.16  0.001039662    1.617    0.382
        88 -12.1822      3.5528    197.1888   9.4522817156e+01   3.2725783144e+01    0.4397504    0.1992057  72.21   0.00213004    1.815    0.449
        89 -11.6271      5.3934    183.1122   9.3499550324e+01   3.5494221322e+01    0.2820874    0.1393354  78.64  0.001176716    1.691    0.409
        90 -11.6983      1.9209    178.1844   9.4015955079e+01   3.6847786759e+01     0.432619    0.1741971 -89.01  0.002086618    2.122    0.529
        91 -11.0796      9.3991    198.2114   9.3382941698e+01   3.1987231630e+01    0.2497326    0.1138435  89.74 0.0009976134    1.921    0.479
        92 -12.6583      4.5752    189.3829   9.3970332241e+01   3.4242981531e+01    0.8981236    0.2510979  69.41   0.00350741    3.886    0.743
        93 -10.3543    250.4897    200.4816   4.6176435923e+01  -2.9746566120e+00    0.2206189   0.09608728 -29.08  0.001197683    2.120    0.528
        94 -10.1582    246.0000    192.0276   4.5375323227e+01  -1.3816749641e+00    0.1825388   0.05778993 -32.07 0.0008023744    2.942    0.660
        95 -10.9831     11.4300    191.0853   9.2613730047e+01   3.3266624812e+01    0.2273756    0.1093696  80.05   0.00107695    1.802    0.445
        96 -11.6811     16.9501    189.7202   9.1368759667e+01   3.3027975112e+01    0.3077394    0.1388943  77.29  0.001605595    2.042    0.510
        97 -10.6711     24.5077    186.5479   8.9537302084e+01   3.2948093114e+01    0.2167638   0.09214126  86.08   0.00103281    2.360    0.576
        98 -12.3168     11.5892    184.2009   9.2215313720e+01   3.4705910823e+01     0.343897    0.1723972  86.71  0.001945654    1.715    0.417
        99 -11.8756     17.5906    182.5267   9.0803955974e+01   3.4499467727e+01    0.4401957    0.1462911  81.19  0.001702995    3.695    0.729
       100  -9.8613     31.3315    201.6729   8.9066199612e+01   2.9078528959e+01      0.12936   0.06432115  62.21 0.0007051337    1.712    0.416
       101  -9.8311     30.3311    184.6590   8.8118935687e+01   3.2745326058e+01    0.1347717   0.06871088  63.84  0.000103155    1.746    0.427
       102 -10.8053     23.2839    179.8495   8.9359027646e+01   3.4519828371e+01    0.2055817     0.119339  74.01  0.001188668    1.483    0.326
       103 -11.9330      9.0216    177.7008   9.2423298904e+01   3.6340059620e+01    0.2684093    0.1446795 -85.83  0.001422465    1.567    0.362
       104 -11.0448     18.7225    174.4239   9.0029487475e+01   3.6162437157e+01    0.2256905   0.09301263  37.70  0.001145285    2.182    0.542
       105 -11.5824     11.2866    172.6401   9.1621104219e+01   3.7248463022e+01    0.2273309    0.1161495  82.87  0.001054571    1.684    0.406
       106 -12.3513      6.5046    171.4906   9.2646984450e+01   3.7921869803e+01    0.3657008     0.191059  80.51  0.001899785    1.599    0.375
       107 -10.7829      1.4497    170.2570   9.3731739528e+01   3.8615905905e+01    0.3259468    0.1104779 -76.69  0.001520634    2.448    0.592
       108 -11.8620      2.7739    165.8721   9.3197889294e+01   3.9482123488e+01    0.3760563    0.1893119  59.64  0.002139809    1.665    0.399
       109 -12.2964     10.8076    166.5822   9.1360058839e+01   3.8643498065e+01    0.3133438    0.1443316  68.15  0.001608676    1.954    0.488
       110 -11.3436     15.3982    165.1755   9.0179094825e+01   3.8549209840e+01    0.1816233   0.09226234  85.00 0.0009528984    1.741    0.426
       111 -10.1232     19.6854    164.3583   8.9091207982e+01   3.8334686322e+01    0.1366264   0.07065776  65.88 0.0007043745    1.749    0.428
       112 -11.9584      5.5505    161.3173   9.2283893415e+01   4.0281440014e+01    0.3069194    0.1534269  70.83  0.001437269    1.729    0.422
       113 -12.7055     10.1398    155.6992   9.0805477901e+01   4.1185816221e+01    0.3415872    0.1727991  89.06  0.001821851    1.690    0.408
       114 -12.4068      3.8927    153.5379   9.2212635581e+01   4.2195933085e+01    0.3986064    0.1447521 -75.82  0.001885396    2.244    0.554
       115 -10.6413    250.0000    150.9946   3.6910741258e+01   3.2244659642e+00    0.2058092   0.06083402 -32.31 0.0007527029    2.928    0.658
       116 -12.5057      6.2474    147.9859   9.1255187116e+01   4.3301632541e+01    0.4728243    0.1401289  56.08  0.001893789    3.310    0.698
       117 -11.9561      2.4566    143.4670   9.1927555670e+01   4.4653925017e+01    0.2932811    0.1506201  88.48  0.001165158    1.614    0.381
       118  -9.9774    244.3694    149.1655   3.7362965798e+01   4.3729259388e+00    0.1826269     0.100689 -37.79 0.0009482898    1.728    0.421
       119 -10.4796     13.4868    145.5059   8.9190010850e+01   4.3291251208e+01    0.1280579   0.09830447  79.76 0.0008099196    1.054    0.052
       120 -12.3343      4.3383    137.3290   9.0996021189e+01   4.5969052090e+01    0.3870075    0.1455007 -88.50  0.001703733    2.404    0.584
       121  -9.6348    250.6606    140.3187   3.4605286487e+01   4.5571255483e+00    0.1195205   0.09378391 -53.27 0.0007049426    1.710    0.415
       122 -10.5604    243.7582    139.6965   3.5468569712e+01   5.7847936011e+00     0.202071   0.08493355 -40.43 0.0007715368    2.324    0.570
       123 -10.4838    242.4851    134.0330   3.4440062172e+01   6.7988991692e+00    0.2050383    0.1108522 -30.99 0.0009990047    1.592    0.372
       124 -12.3558      3.2949    128.4489   9.0602399326e+01   4.8176791742e+01     0.529689    0.1681229  85.32  0.001891533    3.721    0.731
       125 -10.9487    248.0000    129.5552   3.2683348055e+01   6.4849428941e+00    0.2555852    0.1548585 -41.44  0.001366849    1.627    0.386
       126 -11.4475    241.5415    125.5079   3.2709988042e+01   8.1815034033e+00    0.2846341    0.1115262 -32.86  0.001210362    2.181    0.541
       127 -12.2356    248.7952    118.7301   3.0199355127e+01   7.8655700262e+00    0.4238018    0.2495406 -46.72   0.00217601    1.846    0.458
       128 -11.4327      5.3820    121.8160   8.9436136959e+01   4.9641125475e+01    0.2064124     0.103145 -79.88  0.001058436    1.619    0.382
       129 -10.1880      4.3198    116.3314   8.9253662830e+01   5.1056310636e+01    0.1277687   0.07878529 -52.31  0.000704861    1.693    0.409
       130 -11.2931    247.8399    112.5528   2.8946252272e+01   8.9070122691e+00    0.2670906    0.1396937 -42.90 0.0008863024    1.835    0.455
       131 -12.0745    243.8142    109.3935   2.8765880719e+01   1.0089511810e+01     0.429652    0.1017896 -30.98  0.001355954    3.866    0.741
       132 -12.2851    242.8234     93.3184   2.5160918827e+01   1.2583427003e+01    0.3695943    0.1477807 -43.19  0.001530382    2.319    0.569
       133 -12.1061    247.1938    102.7799   2.6807833761e+01   1.0409960619e+01    0.4099147    0.1869236 -49.32   0.00171439    2.655    0.623
       134 -10.5150    230.6063    103.8052   2.9279574254e+01   1.3430057374e+01    0.2061661    0.1087753 -40.69 0.0009491526    1.709    0.415
       135 -11.2394    238.5196    102.9383   2.7982804050e+01   1.2020045847e+01    0.2130685    0.1154281 -32.28 0.0008511257    1.569    0.363
       136 -12.1513    248.8006     97.7694   2.5452649491e+01   1.0819778140e+01    0.3871863     0.194941 -47.35  0.001800375    2.070    0.517
       137 -10.8128      1.6966     94.4953   8.7835986639e+01   5.6594795147e+01    0.2390277   0.09286039 -76.01  0.001078547    2.044    0.511
       138 -10.7670    237.1650     90.1792   2.5131501428e+01   1.4144303254e+01    0.1942654    0.1424161 -48.59 0.0008114065    1.341    0.254
       139 -12.7742    243.3315     77.4079   2.1312771576e+01   1.4731302526e+01    0.4601666    0.1759746 -25.51  0.001760886    2.709    0.631
       140 -12.0706    246.4966     84.5269   2.2640144572e+01   1.3115749589e+01    0.1977207    0.1758624 -74.28 0.0009000608    1.309    0.236
       141 -12.3353    249.2861     87.3613   2.2978562228e+01   1.2184935889e+01     0.427326    0.2139217 -20.85  0.001908665    2.157    0.536
       142 -10.3739      6.0000     85.9580   8.5172142590e+01   5.8441706176e+01    0.2186064   0.05954805 -73.34 0.0008024974    2.943    0.660
       143 -12.6259    248.4081     74.1963   1.9979090106e+01   1.4168884487e+01    0.4756402    0.1726746 -38.04  0.002000944    2.168    0.539
       144 -10.5566    239.3111     81.3169   2.2727455033e+01   1.4987181780e+01    0.1320717     0.100544   6.35 0.0003653185    1.640    0.390
       145 -10.5124      3.0000     81.0200   8.5609040070e+01   5.9831734052e+01    0.2157051   0.05865971 -73.64 0.0008002427    2.927    0.658
       146 -11.2743    239.4186     72.2414   2.0509863792e+01   1.6241171403e+01    0.2035755    0.1030145 -40.13  0.000950311    1.655    0.396
       147 -12.7305    143.1302    247.4381   7.1413633650e+01   6.3275668791e+00    0.3878718    0.1573933  32.69  0.001963669    2.203    0.546
       148 -10.9356    109.9902    248.5044   7.7510259903e+01   1.0760810906e+01    0.1773156   0.08642555  39.28 0.0007680099    1.578    0.366
       149  -9.9257      9.3075     68.3373   8.0889801186e+01   6.2537815819e+01    0.1363761   0.07576663 -45.61 0.0006885581    1.678    0.404
       150 -12.1947    194.6373    245.6891   6.2226045369e+01  -5.8124151856e-01    0.3230047    0.1813193  -1.96  0.001777988    2.655    0.623
       151 -11.8173     97.5744    245.0820   7.9466780940e+01   1.2957084081e+01    0.3551165    0.1212607  46.33  0.001746456    2.278    0.561
       152 -12.2729      3.0284     49.7525   7.9793141715e+01   6.7306482002e+01    0.5426666     0.202597 -62.51   0.00254553    1.980    0.495
       153 -11.6849    158.6538    245.5638   6.8429818454e+01   4.3995931437e+00    0.2327061   0.08834961  34.29  0.001152428    2.203    0.546
       154 -12.0291     84.3759    244.4654   8.1839532848e+01   1.4797341859e+01    0.2718116    0.1496198  51.83  0.001502412    1.451    0.311
       155 -11.9553    178.4344    243.5580   6.4710966431e+01   1.8874869974e+00    0.2777155    0.1444091  24.63  0.001582103    1.881    0.468
       156 -12.1275    116.1587    244.2339   7.5971219402e+01   1.0551961176e+01    0.2801855    0.1412386  49.18  0.001616339    1.700    0.412
       157 -12.1186    127.0935    247.8846   7.4348749821e+01   8.5017449366e+00    0.2948763    0.1182579  44.90  0.001545953    2.005    0.501
       158 -10.9279      7.3740     62.8026   8.0625726486e+01   6.3987854491e+01    0.1936954   0.08767608 -59.64 0.0009498069    1.684    0.406
       159 -11.8276     57.4958    242.2679   8.6602592553e+01   1.8523452162e+01    0.4207347    0.1717257  54.92  0.002324809    2.009    0.502
       160 -11.6374      8.3289     43.9102   7.5525593505e+01   6.8317907825e+01    0.3191357    0.1079172 -58.53   0.00141339    2.170    0.539
       161 -12.2587     12.3062     37.4781   7.1336844362e+01   6.9455124555e+01    0.3945723    0.1578252 -50.24  0.001874515    1.923    0.480
       162 -11.9511    242.1895     61.5397   1.7598745251e+01   1.7132644301e+01     0.226544    0.1441038 -27.99  0.001102874    1.411    0.291
       163 -11.6755     18.6527     30.8273   6.5233494245e+01   7.0311428041e+01    0.3362486     0.156472 -34.79  0.001573884    2.200    0.546
       164 -12.1920      2.0856     59.6099   8.2384254757e+01   6.5049667626e+01     0.490465     0.156567 -78.83  0.001769744    3.590    0.721
       165 -12.7246    226.1557    241.1384   5.6440061908e+01  -4.2116944304e+00    0.2939466    0.1788808  -3.05  0.001921986    1.655    0.396
       166 -11.0400     11.4984     56.5260   7.7307749024e+01   6.5202488826e+01    0.2575005   0.07341195 -56.03  0.001044408    2.455    0.593
       167 -10.0921     49.5185    243.4634   8.8121504303e+01   1.9263671829e+01    0.1107389   0.07848683  57.46 0.0001221331    1.025    0.024
