#   1 NUMBER                 Running object number                                     
#   2 MAG_AUTO               Kron-like elliptical aperture magnitude                    [mag]
#   3 X_IMAGE                Object position along x                                    [pixel]
#   4 Y_IMAGE                Object position along y                                    [pixel]
#   5 X_WORLD                Barycenter position along world x axis                     [deg]
#   6 Y_WORLD                Barycenter position along world y axis                     [deg]
#   7 A_WORLD                Profile RMS along major axis (world units)                 [deg]
#   8 B_WORLD                Profile RMS along minor axis (world units)                 [deg]
#   9 THETA_WORLD            Position angle (CCW/world-x)                               [deg]
#  10 FWHM_WORLD             FWHM assuming a gaussian core                              [deg]
#  11 ELONGATION             A_IMAGE/B_IMAGE                                           
#  12 ELLIPTICITY            1 - B_IMAGE/A_IMAGE                                       
         1 -17.7254    240.9199     64.4095   4.5599874211e+01   1.7651862075e+01     6.956171     5.652416 -33.17   0.01291053    1.217    0.179
         2 -10.0009    182.9174     29.8280   4.4370617542e+01   3.5738543999e+01    0.6867024    0.3643236 -34.29  0.003207992    1.906    0.475
         3 -10.4502    129.0846     23.6164   5.1662519535e+01   4.9725815999e+01     0.504252    0.2213613 -18.28   0.00168454    2.845    0.649
         4  -9.4114    115.7758     12.4185   5.0466089672e+01   5.4011915871e+01    0.3197927    0.1998151  57.32  0.001665589    1.418    0.295
         5 -10.8514    120.3344      9.3405   4.8368004609e+01   5.3222912856e+01    0.5193959    0.3670403  57.60   0.00190875    1.242    0.195
         6  -8.6611     94.9823      1.7206   5.1076677288e+01   5.9627395348e+01    0.1783871    0.1447421  42.78 0.0004502547    1.050    0.047
         7  -9.3864    201.3195    207.9401   8.4159935381e+01   1.0030051293e+00    0.2294419    0.1692642  23.28 0.0002265615    1.209    0.173
         8  -8.4012    123.9942    206.0250   1.0037837581e+02   1.4506653681e+01    0.1883437    0.1711084  44.19            0    1.007    0.007
         9  -9.5343    202.0382    203.0377   8.3113751080e+01   1.6812025107e+00    0.2039972    0.1720383   6.88  0.000308868    1.025    0.024
        10 -10.1826    192.2675    193.6741   8.3330541179e+01   4.9436741574e+00    0.8641715     0.447434 -60.87  0.002696243    5.347    0.813
        11  -9.1772    228.9275    199.5268   7.7265605640e+01  -2.1219961106e+00    0.1904682    0.1177774  33.04 0.0004255044    1.557    0.358
        12 -10.0868    169.4159    198.1990   8.9015714287e+01   8.1682860209e+00    0.2430128     0.228168  36.47 0.0003205127    1.142    0.124
        13  -8.2602    121.7100    196.2708   9.9394846922e+01   1.6894252048e+01    0.1756551    0.1573817  -9.90 0.0004587406    1.302    0.232
        14  -7.9910    160.4867    195.4674   9.0473592441e+01   1.0273753434e+01    0.1409764     0.129504  33.31 0.0008086725    1.070    0.065
        15  -7.7764    242.3679    246.2379   8.3096652104e+01  -1.0334390070e+01    0.1195636   0.06855216  10.71 0.0003792086    1.605    0.377
        16 -13.1985    226.8329     89.1799   5.3303582540e+01   1.6808204568e+01    0.9563589    0.3728268 -49.94  0.003382951    2.996    0.666
        17 -11.3972     49.6711    139.8530   1.0887334691e+02   4.0693532701e+01    0.4145507    0.4028876  23.46 0.0008321696    1.196    0.164
        18 -13.2972     62.1460    135.8545   1.0464481618e+02   4.0187541197e+01     1.825896     1.552533   1.67  0.005412078    1.430    0.301
        19  -8.8864    191.0338    183.0316   8.1500861284e+01   7.0663960363e+00    0.2089057    0.1840407   3.32            0    1.034    0.033
        20  -9.2599    195.7968    143.0641   7.1843117114e+01   1.3682420057e+01    0.2216518    0.2052362 -59.87 0.0005942954    1.249    0.200
        21  -9.7633    203.7797    190.0439   8.0280180151e+01   3.5611647570e+00    0.2806418    0.1887853  51.43 0.0007660362    1.887    0.470
        22 -12.7620     23.7335    148.2078   1.1702027649e+02   4.1210425816e+01     0.828457    0.7952531  83.82  0.004015794    1.194    0.162
        23 -10.7992    137.8429    129.4156   8.1974876157e+01   2.8759848132e+01    0.5506565    0.5130237  82.00  0.001132208    1.200    0.167
        24  -9.6713    135.2806    120.6125   8.0432151889e+01   3.1263029216e+01    0.5991627    0.2107812 -48.83  0.001859509    2.972    0.664
        25 -10.3076    160.7103    128.7431   7.6137022056e+01   2.4033634190e+01    0.4372784    0.3423377 -55.22  0.002059961    1.393    0.282
        26  -8.3431     95.8278    123.9944   9.2314991972e+01   3.8072876484e+01    0.2773769    0.1977639  18.34  0.001267461    1.707    0.414
        27  -7.8575    100.4873    175.4605   1.0112035325e+02   2.5002191322e+01    0.1425821    0.1323351  70.69 0.0001435842    1.034    0.033
        28  -8.1286    101.4985    123.0854   9.0443183128e+01   3.7300190936e+01    0.2258687    0.1457061 -50.37 0.0003328056    1.487    0.327
        29  -8.1315    177.9413    121.9629   7.0511776236e+01   2.1646532213e+01    0.3156224    0.2139016 -50.41 0.0006757094    1.571    0.364
        30  -8.8735     53.9917    188.7553   1.1410398280e+02   2.8512461947e+01    0.1985592    0.1592811 -77.84 0.0003061521    1.159    0.137
        31  -9.8164    178.0524    117.5584   6.9368242259e+01   2.2500167009e+01    0.4307579    0.3312146 -66.48 0.0009883515    1.640    0.390
        32 -11.0242    174.1622    113.5002   6.9169241328e+01   2.4182428461e+01    0.4589488    0.4468971  78.14  0.002458948    1.109    0.099
        33  -8.3455     55.1813    173.0935   1.1201521863e+02   3.1992945972e+01    0.1791669    0.1606507 -66.04 0.0003226261    1.165    0.142
        34  -8.1134     85.4607    102.5335   9.0203444105e+01   4.4897278126e+01    0.1491417    0.1384106 -35.64 7.773244e-05    1.002    0.002
        35  -9.7726    185.5954    169.1530   7.9795521078e+01   1.0679822421e+01    0.3269374    0.2607477 -82.67  0.001568521    1.981    0.495
        36  -8.9440    202.8463    167.2793   7.5802481323e+01   7.7553998664e+00     0.218912    0.1850579  58.17  0.001134993    1.505    0.335
        37  -9.9628    119.1210     89.2003   7.6150173179e+01   4.1478138526e+01    0.3591604    0.2431274  12.57     0.001145    2.083    0.520
        38 -10.9671    132.6273     82.1798   7.0312923943e+01   3.9919183224e+01    0.5194002     0.461082 -81.90  0.002279159    1.358    0.264
        39 -10.1551    102.1146     82.9593   7.9313584910e+01   4.6228393188e+01    0.2340242    0.2083675  20.03  0.001238979    1.125    0.111
        40  -9.4857    152.9118     79.0946   6.4375315661e+01   3.5764119093e+01    0.3170327    0.2136556 -31.18 0.0007382021    1.534    0.348
        41  -8.2659    204.9568    160.4847   7.3910286427e+01   8.5983115748e+00    0.2154463    0.1404222  40.65  0.001025483    1.571    0.364
        42 -10.0021    158.5130     71.1998   6.0768862551e+01   3.5804807962e+01    0.2774877     0.266289  34.78 0.0005348325    1.038    0.037
        43  -9.7607    130.3643     70.6377   6.7294809416e+01   4.2586022661e+01    0.2961749    0.1987689 -43.02 0.0009675426    1.541    0.351
        44  -9.8342    131.6763     66.8902   6.5750957120e+01   4.2945802901e+01    0.2832311    0.2235395  47.36   0.00140572    1.244    0.196
        45 -10.5158    136.4680     68.8179   6.5156985666e+01   4.1492929136e+01    0.5194138    0.1579266 -40.87  0.001419894    3.312    0.698
        46  -9.0039    158.0603    156.8761   8.3346299349e+01   1.8589154182e+01    0.2268012    0.2098685  86.56 0.0005587608    1.269    0.212
        47 -10.0596    192.8609    153.3106   7.4794550928e+01   1.2305296844e+01    0.2557865    0.2023353 -46.22 0.0009558923    1.337    0.252
        48 -12.4146     10.7924    143.9415   1.1991476799e+02   4.3246918323e+01      1.82509    0.7231851 -79.66  0.008302732    2.237    0.553
        49  -8.6613    125.0000     50.9856   6.2162837205e+01   4.7098301625e+01    0.2369544   0.08342546 -32.93 0.0007908844    2.937    0.659
        50  -9.0835    227.9074    152.9722   6.7896634957e+01   5.6473899720e+00    0.2159955        0.185 -15.36 0.0003350472    1.029    0.029
        51 -10.8243    168.6586     39.0325   4.9189766971e+01   3.8128567116e+01    0.5890216    0.4384284  11.95   0.00246182    1.758    0.431
        52 -10.1813    171.7528     35.5864   4.7671880609e+01   3.7798177814e+01    0.4819277    0.2887434  87.53  0.002108066    2.125    0.530
        53  -9.7797    203.5806    151.7750   7.2255841007e+01   1.0473611297e+01    0.2874187    0.2563516 -39.05  0.001055726    1.172    0.147
        54 -10.7197    158.2370     33.2491   4.9231218437e+01   4.1452387529e+01    0.4994496    0.3921601 -36.31 0.0009493777    1.345    0.256
        55  -8.7637    161.3567     28.8944   4.7368415571e+01   4.1196434651e+01    0.2412279    0.1702887  55.52 0.0005730673    1.309    0.236
        56  -8.4707    213.2124    235.7919   8.6679479463e+01  -4.9927039589e+00    0.1713367    0.1452255  14.41 0.0007348512    1.162    0.139
        57  -9.1065    169.5899     30.9163   4.6648597360e+01   3.8908140081e+01     0.363066    0.1897568  59.53  0.001314925    1.737    0.424
        58  -9.4393    212.0170    218.1187   8.3892101085e+01  -2.2866824000e+00     0.245102    0.2238307  53.41  0.001408508    1.592    0.372
        59  -8.7888    186.5833     25.0410   4.2567790317e+01   3.5397913604e+01    0.2404931    0.1660822  52.61 0.0003560907    1.459    0.315
        60 -10.6802    203.8347    147.0143   7.1127539821e+01   1.1311414873e+01     0.464238    0.3524444  72.80  0.001723554    1.995    0.499
        61  -8.8865    125.2482     14.2518   4.9143394438e+01   5.1605457657e+01    0.1795435    0.1557739 -84.19 0.0007769866    1.341    0.254
        62  -9.0713    200.3359    212.4556   8.5170088088e+01   4.4133100803e-01    0.2741584    0.2078727  45.68   0.00098357    1.530    0.346
        63 -10.2570    231.8171    211.4041   7.8956955392e+01  -4.3182150900e+00    0.2206305    0.1854405   1.03 0.0003094691    1.107    0.097
        64 -10.0771    133.8113    146.7480   8.7069607107e+01   2.5653371988e+01    0.7654952    0.2764607 -55.15  0.002306284    3.477    0.712
        65  -9.1326    132.4995    138.5112   8.5537069572e+01   2.7790203571e+01    0.3085621    0.1981379 -52.29  0.001325833    1.599    0.375
