#   1 NUMBER                 Running object number                                     
#   2 MAG_AUTO               Kron-like elliptical aperture magnitude                    [mag]
#   3 X_IMAGE                Object position along x                                    [pixel]
#   4 Y_IMAGE                Object position along y                                    [pixel]
#   5 X_WORLD                Barycenter position along world x axis                     [deg]
#   6 Y_WORLD                Barycenter position along world y axis                     [deg]
#   7 A_WORLD                Profile RMS along major axis (world units)                 [deg]
#   8 B_WORLD                Profile RMS along minor axis (world units)                 [deg]
#   9 THETA_WORLD            Position angle (CCW/world-x)                               [deg]
#  10 FWHM_WORLD             FWHM assuming a gaussian core                              [deg]
#  11 ELONGATION             A_IMAGE/B_IMAGE                                           
#  12 ELLIPTICITY            1 - B_IMAGE/A_IMAGE                                       
         1 -12.2459     53.9939     92.5312   7.7333983589e+01   5.2621855558e+01     3.017065    0.2647956 -54.25  0.006640539    6.838    0.854
         2 -14.1581     68.2443    144.2979   8.3449042085e+01   3.7369316544e+01     4.424443     2.258692  73.36  0.002724246    4.317    0.768
         3 -13.5575    247.2665     26.9518   2.0458027097e+01   2.2990785801e+01    0.8756218    0.5863819 -36.74  0.002927844    1.492    0.330
         4 -14.2827    223.7029     44.9859   2.5908843976e+01   2.5182866549e+01     2.122051     1.327825  43.20   0.00983695    2.526    0.604
         5 -12.9158    231.1737     38.9023   2.3993599819e+01   2.4519726606e+01     0.630452    0.4937654  73.01  0.001683236    1.427    0.299
         6 -11.9250      2.6891     20.8207   8.0015933489e+01   7.3482790314e+01    0.7333225    0.2111524 -55.18  0.003042288    3.403    0.706
         7 -13.2978      6.4949      5.1706   6.9319433515e+01   7.5697816887e+01     1.130686    0.9387178  17.81  0.008276635    1.272    0.214
         8  -9.3846    189.5555     15.3022   2.2281751369e+01   3.5992602139e+01    0.2105648    0.1032258 -38.87 0.0007768129    1.885    0.469
         9 -10.3841     57.2082    249.4743   9.8745751522e+01   1.4174942109e+01    0.5731485    0.2384395  49.17   0.00278434    2.066    0.516
        10  -9.9369     51.7893    247.8637   9.9789866105e+01   1.5125534298e+01    0.4985079    0.1889369 -82.43  0.002084957    3.659    0.727
        11  -9.2087     50.1801    241.2000   9.9651407527e+01   1.6640116520e+01    0.1651467    0.1529839  66.59 0.0004174696    1.164    0.141
        12  -9.3969     24.1829    250.0739   1.0573535778e+02   1.7725661973e+01    0.1817506    0.1518558 -68.95  0.001081612    1.456    0.313
        13 -14.3957      9.2620    207.9304   1.0677613877e+02   2.8161283177e+01     1.504794     1.073262 -76.59  0.005904091    1.378    0.274
        14 -15.5595      5.9324    184.3907   1.0622222626e+02   3.4013396066e+01      10.5593     1.181997 -77.12   0.02651391    7.142    0.860
        15 -13.1156     15.4440    195.0397   1.0450070174e+02   3.0611116770e+01    0.4373863    0.3496709 -26.22 0.0008956497    1.712    0.416
        16 -15.4521     26.9013    185.4155   1.0082276115e+02   3.1841632402e+01     3.530498     2.006004  70.88   0.01720915    1.780    0.438
        17 -12.6972     15.7039    248.2667   1.0738330026e+02   1.8937402198e+01    0.4844826    0.2123084  84.11  0.001790934    2.385    0.581
        18 -15.6367      8.1475    239.4925   1.0854769810e+02   2.1428303422e+01     9.606501       3.2579  15.77   0.02983138    7.248    0.862
        19 -10.6532     25.1564    213.5788   1.0338500404e+02   2.5342455989e+01    0.2402535    0.1832048  77.63 0.0005511549    1.171    0.146
        20 -10.5126    127.0804    211.1584   7.8568197160e+01   1.2383213336e+01    0.3172888    0.2224424 -75.91  0.001594647    1.993    0.498
        21  -9.0011    224.2121    206.9805   5.8235019620e+01  -7.1728592273e-01    0.1615733    0.1245049 -19.46 -0.0006383859    1.071    0.066
        22 -11.5572    109.1529    204.0167   8.1772668829e+01   1.6602626275e+01    0.4168016    0.2482785  27.00  0.001961467    1.681    0.405
        23  -8.8281     84.5357    201.0943   8.7484028064e+01   2.0898045786e+01    0.1936568    0.1373874 -66.55 0.0004492501    1.500    0.333
        24 -10.1750    193.7262    196.1524   6.1853342901e+01   5.1417558174e+00    0.7461367     0.386721 -63.51  0.002098266    7.721    0.870
        25  -9.2974     99.3630    181.0815   8.0756036256e+01   2.3333964160e+01    0.2344958    0.1961559  22.88 0.0004708043    1.245    0.197
        26 -11.8171    245.6576    163.8731   4.7208018472e+01   3.1548353212e+00    0.5069212    0.2835053 -43.18  0.002886169    1.579    0.367
        27 -12.4145    232.1713    168.8225   5.0151278503e+01   4.2168127655e+00      1.03085    0.8988484  88.93  0.006711256    1.807    0.447
        28 -12.5319     78.7604    137.0816   7.8792802830e+01   3.7614969115e+01    0.7142881    0.5077595  62.02 0.0007893583    1.617    0.382
        29 -10.6125    124.0032    249.0400   8.4289348821e+01   5.6984101392e+00    0.2031858    0.1671322  30.02  0.001103137    1.029    0.028
        30 -11.2651    115.8382    248.8345   8.6008304231e+01   6.8206028799e+00    0.3230385    0.2002318  38.10  0.001844841    1.365    0.267
        31 -11.5791     28.0197    144.9048   9.6347901618e+01   4.2133830874e+01    0.3819641    0.3077704  28.72  0.001755235    1.341    0.254
        32 -10.3971     91.9780    139.3269   7.5209152286e+01   3.4834896700e+01    0.3492968    0.2981102  29.00 0.0009134568    1.227    0.185
        33  -9.9678     95.0157    136.5273   7.3714607627e+01   3.5002464796e+01    0.3285991    0.2696595   1.07  0.001238939    1.506    0.336
        34 -10.2760    243.5418    139.5173   4.2940234408e+01   7.2905785891e+00    0.1878334    0.1208434  62.86  0.001011596    2.381    0.580
        35 -10.8701    105.7135    130.1165   6.9160284916e+01   3.4616708741e+01    0.4054233    0.3543332 -47.54  0.001104181    1.143    0.125
        36 -10.0803    110.5661    167.4362   7.5453735577e+01   2.4726131106e+01    0.2738852    0.2414629  84.40 0.0005511743    1.245    0.197
        37 -10.5167    242.1399    126.3344   4.0577092564e+01   9.6069422593e+00    0.2179895    0.1095737  40.73  0.001100162    2.603    0.616
        38 -10.4466     91.5570    124.9089   7.2193039795e+01   3.8504236144e+01    0.2844755    0.2664915 -59.12 0.0004875943    1.051    0.049
        39 -13.0469     74.7188    151.9537   8.2813058801e+01   3.4421922335e+01     1.205009    0.7836496 -49.17  0.001214336    1.576    0.366
        40 -12.5737    240.1733    169.6818   4.9080895463e+01   2.9843032158e+00    0.5749573    0.4531485  39.57  0.002475407    1.568    0.362
        41 -12.4545     48.1956    171.0102   9.3460421594e+01   3.3113412612e+01    0.6713585    0.4594983 -23.22  0.001509763    2.091    0.522
        42  -8.8127    113.0016    123.9916   6.5653106950e+01   3.4669666579e+01    0.2444716    0.1925787  -8.57 0.0006368828    1.683    0.406
        43  -9.8981    103.7449    118.1154   6.6892256687e+01   3.7871361227e+01    0.2476339    0.2176484  32.83 0.0002394147    1.183    0.154
        44  -9.9213    231.0949    114.2930   3.9640041514e+01   1.3345576368e+01    0.2373813    0.2029306 -49.78 0.0007057298    1.073    0.068
        45  -8.8964    174.7340    149.1717   5.6535095172e+01   1.7083298678e+01     0.225438    0.1712089 -59.32 0.0008322215    1.473    0.321
        46  -9.9888    205.1185    110.6977   4.2636363641e+01   1.8621410465e+01    0.2840169    0.2336074  32.22  0.001318211    1.492    0.330
        47 -11.2803     39.4715    147.7890   9.3086112738e+01   4.0176433268e+01    0.3843458    0.2135845 -37.08  0.001609659    2.329    0.571
        48 -10.6633    165.1541     86.6569   4.3745104532e+01   3.1233286986e+01      0.25933    0.1879022 -53.74 0.0006852874    1.336    0.251
        49  -8.5730     35.4974     84.4032   8.2846178945e+01   5.6955146003e+01    0.1358738    0.1291978 -38.82 8.793301e-05    1.034    0.033
        50  -9.3253    184.3624     77.6372   3.8188562713e+01   2.8551280718e+01    0.2514075    0.1976169  10.33 0.0008588154    1.963    0.491
        51 -11.7595     66.5655    157.4173   8.6169589880e+01   3.4207632193e+01    0.4594748    0.3880835 -80.77 0.0002738977    1.169    0.145
        52  -8.9079     70.5440    248.2944   9.5771819001e+01   1.2786510681e+01    0.1470132     0.116057 -56.32  0.000688896    1.527    0.345
        53  -9.0436    169.0666    236.3032   7.3223668262e+01   1.8124647449e+00    0.1682287    0.1383056  14.66 0.0003655647    1.040    0.038
        54 -11.0966    144.8132    228.8813   7.7195448997e+01   6.4021954722e+00    0.3434372     0.222709 -44.32  0.001904941    1.679    0.404
        55 -10.8280     13.4409     60.2339   8.6963949198e+01   6.4679231532e+01    0.2812642    0.2094392 -52.92 0.0004330784    1.207    0.172
        56 -12.0841     54.7503    165.9432   9.0914723563e+01   3.3598573292e+01    0.3617151    0.3242793 -23.15 0.0005871302    1.321    0.243
        57 -11.3634     11.2731     43.2431   8.3073371840e+01   6.8492251362e+01    0.3074274    0.2081197  29.61  0.001058689    1.612    0.380
        58 -12.3126      5.4436     39.9703   8.5436823008e+01   6.9603649715e+01    0.5387802    0.3660457  30.72  0.002504229    1.664    0.399
        59 -13.5913     52.2239    153.0367   8.9852216953e+01   3.7275055122e+01    0.8283711    0.5779538 -41.94  0.001245923    1.614    0.380
        60  -8.6021     32.6173     38.2979   6.9339105725e+01   6.7143819978e+01    0.1231173    0.1007628  60.94 0.0007020113    1.769    0.435
        61 -12.1365     78.8823    241.3392   9.3310159829e+01   1.3086128569e+01    0.6153849    0.4792234  61.13  0.003869792    1.256    0.204
        62 -10.2984     28.0126    218.9047   1.0307380619e+02   2.3851159324e+01    0.4213994    0.1965766  25.39  0.001851528    2.224    0.550
        63  -9.9421    198.3126     23.7191   2.3485010655e+01   3.3121788013e+01     0.225542    0.1699514  35.39 0.0009752866    2.042    0.510
