#   1 NUMBER                 Running object number                                     
#   2 MAG_AUTO               Kron-like elliptical aperture magnitude                    [mag]
#   3 X_IMAGE                Object position along x                                    [pixel]
#   4 Y_IMAGE                Object position along y                                    [pixel]
#   5 X_WORLD                Barycenter position along world x axis                     [deg]
#   6 Y_WORLD                Barycenter position along world y axis                     [deg]
#   7 A_WORLD                Profile RMS along major axis (world units)                 [deg]
#   8 B_WORLD                Profile RMS along minor axis (world units)                 [deg]
#   9 THETA_WORLD            Position angle (CCW/world-x)                               [deg]
#  10 FWHM_WORLD             FWHM assuming a gaussian core                              [deg]
#  11 ELONGATION             A_IMAGE/B_IMAGE                                           
#  12 ELLIPTICITY            1 - B_IMAGE/A_IMAGE                                       
         1 -12.3958    227.5171    111.6321   3.1215238910e+01   1.5865379358e+01     2.307382     1.143463 -50.01  0.002803269    2.093    0.522
         2 -12.8228    227.2564     55.0545   1.9046497888e+01   2.3714182077e+01     3.727918    0.6141531 -38.44  0.008759929    3.365    0.703
         3 -12.5168    246.1024     43.2955   1.5221469921e+01   2.1912673565e+01      1.53912    0.7253303 -25.95   0.00496787    2.121    0.529
         4  -8.4978    122.3101      6.6741   1.4772130994e+01   5.3088152239e+01    0.1499023   0.08584383 -60.11 0.0007039374    1.658    0.397
         5  -9.9288    147.3676      5.8435   1.2212966092e+01   4.6762832794e+01    0.3754674   0.06163636  73.06  0.001127274    4.683    0.786
         6  -8.5701    184.3297      3.3220   9.2348198078e+00   3.8286012738e+01    0.1125156   0.09272541  43.74 -0.0001526766    1.695    0.410
         7  -9.8699    159.7676      2.8599   1.0426532517e+01   4.4002935224e+01    0.2471002    0.1822125 -10.09  0.001310677    1.733    0.423
         8  -7.9052    211.9847    203.4775   5.0386877419e+01   4.6667919707e+00     0.128973   0.09480449  49.86 0.0008091994    2.462    0.594
         9  -9.4053    249.5785    246.2226   5.1031675446e+01  -3.8117672545e+00     0.189098   0.07116755 -32.07  0.001229106    2.182    0.542
        10  -7.5857    167.6641    203.3139   5.8209739814e+01   9.9338242184e+00    0.1097852   0.09635881  56.15 0.0007046488    1.690    0.408
        11  -8.1740    161.3185    201.2182   5.9133965695e+01   1.1087835425e+01    0.2540118    0.0949516 -38.62  0.001099034    2.733    0.634
        12  -8.4008    250.3356    201.0739   4.4384373091e+01   1.0755956003e+00    0.1474697   0.09545878 -25.92  0.001119069    1.204    0.170
        13  -8.2912    244.0153    200.9639   4.5225111771e+01   1.6899214214e+00    0.1402678     0.117031 -35.93 0.0009034319    1.701    0.412
        14  -7.9297    195.4744    195.9887   5.1924424782e+01   7.6179542735e+00    0.1484521    0.1007021 -58.13 0.0008099541    2.605    0.616
        15  -8.1363    246.2858    193.6579   4.3759417042e+01   2.3543772267e+00   0.09251529   0.07252216 -37.76 0.0003555969    1.641    0.391
        16  -7.6396    224.6696    193.3513   4.6787721013e+01   4.6360182695e+00   0.09630327   0.08434706 -46.71 1.376073e-05    1.772    0.436
        17  -7.3411    167.6783    193.2867   5.6598770251e+01   1.1567156433e+01    0.1102476   0.09893516  57.75 0.0007004704    1.599    0.375
        18  -8.1636    199.2776    192.1497   5.0639538375e+01   7.7229007017e+00    0.1422077    0.1311749 -23.69 0.0009814042    1.385    0.278
        19  -8.4146    173.0160    191.0163   5.5187405473e+01   1.1232812538e+01    0.1744907    0.1597965  83.85  0.001136902    1.721    0.419
        20  -8.1642    232.9798    187.1706   4.4553277236e+01   4.5475204175e+00    0.1513027    0.1039799 -40.02  0.001044326    1.593    0.372
        21  -8.5959    249.6898    185.1455   4.1931323772e+01   3.0583941030e+00    0.1559227    0.1313089   0.57  0.001012705    1.341    0.254
        22  -7.4686    228.3129    185.3455   4.4923913518e+01   5.2997010473e+00    0.1170926   0.06891065 -10.81 0.0007046705    1.711    0.416
        23  -7.9008    224.4005    184.1746   4.5303840565e+01   5.8972214723e+00    0.1508394   0.08898727 -40.62 0.0006936896    1.680    0.405
        24  -8.6021    201.7081    183.6239   4.8786575473e+01   8.6844896327e+00    0.2240498    0.1708439 -65.12  0.001307133    2.460    0.593
        25  -9.1004    243.0379    181.9395   4.2287782761e+01   4.1469790704e+00    0.2699856    0.2334798 -69.26  0.001962215    2.389    0.581
        26  -7.8974    211.6299    182.8147   4.7033821106e+01   7.5836789846e+00    0.1617731    0.0937724 -41.57 0.0009514075    1.708    0.414
        27  -8.6304    192.8772    179.1289   4.9507661924e+01   1.0504580508e+01    0.2740539    0.1888672 -58.98  0.001501918    2.339    0.572
        28  -7.7107    226.3798    179.1634   4.4159782060e+01   6.3531740265e+00    0.1545698   0.08762641 -40.42  0.000937697    1.686    0.407
        29  -8.5943    231.9523    175.5934   4.2745291927e+01   6.1971261686e+00    0.2044938    0.1309517 -40.59  0.001044036    1.569    0.363
        30  -7.9088    183.3181    176.6955   5.0779473875e+01   1.2183463256e+01    0.1093898    0.1013739 -82.33 0.0002798463    1.628    0.386
        31  -8.6367    246.5176    169.3374   3.9699809076e+01   5.3877035664e+00    0.2661617    0.1468826 -28.20  0.001737752    1.374    0.272
        32  -8.5576    224.9848    168.5001   4.2502860444e+01   7.9961303084e+00    0.2182565    0.1376966 -43.03  0.001083827    1.631    0.387
        33  -8.9363    191.9101    167.4409   4.7563600553e+01   1.2491437363e+01    0.2758055    0.1575766 -43.70 0.0004445107    1.705    0.414
        34  -9.0591    234.5233    164.0059   4.0362486330e+01   7.4688271251e+00     0.188179    0.1556345 -38.43  0.000754387    1.393    0.282
        35  -8.2945    230.6636    164.3154   4.0949932526e+01   7.8898846017e+00    0.1506328    0.1449604   2.34  0.000671122    1.450    0.310
        36  -8.0749    214.2885    164.6628   4.3403963583e+01   9.8959185256e+00    0.1086013   0.08719903 -51.72 0.0007020097    1.636    0.389
        37  -8.0563    223.5751    162.7762   4.1679740642e+01   8.9817668789e+00    0.1603631    0.0915691 -41.62 0.0009392144    1.636    0.389
        38  -9.0291    227.9936    158.5243   4.0278027220e+01   9.0297760523e+00    0.2869745    0.1171915 -40.23  0.001463883    2.081    0.520
        39  -8.3616    159.4925    159.9908   5.2291202459e+01   1.8660761889e+01    0.2055991    0.1256428 -43.36  0.001024754    1.569    0.362
        40  -8.2896    168.2088    158.2923   5.0201222995e+01   1.7588776523e+01    0.2057497   0.09849326 -50.74 0.0007185778    2.354    0.575
        41  -7.7845    250.3207    156.3236   3.6958350806e+01   6.6485211101e+00    0.1114018   0.06839086 -11.63 0.0007045963    1.677    0.404
        42  -8.5978    232.0716    152.4935   3.8612632222e+01   9.3640427024e+00    0.3558483    0.1161648 -46.41  0.001373798    4.048    0.753
        43  -9.7802    221.5605    153.3496   4.0232573379e+01   1.0604290541e+01    0.3119907    0.1643427 -52.28  0.001527254    2.753    0.637
        44  -7.5397    179.6561    153.3142   4.7041408617e+01   1.6674099974e+01    0.1229551    0.1045464 -78.04 0.0007047451    1.710    0.415
        45  -8.0327    244.0245    151.5217   3.6882535537e+01   8.0210241220e+00    0.1664446    0.1443832  58.19 0.0009960312    1.827    0.453
        46  -9.5029    245.0019    148.5106   3.6215995393e+01   8.3068081009e+00    0.2659879    0.1576816 -34.52   0.00095349    1.289    0.224
        47  -8.5350    213.9869    149.9764   4.0699721951e+01   1.2134442598e+01    0.1816921    0.1421091 -58.47  0.001141854    1.745    0.427
        48  -8.3207    163.5160    149.9991   4.9477544568e+01   1.9877305523e+01    0.2126935    0.1249821 -41.52  0.001030968    1.586    0.370
        49  -9.8701    240.3642    146.7526   3.6473756838e+01   9.1156133790e+00     0.328712     0.137819 -36.75  0.001222656    1.831    0.454
        50  -7.7834    198.4688    149.4636   4.3019108220e+01   1.4448107459e+01    0.1267215    0.1054484 -23.68 6.345983e-05    1.008    0.008
        51  -8.6481    192.9939    148.2761   4.3691019195e+01   1.5467256308e+01    0.1767457    0.1542737 -23.69 0.0009740303    1.045    0.043
        52  -8.2126    133.5172    148.0928   5.5689911711e+01   2.5412876914e+01    0.2225385    0.1394314 -48.81    0.0010288    1.583    0.368
        53  -9.4674    250.0734    146.7034   3.5273578082e+01   7.9375534370e+00    0.2341201    0.1249389 -29.41   0.00146271    1.429    0.300
        54  -9.5995    234.6142    146.5432   3.7172950451e+01   9.8731226662e+00    0.2969911   0.08850294 -33.43  0.001263554    2.838    0.648
        55  -8.2099    186.4758    146.5159   4.4454570218e+01   1.6774258152e+01    0.1306309    0.1124973 -25.25 6.758614e-05    1.006    0.005
        56 -10.3309    230.0978    144.6021   3.7404336472e+01   1.0736450341e+01    0.3750442    0.1577253 -27.28  0.001779932    2.389    0.581
        57  -8.4197    126.9100    144.1758   5.6491457243e+01   2.7432790900e+01    0.2180029    0.1962251  74.88 0.0003665597    1.267    0.211
        58  -7.8203    181.2135    249.5690   6.2211182945e+01   1.8261966236e+00    0.1502141   0.08004554  13.16   0.00093491    1.629    0.386
        59 -12.5503    237.5503     89.8935   2.5621538750e+01   1.7373338423e+01    0.3881417    0.3759573  22.95 0.0005376441    1.359    0.264
        60 -11.6732    249.7666     85.5752   2.3605257850e+01   1.6090460003e+01     1.068828    0.3749821 -35.38  0.004677581    2.043    0.511
        61 -12.7409    241.3366    127.9463   3.2819144164e+01   1.1576267110e+01    0.9566591    0.6844922 -48.17 0.0009350911    1.452    0.311
        62 -12.1296    250.2668     51.6111   1.6677640716e+01   2.0256139699e+01    0.5443034    0.1688528 -31.17  0.002508142    2.610    0.617
        63 -11.2618    231.2907    102.8468   2.8964461417e+01   1.6544868413e+01    0.6293638    0.2852481 -53.75   0.00240781    2.775    0.640
        64 -10.8883    233.4215     96.8155   2.7481011328e+01   1.7062566934e+01    0.2995623    0.2563228 -70.70 0.0002533558    1.389    0.280
        65 -12.1140    237.3199     61.9367   1.9752923562e+01   2.1101777605e+01    0.7952769    0.3711426 -23.15  0.001003762    2.573    0.611
        66 -12.2832    244.5499     60.8060   1.8965781999e+01   2.0055793598e+01     0.495483    0.3660664 -36.60  0.002935672    1.136    0.120
        67 -12.1826    242.1922     78.6822   2.2866424140e+01   1.8145840908e+01    0.5067114    0.3478948 -18.46  0.002058033    1.649    0.393
        68 -11.0764    241.0243    112.9955   2.9941167887e+01   1.3683238726e+01    0.3281824    0.2473718 -44.71 0.0003275109    1.220    0.181
        69 -11.4168    241.7602    108.5013   2.8969781300e+01   1.4196104603e+01    0.3057446    0.2294087 -46.93 0.0005036778    1.249    0.200
        70 -11.3042    243.9928     70.0056   2.0918341665e+01   1.8985153331e+01    0.3509066     0.279984 -34.42 0.0003347349    1.169    0.144
        71 -11.6254    247.3180     66.9897   2.0035427709e+01   1.8841742852e+01    0.4793496    0.2630507 -42.67 0.0003236879    1.311    0.237
        72 -11.5357    233.4688    126.3726   3.3457959471e+01   1.2876361131e+01    0.8652128      0.29693 -31.75  0.001667112    2.587    0.613
        73  -8.5996    219.6723    139.5096   3.7848431559e+01   1.2909458676e+01    0.2202725   0.09148223 -37.16 0.0009549001    1.937    0.484
        74  -8.7100    175.0112    139.9589   4.5161492034e+01   1.9793966875e+01    0.2141962    0.1851435 -33.49 0.0008080557    1.046    0.044
        75  -9.5380    225.3597    138.6868   3.6906768903e+01   1.2232737914e+01    0.3034458     0.174268 -46.16  0.001735057    1.720    0.418
        76  -8.2940    210.3790    137.2607   3.8737078551e+01   1.4605460753e+01    0.1768461   0.09743971 -42.70 0.0005014036    1.604    0.377
        77  -9.3398    200.3919    133.9176   3.9567820154e+01   1.6670818941e+01    0.3942004   0.09983393 -41.79  0.001388282    3.390    0.705
        78 -10.0437    222.3488    130.3509   3.5670241347e+01   1.3888471985e+01    0.4657807    0.2031843 -47.48  0.001816975    2.401    0.584
        79  -8.2873    178.0000    131.0137   4.2692131560e+01   2.0884171440e+01    0.2262918   0.06945745 -40.90 0.0007957004    2.896    0.655
        80  -8.3063    205.7693    130.5822   3.8057350172e+01   1.6359356421e+01    0.1543467    0.1241859  64.92 0.0009508681    1.717    0.418
        81  -8.4683    153.0097    129.7260   4.7277312992e+01   2.5648007286e+01    0.1955623    0.1862386 -28.29 0.0006363573    1.026    0.025
        82  -8.6181    192.1399    128.6628   3.9770768998e+01   1.8878802401e+01    0.2641367    0.1658315 -33.21  0.001114274    1.408    0.290
        83  -9.3805    213.8105    121.8096   3.5083330344e+01   1.6468284265e+01    0.5068593    0.2338642 -54.69  0.002074152    3.345    0.701
        84  -9.1704    225.6528    122.5930   3.3681149622e+01   1.4547876643e+01    0.3520321     0.162193 -35.98  0.001831564    1.704    0.413
        85  -9.4851    220.4555    121.8231   3.4195336790e+01   1.5440844044e+01     0.365258    0.1786633 -48.06   0.00183315    2.050    0.512
        86  -9.2505    218.4480    115.7189   3.3192962225e+01   1.6666217207e+01    0.3418618    0.2223347 -31.65   0.00197864    1.277    0.217
        87  -8.7064    195.8012    120.7588   3.7479365771e+01   1.9577669422e+01    0.2382468    0.1576289 -29.43  0.001300247    1.395    0.283
        88  -8.0866    177.3773    117.8076   3.9839787027e+01   2.3348259468e+01     0.204876    0.1176461 -31.01 0.0009492418    1.750    0.429
        89  -9.2480    140.7856    116.2815   4.6766349650e+01   3.0755458444e+01    0.3072658    0.1985265 -35.45  0.001100004    1.599    0.375
        90  -8.8111    204.3011    115.7484   3.5124668927e+01   1.8955292908e+01    0.2363612    0.1668659 -34.49 0.0005930452    1.184    0.155
        91  -8.7297    210.6740    113.5086   3.3754363049e+01   1.8250831144e+01    0.3407423    0.1506338 -36.58  0.001624182    1.846    0.458
        92  -8.0796    194.3996    111.7432   3.5692905030e+01   2.1308028923e+01     0.192877    0.1115328 -30.29 0.0009519323    1.650    0.394
        93  -9.5417    217.3234    107.7093   3.1642995095e+01   1.8048894078e+01    0.4594792    0.1503752 -45.38  0.001860559    2.804    0.643
        94  -9.4276    244.0402    247.1269   5.1926731074e+01  -3.4718131179e+00    0.1634683    0.0784331   0.34  0.001084866    2.014    0.503
        95  -9.6869    154.9082    106.6211   4.1331562670e+01   2.9799613725e+01     0.353468    0.1989202 -38.43  0.001559207    1.686    0.407
        96  -8.6607    211.3226    105.5210   3.1937705254e+01   1.9372577578e+01    0.2317739    0.1383359 -36.79 0.0005374039    1.357    0.263
        97  -8.7248    204.1233    104.4956   3.2669107958e+01   2.0764973512e+01    0.2669052    0.1519405 -24.93  0.001312628    1.908    0.476
        98  -8.3635    188.0679    101.1710   3.4209559635e+01   2.4216476119e+01    0.2548282    0.1601308 -26.35  0.001269464    1.685    0.407
        99 -10.2623    210.1112     98.7856   3.0607444079e+01   2.0607605212e+01    0.2735782    0.1945927 -47.61 0.0004640553    1.235    0.190
       100  -7.8637    174.3130    100.3284   3.6197676058e+01   2.7025712134e+01    0.1369177    0.1079843  -2.72 0.0007043194    1.670    0.401
       101  -8.6779    204.1796     96.8575   3.0937457571e+01   2.1947485079e+01    0.3240878    0.1404442 -47.32  0.001449315    2.118    0.528
       102  -9.7289    128.2488     97.6273   4.4809777799e+01   3.7298320506e+01    0.3253621      0.21205 -34.53  0.001420828    1.667    0.400
       103 -11.2363    248.6822     99.9215   2.6561495661e+01   1.4362504816e+01     1.031315    0.2284415 -41.58  0.001319279    3.256    0.693
       104  -9.4901    164.7404     93.9746   3.6238460456e+01   3.0105158696e+01    0.3151793    0.2133807 -28.10  0.000845485    1.594    0.373
       105  -8.9425    215.3227     92.7855   2.8637266946e+01   2.0607673801e+01    0.2160545    0.1633413 -33.38 0.0001963849    1.138    0.121
       106  -8.5611    209.5461     92.1826   2.9196261800e+01   2.1706493574e+01    0.3094515    0.1080024 -34.31  0.001269336    2.453    0.592
       107  -8.3660    226.8564     87.7929   2.6263921342e+01   1.9380499948e+01    0.2312891    0.1134808 -50.70  0.000891126    1.928    0.481
       108  -8.9500    219.8096     84.5071   2.6295912679e+01   2.1036658114e+01    0.2565616     0.162911 -37.01 0.0009308247    1.249    0.199
       109  -9.4118    230.6612     82.0223   2.4638831813e+01   1.9553176404e+01    0.2303048    0.1572205 -39.59 0.0003607346    1.113    0.101
       110  -7.8267    224.4822     81.5349   2.5150745122e+01   2.0655535030e+01    0.1237128   0.09697305 -40.14 6.290954e-05    1.034    0.033
       111  -7.7856    215.0000     78.9950   2.5578231095e+01   2.2670819639e+01    0.2114479   0.05870919 -34.83 0.0007943188    2.886    0.654
       112  -9.1238    151.4254     88.2739   3.7171513353e+01   3.4007399005e+01    0.2930395    0.1377604 -35.79  0.001078351    2.130    0.531
       113  -7.8944    118.4969     78.4840   4.1529863024e+01   4.3454974466e+01     0.154206    0.1467552 -72.09 0.0008102673    1.031    0.031
       114  -8.7016    221.0041     75.4263   2.4151230193e+01   2.2107987623e+01     0.237815    0.1370876 -42.42 0.0005430472    1.339    0.253
       115  -8.7032    158.1624     74.7435   3.2175730906e+01   3.4902174695e+01    0.3659611    0.1045949 -34.42  0.001112326    3.626    0.724
       116 -10.1377    227.5922     71.8086   2.2717438369e+01   2.1458244072e+01    0.3926901    0.2533652 -63.70   0.00152217    1.643    0.391
       117  -8.0283    128.3001     73.6561   3.7670743011e+01   4.2064623335e+01    0.1613426    0.1123422 -70.84 0.0007037081    1.677    0.404
       118  -8.0797    170.3360     70.8250   2.9166861913e+01   3.2834722096e+01    0.1992282    0.1230643 -28.70   0.00049157    1.713    0.416
       119  -7.8021    204.2795     66.3097   2.3760177217e+01   2.6478913794e+01    0.1945072    0.1431396 -26.74 0.0005796766    1.397    0.284
       120  -7.7496    201.4905     64.4670   2.3610708667e+01   2.7285061762e+01    0.2633631    0.1264727 -48.08 0.0007018697    1.757    0.431
       121  -8.3187    221.0062     62.9405   2.1342420381e+01   2.3807871680e+01    0.2185165    0.1427472 -30.46  0.001299567    1.397    0.284
       122  -8.2028    210.3929     59.2946   2.1475407833e+01   2.6271257837e+01    0.2222892     0.105263 -31.44 0.0006886914    1.879    0.468
       123  -9.4622    218.1902     52.7801   1.9264229897e+01   2.5657741228e+01    0.2376546    0.1352177 -37.02 0.0005337287    1.392    0.282
       124  -8.1297    213.1989     52.4481   1.9607621957e+01   2.6643104079e+01    0.1548331    0.1060705 -75.69 0.0005151666    1.537    0.349
       125  -8.2836    210.1322     48.8858   1.9025212164e+01   2.7696279144e+01    0.2015928    0.1349778 -53.07 0.0009619086    1.218    0.179
       126 -11.3161    230.9087     33.6122   1.4048078597e+01   2.5657979014e+01     0.653505     0.285539 -33.25  0.003517151    1.799    0.444
       127  -8.7669    208.7216     35.8560   1.6009218694e+01   2.9599436814e+01    0.2492768    0.1208791 -46.54 0.0009302607    1.572    0.364
       128  -7.5344    173.3174     35.6417   1.8971945182e+01   3.7224836498e+01    0.1515932   0.08044419 -58.28 0.0007044222    1.756    0.431
       129  -9.5261    236.9305     28.5089   1.2608808501e+01   2.5162816712e+01    0.3345098   0.04605526 -43.83  0.001328351    3.266    0.694
       130 -11.8303    243.2788    100.9596   2.7305011077e+01   1.5004196829e+01     2.037645    0.3657506 -43.82  0.006661489    4.951    0.798
       131  -8.2566    189.6800     20.3237   1.3431525513e+01   3.5369711129e+01    0.1410613   0.07079116 -56.79 0.0005354524    1.675    0.403
       132  -8.9381    195.8187    244.4845   5.9032267725e+01   1.0383280322e+00    0.1856135    0.1027428 -20.73  0.001224747    1.658    0.397
       133  -8.5119    230.5136     17.9444   1.0626445497e+01   2.7458696730e+01    0.1793147   0.08714361 -34.69  0.001032458    1.591    0.371
       134  -8.6960    249.1131     16.6318   9.5860057539e+00   2.4343384189e+01    0.1630806    0.1308805 -25.54 0.0006133282    1.462    0.316
       135  -7.8882    201.3683    240.2974   5.7542161297e+01   1.0171188861e+00    0.1126893   0.06258123  -3.55 0.0007030651    1.730    0.422
       136  -8.3722    169.7483    215.4941   5.9656577972e+01   7.7794390838e+00    0.2211086    0.1443772 -54.61  0.001282077    2.202    0.546
       137  -8.8707    197.9489    204.2552   5.2831431790e+01   6.1320430323e+00    0.2237947    0.1954181 -56.80  0.001572692    1.870    0.465
