#   1 NUMBER                 Running object number                                     
#   2 MAG_AUTO               Kron-like elliptical aperture magnitude                    [mag]
#   3 X_IMAGE                Object position along x                                    [pixel]
#   4 Y_IMAGE                Object position along y                                    [pixel]
#   5 X_WORLD                Barycenter position along world x axis                     [deg]
#   6 Y_WORLD                Barycenter position along world y axis                     [deg]
#   7 A_WORLD                Profile RMS along major axis (world units)                 [deg]
#   8 B_WORLD                Profile RMS along minor axis (world units)                 [deg]
#   9 THETA_WORLD            Position angle (CCW/world-x)                               [deg]
#  10 FWHM_WORLD             FWHM assuming a gaussian core                              [deg]
#  11 ELONGATION             A_IMAGE/B_IMAGE                                           
#  12 ELLIPTICITY            1 - B_IMAGE/A_IMAGE                                       
         1 -10.4470     24.8725     16.7741   1.1216365622e+02   7.0253544309e+01    0.3565809    0.3364504  -6.64  0.001663189    1.373    0.272
         2  -8.9819     31.5872     10.6994   1.0597680358e+02   7.0464174841e+01    0.3580247    0.1744218 -24.01  0.001681769    2.105    0.525
         3  -9.6952     64.0606     14.3515   9.4044747782e+01   6.5337132409e+01    0.4032111    0.2365377  26.36 0.0007641127    1.796    0.443
         4  -9.3873     74.5097     13.3938   8.9915542110e+01   6.3617881538e+01    0.3541162    0.2330279  -6.37  0.001265594    1.562    0.360
         5  -8.8313     80.1009     12.5703   8.7712494993e+01   6.2663295363e+01    0.2618765    0.2348723 -31.15  0.001273941    1.282    0.220
         6  -8.2795     88.4605     13.2726   8.5495359472e+01   6.0932842866e+01    0.3111813    0.1557573  32.76  0.001406988    2.164    0.538
         7  -8.7296     97.3669     11.9135   8.2404937586e+01   5.9224241717e+01    0.2432581    0.1708146  41.59 0.0006023563    1.309    0.236
         8  -7.9334    156.7780      9.9711   6.9673119546e+01   4.5157652300e+01    0.4066297   0.07308604 -42.76 0.0009584934    7.112    0.859
         9  -8.2391    105.9087     10.8740   7.9784569149e+01   5.7462048379e+01    0.2151966    0.1629048  25.96 0.0005126606    1.279    0.218
        10  -8.3720    118.3500      8.7813   7.6097275753e+01   5.4808095331e+01    0.3454316     0.131009  -8.77  0.001114623    4.342    0.770
        11 -10.6870     20.0806      8.8563   1.1080440047e+02   7.1966255295e+01    0.2928638    0.1873627   5.76 0.0004434533    1.636    0.389
        12  -8.2776      2.3697      8.1747   1.2011839757e+02   7.3510136879e+01     0.192719    0.1459349 -36.85  0.001475438    1.110    0.099
        13  -7.9886     39.6391      8.1979   1.0093821792e+02   6.9813024054e+01    0.1693733   0.09112118 -23.79 0.0005611894    1.705    0.413
        14  -8.1918    137.4489      7.5079   7.1935010443e+01   5.0290077406e+01    0.1369245    0.1249503  50.07 5.049969e-05    1.015    0.014
        15  -8.3412     77.0609      6.8060   8.5933992535e+01   6.3879809141e+01    0.2134241    0.1162472  30.40 0.0006413994    1.871    0.465
        16  -7.6632     84.3596      6.3517   8.3503280086e+01   6.2496799844e+01    0.1437469   0.08336829  23.31 0.0007025172    1.861    0.463
        17  -8.8870     56.8854      4.5066   9.1793911178e+01   6.7711923770e+01    0.3412553    0.1768118  18.54  0.001371008    2.450    0.592
        18  -9.8883     49.0902      4.6482   9.4970779143e+01   6.8922195201e+01    0.2457096    0.1727103   2.78 0.0003731388    1.307    0.235
        19  -9.1953    235.7255      3.8168   5.9447310755e+01   2.5848777758e+01    0.2971104    0.2171105 -33.32  0.001452767    1.387    0.279
        20  -8.6967    111.0127      4.5965   7.5963865000e+01   5.6902727188e+01    0.2281404    0.1865387  -5.01 0.0002127042    1.253    0.202
        21  -8.6915     68.6543      4.4682   8.7530012109e+01   6.5688648172e+01    0.2758349    0.1653152  -2.06  0.001473829    1.788    0.441
        22  -8.6511    125.3520      3.3582   7.2554570493e+01   5.3627563029e+01     0.229758    0.1788239  35.27 0.0005928944    1.231    0.187
        23  -7.9363     13.7525      4.4480   1.1195401169e+02   7.3222077611e+01    0.1416467   0.09013589   1.35 0.0009374704    1.601    0.375
        24  -8.3579    153.8201      3.2262   6.7829148811e+01   4.6537524718e+01    0.1884328    0.1425742  43.48  0.000341083    1.314    0.239
        25  -8.1730    182.0955      2.0457   6.3883697024e+01   3.9363900337e+01    0.2057388    0.1822661  89.78 0.0004397864    1.024    0.023
        26  -8.0087    143.1000      2.1674   6.9067028213e+01   4.9347142812e+01    0.2032285     0.162709  45.67 0.0003437084    1.184    0.155
        27  -8.1932    105.1487      1.6561   7.6023555266e+01   5.8493145521e+01    0.1729908     0.164731 -17.99  0.001120107    1.174    0.149
        28  -7.6592      3.1977      1.3038   1.1636159570e+02   7.4552988159e+01    0.1210173    0.0879581  20.05 0.0002497166    1.622    0.383
        29  -8.7934    246.9883    226.3203   1.0772150526e+02  -7.5506950814e+00    0.3310395    0.2037143 -18.12  0.002088798    1.657    0.396
        30  -8.5989    249.6472    245.8388   1.1039711927e+02  -9.9764275920e+00    0.2573242   0.09590247 -25.94  0.001311859    3.121    0.680
        31  -9.0148    212.2304    250.1837   1.1713098942e+02  -5.0225922686e+00    0.2343603    0.1318708  44.87  0.001431156    1.606    0.377
        32  -9.8560    200.2231    249.1696   1.1900613298e+02  -3.0796060585e+00     0.361818    0.1988436  26.14  0.001463115    1.816    0.449
        33  -8.7635    151.0404    249.7475   1.2754428290e+02   4.5558660137e+00     0.208214    0.1323518  33.11 0.0009347143    1.512    0.339
        34  -8.0306    123.7314    250.5689   1.3237121854e+02   8.6666621176e+00    0.2107164   0.09162133  38.99  0.001092906    2.026    0.506
        35  -7.3402     58.9982    250.2499   1.4326207859e+02   1.7798808753e+01    0.1339317   0.07053961  47.04 0.0003635408    1.511    0.338
        36  -8.0788    229.4599    226.8360   1.1070674164e+02  -4.9610443488e+00    0.2547306    0.1047672 -24.21  0.001141852    3.327    0.699
        37  -8.6400    186.5310    227.0124   1.1822750354e+02   1.9669785099e+00    0.2439416    0.1696273  21.13  0.001459205    1.524    0.344
        38  -7.6167     36.8483    228.1336   1.4554097137e+02   2.4314648186e+01    0.1313601    0.1105746  78.18  0.000539084    1.301    0.232
        39  -7.8705    237.3229    225.4127   1.0916003617e+02  -6.0013714507e+00    0.2075804      0.09216  35.94 0.0005747079    1.912    0.477
        40  -7.3187     82.3042    225.6608   1.3731345899e+02   1.8935143709e+01    0.1249126   0.07099757  68.38 0.0004539533    1.675    0.403
        41  -7.4025    223.6889    224.6639   1.1133384666e+02  -3.7964171377e+00    0.1235653   0.07910068  12.18 0.0007044643    1.684    0.406
        42  -7.6555    200.3263    223.2887   1.1518965156e+02   1.7689955700e-01    0.1236975    0.0833502  17.28 0.0003521126    1.612    0.380
        43  -7.3160    206.5563    222.4559   1.1395414188e+02  -7.4415923743e-01    0.1242218   0.09830482  22.70 0.0001109068    1.100    0.091
        44  -8.8184    239.3789    219.9804   1.0791580868e+02  -5.6816178117e+00    0.2879414    0.1668527 -19.95  0.001451771    1.849    0.459
        45  -7.8149     51.7612    221.4623   1.4248949513e+02   2.3767169996e+01    0.1370363    0.1004504  38.74 0.0006252008    1.612    0.380
        46  -8.3729    182.3419    219.7950   1.1790144995e+02   3.7080970876e+00    0.2582163    0.1442352  33.65  0.000930796    1.663    0.399
        47  -7.8396    130.3117    220.3213   1.2774184135e+02   1.2474585911e+01    0.1147815    0.0958036  12.95 0.0004250901    1.651    0.394
        48  -7.3632    227.5099    217.4846   1.0949726522e+02  -3.5164529819e+00    0.1229429   0.09743949  18.20 0.0001553805    1.046    0.044
        49  -7.7300    203.9892    216.4868   1.1344981804e+02   4.8983940503e-01    0.1771128   0.09159531  24.30 0.0008039552    2.396    0.583
        50  -8.5818    193.6771    215.4658   1.1514814875e+02   2.3908938592e+00    0.2751628    0.1732553  16.99  0.001047612    1.996    0.499
        51  -8.2408    248.4883    214.5220   1.0548220658e+02  -6.4320211497e+00    0.1864341    0.1640827 -36.86 0.0006413069    1.583    0.368
        52  -8.5277    248.5137    211.5172   1.0495495195e+02  -6.0824072419e+00    0.2228093    0.1567586  29.29 0.0008356221    1.234    0.190
        53  -7.1668    219.3189    215.3348   1.1055034174e+02  -1.9127080122e+00    0.1277199   0.08337259  11.85 0.0007048994    1.699    0.412
        54  -7.3079     83.9784    215.2173   1.3599609558e+02   2.0621402937e+01    0.1545353    0.0831401  44.96 0.0004187137    1.613    0.380
        55  -8.2843    232.0452    212.4515   1.0786727143e+02  -3.6128322433e+00    0.2343359    0.1517466  -6.90  0.001332861    1.721    0.419
        56  -7.9451    122.0465    213.5041   1.2846552974e+02   1.5032429966e+01    0.1963656    0.1079988  43.25  0.001026838    1.577    0.366
        57  -7.8864     54.3009    210.9508   1.4120581415e+02   2.5451141975e+01    0.1701478    0.1248233 -20.29 0.0008993177    3.490    0.713
        58  -7.6474    186.4583    210.4434   1.1566829178e+02   4.3857758712e+00    0.1285467    0.1083023  30.60 0.0002032333    1.046    0.044
        59  -7.4973    132.6816    209.6785   1.2588444654e+02   1.3935101452e+01    0.1199571   0.09984068   9.95 0.0004047657    1.666    0.400
        60  -7.8474    163.0033    207.9250   1.1971791877e+02   8.9403537861e+00     0.194584    0.1498583  12.88 0.0006663493    1.635    0.388
        61  -8.0792    236.0226    204.9921   1.0588343573e+02  -3.3081821979e+00    0.1985344    0.1284933   9.69 0.0008536455    1.657    0.396
        62  -9.4147    227.7882    202.3014   1.0681488504e+02  -1.5964755771e+00    0.4166663    0.2360479 -12.28  0.001702666    2.342    0.573
        63  -7.9059    117.9520    205.0297   1.2817684147e+02   1.7263786695e+01    0.1831737    0.1562252  12.32 0.0006649928    1.654    0.395
        64  -7.3097    175.7131    204.2934   1.1669650393e+02   7.2580908868e+00    0.1226411    0.0978931  70.36 0.0002328101    1.543    0.352
        65  -7.7427    246.8372    204.8388   1.0404666355e+02  -5.0163500006e+00    0.1877026    0.1367993   7.35  0.001193176    1.238    0.192
        66  -8.0992    250.4658    199.1389   1.0241596968e+02  -4.8820903040e+00     0.219294    0.1088279 -25.54 0.0009344178    2.038    0.509
        67  -8.1729    195.5416    200.2608   1.1226397286e+02   4.3181606826e+00    0.2725961    0.1427178  51.50  0.001276419    2.042    0.510
        68  -7.8546    185.0054    200.0208   1.1420860010e+02   6.2608615691e+00    0.2089513    0.1501831  13.04 0.0009750833    1.695    0.410
        69  -8.0713    243.5990    197.8178   1.0330810355e+02  -3.6170549997e+00    0.2148419    0.1098936 -26.09 0.0007894531    2.007    0.502
        70  -8.1341    166.0459    197.4922   1.1745648622e+02   1.0146399111e+01    0.2080976    0.1178892  42.53  0.001022355    1.562    0.360
        71  -7.4011     80.6881    196.6794   1.3468010425e+02   2.4723519915e+01    0.1096643    0.0994893 -32.48 0.0004839809    1.650    0.394
        72  -8.3253    193.1187    194.0264   1.1162127030e+02   5.7287048789e+00    0.2896542    0.1982702 -14.13  0.001498778    1.895    0.472
        73  -7.9699    215.7468    205.5536   1.0950535519e+02   5.7187769548e-05    0.2392772    0.1051794  37.45   0.00110884    2.049    0.512
        74  -7.4044    125.3010    193.3000   1.2504945326e+02   1.8251535600e+01    0.1212046    0.1055828   4.95 0.0003576166    1.583    0.368
        75  -7.0427    126.3923    205.2984   1.2652914425e+02   1.5797737417e+01    0.1247854    0.1000883  12.79 0.0007009394    1.797    0.443
        76  -7.8549     90.0191    192.1667   1.3223273362e+02   2.4255464946e+01    0.1849871    0.1489018  12.68 0.0008265548    1.972    0.493
        77  -8.0311    246.1875    190.1004   1.0143607282e+02  -3.0368445619e+00    0.1873069    0.1419314   7.13 0.0004005345    1.201    0.167
        78  -8.0992    224.7218    189.4184   1.0498258921e+02   7.1523017198e-01    0.2191749    0.1480865  -4.27  0.001103111    1.711    0.415
        79  -7.5569    161.7069    189.6474   1.1700247588e+02   1.2324683671e+01    0.1333773     0.105215   3.79 0.0004587444    1.681    0.405
        80  -7.7330     64.8096    189.4257   1.3714487950e+02   2.8431658229e+01    0.1530373    0.1162478  31.92 0.0006347162    1.676    0.403
        81  -7.2270     45.3266    187.3243   1.4092597221e+02   3.1322280265e+01    0.1077029   0.08806658 -50.81 0.0002809244    1.692    0.409
        82  -7.4877    148.7145    185.6614   1.1898325981e+02   1.5487992090e+01    0.1309031    0.1078921   0.72 0.0007016215    1.632    0.387
        83  -8.1933    181.4442    184.0387   1.1206486652e+02   9.5663571963e+00    0.1727868    0.1169641 -10.53 1.230798e-05    2.195    0.544
        84  -7.8679    250.2418    181.9768   9.9206706371e+01  -2.6307540953e+00    0.1767878    0.1431929  -9.45 0.0005662889    1.100    0.091
        85  -7.5732    165.4362    182.4873   1.1499064106e+02   1.2909403056e+01    0.1368293    0.1258823  44.00 0.0001236728    1.009    0.008
        86  -7.9135    155.8231    181.7735   1.1683903999e+02   1.4878821313e+01    0.2222866    0.1511914   0.85 0.0009422036    2.772    0.639
        87  -7.6929    130.5951    183.1592   1.2237826456e+02   1.9303185667e+01    0.1793209    0.1279194 -43.32 0.0009050968    1.657    0.397
        88  -7.6981     96.5483    178.4601   1.2903247504e+02   2.6096851880e+01    0.1313304     0.117142  76.11 -1.593912e-05    1.064    0.060
        89  -7.2183     68.7052    178.3047   1.3508695574e+02   3.0269275050e+01    0.1320822   0.08218145  72.30 0.0004507745    1.580    0.367
        90  -7.6066    173.3474    177.6786   1.1249949707e+02   1.2249080775e+01    0.1410983    0.1086897  78.73 0.0007049324    1.738    0.424
        91  -7.4015    121.5175    177.4895   1.2342121837e+02   2.2076961181e+01    0.1381942    0.1228213  68.41 3.863742e-05    1.009    0.008
        92  -8.0409    148.5620    174.8465   1.1713093597e+02   1.7594244375e+01    0.3225338    0.1600228  30.75  0.001222842    2.786    0.641
        93  -7.7194     46.9688    175.5021   1.3946226871e+02   3.3651267839e+01    0.1439061    0.1100972  -8.57 0.0008096674    2.534    0.605
        94  -8.0017    184.2318    171.5477   1.0913013176e+02   1.1201773516e+01    0.2070825    0.1248821  33.79 0.0009495926    1.723    0.420
        95  -7.9256     15.0104    170.1769   1.4572794909e+02   3.8133888918e+01     0.164521     0.122294 -40.66  0.001084092    2.075    0.518
        96  -7.7921    150.4439    165.7936   1.1504683604e+02   1.9017627595e+01    0.1889803    0.1374431 -35.45  0.000679036    1.605    0.377
        97  -8.0055    168.8084    163.5680   1.1069298138e+02   1.5769717039e+01    0.2786638    0.1326798  40.79  0.001121986    2.067    0.516
        98  -7.8870    122.3933    162.8637   1.2074773116e+02   2.4992837385e+01    0.2409473    0.1597012  40.09  0.001178908    1.529    0.346
        99  -7.4607    160.2321    160.0052   1.1179455003e+02   1.8204514169e+01    0.1849918    0.1216284 -46.29  0.000385144    1.596    0.373
       100  -8.1179    177.0014    167.0435   1.0969514870e+02   1.3461274550e+01    0.2263915    0.1725724   8.40 0.0007848334    1.679    0.405
       101  -7.9952    198.8196    166.9820   1.0535101720e+02   9.0956471392e+00    0.2322285    0.1581257  -4.91  0.001071128    2.033    0.508
       102  -7.3869    169.3574    151.2959   1.0802579340e+02   1.8026587315e+01    0.1508256    0.1157324  11.55 0.0007033116    1.699    0.411
       103  -7.7847    133.1772    147.7883   1.1537182567e+02   2.6184313842e+01    0.1959774    0.1782412  -8.04  0.001057294    1.347    0.258
       104  -9.3425     67.3117    144.6292   1.3089027408e+02   3.8039224400e+01     0.540286    0.2591278  58.68  0.002315743    2.504    0.601
       105  -7.8470    214.4071    145.7847   9.7866376619e+01   9.5459734618e+00     0.205965    0.1321512 -23.90 0.0005859494    1.691    0.409
       106  -7.6673    125.3184    135.2825   1.1461275809e+02   3.0476551960e+01    0.1422538    0.1203638  -2.79 0.0002339668    1.584    0.369
       107  -7.9547     55.3823    135.2810   1.3249663265e+02   4.1765002266e+01    0.2002944    0.1429356 -41.29  0.001100316    1.737    0.424
       108  -8.6155      4.7687    134.0027   1.4507987268e+02   4.6905600059e+01    0.2247929    0.1518926 -20.82  0.001384651    2.460    0.593
       109  -8.4864     24.1124    129.7397   1.3982521778e+02   4.6339567373e+01    0.3395965      0.16933 -35.89  0.001509091    3.528    0.717
       110  -9.4597    236.9816    127.6508   8.9815953355e+01   7.8929456788e+00    0.3045921    0.2492767  37.98 0.0006747937    1.281    0.220
       111  -7.8159     67.3751    127.3073   1.2801321020e+02   4.2088972161e+01    0.1350636    0.1015709 -31.57 0.0007030275    1.774    0.436
       112  -8.1253    133.1180    124.6679   1.1028712227e+02   3.1241669295e+01    0.3142285     0.192215  21.18  0.001143905    2.890    0.654
       113  -7.7096     84.0229    122.2860   1.2253653080e+02   4.0829904269e+01    0.2008398    0.1191956  11.04  0.000678046    3.970    0.748
       114  -9.4086     13.6733    119.7134   1.4137464698e+02   4.9489163638e+01    0.3205349    0.1860833 -38.28  0.001790166    2.291    0.563
       115  -7.7714     99.3473    119.3267   1.1774700268e+02   3.8966424313e+01    0.1466472    0.1155114 -18.44 0.0007049763    1.751    0.429
       116  -7.6427    119.0774    119.0000   1.1246722485e+02   3.5349020198e+01    0.2409505   0.08558777  43.69 0.0007949556    2.891    0.654
       117  -8.0439    183.4387    113.1644   9.6036838338e+01   2.2321078571e+01     0.234435     0.184513  60.45 0.0002711976    1.345    0.257
       118  -9.0949      2.1432    110.2221   1.4341140278e+02   5.2424404313e+01    0.3516999    0.1053741 -55.74  0.001609936    2.715    0.632
       119  -7.5932    142.6444    111.6948   1.0473865896e+02   3.1998247538e+01    0.1574806    0.1247144   6.68 0.0007040747    1.717    0.418
       120  -8.0107    133.9817    106.5013   1.0550804737e+02   3.5002756087e+01    0.2822047    0.2061573  -5.61  0.001186634    2.123    0.529
       121  -8.1495    240.4932    108.4721   8.4749059426e+01   1.0233244645e+01    0.1418872    0.1292834 -28.35 5.349168e-05    1.002    0.002
       122  -7.7892    124.5140    106.9784   1.0804911020e+02   3.6910963499e+01    0.2005961    0.1328365 -22.45  0.000457244    2.211    0.548
       123  -9.7126     15.0789    104.9257   1.3912076609e+02   5.2770185898e+01    0.4422354    0.2302796 -36.13  0.002279812    2.567    0.610
       124  -8.0308     66.9616    104.7470   1.2368084946e+02   4.7447783345e+01    0.1666605    0.1201786  35.21 0.0008890906    1.579    0.367
       125  -8.0296     94.1370    103.6109   1.1547111465e+02   4.3485037262e+01     0.202266    0.1410975  26.51 0.0009524871    1.792    0.442
       126  -7.4453    245.0000    101.0267   8.2297087473e+01   1.0454380691e+01     0.242748   0.07356584 -33.60 0.0008070747    2.975    0.664
       127  -8.6723      7.6996     96.6733   1.4016323298e+02   5.5143959340e+01    0.1930044    0.1310972 -54.36 0.0008004274    1.330    0.248
       128  -8.4718     11.0468     95.7502   1.3902320384e+02   5.5138800140e+01    0.2137395    0.1379424 -81.50   0.00112758    1.335    0.251
       129  -8.5815     18.6872     94.3289   1.3645991054e+02   5.4928597330e+01    0.2299055    0.1593856  71.62 0.0009833229    1.638    0.390
       130  -9.5892     15.4777     92.9805   1.3724231943e+02   5.5466707193e+01    0.2788925    0.1598704 -60.72  0.001638071    1.360    0.265
       131  -8.9220     44.0934     92.3063   1.2805667548e+02   5.3112789646e+01    0.3201456    0.2014916 -21.41  0.001585858    2.372    0.578
       132  -7.7138     53.2889     92.6438   1.2520049519e+02   5.1999762253e+01     0.133767   0.09698014  86.79 0.0006734317    1.680    0.405
       133  -7.9427     96.4794     90.6195   1.1136657585e+02   4.5976797342e+01    0.3211405    0.2187398  -0.84  0.001323252    2.590    0.614
       134  -8.6716     66.7380     86.1592   1.1932454954e+02   5.1736631470e+01    0.4229197    0.2270785  15.60  0.001651851    3.411    0.707
       135  -9.5782     36.0365     81.7680   1.2842742064e+02   5.6320278397e+01    0.5353844     0.258883 -32.16  0.002325027    2.957    0.662
       136  -7.8001    126.0173     84.4927   1.0133548231e+02   4.1347943754e+01     0.219198    0.1314344  25.45 0.0008104627    2.567    0.610
       137  -8.3908     88.2715     79.0312   1.1050271022e+02   4.9932709144e+01    0.3935109    0.2080571  20.25  0.001347238    3.799    0.737
       138  -9.8151      7.7136     77.7705   1.3726222057e+02   5.9377133798e+01    0.4363206    0.1976945 -38.74  0.002254674    2.407    0.584
       139  -8.7311     48.9088     76.9932   1.2288564621e+02   5.6038133104e+01    0.3156432    0.2622985 -15.22  0.001946619    1.384    0.277
       140  -7.3113    120.2879     76.2774   1.0033578353e+02   4.4239172637e+01    0.1458668     0.118355   3.99 0.0002005877    1.517    0.341
       141  -8.2726     29.6824     68.6511   1.2761303337e+02   5.9800878575e+01    0.3112994    0.1481988 -32.54  0.001427368    2.657    0.624
       142  -9.5778     24.1974     72.8364   1.3056242436e+02   5.9340113571e+01    0.4438622    0.1919611 -45.02  0.001903777    2.076    0.518
       143  -8.2065     23.4659     69.4908   1.3007614177e+02   6.0131103925e+01    0.2035405    0.1624848 -57.05 9.370951e-05    1.011    0.011
       144  -7.7446     74.9337     74.5209   1.1340969450e+02   5.3077696045e+01     0.187938     0.138934  32.76 0.0004481498    1.509    0.337
       145  -7.7071    184.4851     78.0170   8.6252984139e+01   2.8513411049e+01    0.2296017     0.150266 -34.99 0.0004108339    1.507    0.336
       146  -8.6230     42.5361     68.6758   1.2294342210e+02   5.8555496956e+01    0.3553483    0.2049682 -22.27  0.001692222    2.467    0.595
       147  -8.0910     80.4880     68.0016   1.0956718659e+02   5.3546651673e+01    0.2926644    0.1801817 -25.08  0.001040995    2.051    0.512
       148  -8.5708     84.1785     63.9856   1.0704844892e+02   5.3729042898e+01    0.3271094    0.2146552   3.03   0.00141741    2.454    0.593
       149  -8.5578     62.0000     66.9741   1.1551067555e+02   5.6554658813e+01     0.393963    0.1460167 -44.32  0.001239925    2.426    0.588
       150  -9.5807     65.5483     61.1049   1.1240606617e+02   5.7260831936e+01    0.4169146    0.3140298 -37.68 0.0004710065    1.189    0.159
       151  -7.8593    106.2134     67.5455   1.0145808883e+02   4.8892866525e+01    0.2067252     0.137683  32.04 0.0008701322    1.714    0.416
       152  -9.5469     17.7063     62.1616   1.3051878504e+02   6.2142809140e+01    0.4307425    0.2004519 -47.74  0.001704584    1.725    0.420
       153  -8.8567     52.0198     61.0098   1.1725490629e+02   5.9089354892e+01    0.3145782    0.1903844 -38.54  0.001658311    1.519    0.342
       154  -7.8394     49.7066     58.7046   1.1739314512e+02   5.9843398970e+01    0.1743792     0.147841 -69.54 0.0004477008    1.358    0.264
       155 -10.7141     38.4519     57.6062   1.2133044735e+02   6.1319381249e+01    0.4705905    0.2767145 -19.12  0.002367856    2.300    0.565
       156  -9.0768      1.9872     45.6524   1.3284446193e+02   6.6535670357e+01    0.2574321    0.2214318 -16.91  0.001182805    1.331    0.249
       157  -9.3521      1.8753     55.7761   1.3519873651e+02   6.4443880092e+01    0.4775531    0.2526271 -57.20  0.002927105    1.370    0.270
       158 -10.2634      9.5817     47.8974   1.3022091401e+02   6.5658831671e+01    0.6882121    0.2708149 -39.66  0.001926731    2.305    0.566
       159  -7.8843     99.4231     54.2864   9.8883797368e+01   5.2718111760e+01    0.2723421    0.1337418 -34.88  0.001124529    2.014    0.504
       160  -9.9078    246.3953     52.3621   7.0257099014e+01   1.7412570801e+01    0.3223248    0.2261595 -46.22 0.0001670008    1.259    0.206
       161  -9.2657     74.9375     50.5522   1.0544481820e+02   5.7848023535e+01    0.3737054    0.2521864 -10.35 0.0004809652    1.899    0.473
       162  -7.9874    118.2940     51.1141   9.2393600013e+01   4.9265156057e+01    0.2457334    0.1930567  72.18  0.001225426    1.547    0.353
       163 -10.2581     45.4393     48.9990   1.1584985984e+02   6.2286967115e+01    0.2376322    0.1976388  -8.18 0.0003693335    1.245    0.197
       164  -9.6969     24.2775     47.3604   1.2392423257e+02   6.4718096614e+01    0.5082694    0.2542012   0.67  0.002397845    3.233    0.691
       165  -8.4876     31.8129     44.1425   1.1974428990e+02   6.4681659162e+01    0.2155851    0.1655575  -5.72 0.0007084899    1.415    0.293
       166  -8.1236    250.5039     48.4806   6.8872520329e+01   1.7018131269e+01    0.1363239    0.1193459 -53.15 3.561531e-05    1.014    0.014
       167  -8.4087    106.9937     48.1093   9.4404988700e+01   5.2224329250e+01    0.2085366    0.1961937   0.64 0.0002664023    1.015    0.015
       168  -7.9530     52.9736     47.0206   1.1221050264e+02   6.1738747999e+01    0.2267902    0.1695153  28.02   0.00135702    1.486    0.327
       169  -8.7550     93.2147     42.3069   9.6295055360e+01   5.5982387761e+01    0.2666575    0.1961335  13.72 0.0009751076    1.560    0.359
       170  -9.5293     39.4856     41.5122   1.1562516705e+02   6.4395994032e+01    0.3950619    0.2091054   0.75  0.001686135    3.490    0.713
       171  -9.8711     17.1353     39.1030   1.2441905601e+02   6.6910918203e+01    0.5025885      0.15216 -36.78  0.001953214    3.766    0.734
       172 -10.1702     83.2068     40.0200   9.8600013519e+01   5.8245657197e+01    0.2617379    0.2215298  18.75 -0.000430966    1.177    0.150
       173  -8.8656      3.8719     40.1070   1.3059393181e+02   6.7556213126e+01    0.3601567    0.1144688 -67.34  0.001487912    3.402    0.706
       174  -7.2100    123.3045     40.3466   8.7183726056e+01   4.9804758461e+01    0.1523004     0.108733  17.47 0.0005070124    1.693    0.409
       175  -8.7851     92.0083     37.1742   9.4640785507e+01   5.7030927090e+01    0.3118871    0.2007301  31.72   0.00107374    1.656    0.396
       176  -9.3753     96.0118     33.2883   9.1853977022e+01   5.6812722443e+01    0.3054874     0.236759   5.10 0.0003504033    1.366    0.268
       177  -8.5634    106.0097     36.8088   9.0378028344e+01   5.4203694777e+01      0.34964    0.1963589  36.56  0.001284748    1.912    0.477
       178  -9.5450     54.7644     36.5823   1.0753140689e+02   6.3392523187e+01     0.289667    0.2174543  11.88  0.001111614    1.423    0.297
       179  -9.2543     37.3395     35.7255   1.1437670272e+02   6.5701764126e+01      0.34987    0.2217836   2.07   0.00180397    1.959    0.489
       180  -8.4747     70.2916     35.7253   1.0131868388e+02   6.1184829966e+01    0.2669766    0.1498888  19.00  0.001176252    2.548    0.608
       181  -9.3832      7.2998     34.3198   1.2735975545e+02   6.8498225652e+01    0.3336622    0.2230322 -21.01   0.00226175    1.524    0.344
       182  -8.6059     77.2184     34.4089   9.8337972903e+01   6.0216440861e+01    0.2954605    0.2258547  49.51  0.001510498    1.513    0.339
       183  -7.4823    143.9643     33.9437   8.0225773497e+01   4.5685877891e+01    0.1760251     0.158545  55.74 0.0003236538    1.072    0.067
       184  -7.6265     19.0000     32.8996   1.2149045933e+02   6.7953083315e+01    0.1972048   0.05396287 -54.08 0.0008067738    2.973    0.664
       185  -7.7896     81.7963     32.2014   9.5872795269e+01   5.9731754380e+01    0.1857105    0.1428059   0.08 0.0003571931    1.338    0.253
       186  -7.4876    155.4113     31.2877   7.7106339394e+01   4.3122729979e+01    0.1603393     0.101419  35.33 0.0003233091    1.819    0.450
       187  -8.2267    127.8472     30.3854   8.2397717664e+01   5.0110745866e+01    0.2140428    0.1791011  15.27 0.0002692871    1.257    0.204
       188  -8.2395    112.2602     30.1812   8.6094343670e+01   5.3761608377e+01    0.3785209    0.1930654  30.89  0.001495857    2.551    0.608
       189  -7.5246    105.2859     31.3386   8.8412129899e+01   5.5141727221e+01    0.1441673    0.1019058  14.25 0.0007016802    1.633    0.388
       190  -9.0085      1.5644     29.8520   1.2866603523e+02   6.9678926892e+01    0.2472596    0.1011429 -54.26   0.00138001    1.745    0.427
       191  -7.8616    153.1770     26.8988   7.6019439165e+01   4.4240077534e+01    0.2009976     0.163743  26.87  0.000604979    1.342    0.255
       192  -9.2893     84.8071     21.8592   9.0444891953e+01   6.0616348494e+01    0.5524786    0.2201783  40.72  0.002102487    2.539    0.606
       193 -10.0054     72.5426     25.6781   9.6222907199e+01   6.2348538661e+01    0.3716499    0.2189228  35.55 0.0008260497    1.726    0.421
       194  -8.7336     77.0130     24.2172   9.4033321010e+01   6.1761537499e+01    0.3019703    0.1896536  42.04 0.0007010846    1.600    0.375
       195  -8.4281     61.9904     27.0079   1.0067809013e+02   6.3892336780e+01    0.2080318    0.1395573  -2.12  0.000656408    1.700    0.412
       196  -8.7951     57.7675     25.1610   1.0149069113e+02   6.4821566972e+01    0.2889938    0.1940785  30.92 0.0009300273    1.539    0.350
       197  -8.8510     48.0453     25.8590   1.0574620389e+02   6.6093349028e+01    0.3125204    0.1773856  20.75  0.001267947    2.082    0.520
       198  -8.0887    102.8096     25.1623   8.6577584682e+01   5.6500355254e+01     0.196391    0.1491363  24.24 0.0007881845    1.326    0.246
       199  -9.3581     65.3567     23.4097   9.7803314191e+01   6.3888570669e+01    0.2794214    0.1888639  54.83  0.001521357    1.999    0.500
       200  -7.6345    130.9657     21.7609   7.8482868207e+01   5.0413461629e+01    0.1839562    0.1123642  58.86            0    1.548    0.354
       201  -8.5628     92.3370     20.8934   8.7734164364e+01   5.9240210991e+01    0.2394368    0.2007624  -4.61  0.001085838    1.127    0.113
       202  -9.1398    207.6352    247.5417   1.1752818889e+02  -4.0254390427e+00    0.2571311    0.1809728 -59.72  0.001585568    2.574    0.611
       203  -9.2426    184.5555    249.7760   1.2175569558e+02  -7.2146415350e-01    0.3344054   0.07509847  42.30   0.00127823    3.461    0.711
       204  -9.8606      8.7175     20.1104   1.2170905192e+02   7.1042876108e+01     0.223472     0.198648   7.57 0.0003607059    1.379    0.275
       205  -8.5692     12.3496     18.3499   1.1914183404e+02   7.1087984664e+01    0.2142426    0.1410848 -19.85 0.0007755404    1.407    0.289
       206  -7.7840    116.8614     19.8779   8.0872804343e+01   5.3990696701e+01    0.1805686    0.1588252 -51.67  0.000357606    1.305    0.234
       207  -7.7947     45.7242     20.0406   1.0409202221e+02   6.7310198396e+01    0.1757748    0.1330737 -23.60 0.0005916976    1.109    0.098
       208  -7.2425    146.6730     19.2837   7.4542676702e+01   4.6778640705e+01    0.1429914    0.1058945 -69.31 0.0002560024    1.604    0.376
       209  -7.3988    111.6585     19.6943   8.2043689409e+01   5.5207156073e+01    0.1476607   0.09529261  27.38 0.0004516802    1.684    0.406
       210  -8.2295    127.8816     16.9724   7.7310827062e+01   5.1697382752e+01    0.2073805     0.189799  50.14 0.0004008029    1.039    0.038
       211  -8.3987    243.1391    244.5176   1.1123338368e+02  -8.9341913954e+00    0.1935294    0.1333509  -6.81  0.001123137    1.435    0.303
       212  -7.6068     73.5613    247.5032   1.4066441950e+02   1.6362423856e+01    0.1102921   0.08136082  63.34 0.0002437658    1.029    0.029
       213  -7.5863     32.4280    247.4757   1.4735225480e+02   2.1432639336e+01    0.1052763   0.07026058  68.14 0.0001027923    1.021    0.020
       214  -8.0029    146.7744     14.1889   7.2729448179e+01   4.7294353388e+01    0.1953326    0.1796761 -83.75 0.0003342312    1.135    0.119
       215  -7.9220     18.2089    247.6066   1.4956274923e+02   2.2956339309e+01    0.1234645   0.08409875  40.51 0.0009490517    1.728    0.421
       216  -7.4605    151.0063     13.2443   7.1693342525e+01   4.6312930318e+01    0.1803498    0.1114551  65.72 0.0003200328    1.503    0.335
       217  -7.9868    134.7977     13.2067   7.4523021936e+01   5.0397222894e+01     0.193797    0.1476774  33.91 0.0003395703    1.323    0.244
       218  -8.5965    218.6784    245.4529   1.1537800522e+02  -5.4614104948e+00     0.227648    0.1468674   5.18  0.001424204    1.785    0.440
       219  -9.8408    192.5204    244.4712   1.1967357429e+02  -1.3097792048e+00    0.2389322     0.189492 -17.37 0.0007432752    1.510    0.338
       220  -8.7999    157.2233    244.7916   1.2587100830e+02   4.2719858882e+00    0.1582272    0.1221201  27.09 0.0008807423    1.358    0.264
       221  -8.1494    233.7143    243.4194   1.1259338486e+02  -7.4661538486e+00    0.1832429    0.1159093   3.20 0.0005030718    1.708    0.414
       222  -7.7345     95.5341    243.4858   1.3658125179e+02   1.3969664630e+01    0.1156359   0.08656333  60.14 0.0001545233    1.007    0.007
       223  -8.8187     50.3560     15.0596   9.9758764854e+01   6.7388461177e+01    0.2794397    0.1704401  19.97  0.001068718    1.774    0.436
       224  -8.2794    249.7756    238.3268   1.0920981558e+02  -9.2355407194e+00    0.1628472    0.1226097 -19.14    0.0007164    1.420    0.296
       225  -9.0098    170.6743    239.5912   1.2283092421e+02   2.8315486286e+00    0.2416031    0.1704794  17.89  0.001020215    1.706    0.414
       226  -8.9327    241.9446    236.9466   1.1025376713e+02  -7.9710449710e+00    0.2808388     0.165427  -4.07  0.001508716    1.951    0.487
       227  -7.6602    224.2979    238.3285   1.1337715246e+02  -5.5048102005e+00    0.1172361   0.07421169  13.49 0.0003347897    1.637    0.389
       228  -7.7462    125.4567    237.7646   1.3070709584e+02   1.0378301868e+01    0.1330241    0.1139703 -45.10 0.0009238192    1.573    0.364
       229  -7.7405     79.7349    238.3958   1.3888931642e+02   1.7055777668e+01    0.1518324   0.09365392  39.68 0.0009504498    1.626    0.385
       230  -7.7723    148.4480    237.5193   1.2653777770e+02   6.7415827769e+00    0.1198881   0.09653176  44.93 5.953906e-05    1.043    0.041
       231  -8.1448    195.8263    235.7896   1.1786991845e+02  -7.3568729614e-01     0.195753    0.1220094  27.64 0.0006244382    1.496    0.331
       232  -9.9797    187.7111    234.8956   1.1916683956e+02   6.9668211306e-01    0.5562718    0.2276607  34.95  0.002610667    2.274    0.560
       233  -7.7885     91.6741    235.2880   1.3651266328e+02   1.5900439773e+01     0.121514   0.06910486  64.42  0.000320293    1.610    0.379
       234  -7.9023    248.4835    233.0660   1.0857897906e+02  -8.5008082684e+00    0.1512578      0.10037 -20.05 0.0004306368    1.534    0.348
       235  -7.6800    204.5877    231.1615   1.1565232767e+02  -1.5544879489e+00    0.1455984    0.1069713 -12.48  0.000516857    1.571    0.364
       236  -7.8782    236.4012    230.3091   1.1010774867e+02  -6.4220919084e+00    0.1340248    0.1053157 -30.59 0.0005347909    1.536    0.349
       237  -8.3670    161.9973    234.3032   1.2368247809e+02   5.0031074237e+00    0.1927252    0.1528532  17.73 0.0006693227    1.464    0.317
       238  -7.3359    158.3443    229.2756   1.2367603830e+02   6.3578084237e+00    0.1195026   0.08677376  21.84 0.0004514427    1.624    0.384
       239  -7.5330    100.6733    229.6844   1.3434495849e+02   1.5539665206e+01    0.1039457   0.09274399  15.16 0.0007044224    1.672    0.402
