#   1 NUMBER                 Running object number                                     
#   2 MAG_AUTO               Kron-like elliptical aperture magnitude                    [mag]
#   3 X_IMAGE                Object position along x                                    [pixel]
#   4 Y_IMAGE                Object position along y                                    [pixel]
#   5 X_WORLD                Barycenter position along world x axis                     [deg]
#   6 Y_WORLD                Barycenter position along world y axis                     [deg]
#   7 A_WORLD                Profile RMS along major axis (world units)                 [deg]
#   8 B_WORLD                Profile RMS along minor axis (world units)                 [deg]
#   9 THETA_WORLD            Position angle (CCW/world-x)                               [deg]
#  10 FWHM_WORLD             FWHM assuming a gaussian core                              [deg]
#  11 ELONGATION             A_IMAGE/B_IMAGE                                           
#  12 ELLIPTICITY            1 - B_IMAGE/A_IMAGE                                       
         1 -15.4931     16.9248    109.4745   1.3532675448e+02   4.9818616223e+01      2.10017     1.236262 -81.79  0.005172904    1.436    0.303
         2 -15.6067      7.0533     69.8505   1.3395889354e+02   5.9317320894e+01     1.417024     0.701368 -72.75  0.004335097    1.591    0.372
         3 -14.5355    112.0252     40.5965   8.6660082826e+01   5.1973648737e+01     2.280298     1.139441  -8.87  0.006419312    4.803    0.792
         4 -15.0809    122.4293     36.8553   8.2180283915e+01   5.0200098910e+01     1.614575    0.6724256  37.96  0.004486499    2.699    0.630
         5 -15.3456    119.3260     54.7175   8.9719985244e+01   4.7932452042e+01      1.76397     1.143258  23.97  0.006040916    1.823    0.451
         6 -13.9525    187.4274     13.1351   6.0610574833e+01   3.6248070945e+01     1.175405    0.8175769  33.07  0.004537096    1.537    0.350
         7 -12.6851    194.9956     23.5770   6.2866586664e+01   3.3171670118e+01    0.7488773    0.3204869 -22.97  0.002561821    2.358    0.576
         8 -15.4286     42.2516      8.3619   9.9898787357e+01   6.9609309862e+01     1.969476     1.246842 -14.55  0.009882776    1.574    0.365
         9 -13.5729      8.3558      3.2789   1.1736426487e+02   7.3613741267e+01    0.6719412    0.6058803 -44.61  0.004857806    1.291    0.226
        10 -13.8518     24.9819     31.4012   1.1833233082e+02   6.6866195900e+01    0.8607697    0.6274841 -89.69   0.00501748    1.990    0.497
        11 -15.1616      8.3310     29.3380   1.2597007447e+02   6.8278403882e+01    0.9319426    0.8061565  38.68  0.006802032    1.512    0.339
        12 -15.5839     14.6834     19.0287   1.1959966675e+02   7.0120999138e+01     1.457835    0.6631218 -31.97  0.007537215    2.092    0.522
        13 -13.3239     56.0436     27.6880   1.0219996212e+02   6.4371244119e+01    0.5481558    0.3497591  24.57   0.00161563    1.679    0.404
        14 -14.8944    166.4247     30.0661   6.9596152613e+01   3.9980229292e+01     1.504441    0.8500291  60.50  0.003083619    1.718    0.418
        15 -13.6204    139.3511     21.6308   7.1984969218e+01   4.8094036376e+01    0.7373583    0.6050684  64.40  0.002250418    1.283    0.221
        16 -14.8415    145.8497     30.7542   7.4017807140e+01   4.5275978130e+01      1.25667    0.6879597  53.40  0.003951657    1.711    0.415
        17 -13.5521    232.1989      2.4328   5.2772439262e+01   2.5867445609e+01     1.572775    0.3894481  61.55  0.005542777    3.417    0.707
        18 -12.4620    222.7264     21.4427   5.8814141143e+01   2.6339222639e+01     0.396948    0.3754444  13.30  0.001298641    1.099    0.090
        19 -13.8065    214.9626      9.5385   5.6296983415e+01   2.9449912919e+01     0.923793    0.5241573  52.88  0.004219427    1.747    0.428
        20 -14.3107    215.2923     20.6157   5.9416025021e+01   2.8272523297e+01     1.391482    0.4621722 -25.01  0.005035208    2.825    0.646
        21 -14.0665    218.7571     15.0505   5.7457008057e+01   2.7968463892e+01    0.9031669     0.598848  41.03  0.003586926    1.636    0.389
        22 -15.8523     99.8143     12.8537   7.8562018632e+01   5.8727559966e+01     1.590078     0.829793  48.78   0.00331238    1.811    0.448
        23 -11.5416    244.9985     15.2893   5.4998454254e+01   2.1671254328e+01    0.4427517   0.09471643 -31.56  0.001537734    3.353    0.702
        24 -12.3095    202.2504     11.3454   5.8210147415e+01   3.2528488276e+01    0.2827059    0.2477224  15.02 0.0004774577    1.219    0.179
        25 -11.9693    153.6007      8.2854   6.4077651140e+01   4.5777046316e+01    0.2825722      0.23047  41.23 0.0004993209    1.138    0.121
        26 -11.9157    125.9229      8.6962   6.9749168223e+01   5.2962720473e+01    0.2625917    0.2145521  -6.25  0.001396426    1.231    0.188
        27 -12.6025    120.8138      3.8861   6.8848440654e+01   5.4725655659e+01    0.5999202    0.3573204 -83.82  0.002263006    3.205    0.688
        28 -12.0111     26.5960      3.9622   1.0637982378e+02   7.2103603155e+01    0.2242335    0.1654466   1.66 0.0006612251    1.331    0.248
        29 -14.1959    189.8018     26.8398   6.4636389616e+01   3.4173037231e+01     1.909395    0.6992831 -49.74  0.005620774    4.231    0.764
        30 -12.6559     80.8536      1.8230   7.9342753839e+01   6.4097021777e+01     0.612618    0.1609996  48.60  0.002130258    3.354    0.702
        31 -11.0357     62.4873      1.5135   8.6409041327e+01   6.7604661638e+01    0.1971686     0.150909 -22.57  0.001166183    1.239    0.193
        32 -11.3317     59.4862      1.5230   8.7741773894e+01   6.8114783313e+01    0.2434824    0.1743174  30.78  0.001044252    1.358    0.263
        33 -11.6548    198.7492    183.0093   1.0275430179e+02   9.0457504050e+00    0.2545577    0.1390681  29.08  0.001284287    1.645    0.392
        34 -13.1992     57.0838    247.0117   1.3656690674e+02   2.0126633645e+01    0.5773388    0.3486281  28.95  0.004173033    1.918    0.479
        35 -11.7986     41.3995    249.7999   1.3920618641e+02   2.1361253256e+01    0.1536928   0.07913683 -88.52  0.001137426    2.047    0.512
        36 -13.9239     27.5659    246.7789   1.4124191489e+02   2.3146122127e+01    0.4706004     0.312398  46.01  0.003918306    1.248    0.199
        37 -11.8403      2.8811    249.8914   1.4504176695e+02   2.4887654936e+01    0.2392383    0.1054435  44.11  0.001878939    1.590    0.371
        38 -14.3120      9.0751    245.7162   1.4402231497e+02   2.4965947183e+01     0.642295    0.2954727  53.61  0.003233198    1.433    0.302
        39 -11.5146    122.4590    181.5900   1.1820021566e+02   2.2190734519e+01    0.3696575    0.2131495  80.12  0.001450737    4.057    0.754
        40 -11.0573    109.4783    183.5126   1.2124473722e+02   2.3828978193e+01    0.1231929    0.1063644  46.52 0.0001409193    1.032    0.031
        41 -12.2166     48.9916    181.1575   1.3384852690e+02   3.1984327032e+01    0.3919802    0.2285692 -59.60  0.002449668    1.905    0.475
        42 -12.3224     84.8326    180.2659   1.2616615811e+02   2.7892425073e+01    0.3165027    0.2043319  79.22  0.001827408    1.792    0.442
        43 -12.2753    194.6124    177.5760   1.0257880328e+02   1.0521124865e+01    0.2506127      0.21759  27.70  0.001134016    1.152    0.132
        44 -13.6997    124.0219    166.6452   1.1565091080e+02   2.4649591616e+01    0.6275787    0.4419945 -71.96  0.003415733    1.822    0.451
        45 -11.2333    177.3806    167.7766   1.0424028077e+02   1.5079847328e+01    0.1798669    0.1240501 -22.62  0.000840774    1.656    0.396
        46 -11.2524     27.6100    158.7991   1.3675567070e+02   3.8440159510e+01    0.2605408    0.1772501  74.19  0.001783965    1.258    0.205
        47 -11.9584     25.7959    155.3922   1.3691670306e+02   3.9287468771e+01     0.409771    0.2657894 -34.33  0.002485771    2.427    0.588
        48 -12.5021     77.6110    157.2188   1.2509699413e+02   3.3376346832e+01    0.3948486    0.2555767  33.36  0.001186096    1.563    0.360
        49 -12.9799     74.1854    153.4866   1.2544669853e+02   3.4587223477e+01    0.5281236    0.4132706  17.75  0.002918524    1.583    0.368
        50 -12.6708    122.2033    155.6633   1.1429048060e+02   2.7034003771e+01    0.3878804     0.284368 -10.44  0.001981895    1.999    0.500
        51 -12.6890    111.5202    155.5018   1.1678647398e+02   2.8810579491e+01    0.5571076    0.3275723  70.75  0.002385064    2.787    0.641
        52 -12.7561    209.4741    155.5848   9.5429392552e+01   1.0935156570e+01     0.666162     0.249873  44.63  0.002653209    2.502    0.600
        53 -11.9945     85.5337    153.4280   1.2270588532e+02   3.3096639954e+01    0.4205557    0.2337539 -45.15  0.002086295    2.185    0.542
        54 -11.3071     55.6114    156.1228   1.3015369563e+02   3.6242336449e+01    0.2534419    0.1702745   2.46  0.001377374    2.506    0.601
        55 -12.0854    103.4977    149.9755   1.1783460451e+02   3.1180029988e+01    0.3410544    0.2740542 -27.19  0.001785812    1.568    0.362
        56 -11.9490    244.8275    148.1599   8.7510405485e+01   5.4561984842e+00    0.2932905    0.1833996 -22.54  0.001598588    1.501    0.334
        57 -10.6321     60.2645    149.4447   1.2832197953e+02   3.7115908207e+01    0.1609513    0.1018543  47.69    0.0004406    1.481    0.325
        58 -12.8620    164.6985    194.9238   1.1140117904e+02   1.3147680476e+01    0.5310081    0.3590733 -66.46  0.002830826    2.563    0.610
        59 -10.7569     38.2266    145.8038   1.3326132042e+02   4.0176131372e+01    0.1500166    0.1268582 -56.49 0.0005980243    1.343    0.255
        60 -10.7950     44.7461    145.2574   1.3163678752e+02   3.9662993333e+01    0.1470225    0.1283954 -56.39 0.0004714946    1.303    0.232
        61 -11.4578    149.0429    140.7446   1.0518326970e+02   2.5058179135e+01    0.2825071    0.2488974 -84.34  0.001566237    1.446    0.309
        62 -12.0544     42.5020    140.0232   1.3165650855e+02   4.1003628883e+01    0.2520209    0.2050504 -39.30  0.001067341    1.541    0.351
        63 -12.4185     45.3517    135.5286   1.3046044453e+02   4.1698460404e+01    0.3737035    0.3352901 -49.01  0.002616804    1.296    0.228
        64 -10.8465     15.1031    139.0999   1.3822800872e+02   4.3504340571e+01    0.1497027    0.1282658 -78.44 0.0003425751    1.178    0.151
        65 -12.4202    246.2089    134.9476   8.4423675256e+01   6.8650202377e+00    0.3270915    0.2661014 -71.38  0.001745396    2.369    0.578
        66 -13.2055    230.9757    133.9909   8.6800564468e+01   9.8490149483e+00    0.3280289    0.2281167 -21.16  0.001768217    1.361    0.265
        67 -12.4135    132.8411    128.9392   1.0662491297e+02   3.0424810795e+01    0.8047143    0.3165419 -42.06  0.002964754    2.786    0.641
        68 -12.0065    110.5007    131.9308   1.1292177701e+02   3.3791443650e+01    0.4645095    0.3157591  15.09  0.002199074    1.996    0.499
        69 -12.5706    222.3980    127.8567   8.6933465180e+01   1.2382275952e+01    0.3127529    0.2417693 -50.16  0.001637572    1.785    0.440
        70 -10.8583     57.7776    128.0179   1.2628289071e+02   4.2044432971e+01    0.1905432    0.1622414 -51.16 0.0005120613    1.260    0.206
        71 -11.2796     60.7305    124.8542   1.2503999311e+02   4.2414590681e+01    0.2398293    0.1853257   1.43  0.001392982    1.752    0.429
        72 -14.0666     28.2245    123.7650   1.3366483284e+02   4.5818915126e+01     1.905124    0.2112893 -56.21  0.005774978    6.094    0.836
        73 -13.3508    171.0583    241.4570   1.1647231640e+02   6.0414349839e+00    0.3195697    0.2152234  30.60   0.00225505    1.134    0.118
        74 -14.3207     20.9870     96.8149   1.3277524624e+02   5.2406851624e+01     0.856074    0.4710698 -75.63  0.004847731    1.529    0.346
        75 -14.8734     29.0797     92.5038   1.2969458644e+02   5.2819692270e+01     1.079164    0.8029127  79.78  0.006787891    1.380    0.276
        76 -15.2134    104.9479    109.1459   1.0969412222e+02   3.9610963981e+01     1.742409     1.331919 -32.37  0.009024795    1.438    0.304
        77 -13.2249     85.0615    115.4686   1.1666289419e+02   4.1359705568e+01    0.9365413    0.5476496  15.53  0.004037003    2.607    0.616
        78 -13.9498     90.5919    109.0191   1.1377973079e+02   4.1971980228e+01     1.370587    0.7714262  21.48  0.005858711    2.410    0.585
        79 -11.9890     62.1259    134.0230   1.2594326936e+02   4.0222231706e+01    0.3917348    0.2089286  37.62 0.0007958377    1.848    0.459
        80 -11.2490    184.9300    124.1389   9.3421769313e+01   2.0723041700e+01    0.2104913    0.2000883  58.33 0.0003815902    1.271    0.213
        81 -11.3957    180.6827    121.1116   9.3606590184e+01   2.2137970481e+01    0.3063276     0.204942  35.68 0.0009716494    1.414    0.293
        82 -12.5850      4.1561    119.8814   1.3958878493e+02   4.8310759444e+01     0.425538     0.174687  21.57   0.00208855    2.888    0.654
        83 -12.4015     45.7193    110.1286   1.2715388319e+02   4.7340368812e+01    0.5099256    0.2988654 -48.09  0.002742022    1.749    0.428
        84 -11.9682    176.5076    111.1336   9.2050870955e+01   2.4762785881e+01    0.3786169    0.2949822  -2.41  0.001865694    1.387    0.279
        85 -12.4790    121.1302    111.6833   1.0580880539e+02   3.6165031051e+01    0.3718716    0.2286089  53.49  0.001488122    1.848    0.459
        86 -13.1932     62.0936    102.1460   1.2093972221e+02   4.7410854171e+01     1.166351    0.4705847 -65.64  0.004786091    2.482    0.597
        87 -12.6088     43.0532     91.0012   1.2496474161e+02   5.1992081722e+01    0.6558524    0.2410161 -71.84  0.002573988    2.913    0.657
        88 -13.3966     49.9938     98.9495   1.2411603779e+02   4.9479334493e+01    0.7619153    0.5178056  -4.24  0.002977168    2.093    0.522
        89 -14.1824      2.5801     97.0906   1.3828349073e+02   5.3391225745e+01    0.9837604    0.3522963 -80.40  0.004771069    2.293    0.564
        90 -13.2058    122.4937    102.3327   1.0316339384e+02   3.7857981915e+01    0.7664117    0.3780123  38.01  0.003070008    2.053    0.513
        91 -12.8077    135.8139    103.2933   9.9834023211e+01   3.4997308180e+01    0.8290861    0.3485966  45.92  0.002891264    2.371    0.578
        92 -13.1560    137.0056     96.2200   9.7652099059e+01   3.6158166934e+01    0.5087895    0.3916968 -41.00  0.002499155    1.324    0.245
        93 -11.3642    249.6657    100.3407   7.5881614374e+01   1.0645046451e+01    0.1342101    0.1032789 -53.11 0.0007051191    1.754    0.430
        94 -11.9854    128.0958     95.9088   9.9956634632e+01   3.8068163777e+01    0.3223391    0.2209011  62.04  0.001414064    1.897    0.473
        95 -13.1743     99.9692     94.4812   1.0766065871e+02   4.3661729804e+01    0.4762022    0.3402439  54.40  0.001914933    1.604    0.377
        96 -11.2249     76.0434     95.6930   1.1530880710e+02   4.7099976326e+01    0.1778911    0.1722702  22.14 0.0003387567    1.104    0.094
        97 -14.6353    160.9973     80.5845   8.7194877516e+01   3.3687288982e+01     1.806114     1.208372  11.60  0.003326877    1.988    0.497
        98 -14.5725    170.5103     76.9425   8.3951470693e+01   3.2030794297e+01      1.39026     1.122111  71.30  0.006666195    1.527    0.345
        99 -11.8331     89.9350     87.5299   1.0899090272e+02   4.6856454109e+01     0.422668    0.2409742  48.84   0.00187017    2.020    0.505
       100 -13.4336    188.4650     84.4278   8.2344069069e+01   2.6489239361e+01    0.7743822    0.3841232  42.03  0.001334494    2.006    0.502
       101 -12.7558    131.3176     85.5733   9.6197597887e+01   3.9471799568e+01    0.6277043    0.4290588  62.17  0.002734396    1.897    0.473
       102 -11.8149    125.2970     86.7179   9.8190825955e+01   4.0504851741e+01    0.3954898    0.2779089  50.56  0.001839756    1.516    0.341
       103 -14.2882    105.0963    122.9544   1.1258940273e+02   3.6598981503e+01     1.708039    0.8529369  33.19  0.007289472    2.117    0.528
       104 -13.2307    238.7417     81.3585   7.2808628206e+01   1.5381283772e+01    0.7352046    0.5063566 -78.77  0.003290564    2.597    0.615
       105 -11.5102     69.4578     80.3823   1.1391214132e+02   5.1466165943e+01    0.3484522    0.2102618 -47.72  0.001384549    1.516    0.340
       106 -13.3928     39.4185     67.8158   1.2172031711e+02   5.7660419237e+01     1.263895    0.4582314  17.76  0.004971926    3.809    0.737
       107 -14.0260     64.4076     65.6908   1.1185152195e+02   5.5417147208e+01     1.265131    0.8168638 -54.44  0.006530755    1.430    0.301
       108 -13.8992     51.2992     68.9917   1.1756439572e+02   5.6229011769e+01    0.8912238    0.6697819  85.09  0.004928243    1.726    0.421
       109 -13.1992     75.8172     73.7559   1.1001048457e+02   5.2065244113e+01    0.9907881    0.3446663  31.15  0.003518923    3.353    0.702
       110 -14.3785     86.3448     66.6243   1.0430232055e+02   5.1977211814e+01     1.656791    0.8574565 -27.47  0.004651576    2.772    0.639
       111 -12.1036     52.0795     79.9725   1.1979818527e+02   5.3638193323e+01    0.2258891    0.1949988 -50.22 0.0003455704    1.054    0.051
       112 -13.3405     56.6410     78.6150   1.1791050082e+02   5.3447443363e+01    0.5705278    0.2770901 -46.66  0.001082145    1.898    0.473
       113 -13.5535     60.8439     75.4224   1.1568267618e+02   5.3682027358e+01     0.602127    0.3751466 -55.91  0.001150637    1.439    0.305
       114 -13.5470    198.5057     70.5539   7.6463872360e+01   2.6191499801e+01    0.9997012    0.5223066  40.29  0.003008302    1.991    0.498
       115 -11.7041    219.4328     75.0259   7.4129377229e+01   2.0564509539e+01    0.2766255    0.2520365  -0.43 0.0005165171    1.009    0.009
       116 -11.9129    216.9730     80.5612   7.6028240184e+01   2.0358744185e+01    0.5154276    0.3664492  -2.83  0.001823779    1.514    0.339
       117 -12.6640    210.5626     77.5809   7.6308418297e+01   2.2278120514e+01    0.6620827    0.4720145 -78.23  0.002885093    2.299    0.565
       118 -11.9750    113.8646     80.4898   9.9686743235e+01   4.4078099163e+01    0.3906198    0.3640427 -45.33  0.001582927    1.117    0.105
       119 -14.5129     94.9895    236.2937   1.2942882523e+02   1.7234712273e+01    0.9041561    0.4518903  60.92  0.003881803    2.125    0.529
       120 -13.2164    134.9886     79.5873   9.3434378539e+01   3.9841778179e+01    0.8489016    0.4375288  48.16  0.002399959    1.967    0.492
       121 -11.8172     90.7910     80.0222   1.0672306792e+02   4.8363818802e+01     0.387567    0.2975032 -12.33  0.001298181    1.555    0.357
       122 -12.3171     41.8491     77.2784   1.2282182599e+02   5.5271224366e+01    0.3324943    0.2386977 -60.56 0.0007997012    1.192    0.161
       123 -13.7265    133.6293     67.4843   9.0014398788e+01   4.2417281445e+01     1.228604    0.8154464  31.46  0.004488865    1.603    0.376
       124 -12.2251    147.0272    238.5556   1.2038637102e+02   9.8550925310e+00    0.1758147    0.1720137  74.28  0.000994496    1.372    0.271
       125 -12.2652    145.0192    231.5128   1.1997095329e+02   1.1060408615e+01    0.2166242    0.1428539 -40.00  0.001447693    2.045    0.511
       126 -10.6837     98.2411     84.1936   1.0549985204e+02   4.6195315310e+01    0.1921935     0.171374  79.65  0.000463741    1.342    0.255
       127 -10.6891    152.3354     71.2848   8.6425742121e+01   3.7373947988e+01     0.163287    0.1169365  18.28  0.000297983    1.624    0.384
       128 -14.3607    101.3253     50.1317   9.3658443797e+01   5.2541865601e+01     0.946421    0.6974948  56.42  0.004609138    1.666    0.400
       129 -13.6596      9.2835    211.0099   1.4292835914e+02   3.0361011519e+01    0.7240922    0.3746687  37.54  0.005303424    1.734    0.423
       130 -11.5899    158.1203     63.9133   8.2714898403e+01   3.7221008534e+01    0.3933192    0.2075302 -42.40  0.001526555    2.045    0.511
       131 -11.7405    100.3888     64.6699   9.8987756317e+01   4.9900477450e+01    0.3182355    0.2692426  -2.80  0.001251174    1.229    0.186
       132 -13.2546     78.8567     61.0716   1.0519958904e+02   5.4353548120e+01    0.5505818    0.4782363 -12.41  0.002374337    1.147    0.128
       133 -11.9910     82.3376     56.8733   1.0258209915e+02   5.4670836541e+01    0.3795074    0.1817997 -50.37  0.001356873    2.122    0.529
       134 -13.9571    178.0089     57.4186   7.6392584302e+01   3.3245316426e+01    0.8312718    0.6735599 -52.17  0.002416013    1.420    0.296
       135 -12.1876     38.9308     60.5856   1.2024499111e+02   5.9345059955e+01    0.2917744    0.2203859  66.30  0.001695875    1.729    0.422
       136 -12.4187     24.5867     60.1849   1.2579951168e+02   6.0551368156e+01    0.2967816    0.1877543 -61.74 0.0007808611    1.279    0.218
       137 -12.3552    247.8143     54.0874   6.4615504763e+01   1.6813420665e+01    0.5521126      0.29308 -45.32  0.002518921    1.995    0.499
       138 -12.3972    250.0328     49.0900   6.3084985295e+01   1.6912555761e+01     0.409359    0.2673815 -10.01 0.0009610212    1.605    0.377
       139 -13.6109     66.8683     49.2000   1.0580392944e+02   5.8620501386e+01    0.6922622    0.5245407 -47.01  0.003846883    1.243    0.196
       140 -11.7180     86.0329     50.1272   9.8913458629e+01   5.5399058028e+01    0.3374387    0.2025358 -31.85  0.001546182    1.659    0.397
       141 -12.0168      5.9763     50.9617   1.3154385047e+02   6.3620349173e+01    0.3000754    0.1828155 -53.92  0.001111272    1.296    0.228
       142 -12.3628     24.5881    217.2359   1.4056043902e+02   2.7994910222e+01     0.418094    0.2395888  67.86  0.003145748    1.380    0.275
       143 -14.0408     25.8197    227.5980   1.4078382076e+02   2.6214833956e+01     0.513082    0.3018382 -63.27  0.003868978    2.159    0.537
       144 -14.2514    218.2984     41.8235   6.5077329220e+01   2.5150796455e+01     1.193697    0.6404518  62.03   0.00478556    1.904    0.475
       145 -13.2372    205.5625     40.3020   6.6426450055e+01   2.8512563549e+01    0.7159316    0.4413517 -81.85  0.002906272    2.480    0.597
       146 -11.2173    169.1752     43.3604   7.3585839251e+01   3.7527011421e+01     0.289675    0.1397087  54.41 0.0007032774    1.957    0.489
       147 -13.9599    157.6220     44.7795   7.6454349027e+01   4.0312077723e+01     1.470505    0.4528399  46.39  0.004517563    3.111    0.679
       148 -13.5264      8.7771     42.8093   1.2883440257e+02   6.5319087671e+01    0.8611139    0.5731884  49.17  0.005347272    1.972    0.493
       149 -13.6332     20.4528    224.4466   1.4154638298e+02   2.7205242482e+01    0.3454202    0.2764458  50.95   0.00164135    1.269    0.212
       150 -13.0372     52.8855    214.2809   1.3540414544e+02   2.5660965618e+01    0.3616378    0.1709938  56.69  0.002255107    1.757    0.431
       151 -13.8354     67.9563    222.8045   1.3323983473e+02   2.2582672640e+01    0.5417798    0.4857402  16.69  0.004443293    1.565    0.361
       152 -13.2052     33.7248     32.7556   1.1455186717e+02   6.5873046927e+01    0.4461133     0.310772  41.77  0.002466298    1.876    0.467
       153 -14.4064     62.8708    214.8951   1.3361625500e+02   2.4452095784e+01    0.6811901    0.5194156  73.57  0.004719324    1.184    0.156
       154 -13.4362     94.4873    218.7629   1.2803934966e+02   1.9956734553e+01    0.3515166    0.1999639  46.26  0.001822722    1.364    0.267
       155 -12.8116    242.8275     36.3083   6.0609742655e+01   1.9971287537e+01     0.748319    0.3450806  75.84  0.003053277    2.825    0.646
       156 -12.9364     75.8101     37.4572   9.7938596826e+01   5.9560756490e+01    0.3556075    0.2751919  26.88 0.0008593386    1.325    0.245
       157 -12.4816     70.4766     36.7422   9.9766667716e+01   6.0554211001e+01     0.301811     0.250456  12.91 0.0006249507    1.207    0.172
       158 -11.4711     85.4516    215.9680   1.2949268322e+02   2.1564126000e+01    0.2302782    0.1159268  49.65  0.001384752    1.597    0.374
       159 -12.7416     47.0181     32.4830   1.0822200748e+02   6.4573506742e+01    0.4402325    0.2442632 -18.27  0.002015647    2.372    0.578
       160 -11.1695    185.3341    213.6660   1.1023710651e+02   7.2449601809e+00    0.1133081   0.08680616  56.52 0.0007052211    1.736    0.424
       161 -11.0950    157.5127    213.4947   1.1544304850e+02   1.1634946064e+01    0.1215797   0.09455395  36.97   5.8203e-05    1.035    0.034
       162 -13.0549    152.1510     31.3538   7.2875884228e+01   4.3567446918e+01     0.461083    0.3390352  -4.34  0.001325283    1.469    0.319
       163 -11.1234    136.7177    211.0238   1.1912955239e+02   1.5186119900e+01    0.1600736    0.1400718  42.28 0.0007314666    1.109    0.098
       164 -11.2824     51.7324     36.4614   1.0758610560e+02   6.3216657998e+01    0.3006843     0.131099  26.54  0.001306797    2.641    0.621
       165 -11.6240    211.3116     33.0482   6.3495699188e+01   2.7918071519e+01    0.2074922    0.1827203 -25.90 0.0005426204    1.115    0.103
       166 -12.5442    105.1982     35.4191   8.6719736490e+01   5.4302908437e+01    0.5657932    0.2698263 -24.36  0.002157099    2.381    0.580
       167 -12.2659     45.6536    208.9852   1.3640050847e+02   2.7319169371e+01    0.2606806    0.1295764  82.01  0.001594571    2.113    0.527
       168 -11.3903     80.4658    208.5003   1.2980379857e+02   2.3422348806e+01    0.2129418    0.1178452  59.99  0.001284259    1.713    0.416
       169 -13.7122     98.7701    216.8838   1.2706061368e+02   1.9689482611e+01    0.4022789    0.3008673  70.51  0.002877555    1.363    0.267
       170 -12.9387     57.3543    203.7130   1.3386237761e+02   2.6971003497e+01    0.4507022    0.2338248  88.91  0.002649959    2.147    0.534
       171 -10.6287    149.9238    206.5371   1.1598033728e+02   1.3817897763e+01     0.192942   0.09797563  38.03  0.001023132    1.575    0.365
       172 -12.0852     97.1815     27.1445   8.5852354934e+01   5.7304238870e+01     0.331158    0.2782501  12.18  0.001592907    1.102    0.092
       173 -11.8355     45.4510     36.5078   1.1040867861e+02   6.3932309778e+01    0.2791877    0.1788367 -25.10 0.0007235048    1.593    0.372
       174 -12.5738     41.8578    201.1334   1.3663130338e+02   2.9067754543e+01    0.2194909    0.1207347  80.80  0.001422373    1.754    0.430
       175 -12.8195     39.1867    195.2727   1.3678047823e+02   3.0377561350e+01    0.4057425    0.2705614  60.62  0.002356201    1.195    0.163
       176 -13.5038     29.9572    169.5347   1.3698745596e+02   3.6094264522e+01    0.5787564    0.4831992 -44.45  0.001337368    1.628    0.386
       177 -12.8938     16.6894    196.2856   1.4105087481e+02   3.2267596811e+01    0.7386214    0.1821753 -71.53  0.003668403    3.573    0.720
       178 -13.3786     22.4629    181.1457   1.3921565543e+02   3.4529751209e+01    0.4527404    0.3348353  73.14  0.002097357    1.062    0.058
       179 -14.8187      8.0582    183.6357   1.4211455290e+02   3.5248503495e+01    0.9382426    0.7206898  58.32   0.00778767    1.146    0.127
       180 -11.5072     70.8091     16.9891   9.0945895512e+01   6.3928812521e+01    0.2184998    0.1817246  18.75 0.0004056562    1.155    0.134
       181 -15.1345     15.4652    175.4223   1.4030193485e+02   3.6194829330e+01     2.059981    0.8719307  68.01   0.01095365    2.162    0.537
       182 -12.5095    201.3081    191.7066   1.0378181008e+02   7.4549040621e+00    0.3504319    0.2432364  20.03  0.002101135    1.256    0.204
       183 -10.5031    107.6035    193.1991   1.2282472140e+02   2.2393285014e+01     0.151281    0.1110564 -46.57 0.0009469424    1.691    0.409
       184 -12.2986     98.4337    187.5648   1.2408550349e+02   2.4693330093e+01    0.2518883    0.2086044  -6.13  0.001622014    1.719    0.418
