#   1 NUMBER                 Running object number                                     
#   2 MAG_AUTO               Kron-like elliptical aperture magnitude                    [mag]
#   3 X_IMAGE                Object position along x                                    [pixel]
#   4 Y_IMAGE                Object position along y                                    [pixel]
#   5 X_WORLD                Barycenter position along world x axis                     [deg]
#   6 Y_WORLD                Barycenter position along world y axis                     [deg]
#   7 A_WORLD                Profile RMS along major axis (world units)                 [deg]
#   8 B_WORLD                Profile RMS along minor axis (world units)                 [deg]
#   9 THETA_WORLD            Position angle (CCW/world-x)                               [deg]
#  10 FWHM_WORLD             FWHM assuming a gaussian core                              [deg]
#  11 ELONGATION             A_IMAGE/B_IMAGE                                           
#  12 ELLIPTICITY            1 - B_IMAGE/A_IMAGE                                       
         1 -12.5948     91.1674     26.6182   3.0181096708e+01   5.9525549286e+01    0.3943535    0.2848886 -36.93 0.0004178291    1.464    0.317
         2 -11.8118     33.6976     23.3577   5.4134652049e+01   7.3103866805e+01    0.5040157    0.3964573 -65.72  0.001696838    1.597    0.374
         3 -11.6064     33.5090     16.7536   4.9972114723e+01   7.4315838817e+01    0.5486459    0.2789346  54.92  0.002313033    2.446    0.591
         4 -10.8802    100.7670     20.7520   2.5241162126e+01   5.7780030055e+01     0.466827    0.2558073 -50.55   0.00202956    1.910    0.476
         5 -10.7811     14.4899     15.8116   6.5834467094e+01   7.7423733315e+01    0.2823557    0.2649035 -71.42 0.0009576485    1.265    0.210
         6 -11.3068     35.7473     12.1282   4.5109390051e+01   7.4632577877e+01      0.25809    0.2202087 -73.86 0.0006086176    1.521    0.342
         7 -11.0715     35.3011      8.0116   4.2268009367e+01   7.5324652113e+01    0.2613133    0.2220449  45.54  0.000739361    1.095    0.087
         8 -12.8959     29.7788      4.8470   4.3561158610e+01   7.6870038733e+01    0.3941155    0.3319331  32.61 0.0005684561    1.081    0.075
         9 -10.8905     52.5214     11.4913   3.5287011233e+01   7.1091950341e+01     0.357396    0.2181734 -31.83  0.001764995    1.781    0.438
        10 -11.6313     55.7853      9.3417   3.2434441132e+01   7.0588765292e+01    0.3001266    0.2403392  89.08 0.0003068794    1.409    0.290
        11 -11.1351     39.3282      3.4132   3.6099841998e+01   7.5066817861e+01    0.3503745    0.2280852  24.56  0.001027099    1.832    0.454
        12 -10.8444     43.8428     10.9543   3.9295771061e+01   7.3115880055e+01    0.3779196    0.2490006  17.55  0.001802906    2.070    0.517
        13 -11.7737     45.7097      4.6972   3.3716930108e+01   7.3485864235e+01    0.5760028    0.2882507  57.21  0.002666451    1.786    0.440
        14 -10.5689    225.9518     11.2953   9.7167939202e+00   2.9272267748e+01    0.1605179      0.11812 -60.98 0.0003341261    1.095    0.087
        15  -9.9015    100.9298     11.0889   2.0914446534e+01   5.8825538486e+01    0.2103878    0.1662817 -74.44            0    1.209    0.173
        16 -11.9447     90.9956     10.1520   2.2425094922e+01   6.1552952960e+01    0.2600325    0.2156419  82.54  0.001463343    1.082    0.076
        17 -11.0187    116.5103      8.9732   1.7543735992e+01   5.4904132208e+01    0.2621624    0.2319777 -49.77  0.001044564    1.174    0.148
        18 -10.1954     86.0506     10.2758   2.3578088681e+01   6.2841339695e+01     0.201478    0.1583967  77.75 0.0004488072    1.150    0.130
        19 -11.4542    126.0604     10.8786   1.7028456294e+01   5.2199967805e+01    0.2319747    0.1972898 -54.66 0.0002647336    1.144    0.126
        20  -9.3215    188.6687      9.7035   1.1240768258e+01   3.7064228390e+01    0.1116221   0.09399913  46.49 0.0003347176    1.640    0.390
        21 -10.3854     15.7044      7.6241   5.8657642942e+01   7.8829387921e+01    0.3239234    0.1915817  11.88  0.001539661    2.178    0.541
        22 -11.8653     19.5812      2.8173   5.0486282322e+01   7.9029825070e+01    0.3908978     0.260161   2.93  0.001443654    2.009    0.502
        23  -9.9420      7.6942      8.0873   6.8271464911e+01   7.9728040710e+01    0.1756407     0.148408 -80.72 0.0006396068    1.544    0.352
        24 -10.1589     61.8422      6.8304   2.8494358363e+01   6.9397996214e+01    0.2104454    0.1728127  39.46 0.0005091153    1.235    0.190
        25 -10.1905     65.7838      5.5634   2.6394688131e+01   6.8544940017e+01    0.3371227     0.137394  73.34 0.0007711942    2.680    0.627
        26 -10.6158     96.0345      9.8007   2.1241409668e+01   6.0255753260e+01    0.2193592    0.2020824 -51.66 0.0005723001    1.159    0.137
        27 -10.9936    193.9990      4.8349   9.6928569998e+00   3.6394635660e+01    0.1917079    0.1440478 -50.44 0.0003133363    1.099    0.090
        28  -9.7849    125.6212      5.1977   1.4944076843e+01   5.2867712579e+01    0.1655043    0.1339246 -10.87 0.0005260358    1.546    0.353
        29 -10.8343     80.5406      5.2111   2.2209231042e+01   6.4785735342e+01    0.2523039    0.1700622  72.93 0.0005443991    1.324    0.245
        30 -10.5935     49.4629      1.4394   2.9556580532e+01   7.2960368040e+01     0.180133     0.120748  71.78 4.982136e-05    1.498    0.333
        31 -10.3105    224.8353      2.8725   7.9024039122e+00   3.0335834381e+01     0.155045    0.1346562 -48.39  0.000580996    1.274    0.215
        32 -11.2900    204.9191      2.5392   8.6152600131e+00   3.4314402810e+01    0.2139813    0.1621749 -58.47   1.4998e-05    1.025    0.024
        33 -10.6746    148.5368      2.4278   1.1841242090e+01   4.7253153976e+01    0.2270743    0.1828276 -71.76 0.0002735157    1.018    0.017
        34  -9.5167    120.3406      2.8027   1.4617679046e+01   5.4469616947e+01    0.1583084    0.1310185 -11.42 0.0002330502    1.493    0.330
        35 -10.4898    245.2739      1.4659   6.9297353025e+00   2.6769197017e+01    0.1424886    0.1065739 -78.86 0.0003910908    1.361    0.265
        36  -9.7086    210.6952      1.9226   8.2282985610e+00   3.3195799947e+01    0.1642401    0.1131051 -50.61 0.0002330011    1.089    0.082
        37  -9.6799     11.5155      1.7857   5.8347102718e+01   8.0437210019e+01    0.1530928     0.122732 -60.32  0.000919777    1.598    0.374
        38  -9.1384      1.3092      2.3295   7.2741746639e+01   8.1465873940e+01    0.1328754   0.08067383 -26.38 0.0007040552    1.664    0.399
        39 -10.4970     70.8574      4.9869   2.4544931585e+01   6.7313232983e+01    0.2025989    0.1788792  57.24 0.0002734665    1.080    0.074
        40  -9.4199    113.9966    119.7616   5.4862685572e+01   3.5465133099e+01     0.191034    0.1284727  41.92 0.0001987679    1.486    0.327
        41 -10.0548    110.1934    250.6573   7.5965675800e+01   9.2246928409e+00    0.1657774   0.08857631  18.53 0.0004479916    1.621    0.383
        42 -11.5290     24.3184    249.6022   9.4977047868e+01   1.8170899900e+01    0.3372909    0.1849595  24.92   0.00200911    1.490    0.329
        43 -11.4322      4.3893    248.8494   9.9372969456e+01   2.0000099973e+01    0.4893989    0.1584545  40.03  0.002548026    1.899    0.473
        44 -12.4084      4.8225    242.0888   9.9153726234e+01   2.1232432992e+01    0.5209795    0.2187239  55.99  0.002684888    1.878    0.468
        45 -10.3792     92.6913    117.9448   6.0860252779e+01   4.0023155277e+01    0.2210642    0.1984845 -72.61 0.0004104655    1.123    0.109
        46 -10.8436     69.4067    115.6371   6.8410536949e+01   4.4746489711e+01     0.348996    0.2991318 -77.47 0.0008675479    1.174    0.149
        47 -10.8956     27.0637    116.9821   8.5534886570e+01   4.9942361564e+01    0.2193641    0.2059854  75.40 0.0003298422    1.021    0.020
        48 -11.2005     24.7183    111.7742   8.5883426591e+01   5.1641008035e+01     0.399174    0.2131145 -38.79  0.001401476    2.282    0.562
        49 -10.8222     15.9803    115.9771   9.0084169808e+01   5.1173507737e+01     0.181214    0.1650784  77.83 0.0005629271    1.007    0.007
        50 -10.5075      6.3803    112.8282   9.3906556364e+01   5.2703814342e+01    0.3069496    0.1504037 -58.24  0.001290265    2.001    0.500
        51 -11.4191      2.8117    111.9201   9.5375636392e+01   5.3153863737e+01    0.2796553    0.2365231  44.84  0.000310712    1.161    0.139
        52 -10.2178     13.3690    108.7305   9.0517726761e+01   5.3419995104e+01    0.2090377    0.1243738 -69.06 0.0007056079    1.574    0.364
        53 -10.5424     89.2824    105.3186   5.8918181932e+01   4.3834287107e+01    0.2615809    0.2475455  -6.77 0.0005770886    1.206    0.171
        54 -12.3638      1.6352    104.7065   9.5440142294e+01   5.5240596041e+01    0.2960784    0.1825691 -83.18  0.001185581    1.488    0.328
        55 -10.1260     38.7815    104.8656   7.8685847173e+01   5.2120203686e+01    0.2199408    0.2001037 -56.15  0.000363649    1.133    0.117
        56 -11.0239    108.9249    103.2270   5.2169992337e+01   4.0340108837e+01    0.2691521    0.2380651 -34.54 0.0003446121    1.238    0.192
        57 -10.8607    112.8128    102.1320   5.0754825061e+01   3.9769020704e+01    0.2767947     0.223693  42.54 0.0003253256    1.271    0.214
        58 -10.5452    103.9844    101.3289   5.3139217936e+01   4.1819086236e+01    0.2695531    0.2293635 -46.36 0.0004409864    1.208    0.172
        59 -10.5711     38.1346     98.0123   7.7711016919e+01   5.4121061305e+01    0.3004848    0.2062576  78.99   0.00133856    1.624    0.384
        60 -11.3501     19.6905     98.4414   8.6434172775e+01   5.5866172427e+01    0.6186976    0.2610121  20.30  0.002359727    2.403    0.584
        61  -9.9830    217.9814     98.3529   2.9697795509e+01   1.9484128610e+01    0.1592145    0.1449451 -45.89 0.0004704705    1.131    0.116
        62  -9.9719    107.5371     96.6820   5.0797597290e+01   4.2140461088e+01    0.2953342     0.150687 -43.75  0.001100876    2.036    0.509
        63 -11.7439     66.6811     92.2641   6.3887278564e+01   5.1401922962e+01     0.480959    0.2662309 -60.85  0.001149095    1.846    0.458
        64 -11.0403     93.5260     92.7071   5.4073957804e+01   4.6051654044e+01    0.3908943     0.304468  27.02 0.0008556125    1.514    0.339
        65 -10.9959     18.9454     93.7709   8.6153229149e+01   5.7249039157e+01    0.3453048    0.2602563  -0.80  0.001692797    1.506    0.336
        66 -11.3792     74.6226     93.0030   6.0939553639e+01   4.9758656537e+01    0.2771745    0.2241202  43.76 0.0003243029    1.218    0.179
        67 -10.4690    105.8470     91.8237   4.9923254528e+01   4.3612568012e+01    0.2231507    0.1843952 -86.21 0.0004551619    1.332    0.249
        68 -11.1261    145.7140     91.0424   3.9603801396e+01   3.4902924234e+01    0.2366847    0.2089208  63.90 0.0004861115    1.174    0.148
        69  -9.3942      7.5842     91.1859   9.1498697591e+01   5.8748329960e+01    0.1947393    0.1195188 -63.37 0.0004415214    1.519    0.342
        70 -12.6039     31.1752     87.3232   7.8954272415e+01   5.7903060261e+01    0.2844513    0.2686011  86.93 0.0004503646    1.023    0.022
        71 -13.6553     65.3365     81.9822   6.1536164925e+01   5.4279243001e+01    0.5561205      0.50324  75.30 0.0007845457    1.115    0.103
        72 -11.0437     92.0182     85.2098   5.2363385963e+01   4.8136047425e+01    0.2589134    0.2201504 -63.21 0.0002644099    1.180    0.152
        73  -9.4646    172.7193     85.3610   3.3069310403e+01   3.0101316129e+01    0.1474877   0.09754769 -62.97 0.0007014572    1.672    0.402
        74  -9.0751     82.0000     84.9122   5.5812298573e+01   5.0311740001e+01    0.2634634   0.08989445 -51.74 0.0008040526    2.954    0.661
        75  -9.8970     54.6803     84.9498   6.7075210278e+01   5.5352235543e+01    0.2065782    0.1859664 -69.73 0.0002392813    1.101    0.092
        76 -10.3592     47.6472     78.9142   6.8727139321e+01   5.8040203931e+01    0.3415837    0.2535579  21.77  0.001472164    1.462    0.316
        77  -9.9450    138.3428     78.6907   3.7709395577e+01   3.8934361457e+01    0.1582117    0.1124742 -77.37 0.0007044592    1.696    0.410
        78 -10.1802    176.4875     76.9100   3.0310795640e+01   3.0717701444e+01    0.2113864     0.184178  76.75  0.001246844    1.230    0.187
        79 -10.2293     38.5475     76.3576   7.2636281031e+01   6.0006819685e+01    0.3096531   0.09114045  40.71 0.0009430635    3.304    0.697
        80 -12.1020     10.9452     73.4225   8.7424769816e+01   6.3502695753e+01    0.4364997    0.3042595  62.54  0.001476148    1.525    0.344
        81 -12.0005      5.0220     73.1666   9.0853045746e+01   6.3896758266e+01    0.2766173    0.2531861  52.19  0.000259096    1.129    0.114
        82 -11.0029      1.8063     70.1891   9.2403317220e+01   6.4849879370e+01    0.2735928    0.2021219 -61.09 0.0003752696    1.253    0.202
        83 -10.3451     34.8738     73.5279   7.3851675785e+01   6.1232554685e+01    0.2499852     0.189916 -52.15  0.001229794    1.298    0.230
        84  -9.8642     23.5345     78.1596   8.1130660997e+01   6.1214051256e+01    0.2898687    0.1446136 -79.75  0.001136972    2.149    0.535
        85  -9.8457     71.1346     72.1252   5.5957744767e+01   5.5573929026e+01    0.2093619    0.1769541  79.21  0.001019743    1.284    0.221
        86  -9.4581    105.5050     71.6107   4.3750697474e+01   4.8074338713e+01    0.1579024    0.1423443  85.59 0.0001031182    1.081    0.075
        87 -10.0830     68.8435     68.0874   5.5524097518e+01   5.6981151115e+01    0.4575192     0.181999 -45.84  0.001554891    2.642    0.622
        88 -12.0031     81.1906     66.8711   5.0159955555e+01   5.4652609677e+01    0.3105521    0.2765078 -37.14 0.0002223454    1.228    0.185
        89 -11.8241     57.9814     91.2497   6.7278607475e+01   5.3150590827e+01    0.3453454     0.308401 -24.77   0.00091644    1.276    0.216
        90  -9.6096    154.1494     67.1294   3.1269485323e+01   3.7316168382e+01    0.1982067    0.1512363 -63.57 0.0002515689    1.269    0.212
        91  -9.8349    172.3263     66.6533   2.8233091673e+01   3.3269080440e+01    0.1517178   0.09409752 -64.17 0.0007049974    1.749    0.428
        92 -11.5693     16.2979     64.6376   8.2572201290e+01   6.5513336388e+01    0.4238881    0.3604051 -28.93  0.001221467    1.209    0.173
        93 -11.6017     11.6835     59.6398   8.4492494820e+01   6.7182707847e+01    0.2790175    0.2518621 -20.71 0.0003198988    1.128    0.113
        94  -9.4117    166.5092     64.4710   2.8506465087e+01   3.4915259615e+01    0.1417309     0.124761 -60.70 0.0008098839    1.010    0.010
        95 -10.2428     86.6974     62.8740   4.6710262220e+01   5.4273063980e+01    0.2537939    0.2075274  40.96  0.000292556    1.284    0.221
        96 -10.1619     59.5659     64.9389   5.8544260061e+01   5.9525546407e+01    0.2529365    0.2000289  53.98 0.0005539614    1.284    0.221
        97 -10.6455     38.0206     60.1747   6.8123387496e+01   6.4266773871e+01    0.3392838    0.2511481 -49.45  0.001302885    1.344    0.256
        98 -10.4289     41.9492     58.5312   6.5312186761e+01   6.4090222452e+01    0.2857184    0.2466988 -49.93  0.001515153    1.161    0.138
        99  -9.3737     97.5120     60.5201   4.2285550873e+01   5.2210052413e+01    0.1554143    0.1456432  84.44 0.0001363402    1.001    0.001
       100 -11.9859     77.8911     58.1117   4.8144367053e+01   5.7263229612e+01    0.2571858    0.2494868 -72.65 0.0003234234    1.056    0.053
       101 -10.3076     58.1738     58.9708   5.6997556888e+01   6.1179185342e+01    0.2500062    0.2043441  41.28 0.0004007475    1.201    0.168
       102  -9.2067    216.7624     58.3577   2.0970936419e+01   2.5396852297e+01    0.1306889   0.07079831 -52.28 0.0003455093    1.584    0.369
       103 -11.9666     82.1273     52.1868   4.4206592912e+01   5.7492371706e+01    0.6969844    0.4553223  66.40  0.001166575    1.710    0.415
       104 -10.7675     78.3941     50.1722   4.4754408855e+01   5.8752177731e+01    0.2686902    0.2163564  51.29 0.0002123946    1.197    0.165
       105 -10.0307    182.1069     54.4658   2.3683157721e+01   3.2962311459e+01     0.200215    0.1585699 -48.47 0.0004466952    1.091    0.083
       106 -11.8300    105.2471     52.1737   3.6955274402e+01   5.1877293084e+01    0.3603865    0.2443991 -66.75  0.001599578    1.705    0.414
       107  -9.9243     99.5092     55.5579   3.9845890428e+01   5.2678531180e+01    0.1528876     0.144419  74.87 0.0001310613    1.047    0.045
       108  -9.9341    115.1652     52.9400   3.4700407160e+01   4.9257154414e+01    0.2401138    0.1930773 -73.74  0.001201482    1.261    0.207
       109 -10.2925      2.9448     52.1688   8.9115373051e+01   6.9629486701e+01    0.4076212    0.1041475 -49.09  0.001371972    3.301    0.697
       110 -12.5695     62.0445     49.6327   5.1371049377e+01   6.2457161104e+01    0.3589872    0.2692808 -50.29 0.0004853331    1.379    0.275
       111 -10.0903     53.0545     49.4552   5.5705606910e+01   6.4280793111e+01    0.4277492    0.2648135 -90.00  0.001453082    3.624    0.724
       112 -10.3233    138.3183     50.1874   2.8908335582e+01   4.3900321863e+01    0.2285041      0.19122  61.07 0.0004684101    1.251    0.201
       113  -9.7872     92.7757     50.0257   3.9754291473e+01   5.5350751955e+01    0.2022211    0.1912767 -78.67            0    1.047    0.045
       114 -10.9860     17.3799     46.3207   7.7050697081e+01   7.0169912208e+01    0.2668865     0.226564 -25.52 0.0007496754    1.176    0.149
       115  -9.6644    221.4987     44.9794   1.7531774377e+01   2.6246786779e+01    0.1786404      0.09592 -37.19 0.0003221566    1.483    0.326
       116 -10.7482     28.2872     43.1128   6.8010575799e+01   6.9730718953e+01    0.5432836    0.2405753  42.61  0.002147265    2.412    0.585
       117  -9.6571      9.7762     45.0022   8.2426255972e+01   7.1106337503e+01    0.1799313    0.1080269 -69.61 0.0002375701    1.614    0.380
       118  -9.6597      2.0009     45.5532   8.8611493410e+01   7.1382135562e+01    0.1966821    0.1307507   6.36   0.00101799    1.563    0.360
       119 -12.4489     85.7810     42.4296   3.8854316964e+01   5.8418070840e+01    0.3969891    0.3050159 -33.62 0.0003961383    1.438    0.304
       120 -11.2680     91.9214     41.0688   3.6339499315e+01   5.7128748612e+01    0.4262013    0.2766692 -49.47  0.001151584    1.601    0.375
       121 -11.3985    108.7809     40.7517   3.1691942036e+01   5.2891818251e+01    0.5420825    0.3139772  77.71  0.002257005    1.964    0.491
       122 -10.8613     60.8963     41.2738   4.8140702686e+01   6.4382567760e+01    0.4421648    0.2072574  41.38  0.001114585    2.166    0.538
       123 -11.5497     38.4574     41.6520   6.0604099023e+01   6.8568238036e+01    0.3070559    0.2469489  56.98 0.0001300356    1.382    0.277
       124 -10.5793    141.3320     40.9279   2.5372910345e+01   4.4542223206e+01    0.2884805    0.1803926  89.53 0.0007393498    1.730    0.422
       125 -10.5771    116.3768     39.6380   2.9548816856e+01   5.1105919690e+01    0.3626657    0.2117066 -54.75   0.00137754    1.791    0.442
       126  -9.8265     81.1768     38.8213   3.8815842975e+01   6.0162209879e+01    0.1923312    0.1719583  28.13 0.0002483875    1.274    0.215
       127 -10.7925    184.1597     40.8912   1.9858143166e+01   3.4388077055e+01    0.3839013    0.2033265  89.62  0.001413811    2.190    0.543
       128  -9.7084      2.4685     39.4686   8.6947472407e+01   7.2906172044e+01    0.1315854    0.1233277 -46.16 -2.806425e-05    1.022    0.022
       129 -11.3276    121.5783     37.0063   2.7507188990e+01   5.0151429683e+01    0.3379506    0.2609915 -33.78 0.0008852935    1.391    0.281
       130 -10.0712     75.4670     37.9442   4.0462586076e+01   6.1687528477e+01    0.2440161    0.1916404  69.83 0.0004071331    1.295    0.228
       131 -11.4472     67.2053     35.8588   4.2732484447e+01   6.3982577343e+01    0.2789705    0.2541465 -86.16 0.0002977422    1.157    0.135
       132 -10.0201    219.1101     36.0919   1.5689688514e+01   2.7790968526e+01    0.2048479      0.10489 -56.52  0.001120251    1.664    0.399
       133 -10.1663    150.5202     35.9787   2.2419334014e+01   4.2942624140e+01     0.203794    0.1726408 -86.34 0.0003421223    1.090    0.083
       134 -10.6696    112.8460     34.7672   2.8443853730e+01   5.2740675883e+01     0.234216    0.2099895  78.22  0.000355428    1.061    0.058
       135 -10.0219     22.7219     34.8388   6.8597361939e+01   7.2343141418e+01     0.184556    0.1654146 -54.09 0.0004502274    1.141    0.124
       136 -10.6019      6.0805     34.4651   8.2489051778e+01   7.3956559336e+01    0.2975215    0.2011352  36.43  0.001026812    1.579    0.367
       137 -10.6819    117.1525     31.0985   2.6149291249e+01   5.2133543539e+01    0.3925835    0.2039272 -31.79  0.001677792    2.028    0.507
       138  -9.1623    161.5200    249.4699   6.5477249082e+01   3.9154312924e+00      0.11185   0.08349115   9.05 5.493671e-05    1.006    0.006
       139 -12.5532     11.0521     29.8251   7.6357406706e+01   7.4705271870e+01     0.324052    0.2324873  30.09 0.0009374191    1.418    0.295
       140  -9.8882     99.0235     30.5153   2.9886648415e+01   5.6945093603e+01    0.2225421    0.1366925  66.13 0.0004997146    1.523    0.343
       141 -10.5021    135.8336     29.0357   2.2223284412e+01   4.7562698309e+01    0.2123291    0.1802722 -70.51 0.0003754846    1.043    0.042
       142 -10.4628     80.8914     27.4449   3.3569551258e+01   6.2028837389e+01    0.2736688    0.2234666 -16.53  0.001432323    1.473    0.321
       143 -10.1338      2.1159     27.7357   8.4117770979e+01   7.5795840645e+01    0.3307055    0.1140708 -38.38  0.001011771    2.877    0.652
       144 -12.3059    216.9838     25.6419   1.3430159128e+01   2.9428483211e+01    0.2505266    0.1854314 -70.55 0.0002990669    1.216    0.177
       145 -11.9632    213.0281     23.9318   1.3277389943e+01   3.0401278292e+01    0.2741538    0.1617867 -57.14 0.0002913839    1.360    0.265
       146 -10.9459    183.0056     25.5155   1.5848857547e+01   3.6573190868e+01    0.2266091    0.1809728 -43.17 1.119033e-05    1.183    0.155
       147 -11.2135     40.2633     21.9027   4.8811233043e+01   7.2154790071e+01    0.3226946    0.2218452  27.70  0.001387987    1.588    0.370
       148 -11.5282     17.3755    248.5182   9.6493314671e+01   1.8979064511e+01    0.4279372    0.2023538   5.71  0.001999696    3.085    0.676
       149 -10.0426    229.9193    247.6606   5.3635362533e+01  -2.2636681837e+00    0.1345502   0.09101196   2.62 0.0004523531    1.101    0.092
       150 -10.7250    130.9331     22.2810   2.0559919907e+01   4.9666321598e+01    0.3935515    0.2911496 -19.83  0.001724141    1.631    0.387
       151  -9.8412     52.8945     23.6591   4.2747515600e+01   6.9246225735e+01    0.2000978    0.1693927  51.24 0.0004987064    1.108    0.098
       152 -10.0935    188.3430    247.6818   6.0380939450e+01   1.4684152483e+00   0.09390192   0.07587723  33.70 0.0007049204    1.718    0.418
       153  -9.2949    103.5077     17.4905   2.3255097107e+01   5.7443330257e+01     0.143858    0.1284119  82.50 5.092886e-05    1.034    0.033
       154 -10.2209     15.7635     21.5200   6.7970603710e+01   7.6091702390e+01     0.249275    0.1811952 -54.18  0.001386295    1.402    0.287
       155 -10.6605     31.6012    248.4907   9.3301945983e+01   1.7713566864e+01    0.2511964    0.1835002 -38.90  0.001158039    1.950    0.487
       156 -10.5732    163.1997     20.2309   1.6117585391e+01   4.1803338995e+01    0.2214423    0.2146701 -51.03 0.0008499581    1.262    0.208
       157  -9.9159     64.0636     21.4668   3.6444867485e+01   6.7020930117e+01    0.2193414    0.1305798  56.12  0.001013159    1.541    0.351
       158 -10.2357    197.7625     19.4806   1.3175143153e+01   3.4040896104e+01     0.214203    0.1428298 -39.69 0.0003613839    1.292    0.226
       159  -9.5944     77.8457     19.7541   3.0654568623e+01   6.3856354949e+01    0.3264388    0.1246688 -49.48   0.00109924    3.410    0.707
       160 -10.0852     70.0886     18.0468   3.2273716725e+01   6.6023879127e+01    0.2163471    0.1954194  79.65  0.000806157    1.078    0.072
       161 -10.5022    147.9713     16.7575   1.6559847495e+01   4.5943906663e+01    0.2117919    0.1698811 -53.43 0.0002573718    1.135    0.119
       162  -9.5747     25.1553     16.8713   5.6570426265e+01   7.5730399947e+01    0.1695192    0.1397365 -14.56 0.0003937316    1.271    0.213
       163 -10.6091    214.3985     16.1922   1.1389180097e+01   3.0986675197e+01     0.192495    0.1443208 -76.28 0.0002670438    1.240    0.194
       164  -9.4295    129.3584     16.4900   1.8679335562e+01   5.0742257414e+01    0.1364575    0.1221516 -75.44 0.0007925052    1.062    0.058
       165  -9.6203     47.2584     14.9838   4.0226450180e+01   7.1804516288e+01    0.1630411    0.1198827 -33.80 0.0002959781    1.469    0.319
       166  -9.8676    153.4055     12.6768   1.4712310223e+01   4.5028774872e+01    0.2058975    0.1429457  59.45 0.0002288018    1.593    0.372
       167 -11.7005     10.2373    245.1898   9.8003384357e+01   2.0203116204e+01    0.2364045    0.1518207 -87.53  0.001541515    1.787    0.440
       168  -9.9218    147.7437    243.3997   6.7430977833e+01   6.2214657034e+00    0.1662477   0.08884051  16.91 0.0009506976    1.639    0.390
       169 -10.8160     37.3307    241.3485   9.1684775507e+01   1.8503578955e+01    0.3750964    0.1049216  50.17  0.001566757    2.984    0.665
       170  -9.5968    117.7482    238.9928   7.3166047663e+01   1.0250538177e+01    0.1275361    0.1035498 -47.45 0.0003766679    1.508    0.337
       171 -10.6146     30.9099    232.8606   9.2812407498e+01   2.0754076756e+01    0.5153989   0.05199804  26.73  0.001621659    4.555    0.780
       172 -10.9875     56.0521    230.9640   8.6667075372e+01   1.8614036512e+01    0.3516441    0.1983704   5.84  0.001731163    2.269    0.559
       173 -11.4544      7.1218    227.9119   9.8325884798e+01   2.3837176168e+01     0.380938    0.1373468  54.66  0.001841923    2.161    0.537
       174 -11.4532      2.0300    220.5366   9.9394293433e+01   2.5765540349e+01    0.3411396     0.183606  79.56  0.001914317    1.829    0.453
       175  -9.3146    210.4353    215.5355   5.2219047312e+01   3.3509319673e+00    0.1104317   0.08132881  -7.07 0.0001409469    1.038    0.036
       176  -9.4603     16.0125    213.2338   9.5710368762e+01   2.6180319884e+01    0.1708075   0.09006876  25.31 0.0008811553    1.635    0.388
       177  -9.8136    237.4610    186.7268   4.3615923755e+01   4.2530645081e+00     0.150498   0.07914195 -25.23 0.0008076993    1.580    0.367
       178  -9.6156      1.4635    170.4778   9.8354735588e+01   3.7414668549e+01    0.1377253    0.1129857  56.92 4.667847e-05    1.012    0.011
       179  -9.2661    229.3428    165.6818   4.1238742998e+01   7.9861278307e+00    0.1017316   0.08485811 -54.25 0.0007049219    1.718    0.418
       180  -9.6175    213.1180    155.2031   4.1761055935e+01   1.1586139993e+01    0.1533717    0.1274927 -40.98 0.0006931358    1.287    0.223
       181 -10.5955      7.1935    153.9818   9.5924703172e+01   4.1299904321e+01    0.2290436     0.159175  58.86 0.0006507713    1.258    0.205
       182  -9.0701     42.2639    149.3101   8.3590366223e+01   3.9332775728e+01    0.1433491    0.1104793 -39.63 0.0002419062    1.535    0.348
       183 -10.6748     24.0212    147.9416   8.9790857025e+01   4.1576954634e+01    0.3580078     0.221301 -45.78 0.0008337199    1.907    0.476
       184 -11.8014      3.7210    145.7002   9.6745769965e+01   4.3751934355e+01    0.3940596    0.2958585  82.70  0.002148214    1.216    0.178
       185  -9.5337    206.5041    145.4930   4.0954111332e+01   1.4015406394e+01    0.1238381    0.1031222 -25.04 0.0002913216    1.001    0.001
       186  -9.8461     32.0354    140.9682   8.6301585105e+01   4.2719089169e+01    0.2126794     0.166483 -40.45            0    1.488    0.328
       187  -9.5419     54.0524    140.0111   7.8297305872e+01   4.0405289694e+01    0.1840642    0.1621098  42.54 0.0004287015    1.085    0.078
       188 -11.0554     69.2088    135.8454   7.2364158284e+01   3.9373302345e+01    0.2530383    0.2448453 -45.62 0.0003824665    1.127    0.113
       189 -10.3185      2.1124    130.9676   9.6675616039e+01   4.7874844871e+01    0.2129881    0.1831694  69.14 0.0003153388    1.026    0.025
       190  -9.4491     70.4949    130.5065   7.0965076561e+01   4.0595967588e+01    0.1545042    0.1490122  63.60 -4.214629e-05    1.035    0.033
       191 -10.4671     42.8705    129.4256   8.0881003576e+01   4.4729677226e+01    0.5302225    0.1732961  44.37  0.001474938    2.903    0.656
       192 -11.1167    246.5767    127.7114   3.2134955522e+01   1.1050019005e+01    0.1704751    0.1301938  20.17 0.0005320123    1.631    0.387
       193 -10.7457     74.9973    126.5243   6.8641405535e+01   4.0930439747e+01     0.274367     0.222517 -64.20 4.155666e-05    1.247    0.198
       194  -9.1723    126.6979    129.2824   5.3644364064e+01   3.0831341715e+01    0.1466436    0.1175814  80.25 0.0001955866    1.552    0.356
       195 -13.1706     83.0584    119.7966   6.4469951126e+01   4.1311558242e+01    0.3939561    0.3865455  75.51 0.0005655535    1.045    0.043
       196  -9.2336      2.3023    123.2967   9.6226395598e+01   4.9993567874e+01    0.1424553   0.09958195 -46.99 0.0006996735    1.579    0.367
       197  -9.8317     74.7218    121.9569   6.7815656646e+01   4.2183236477e+01    0.2164952     0.198327 -81.41 0.0003261145    1.087    0.080
       198 -10.5800     24.3827    120.6081   8.7068946366e+01   4.9162722539e+01    0.3125548    0.2032855  31.76 0.0008850427    1.489    0.329
       199 -10.7789     10.1367    121.1034   9.2938595696e+01   5.0137386928e+01    0.2149963    0.1903274 -53.90 0.0002501988    1.215    0.177
