#   1 NUMBER                 Running object number                                     
#   2 MAG_AUTO               Kron-like elliptical aperture magnitude                    [mag]
#   3 X_IMAGE                Object position along x                                    [pixel]
#   4 Y_IMAGE                Object position along y                                    [pixel]
#   5 X_WORLD                Barycenter position along world x axis                     [deg]
#   6 Y_WORLD                Barycenter position along world y axis                     [deg]
#   7 A_WORLD                Profile RMS along major axis (world units)                 [deg]
#   8 B_WORLD                Profile RMS along minor axis (world units)                 [deg]
#   9 THETA_WORLD            Position angle (CCW/world-x)                               [deg]
#  10 FWHM_WORLD             FWHM assuming a gaussian core                              [deg]
#  11 ELONGATION             A_IMAGE/B_IMAGE                                           
#  12 ELLIPTICITY            1 - B_IMAGE/A_IMAGE                                       
         1 -14.4398    168.0591     44.6697   7.5754399814e+01   3.7773929208e+01     1.806191     1.113123  30.46  0.005346169    2.276    0.561
         2 -14.3538    180.9986     30.5161   6.9762455173e+01   3.6421780474e+01    0.8982329    0.7514305  -1.95  0.004372187    1.556    0.358
         3 -14.6360    185.3048     23.6227   6.7340212424e+01   3.6185995310e+01     1.024607    0.8844125  -1.85  0.001791184    1.509    0.337
         4 -13.4258    201.3008      3.0715   6.0390449819e+01   3.4534360532e+01    0.6977295    0.3330074  56.80  0.003456251    1.997    0.499
         5 -11.1236    150.2981    220.9536   1.2102865535e+02   6.6979356915e+00    0.1884726    0.1794698  63.76 0.0008674547    1.084    0.078
         6  -9.4989    196.7751    249.9731   1.1643397659e+02  -6.2968877981e+00    0.1421277     0.102447 -36.21 0.0004058596    1.609    0.378
         7 -19.6776     39.0657    159.6403   1.3680573152e+02   3.7895704170e+01     20.05057      5.32831 -69.86   0.06907944    3.621    0.724
         8 -12.0355     86.8133    204.9175   1.3202498355e+02   2.1023790086e+01    0.4696044    0.2509281 -56.78  0.002281733    1.930    0.482
         9 -11.5681    179.0283    218.0364   1.1468122997e+02   1.9362847440e+00    0.2157647    0.1679047  74.46  0.001144075    1.711    0.415
        10 -13.3431    195.5829    195.3458   1.0715952595e+02   2.9313763285e+00    0.9017144    0.7033422  81.14   0.00333827    1.879    0.468
        11 -12.2839    112.2627    196.4671   1.2530058243e+02   1.8643536876e+01    0.5237884    0.3451613  11.89   0.00211242    3.138    0.681
        12 -10.5750    180.4013    193.7386   1.0998062313e+02   6.1950604437e+00    0.3144304    0.1828001 -59.65  0.001319655    2.304    0.566
        13 -11.7560    103.6228    194.3996   1.2689563983e+02   2.0602066521e+01    0.4149081    0.2337227  33.01    0.0018516    2.108    0.526
        14 -11.9536    184.1968    215.5813   1.1321117848e+02   1.4175247422e+00    0.2591594    0.2198089  76.93  0.001192107    1.489    0.329
        15 -10.5904    157.6720    192.8904   1.1467728351e+02   1.0853537214e+01    0.1971741    0.1831438 -73.03 0.0004777019    1.135    0.119
        16 -11.7250    207.9568    185.0098   1.0262087153e+02   2.4466693947e+00    0.3658996    0.3124964 -30.62  0.001405452    1.167    0.143
        17 -11.8126    211.6952    181.2991   1.0112529706e+02   2.4045737414e+00    0.3495672    0.2814685  -3.07  0.001193575    1.371    0.271
        18 -10.4985     92.6211    185.5100   1.2801522615e+02   2.4458696519e+01    0.2831422    0.1588371  64.67  0.001084856    2.113    0.527
        19 -10.3830      9.8589    213.8925   1.4793760099e+02   2.8885621796e+01    0.2345439    0.1554315  13.75  0.001386654    3.078    0.675
        20 -11.5860     99.1311    180.7576   1.2577338417e+02   2.4473126966e+01    0.2842319    0.2475022  26.83 0.0008648452    1.411    0.291
        21 -10.6281    197.6297    176.2300   1.0289089459e+02   6.1519439456e+00    0.3726507    0.2490074 -61.05  0.001668866    1.951    0.487
        22 -11.1793     93.1069    198.2896   1.2977707857e+02   2.1484628334e+01    0.2436887    0.1824176 -81.87 0.0003460377    1.293    0.226
        23 -12.5186    109.9615    204.2882   1.2698846240e+02   1.7339212461e+01     0.555234    0.2445317  58.31  0.002085148    2.832    0.647
        24 -12.3959    137.1484    170.8245   1.1508899864e+02   1.9715503857e+01    0.5406318    0.3434118  38.18  0.002379419    1.637    0.389
        25 -10.7444    228.4776    170.9788   9.5769225088e+01   1.0522138444e+00    0.1984022    0.1180965 -59.33 0.0008100707    2.547    0.607
        26 -11.1528    145.6775    168.2666   1.1259266930e+02   1.8567783483e+01    0.2621485    0.2266321  83.00 0.0005486871    1.235    0.190
        27 -10.0081    121.3173    164.7502   1.1765298147e+02   2.4202487190e+01    0.2266724    0.1784692 -82.40  0.000554254    1.379    0.275
        28 -12.9480    101.1444    156.4858   1.2101136171e+02   2.9847248100e+01    0.6771654    0.4356898 -38.16  0.003028933    1.922    0.480
        29 -10.3117    119.3204    155.7328   1.1634045012e+02   2.6693505521e+01    0.3047814    0.2267191  72.17 0.0009210252    1.548    0.354
        30 -12.5754    107.6793    210.4879   1.2836640827e+02   1.6404852285e+01    0.5207163    0.2778914  42.29  0.002461739    1.766    0.434
        31 -12.1109    133.7480    144.8686   1.1044480278e+02   2.6353923371e+01     1.150181    0.2727661 -53.72  0.002682843    5.549    0.820
        32 -10.9974    174.7783    148.8970   1.0176730922e+02   1.6602582581e+01     0.294138     0.218568 -64.81 0.0007595116    1.560    0.359
        33 -11.7238    144.5446    146.1347   1.0810275976e+02   2.3801057710e+01    0.3910567    0.2771024 -88.01  0.001629466    2.003    0.501
        34 -12.4001    110.9876    140.7531   1.1528780895e+02   3.1807388791e+01    0.5934657     0.400336 -28.27  0.002546574    2.050    0.512
        35 -12.5347     99.8145    141.4137   1.1833693737e+02   3.3676775372e+01    0.2793866    0.2660444  31.90 0.0004753972    1.174    0.148
        36 -11.7060      4.1664    137.4035   1.4245317235e+02   4.6135799180e+01    0.2156562    0.1896023 -80.43 0.0005855767    1.171    0.146
        37 -11.8693     10.4819    136.8997   1.4085307817e+02   4.5794012845e+01     0.192001    0.1737169 -80.20  0.001415177    1.188    0.158
        38 -11.8758    107.6047    207.1855   1.2791435421e+02   1.7121243705e+01    0.2865396    0.2258584 -50.69 0.0008984665    1.468    0.319
        39 -11.8491    117.2762    130.8955   1.1142457734e+02   3.2913014851e+01    0.3972344    0.3144353  13.32   0.00101149    1.656    0.396
        40 -11.8329    105.5449    128.9866   1.1408758237e+02   3.5585716383e+01    0.5823684    0.3158514 -59.72  0.001610182    1.951    0.488
        41 -11.4440    159.9675    128.1411   1.0018451811e+02   2.4410200774e+01    0.4437513    0.2391031 -35.96  0.001676472    2.085    0.520
        42 -11.3205    142.7376    127.6239   1.0417000420e+02   2.8367557352e+01     0.339329    0.2633908  75.18  0.000735612    1.543    0.352
        43 -11.2280    125.2836    127.1430   1.0845047132e+02   3.2173963622e+01    0.2976667    0.2014536  72.74  0.001219903    2.071    0.517
        44 -11.7007    135.2219    122.7933   1.0484229781e+02   3.1074250391e+01    0.6073184    0.1903102 -50.87  0.001757643    3.476    0.712
        45 -14.1104     11.1669    206.6471   1.4720166747e+02   3.0262135654e+01    0.4511673    0.4123599 -88.16  0.002550267    1.419    0.295
        46 -10.4390    111.9125    119.8912   1.1020751505e+02   3.6490335323e+01    0.2243562    0.2173544 -81.72 0.0005197433    1.036    0.035
        47 -10.5891     78.4545    119.6703   1.1946361529e+02   4.2314282254e+01    0.2640158    0.1320536 -59.20 0.0007362997    1.937    0.484
        48 -12.2742      5.4776    207.4443   1.4828061134e+02   3.0643324240e+01    0.2117649    0.1539503  83.91  0.001073452    1.027    0.026
        49  -9.8142    164.9062    208.1510   1.1587411061e+02   6.4123443021e+00    0.1877214    0.1628501  11.35 0.0002998471    1.308    0.236
        50 -11.0255    168.6429    113.4492   9.4507755606e+01   2.5523000080e+01    0.3747526    0.2865915 -83.31 0.0007840837    1.657    0.396
        51 -10.5780    163.1093    110.3548   9.4946203748e+01   2.7462622292e+01    0.3813002    0.2407953  81.98  0.001356516    2.756    0.637
        52 -10.4516    205.6240    110.0908   8.6148195181e+01   1.7480184012e+01    0.2816998    0.2236532  46.73  0.000663178    1.336    0.252
        53 -10.4323    152.3701    102.8759   9.5444058986e+01   3.1511444738e+01    0.2426399    0.2092798  66.90 0.0003328608    1.209    0.173
        54 -10.3413    134.4964    102.9481   9.9844423675e+01   3.5544036774e+01    0.2411041    0.1509438 -43.66  0.001030075    1.581    0.368
        55 -12.2130     93.9589    206.0140   1.3065588266e+02   1.9645675588e+01    0.5773914    0.3193152 -45.51  0.002643909    2.398    0.583
        56 -10.9611     13.7238     59.9619   1.2610415986e+02   6.2109028448e+01    0.1747419    0.1472492 -24.01 0.0004804534    1.165    0.141
        57 -10.4460    168.2785    248.3876   1.2159531014e+02  -1.2628193363e+00    0.1928396    0.1539412 -88.59 0.0006699484    1.723    0.420
        58 -10.5756    196.4966    228.5017   1.1300630035e+02  -2.9753350639e+00     0.131668    0.1151241  27.99 0.0001775093    1.014    0.014
        59 -10.7648    174.3466    228.3164   1.1733658360e+02   9.9176600756e-01    0.1357863    0.1000407  10.78  0.000704813    1.723    0.420
        60 -10.3431    110.7719     20.9954   8.0099050884e+01   5.3986425225e+01    0.2915417    0.1736377  73.98  0.001354921    2.428    0.588
        61 -10.8256     12.7227     36.9928   1.1982168987e+02   6.6305298922e+01    0.2043288    0.1417697   8.62 0.0006530224    1.513    0.339
