#   1 NUMBER                 Running object number                                     
#   2 MAG_AUTO               Kron-like elliptical aperture magnitude                    [mag]
#   3 X_IMAGE                Object position along x                                    [pixel]
#   4 Y_IMAGE                Object position along y                                    [pixel]
#   5 X_WORLD                Barycenter position along world x axis                     [deg]
#   6 Y_WORLD                Barycenter position along world y axis                     [deg]
#   7 A_WORLD                Profile RMS along major axis (world units)                 [deg]
#   8 B_WORLD                Profile RMS along minor axis (world units)                 [deg]
#   9 THETA_WORLD            Position angle (CCW/world-x)                               [deg]
#  10 FWHM_WORLD             FWHM assuming a gaussian core                              [deg]
#  11 ELONGATION             A_IMAGE/B_IMAGE                                           
#  12 ELLIPTICITY            1 - B_IMAGE/A_IMAGE                                       
         1 -14.5118    190.8443    154.2711   4.7420381791e+01   1.4749037246e+01     5.704992     3.935063 -80.79   0.02749549    2.592    0.614
         2 -13.7001    220.2493     24.1770   1.9554069238e+01   2.9774486680e+01     1.768429    0.9228765 -30.88   0.01059984    2.670    0.625
         3 -13.7171    237.3233     49.5438   2.2582078373e+01   2.3936097221e+01    0.8920287    0.7083236  17.27  0.003951254    3.015    0.668
         4 -14.5531    194.8468     68.4431   3.0097428412e+01   2.8688267101e+01     2.781178     2.332114 -56.13    0.0136797    1.153    0.132
         5 -14.6443    244.1605    138.1915   3.6650687297e+01   1.0151736667e+01     2.802565     1.890258 -41.64   0.01938518    1.163    0.140
         6 -15.3568    244.6901     47.3043   2.1677014475e+01   2.3067755963e+01     3.325621     0.901347 -43.97    0.0171164    2.726    0.633
         7 -14.2733    157.3108    106.2056   4.3952651604e+01   2.9687976471e+01     2.788073     2.030541 -38.25  0.009008978    1.428    0.300
         8 -16.1030    242.8975     95.4606   2.9708044798e+01   1.6838796993e+01     4.724718     2.364851  46.48   0.02761988    2.923    0.658
         9 -11.4651    187.7256     45.6781   2.6376153801e+01   3.3147302921e+01    0.8915656     0.407515 -31.56  0.004320942    2.957    0.662
        10 -14.1889    226.0441     53.1253   2.4093776135e+01   2.5305093571e+01     2.525608     0.983947 -32.29  0.008244006    4.239    0.764
        11 -10.9008    203.8403     18.0463   1.9631642221e+01   3.3360227674e+01    0.3618034    0.2671082 -45.83  0.002123351    1.444    0.308
        12 -10.0922    200.6833     12.9342   1.8925468890e+01   3.4481751405e+01    0.3018647    0.2863706 -38.75  0.002546819    1.605    0.377
        13  -7.8788    190.3019     15.3079   2.0148985239e+01   3.6187157312e+01   0.09454823   0.07865613  58.82 0.0002908156    1.601    0.375
        14 -10.0992    120.1703      9.3236   2.6363455466e+01   5.1508818752e+01    0.2765965    0.2508186 -74.22  0.001073589    1.226    0.184
        15 -10.9602    235.3649      2.5914   1.5147172833e+01   2.9529787397e+01    0.3541583    0.1549449  64.64  0.002336075    2.623    0.619
        16  -9.5654    182.1637      3.5984   1.8497557662e+01   3.8935812812e+01    0.2212527    0.1516226 -89.83   0.00161389    1.142    0.124
        17 -10.7406    217.1498      1.7698   1.5943656431e+01   3.2661421295e+01    0.1745256    0.1165928  83.66 0.0006092406    1.350    0.259
        18  -9.9377     98.9399      4.8332   2.8525439460e+01   5.6656734341e+01    0.2680283     0.198762  40.93 0.0009055895    1.491    0.329
        19  -9.4463    247.3656      1.7446   1.4469644807e+01   2.7719128198e+01    0.1842685    0.1027925  74.09  0.001213785    1.869    0.465
        20 -10.0251    208.0670    206.8247   5.3503209812e+01   2.9434249824e+00    0.4746956    0.3132716  60.83  0.002192699    3.974    0.748
        21  -9.5564    250.0771    248.8904   5.2961341237e+01  -7.3615175924e+00    0.2496232    0.1064073 -37.06  0.001541692    1.734    0.423
        22  -8.0245     90.0212    250.8190   8.6479841577e+01   8.4394203199e+00    0.1758465    0.0897268  24.23            0    1.668    0.400
        23  -9.8899    248.6840    202.2738   4.6277115587e+01  -4.2903442022e-01    0.3299373    0.2191375  34.77  0.002320253    2.016    0.504
        24  -9.4080    234.2523    201.8415   4.8358845354e+01   1.0235562231e+00    0.1994404    0.1656018 -45.51 0.0008697412    1.405    0.288
        25 -10.5776    200.0600    198.9744   5.3653578183e+01   5.2386225820e+00    0.5152776    0.3744383  52.72  0.002495149    2.180    0.541
        26 -10.7112    192.9524    194.7174   5.4258414357e+01   6.8764130340e+00    0.8694379    0.4449232 -63.71  0.003035757    4.882    0.795
        27  -9.6872    132.3123    246.3338   7.5564820311e+01   4.3903097841e+00    0.3889658    0.2706941  62.28  0.001605231    2.570    0.611
        28  -8.1012    171.3260    175.6431   5.5170063341e+01   1.3492430037e+01    0.1320844    0.1097675 -89.29 0.0007044944    1.776    0.437
        29 -10.0098    190.9206    170.5558   5.0396253174e+01   1.1665102260e+01    0.3240633    0.2415812  41.08 0.0007516575    1.568    0.362
        30  -9.6611    243.2692    247.5583   5.3829430080e+01  -6.6724633650e+00    0.1736177   0.09038866  24.59  0.001135529    2.138    0.532
        31 -10.4306    186.6387    167.4418   5.0628908599e+01   1.2867753531e+01    0.4593119     0.297834 -18.77  0.001466098    1.890    0.471
        32  -8.0346     72.2833    177.0142   8.1594307633e+01   2.8259377682e+01    0.2017594      0.18878  -9.86 0.0003495744    1.054    0.052
        33  -9.2397    221.9675    245.0249   5.6974196008e+01  -4.5908338733e+00    0.1404766   0.09981436 -20.89 0.0005097532    1.042    0.040
        34 -10.0095    212.5622    148.4117   4.2742984525e+01   1.2652541050e+01    0.3009004    0.1513219 -35.39  0.001507915    1.938    0.484
        35 -10.8590    143.1914    145.4555   5.5509798213e+01   2.4396628240e+01    0.6085171    0.3688729 -57.27  0.002289138    1.810    0.448
        36 -11.3858     67.2733    143.6440   7.7398339951e+01   3.7751242923e+01     1.459313    0.8937374  61.67  0.005616732    2.356    0.576
        37 -12.5653     65.7614    126.0923   7.4340991376e+01   4.2497722644e+01     2.003822      1.41405  43.51  0.009189742    1.474    0.322
        38 -11.7471     52.5880    127.4911   7.9526191188e+01   4.4021013994e+01    0.6449599    0.5224012 -62.91  0.001369072    1.302    0.232
        39 -11.1930     49.9759    121.0334   7.9204676679e+01   4.6032703850e+01    0.3929431    0.3571414  21.64 0.0003083638    1.083    0.077
        40 -12.9682     44.3583    126.7219   8.2531452834e+01   4.5269403473e+01      1.11963     1.013497 -33.11  0.003048015    1.070    0.065
        41 -13.0419      5.7216    133.6793   9.8684430233e+01   4.6881377688e+01     1.162344    0.8188937 -72.64  0.004291941    1.367    0.269
        42  -9.8628    148.9772    141.9817   5.3444589037e+01   2.4112139462e+01    0.2239185    0.2112464 -55.52 0.0005603755    1.076    0.070
        43 -12.7391     25.4625    134.1335   9.1150371964e+01   4.5287039636e+01     1.009662    0.8227952 -66.91  0.003019096    1.227    0.185
        44 -13.2698    173.9113     95.4705   3.8625723875e+01   2.8389156449e+01     1.427115     1.388419 -71.92  0.008685523    1.144    0.126
        45  -8.7055    114.9660    241.5108   7.9104534347e+01   7.4047054212e+00    0.1884145    0.1673004  -9.98  0.001137787    1.100    0.091
        46 -10.1091    125.8845    126.0109   5.5569970676e+01   3.1819216852e+01    0.4356584    0.1572761 -48.79  0.001487733    2.779    0.640
        47  -9.3366    128.9402    190.4662   6.7713264627e+01   1.6643722283e+01    0.2383985    0.1918341 -33.51 0.0001930001    1.204    0.170
        48  -7.5426    179.3062    124.2639   4.3659611781e+01   2.2256051443e+01    0.1223984    0.1023155  -6.50  0.000225837    1.527    0.345
        49 -11.6785     36.1320    128.4673   8.6063367308e+01   4.5750674759e+01    0.5675277    0.4430689 -17.22  0.001093444    1.318    0.241
        50  -8.1536    174.8494    189.6045   5.6951696016e+01   1.0214205001e+01    0.1742063    0.1214883  42.89 0.0006249024    1.728    0.421
        51 -10.8363    178.3254    170.8797   5.2870165250e+01   1.3411771553e+01    0.8161322     0.385546 -60.11  0.003036215    3.386    0.705
        52  -8.5380    111.2955    117.4106   5.7514652858e+01   3.6514411090e+01    0.2319042    0.1803391 -75.11 0.0001412102    1.602    0.376
        53  -8.4131     92.8491    118.5069   6.3323813017e+01   3.9760422556e+01    0.2299455    0.1478023  35.82  0.001003624    1.504    0.335
        54  -9.5762    119.2690    116.2377   5.5043935322e+01   3.5211610962e+01    0.2610561    0.1728469  67.88   0.00109547    2.122    0.529
        55 -10.1546    142.4814    112.0177   4.8371850405e+01   3.1489219800e+01    0.2965581    0.2455632 -49.31 0.0007074088    1.189    0.159
        56 -10.0993    112.8778    104.4546   5.3911935772e+01   3.8964974079e+01    0.7136145    0.4025187  23.77  0.002635563    2.821    0.645
        57 -11.0128    121.0931     98.0257   5.0129644005e+01   3.8580144780e+01    0.7922828     0.249978 -45.95  0.001166841    3.277    0.695
        58  -9.7710    234.0625    240.7858   5.4323352643e+01  -4.9709861845e+00    0.2024452    0.1334596  28.12  0.001402082    1.893    0.472
        59 -10.6537    142.6207    100.7271   4.5731774010e+01   3.3639590063e+01    0.3886919    0.3095617 -78.95 0.0008959128    1.424    0.298
        60 -11.7002    126.8806    105.5500   5.0525103072e+01   3.5904418554e+01    0.6425028    0.4838437 -63.40  0.003157782    1.479    0.324
        61  -7.9204    106.4261     97.5369   5.3961529561e+01   4.1688068750e+01    0.1461262    0.1390299  60.82  0.000171002    1.049    0.047
        62  -9.4772    174.5365    165.0126   5.2535820515e+01   1.5140480508e+01    0.2993874    0.2209016 -57.09 0.0009966944    1.471    0.320
        63  -8.8317     40.7629    238.4553   9.7929698551e+01   1.6594395108e+01    0.2155564    0.1860165 -73.55 0.0003803931    1.280    0.219
        64  -8.3717     75.3387     88.4501   6.1488130686e+01   4.9640746205e+01    0.2435039    0.1409529 -49.66 0.0009571408    1.873    0.466
        65  -8.1993    127.3619     84.7275   4.5250639381e+01   3.9755197447e+01    0.1895001    0.1330178 -33.80 0.0009403345    1.651    0.394
        66  -8.8361    223.2103    236.2159   5.5454589536e+01  -3.3569852675e+00    0.1548123    0.0777624  33.46 0.0008103604    2.483    0.597
        67  -8.5480    139.7905     79.0956   4.1144678214e+01   3.8087305668e+01    0.2084256    0.1751278 -83.20 0.0007044717    1.212    0.175
        68  -7.8186    107.7059     76.3461   4.7930279160e+01   4.5443209607e+01    0.1429581    0.1097556 -88.06 0.0003783451    1.668    0.400
        69  -8.1007     57.5969     74.2575   6.4178310304e+01   5.5678762315e+01    0.1879968    0.1327581 -33.51 0.0006643088    1.531    0.347
        70  -8.4130    145.1405     72.8919   3.8588830155e+01   3.7967666182e+01    0.1942675    0.1630789 -81.50 0.0003799514    1.168    0.144
        71  -8.3748     93.9220     72.7162   5.0813635795e+01   4.9001544605e+01    0.1906098    0.1670237  50.65 0.0003032291    1.056    0.053
        72  -9.3356    150.3543     71.6107   3.7327428159e+01   3.7066972730e+01    0.2426533    0.2324682  63.59  0.001197391    1.182    0.154
        73  -8.4153    236.5869    226.8399   5.1844988202e+01  -3.0973984344e+00    0.1428839   0.08897117 -45.56  0.000430306    1.641    0.391
        74  -9.3547    123.9765     66.3190   4.1237316711e+01   4.3590975409e+01    0.2575375    0.1956798 -47.01 0.0005219856    1.405    0.288
        75  -9.8470    161.9080     63.8768   3.3619496315e+01   3.5828342167e+01    0.2390757     0.182781 -48.86 0.0005434684    1.307    0.235
        76  -9.8067     89.5896     63.8379   4.9484379270e+01   5.1437021490e+01    0.3049003    0.2381212  25.39 0.0004136512    1.412    0.292
        77  -8.5487    189.3027    183.2374   5.2961954585e+01   9.4900078966e+00    0.1626606    0.1495273 -61.56  0.001037767    1.358    0.264
        78 -10.1268    135.5175     59.4832   3.7086669933e+01   4.2108694861e+01    0.2427903    0.1988568 -50.42  0.001254886    1.286    0.222
        79 -10.2792    144.4889     59.2311   3.5384924805e+01   4.0196173320e+01    0.3078126    0.2093065 -53.79  0.001083405    1.494    0.331
        80 -10.1524     85.1743     57.9317   4.9021357458e+01   5.3327509972e+01    0.2733265    0.2605919  70.60 0.0005134682    1.138    0.121
        81  -7.5442     72.6860     58.3068   5.3307406193e+01   5.5814460635e+01    0.1345262    0.1078807  74.26 0.0007026246    1.624    0.384
        82 -11.6518    161.3712     50.6999   3.0712397464e+01   3.7799226547e+01    0.5259397    0.3258807  73.72  0.002978049    1.521    0.343
        83  -9.1804    226.6872    219.7085   5.2359073582e+01  -1.0930519324e+00     0.299184    0.1764422  47.05  0.001238912    3.319    0.699
        84  -9.6019    192.8755     38.7046   2.4463913891e+01   3.3033675130e+01    0.3254185    0.2122542  61.18  0.001564177    1.666    0.400
        85 -10.3838    196.2846     42.4193   2.4852531348e+01   3.1929027681e+01    0.2677068    0.1804911 -45.25 0.0005175842    1.450    0.310
        86  -9.5690    197.7557     37.0200   2.3674783651e+01   3.2318143292e+01    0.1909848    0.1472146 -45.87 0.0003741156    1.389    0.280
        87 -10.2147    196.6530     33.2517   2.3054923922e+01   3.2976141163e+01    0.2534097     0.178555 -42.50  0.000741911    1.508    0.337
        88 -10.8545    178.7489     52.2791   2.8767602980e+01   3.4040341086e+01    0.3956874    0.3016351  32.78  0.002389035    2.126    0.530
        89 -10.6425    142.3520     51.5195   3.3854474517e+01   4.1752610721e+01    0.3733976    0.2075929  62.45  0.001180373    1.627    0.385
        90 -10.3613    136.4479     46.2920   3.3552574349e+01   4.3752331883e+01    0.2973358    0.2102124  60.14  0.001144688    1.288    0.224
        91 -10.5831    155.6833     43.5037   2.9862810926e+01   3.9946360174e+01    0.3638802    0.1877645 -69.33  0.001694119    2.508    0.601
        92  -9.5267    239.7746    182.2226   4.4411925784e+01   3.6073007123e+00    0.1541031    0.1468485   9.25 0.0005326416    1.378    0.274
        93 -10.2345    171.6133    160.6750   5.2305531747e+01   1.6459788016e+01    0.4145152    0.2616965 -68.08  0.001455226    2.425    0.588
        94 -10.7608    149.8365     41.2787   3.0178419110e+01   4.1481526944e+01    0.2985696    0.1817266 -79.56  0.001583707    1.856    0.461
        95  -9.9441    134.1953     40.9030   3.2555984495e+01   4.4948190014e+01    0.3260562    0.1806736 -68.60  0.001531532    2.393    0.582
        96  -9.3120    204.1702     40.0011   2.3652369281e+01   3.0769235243e+01    0.2191994    0.1332765 -46.01 0.0004674257    1.510    0.338
        97  -9.2944    179.9651     39.9630   2.6055907156e+01   3.5390668281e+01    0.1794897    0.1446976 -76.56 0.0006020796    1.026    0.026
        98  -9.7373    142.1706     38.0957   3.0553812264e+01   4.3543701289e+01     0.185694    0.1591636  62.05 0.0008136854    1.217    0.178
        99 -10.0631    148.3946     34.3623   2.8727950245e+01   4.2642402961e+01     0.261151    0.1801783 -13.13  0.001142737    2.447    0.591
       100  -9.8332    178.7303     24.1405   2.2917390267e+01   3.7496787944e+01    0.3948065    0.2524135  74.31  0.002598548    1.386    0.278
       101  -9.1988    196.6444     27.6631   2.1989933176e+01   3.3627915810e+01    0.2611461    0.1716038  74.01  0.001007471    1.431    0.301
       102 -10.0253    181.7441     30.4073   2.3904742967e+01   3.6185895920e+01    0.3793729    0.1969945 -56.51  0.001696711    1.753    0.429
       103  -9.2666    241.6738    219.0502   4.9875984157e+01  -2.3592373523e+00    0.2008286    0.1493072  38.47  0.001349201    2.043    0.510
       104  -9.1216     33.2306    218.5971   9.8279891947e+01   2.2074263191e+01    0.2002372    0.1293416   6.77 0.0009581457    1.699    0.411
       105  -8.7462    184.3076    216.3237   5.9540405234e+01   3.9510385259e+00    0.1355799   0.08356661 -17.40 0.0007035505    1.647    0.393
       106 -14.2203    237.8290    110.5779   3.2781732918e+01   1.5298134953e+01     1.637604    0.5352144 -54.74  0.004901547    3.709    0.730
       107  -8.0675    128.6951     16.6654   2.7091209995e+01   4.8910853300e+01     0.117993   0.08239434  45.48 0.0004230735    1.666    0.400
       108  -9.3275    239.4329    212.5809   4.9233008398e+01  -1.1648214630e+00    0.2297717    0.1410481 -37.54  0.001530663    1.268    0.211
       109  -7.9652    155.2950     11.6875   2.2581119845e+01   4.3623190440e+01    0.1188881   0.07056978 -72.06 0.0005204715    1.596    0.374
       110  -8.8138     42.1834    214.5842   9.5407412378e+01   2.2161983349e+01    0.1972256    0.1314422   4.42 0.0009332304    1.660    0.398
       111  -9.1059    191.6212    212.2307   5.7435573831e+01   3.8456607244e+00    0.1949696    0.1875321  -0.16 0.0008656425    1.362    0.266
       112 -10.2090    232.3190    209.1205   4.9803834186e+01   5.0942312300e-02    0.2486285    0.1962784  39.09 0.0006454985    1.836    0.455
       113  -9.1802    227.7925    206.6195   5.0132311587e+01   8.9986277796e-01    0.2002887    0.1662191  12.29 0.0008633301    1.364    0.267
       114  -9.0990    244.0338    208.0260   4.7839066368e+01  -8.8430558299e-01    0.2108792    0.1219672 -40.23 0.0007230446    1.360    0.264
