#   1 NUMBER                 Running object number                                     
#   2 MAG_AUTO               Kron-like elliptical aperture magnitude                    [mag]
#   3 X_IMAGE                Object position along x                                    [pixel]
#   4 Y_IMAGE                Object position along y                                    [pixel]
#   5 X_WORLD                Barycenter position along world x axis                     [deg]
#   6 Y_WORLD                Barycenter position along world y axis                     [deg]
#   7 A_WORLD                Profile RMS along major axis (world units)                 [deg]
#   8 B_WORLD                Profile RMS along minor axis (world units)                 [deg]
#   9 THETA_WORLD            Position angle (CCW/world-x)                               [deg]
#  10 FWHM_WORLD             FWHM assuming a gaussian core                              [deg]
#  11 ELONGATION             A_IMAGE/B_IMAGE                                           
#  12 ELLIPTICITY            1 - B_IMAGE/A_IMAGE                                       
         1 -13.0171    196.3562     32.0084   6.5175748928e+01   3.2675890311e+01    0.8746319    0.7222141  34.62  0.005152257    1.593    0.372
         2 -13.8237    210.9184     14.7961   5.9537104868e+01   3.1325057556e+01     1.176183    0.9297776  34.80  0.007191882    1.835    0.455
         3 -11.6591      2.2333      5.1853   1.0901556385e+02   7.2136718522e+01    0.6167691    0.1446082 -40.89  0.002890089    3.520    0.716
         4  -9.6365    193.8369    245.1637   1.1300625678e+02  -5.6703505933e+00    0.1705542    0.1548786   8.44 0.0002753228    1.093    0.085
         5  -9.8131    205.0186    250.5060   1.1172512629e+02  -8.2635573294e+00     0.191034    0.1064832  35.99 0.0004723235    1.562    0.360
         6 -10.2883    184.2242    250.5025   1.1570675135e+02  -4.9358136653e+00    0.2285705    0.1271465  38.05 0.0002017334    1.547    0.354
         7 -11.3110    149.6506    248.4359   1.2217926695e+02   1.1813992119e+00    0.3302076    0.2530514 -71.74   0.00195446    1.629    0.386
         8 -10.8259    121.4747    244.9375   1.2729836364e+02   6.5540814890e+00    0.2926126     0.193215  83.57  0.001110594    1.951    0.487
         9 -12.4898    124.7533    240.3419   1.2604544369e+02   6.8749904089e+00     0.715372    0.3919046  39.21  0.003558561    1.679    0.404
        10 -11.6516    115.8774    250.0961   1.2903809180e+02   6.5129031695e+00     0.656033    0.3575959  38.87  0.000983092    1.696    0.411
        11 -11.2222    109.5609    246.7993   1.2987633580e+02   8.1568276929e+00    0.5040158    0.3469819 -77.19  0.002092765    1.622    0.383
        12 -10.2027    102.7804    247.4070   1.3126911672e+02   9.1288687779e+00    0.3034344    0.2012593  62.74   0.00146359    1.383    0.277
        13 -11.2677     98.8403    246.9677   1.3198329213e+02   9.8368550023e+00    0.5545223    0.3258918  67.14  0.002907173    1.787    0.440
        14 -10.9990     87.1728    248.0292   1.3433837498e+02   1.1437427467e+01    0.3540373    0.2856338  37.12 0.0007144624    1.441    0.306
        15 -10.7261     74.5850    242.1686   1.3613804966e+02   1.4472183388e+01    0.5265713    0.3395777 -37.29  0.002613131    3.025    0.669
        16 -11.4767     60.4107    246.3281   1.3917939943e+02   1.5651240263e+01    0.5733852    0.3833377  63.01  0.003557172    1.207    0.172
        17 -10.0874     67.1418    243.9742   1.3771847576e+02   1.5180967388e+01    0.3468113    0.1604704  39.04  0.001735586    2.130    0.530
        18 -14.3722     11.4699    210.3859   1.4536051111e+02   2.9063112680e+01     2.876633     1.278902 -80.95   0.01545366    1.848    0.459
        19 -11.7120     39.6378    230.2585   1.4164411400e+02   2.1656893299e+01    0.3421105    0.2220622 -74.55 0.0002616624    1.416    0.294
        20 -13.4517     28.6527    247.0978   1.4486942567e+02   1.9558656117e+01     1.333337    0.6929963  51.21  0.007794939    1.600    0.375
        21 -13.6050     40.3447    242.8201   1.4251912497e+02   1.8988543550e+01     1.346217    0.8505697  52.21  0.008415421    1.375    0.273
        22 -12.9373     34.0346    227.6270   1.4247149235e+02   2.2891376623e+01    0.4988868    0.3301353 -58.85 0.0008204817    1.788    0.441
        23 -14.1422     40.7340    218.5596   1.4042294480e+02   2.4023996203e+01     1.275169    0.9941958 -86.93  0.008473958    1.122    0.109
        24 -11.3656    176.1100    242.5374   1.1605963954e+02  -2.2996421011e+00    0.3811004    0.2555531  64.01  0.001324527    2.098    0.523
        25  -9.6599     84.9983    241.5226   1.3406901819e+02   1.3049802824e+01    0.2628699    0.2477608  53.97   0.00179766    1.326    0.246
        26 -11.7566     98.8416    232.7081   1.3031328022e+02   1.2669642272e+01    0.7167786    0.3032302 -70.93  0.002891844    3.085    0.676
        27 -11.0041     85.2999    234.8878   1.3328520079e+02   1.4348468709e+01    0.4167611    0.3653137  80.00  0.002100517    1.120    0.107
        28 -11.3437     98.9233    223.4036   1.2912788357e+02   1.4596619746e+01    0.4109508    0.2963066  50.54  0.001143052    1.247    0.198
        29 -11.7426    105.0151    227.9417   1.2844833130e+02   1.2646019701e+01    0.5879758     0.375078  63.79  0.002434671    1.572    0.364
        30 -10.8057     91.6629    242.2138   1.3284799408e+02   1.1888575337e+01    0.4343893    0.2486487  65.41  0.001263131    1.773    0.436
        31 -10.8295     90.0402    238.1463   1.3271222518e+02   1.2954117033e+01    0.2784362    0.2273631 -74.62 0.0008224194    1.279    0.218
        32 -10.1449    157.9394    242.7312   1.1970703565e+02   7.6568610820e-01    0.2022071    0.1930276 -68.65 0.0006964956    1.205    0.170
        33 -12.1844    133.8936    248.7460   1.2533463774e+02   3.7801300119e+00     1.023371     0.283136  41.32  0.003764257    3.057    0.673
        34 -12.4078    135.3490    241.0714   1.2400913285e+02   4.9388860997e+00    0.5181628    0.4508061  15.68  0.002931179    1.390    0.281
        35 -10.5695    134.7755    236.9959   1.2355693645e+02   5.8033095658e+00    0.2282056    0.2030732 -59.11 0.0007242368    1.270    0.212
        36 -12.5303    134.2201    232.6543   1.2305272029e+02   6.7321925511e+00    0.5836315    0.5253252 -69.64  0.002687917    1.217    0.178
        37 -10.8837    166.0178    242.1677   1.1800818246e+02  -5.1993200541e-01    0.3414434    0.1689624  41.09  0.001622369    1.759    0.432
        38 -10.8398    116.9329    238.1857   1.2734009061e+02   8.6037790110e+00    0.4281209    0.2807032 -33.89   0.00195105    2.441    0.590
        39 -11.4805    122.4229    233.1814   1.2555554157e+02   8.6605518955e+00    0.3604345    0.3419457 -76.01  0.002255144    1.186    0.157
        40 -10.8362    104.8423    238.1028   1.2976247294e+02   1.0611735047e+01    0.3058075    0.2070965  29.20  0.001628648    1.816    0.449
        41  -9.1639     61.2724    239.0201   1.3835853513e+02   1.7003639969e+01     0.172498     0.133588  74.65  0.001040688    1.022    0.022
        42  -9.6095    172.9954    235.9496   1.1563921285e+02  -6.4582426636e-01    0.1912466    0.1748353  35.38 0.0003184991    1.044    0.042
        43 -10.7497    156.7449    231.7828   1.1828259813e+02   2.9436508690e+00    0.2497469    0.2332665 -31.95 0.0004489141    1.208    0.172
        44  -9.6303     62.9081    233.0387   1.3747800304e+02   1.8011461049e+01     0.181628     0.147325  74.18  0.000323895    1.044    0.042
        45 -10.4163     84.9022    229.3941   1.3274246861e+02   1.5550249852e+01    0.2448513     0.215421 -64.55 0.0001433518    1.338    0.252
        46 -10.9848    142.0390    229.2251   1.2092846206e+02   6.0263955950e+00    0.4647467    0.2516199 -45.02   0.00217579    2.151    0.535
        47  -8.8539     57.3735    231.1329   1.3836179516e+02   1.9172532193e+01    0.1655418   0.09993076 -88.02 0.0007023931    1.560    0.359
        48 -10.7382    169.7471    248.5574   1.1823452418e+02  -2.2261955355e+00    0.3270122    0.2106504  18.50  0.001100245    1.936    0.483
        49 -11.1580    244.7374    241.2409   1.0286110991e+02  -1.2850084641e+01    0.2073301    0.1394918 -32.66  0.001289892    1.500    0.334
        50 -10.6029     79.3826    225.8452   1.3345458792e+02   1.7141311111e+01    0.4246103    0.2597433 -78.96  0.001469468    1.654    0.395
        51  -9.4976     77.2667    220.9299   1.3332352292e+02   1.8517469897e+01    0.2278284    0.1517074  66.83 0.0004383412    1.392    0.281
        52 -10.1965     91.4577    225.4520   1.3093599832e+02   1.5360084854e+01    0.4915453    0.1797443  52.13  0.001383703    2.722    0.633
        53 -10.3178    117.3739    224.2233   1.2536430314e+02   1.1336115713e+01    0.2499625    0.2144202  57.13 0.0002515457    1.041    0.039
        54  -9.4712     65.0437    224.4745   1.3619481492e+02   1.9527415429e+01    0.2231116    0.1595504 -58.41 0.0008008711    1.593    0.372
        55  -9.7904    132.3678    223.9316   1.2215859574e+02   8.7823901058e+00    0.2484683    0.1728784  51.69 0.0006525181    1.318    0.241
        56  -9.7331    160.7271    223.1758   1.1607794514e+02   3.8465745627e+00    0.2440126     0.170147  15.68 0.0006826395    1.888    0.470
        57 -10.9936    142.1466    221.7358   1.1975352115e+02   7.4796307485e+00    0.4236285    0.2499407  36.56  0.001075185    1.653    0.395
        58  -9.3734    111.0000    220.9232   1.2625025070e+02   1.3113886149e+01    0.3451475   0.07668404 -57.70 0.0009858031    4.770    0.790
        59 -10.6881     69.8479    217.6099   1.3447430947e+02   2.0335499748e+01    0.7231452    0.3325157 -81.96   0.00302867    2.715    0.632
        60  -9.5143    246.3185    218.3383   9.8479451865e+01  -9.7862384445e+00     0.132234   0.08611149  -2.55 0.0007049272    1.707    0.414
        61 -10.7976     96.8800    239.7643   1.3154548021e+02   1.1557518637e+01    0.2936067    0.2490265 -40.35  0.001062043    1.641    0.391
        62 -11.3380    113.2095    230.5727   1.2710080257e+02   1.0742332494e+01    0.4228548    0.3870311 -12.48  0.001719416    1.492    0.330
        63  -9.7202     88.6071    214.3433   1.3013752831e+02   1.8217084595e+01    0.6178777    0.2316212 -70.65  0.002184769    3.470    0.712
        64  -9.1458     62.4888    218.0220   1.3602870956e+02   2.1289162225e+01    0.1839773    0.1492834  61.90 0.0003517769    1.140    0.123
        65  -8.5924    118.6935    217.6675   1.2414162810e+02   1.2479948247e+01    0.1308509    0.1115016 -11.38  0.000703955    1.664    0.399
        66 -10.2471    137.8200    214.1584   1.1947467744e+02   9.8051725752e+00    0.3609411    0.2965159  25.16  0.001273294    1.374    0.272
        67  -9.4718    160.0308    213.7632   1.1464003063e+02   5.7991581153e+00    0.2003979    0.1787399  61.32 0.0004780949    1.146    0.127
        68  -9.2421    101.9537    211.5964   1.2688808771e+02   1.6654167213e+01    0.3246317    0.1506869  55.41  0.001324381    2.308    0.567
        69  -9.3234    106.9344    209.7812   1.2553959587e+02   1.6214745825e+01    0.1924989    0.1906498 -62.22 0.0006657805    1.234    0.189
        70  -8.8492     97.4697    210.5382   1.2771638708e+02   1.7631899347e+01    0.2020695     0.124714 -51.66  0.000640814    1.795    0.443
        71  -9.5248     96.6764    206.8948   1.2738037576e+02   1.8577712884e+01    0.3377981    0.2067477  86.46   0.00140369    2.065    0.516
        72 -10.3578     91.3632    204.7653   1.2825449962e+02   1.9925175589e+01    0.5041684    0.3628556  35.75  0.001496133    1.535    0.348
        73  -9.5684     73.8818    209.1961   1.3263908646e+02   2.1622115946e+01    0.3607575     0.257617  14.40  0.001811401    2.364    0.577
        74  -9.7776    112.6451    208.3594   1.2407230498e+02   1.5545303695e+01    0.2564097    0.2165123  68.34 0.0007667427    1.094    0.086
        75 -10.3645     81.5782    246.7024   1.3526465585e+02   1.2539119972e+01    0.3894781    0.2197607 -83.18  0.002063372    1.970    0.492
        76  -8.8746    134.5682    208.2355   1.1921970098e+02   1.1645596089e+01    0.1923743    0.1342494 -42.40 0.0006811796    1.650    0.394
        77 -11.3097    246.9013    206.3913   9.6132661321e+01  -8.0279138509e+00    0.4602099    0.2995982   1.40  0.002432321    1.825    0.452
        78  -9.2136     32.8579    206.9364   1.4092516257e+02   2.7529462087e+01    0.1721398    0.1376549 -72.32 0.0003362189    1.282    0.220
        79  -8.6839    125.6584    205.7238   1.2077872281e+02   1.3812522321e+01    0.1361509    0.1147003   2.26 0.0003417101    1.620    0.383
        80  -9.5059     74.8320    203.6416   1.3174066726e+02   2.2745817372e+01    0.2850246    0.2259034   1.17 0.0007827158    2.128    0.530
        81  -9.2595    103.1373    202.7060   1.2533596695e+02   1.8444586779e+01    0.3609445    0.2249947  56.42  0.001374337    1.580    0.367
        82 -10.8337     84.2807    201.5126   1.2937627572e+02   2.1794247911e+01    0.3655747    0.2540309 -41.86  0.001172262    1.911    0.477
        83  -9.1516     85.9866    195.7613   1.2818842895e+02   2.2860232750e+01    0.2150522    0.1725327  77.25 0.0003666319    1.158    0.136
        84  -8.7339     64.6537    201.7295   1.3372109550e+02   2.4657682801e+01    0.1191289    0.1045912 -33.19 0.0001944616    1.618    0.382
        85  -8.3814    183.0033    200.2688   1.0732502289e+02   4.1474593733e+00    0.1722118    0.1204736  40.12 0.0002714185    1.378    0.274
        86  -9.3547    127.9405    199.6793   1.1927069307e+02   1.4725958935e+01    0.1981157    0.1736778  56.16 0.0005008598    1.070    0.066
        87  -9.5711     44.3508    198.9509   1.3776641517e+02   2.7973847640e+01    0.2609141    0.2033211 -12.97  0.001462143    2.308    0.567
        88  -9.0860    119.9965    199.4458   1.2102612234e+02   1.6226867435e+01    0.2120305    0.1341948  44.56 0.0003130446    1.504    0.335
        89 -10.0183     55.7824    198.2994   1.3524069718e+02   2.6662811099e+01    0.5476059    0.1839844  43.45  0.002249047    2.753    0.637
        90 -11.5948     60.7339    194.3004   1.3367380219e+02   2.6928650122e+01    0.4595124    0.3638509  44.51  0.001410755    1.362    0.266
        91  -9.6454    102.3274    196.3169   1.2454645735e+02   2.0044731251e+01    0.4182042    0.2983029 -12.17  0.001280342    2.734    0.634
        92  -9.1520     97.2873    196.2147   1.2568166938e+02   2.0918159601e+01    0.3330138    0.1881428  43.05 0.0007543779    1.719    0.418
        93  -8.9568     38.8721    196.2885   1.3864902210e+02   2.9246999714e+01    0.2526674    0.1266264 -89.62  0.001190567    2.071    0.517
        94  -8.4760    153.6096    196.4806   1.1295676512e+02   1.0566086853e+01    0.1424971    0.1388482  64.94   6.3727e-05    1.024    0.024
        95 -10.8829    249.8397    194.0957   9.3241864775e+01  -6.5062528901e+00    0.3068428    0.2241214 -26.67  0.001721019    1.217    0.178
        96  -9.1887     31.6072    195.1744   1.4006828658e+02   3.0336613538e+01    0.2845228   0.09597287  48.90  0.001220725    2.842    0.648
        97  -8.9366     72.6608    193.0158   1.3083086835e+02   2.5539069520e+01    0.1857705    0.1529651 -77.30  0.000352327    1.114    0.103
        98  -9.6445     26.0912    192.3576   1.4095151780e+02   3.1583462561e+01    0.2382906    0.1796847  59.83 0.0009108154    1.284    0.221
        99  -9.7080    191.4633    191.4878   1.0385230323e+02   4.2560088689e+00    0.2440779     0.233532  10.31  0.000581596    1.006    0.006
       100  -9.2039    112.8596    192.1385   1.2145249081e+02   1.9173122157e+01    0.1920179     0.170429 -37.51 0.0004172481    1.345    0.256
       101  -9.7690     38.5108    192.0127   1.3827779842e+02   3.0278990038e+01    0.2349784    0.1770289 -46.78  0.001113405    1.705    0.414
       102  -9.6939     41.0398    188.8382   1.3738299214e+02   3.0722643403e+01    0.2816182    0.1829312  72.70 0.0008588796    1.470    0.320
       103  -9.6214     31.5915    189.8778   1.3954231967e+02   3.1560031104e+01    0.3259405     0.187595  40.03  0.001811048    1.854    0.461
       104 -12.3075     55.1538    207.4307   1.3640146144e+02   2.4653080081e+01     1.203176    0.6410235  52.02  0.005940222    1.748    0.428
       105 -11.2156    249.7529    187.6504   9.1986807451e+01  -5.4269507512e+00    0.3462335    0.2515628 -18.68  0.001970617    1.325    0.245
       106  -9.6750     77.0111    188.7339   1.2924130908e+02   2.5904982975e+01    0.2194109    0.1794102 -78.49 0.0004541456    1.109    0.098
       107 -11.5803     67.1226    187.1585   1.3130367568e+02   2.7728108044e+01    0.3145936    0.2395218 -54.34 0.0004764292    1.417    0.294
       108  -9.7791     83.6971    186.9152   1.2742074612e+02   2.5309493425e+01    0.2331147    0.1855571  62.23 0.0003509421    1.198    0.166
       109  -9.1994     19.9803    191.0573   1.4210379653e+02   3.2513557306e+01    0.1931151    0.1461824 -83.80  0.001268317    1.071    0.067
       110 -10.2769     28.4350    184.5905   1.3968220844e+02   3.3131109168e+01     0.303997    0.2444568  21.47  0.001270204    1.742    0.426
       111  -9.2771     24.0074    184.2411   1.4060521392e+02   3.3673804186e+01    0.1809023    0.1484119 -75.60 0.0004683416    1.174    0.148
       112  -9.3002    140.0683    183.0833   1.1351193285e+02   1.6148346865e+01    0.2186052     0.208486  77.84 0.0003413716    1.010    0.010
       113  -9.6541    107.7869    182.4254   1.2099742412e+02   2.2350557223e+01     0.240633    0.1909781 -65.40 0.0003283674    1.227    0.185
       114  -9.2748     36.8342    183.4115   1.3770834320e+02   3.2485548213e+01    0.1894434    0.1431263  86.27  0.001153125    1.120    0.107
       115  -9.1559    127.3249    182.1651   1.1631690794e+02   1.8817633686e+01    0.2069555    0.1826131 -76.25 0.0005885886    1.127    0.113
       116  -8.7692     65.9602    182.0031   1.3086501989e+02   2.9127048155e+01    0.1614845    0.1408375  78.91 0.0003450854    1.066    0.062
       117  -9.2936    115.5850    178.4628   1.1842874403e+02   2.1882205107e+01    0.3533314    0.1794478 -47.65  0.001207127    2.070    0.517
       118  -9.0406     47.4598    179.7145   1.3486554023e+02   3.2110477534e+01    0.1986016    0.1167568  35.96 0.0005479581    1.901    0.474
       119  -8.9509     20.0992    178.9491   1.4092737177e+02   3.5293880846e+01    0.1622295    0.1218956 -65.23 0.0003830529    1.287    0.223
       120 -13.4625      4.4706    245.2049   1.4877597454e+02   2.2603069821e+01     1.119138    0.5903233  76.35  0.007268707    1.460    0.315
       121 -12.7808     13.9105    238.6896   1.4683324196e+02   2.2896195984e+01    0.7211953     0.406876  56.53   0.00470603    1.458    0.314
       122 -11.1674     11.7774    173.4333   1.4220846089e+02   3.7347440803e+01    0.3707516    0.1667149 -63.07  0.001925097    1.838    0.456
       123 -10.8618     77.1586    175.0104   1.2715700375e+02   2.9187588082e+01    0.2970279     0.235349 -55.71 0.0003847467    1.285    0.222
       124 -11.7460     64.0079    173.3107   1.3008834166e+02   3.1503083562e+01    0.3417867     0.231872 -57.55 0.0003809448    1.410    0.291
       125 -11.8723    248.8265    171.6803   8.8927721838e+01  -2.5463970267e+00    0.4561999    0.4012575  55.82  0.002784415    1.410    0.291
       126 -13.4672    245.0366    158.3527   8.6806736131e+01   4.7881047316e-01     2.291852    0.8457778 -49.02  0.008210003    3.055    0.673
       127 -12.7006    247.9631    101.3954   7.4139034050e+01   1.0200676327e+01    0.9245238    0.5163396 -43.92  0.004472904    1.546    0.353
       128 -11.9293    248.0789    112.8913   7.6603236056e+01   8.1450240682e+00     1.348068    0.8707181  -1.29  0.005101267    3.827    0.739
       129 -11.8297    247.9269    142.1226   8.2901220538e+01   2.8914601655e+00    0.6072478    0.5473763 -18.74  0.002948757    1.151    0.131
       130 -12.7630    248.4605    133.8122   8.1044324198e+01   4.2993203249e+00     1.454411     0.561046 -40.28   0.00576195    2.262    0.558
       131 -11.7774    107.8116    172.9111   1.1930005793e+02   2.4620782138e+01     0.285233    0.2609353  80.89   0.00028787    1.032    0.031
       132 -10.3637     19.4282    172.8650   1.4045868340e+02   3.6779108708e+01    0.3490989    0.1972458  55.13  0.001627393    1.817    0.450
       133 -10.1755     45.0012    164.9583   1.3352531986e+02   3.5963518907e+01    0.2993185    0.2074587 -77.42 0.0004179526    1.250    0.200
       134 -10.7183     46.0536    172.2286   1.3424083118e+02   3.4079429565e+01    0.3620745    0.2062851 -52.29 0.0003492074    1.800    0.445
       135 -10.5751     43.6266    169.1927   1.3442255841e+02   3.5099346316e+01     0.324658    0.2755794 -53.20  0.001102153    1.318    0.241
       136 -10.4810      7.2285    167.0369   1.4259967952e+02   3.9216798988e+01    0.2916613    0.1900404  87.84 0.0009745815    1.295    0.228
       137 -10.9410      4.3098    172.9014   1.4377905058e+02   3.8106087446e+01     0.339655    0.1861999  24.28  0.001936945    2.477    0.596
       138 -11.7026      1.8886    166.1430   1.4369703698e+02   3.9849556902e+01    0.6410698    0.1419606 -72.91  0.002412273    3.385    0.705
       139  -9.4646     28.2285    170.7116   1.3822571180e+02   3.6420312471e+01    0.3493865    0.1590432 -55.90  0.001141955    2.053    0.513
       140  -8.2440    166.7468    170.3805   1.0484678517e+02   1.3596690913e+01    0.1550228    0.1195525 -80.48 0.0006961238    1.658    0.397
       141  -8.4379    150.7656    170.3114   1.0848022297e+02   1.6905904566e+01    0.1483016    0.1182698 -84.56 0.0001417144    1.494    0.331
       142  -8.6111     52.6191    170.7777   1.3247732166e+02   3.3623227653e+01    0.1208491    0.1022888 -27.67 0.0005979933    1.608    0.378
       143 -11.8955     84.9249    166.5032   1.2383908624e+02   3.0063615178e+01    0.6061594     0.549208  37.08  0.003444026    1.258    0.205
       144 -10.1592     89.7942    160.0969   1.2146097397e+02   3.0850297509e+01    0.2405811     0.220795 -89.42 0.0003097833    1.029    0.029
       145 -11.1929     13.9037    167.1825   1.4111670185e+02   3.8614371526e+01    0.3284759    0.3200593  79.35  0.001704986    1.337    0.252
       146  -9.9548     68.5462    166.6127   1.2795621290e+02   3.2504772591e+01    0.2511974    0.2151873 -80.73  0.001447362    1.023    0.022
       147  -8.1742     58.3029    167.3290   1.3060191048e+02   3.3731021402e+01    0.1356352   0.09926159 -41.69 0.0004135675    1.648    0.393
       148 -10.5610     12.6754    161.6483   1.4082190560e+02   4.0015878893e+01    0.2444594    0.1780257  85.69  0.001214919    1.198    0.166
       149  -8.3014    118.6674    162.7419   1.1466279595e+02   2.5062631448e+01    0.1454422    0.1231184  -4.73 0.0002278349    1.568    0.362
       150  -9.0050     58.4591    162.5298   1.2984398407e+02   3.4885124260e+01     0.139692    0.1190537 -82.06 0.0001095996    1.018    0.018
       151  -9.0308     73.5065    159.5141   1.2553691382e+02   3.3533794448e+01    0.1446063    0.1272802 -81.63 1.804667e-05    1.019    0.019
       152  -8.9226     47.6870    157.7148   1.3183364231e+02   3.7409603709e+01    0.1297607   0.09620521 -41.63            0    1.578    0.366
       153 -10.6287     31.9425    155.7715   1.3550489568e+02   3.9616575029e+01    0.3584039    0.1935482 -53.83 0.0008194371    1.728    0.421
       154 -11.4872     23.9647    155.1545   1.3739160385e+02   4.0543814716e+01    0.4391669    0.2811425  26.96  0.002516303    1.970    0.492
       155 -12.8520      2.6387    129.7397   1.3963766553e+02   4.8204811984e+01     1.101167    0.2307328 -71.24  0.003820968    3.871    0.742
       156 -10.0913     84.8420    155.4071   1.2187289580e+02   3.2808207990e+01    0.2258995    0.1867584 -46.63 0.0002534497    1.271    0.213
       157  -9.3477     71.7177    156.3139   1.2544874628e+02   3.4584584697e+01     0.263204    0.1798466   2.40  0.001159556    2.555    0.609
       158  -9.0152    228.3689    155.2866   8.9049361805e+01   4.1447166023e+00    0.2009722    0.1242593 -47.44 0.0004896885    1.559    0.359
       159  -9.7114    104.9000    153.4614   1.1627760025e+02   2.9870604911e+01    0.2373834    0.1955514 -73.47 0.0003273496    1.202    0.168
       160  -9.6715    114.0539    150.7503   1.1334961560e+02   2.8834413195e+01    0.3533458    0.2106809 -63.80 0.0006033988    1.817    0.450
       161 -10.4875     97.5110    151.1807   1.1774057093e+02   3.1737352392e+01    0.3591606    0.3251312 -50.94  0.001948544    1.130    0.115
       162 -10.6167     23.5126    149.8587   1.3683550755e+02   4.1849272144e+01    0.2819057    0.1684684 -47.83  0.001001515    1.747    0.428
       163  -9.0968     86.3406    149.8174   1.2041711970e+02   3.3945175211e+01    0.2286648    0.1367652 -60.09 0.0003795998    1.559    0.359
       164  -9.4775     84.1837    146.8381   1.2041037103e+02   3.5024776893e+01    0.2108506    0.1779577 -67.98  0.000388978    1.091    0.083
       165 -12.2559     68.3362    144.3582   1.2420816659e+02   3.8015075788e+01    0.6928471    0.4922995  85.92  0.002108906    1.640    0.390
       166 -10.7180     10.9948    150.0300   1.3994471268e+02   4.2879365423e+01    0.2024771    0.1954553 -82.17 0.0003141441    1.281    0.220
       167  -9.3450    101.0162    146.4642   1.1584752380e+02   3.2275454964e+01    0.3328047    0.1695397 -39.17  0.001232903    2.455    0.593
       168  -9.5914     53.2911    146.6159   1.2864588098e+02   3.9446947258e+01    0.2168751    0.1475464  76.63 0.0006499832    1.715    0.417
       169 -10.2284    236.2696    146.0714   8.5672817656e+01   4.3605195239e+00     0.251741    0.2147501  59.78 0.0007458023    1.352    0.260
       170 -10.3780    133.3552    141.6136   1.0639436986e+02   2.7174036922e+01    0.6729135    0.2605704 -52.37  0.002212722    2.644    0.622
       171  -8.9056    104.8807    143.0930   1.1410386935e+02   3.2399638467e+01    0.1977959    0.1753397 -31.60 0.0003774322    1.257    0.205
       172 -12.4379     17.0921    139.3977   1.3710769371e+02   4.4890986557e+01    0.5942609    0.2851815  54.24  0.002858397    2.599    0.615
       173 -10.7320     32.8199    140.5777   1.3314112233e+02   4.3187793988e+01    0.3093844    0.1887285 -88.61 0.0008956218    1.775    0.437
       174 -10.7515     72.5343    139.6195   1.2216101846e+02   3.8576731591e+01     0.306125    0.2371821  31.64 0.0008548362    1.474    0.322
       175  -9.3257     37.1439    140.1896   1.3192680761e+02   4.2843075758e+01    0.1831153    0.1407032  84.37  0.000644297    1.332    0.249
       176 -11.0889     60.4030    136.6078   1.2494335377e+02   4.0991111672e+01    0.3359444    0.2480403 -87.36  0.001760056    1.478    0.323
       177  -8.7248     55.8494    138.6328   1.2657490012e+02   4.1080617293e+01    0.1742281    0.1235811  49.19 0.0002766262    1.561    0.359
       178  -9.7910    109.5296    136.2795   1.1134819921e+02   3.3180902579e+01    0.3361962     0.240499 -20.51  0.001446302    2.000    0.500
       179 -11.1794     44.9025    130.9149   1.2824768395e+02   4.4246333597e+01    0.3729029    0.2858831 -89.39  0.002119497    1.377    0.274
       180 -10.6831     33.0320    131.7232   1.3170447927e+02   4.5289364138e+01    0.2205518    0.1625936 -61.10 0.0002995573    1.128    0.114
       181  -9.5419     19.3051    130.3096   1.3525852597e+02   4.6852445520e+01    0.1282069   0.07884052 -45.67 0.0004814605    1.611    0.379
       182  -9.1310    115.2885    129.3540   1.0818560130e+02   3.3718293385e+01    0.1574321    0.1217134 -19.25 0.0004854442    1.674    0.402
       183 -11.4670     67.4760    128.5043   1.2134978375e+02   4.2001959455e+01    0.3660655    0.3021968  71.70  0.002017281    1.368    0.269
       184 -10.4503     59.4348    128.0648   1.2356968141e+02   4.3187743512e+01    0.2316741    0.2092218  33.08 0.0003074059    1.266    0.210
       185 -10.8275     23.1550    126.5420   1.3362955651e+02   4.7417740922e+01    0.3111928    0.1768511 -86.70  0.001547661    2.002    0.500
       186 -11.8263     22.2131    121.3872   1.3307834003e+02   4.8704532244e+01    0.3169647    0.2391899 -50.71  0.001988739    1.202    0.168
       187 -10.2602    209.9488    125.7499   8.5762441775e+01   1.3695362027e+01    0.3001231    0.2216014 -43.42 0.0005145737    1.266    0.210
       188 -10.0301     54.9422    120.7253   1.2339840504e+02   4.5508896101e+01    0.2583317    0.1947402 -16.12  0.001379801    1.691    0.409
       189 -11.8783      2.2338    145.4106   1.4155734066e+02   4.4611473658e+01    0.7705969    0.2610604 -79.14   0.00322321    2.771    0.639
       190 -12.0497     11.2603    115.6019   1.3530796548e+02   5.0875133982e+01    0.3191944    0.2130261 -41.15  0.001358548    1.499    0.333
       191 -10.1832    168.0817    113.1481   9.1097926884e+01   2.5808145475e+01    0.3731536    0.2889016 -82.84 0.0009696905    1.578    0.366
       192 -13.0712      7.9639    142.8860   1.3986393045e+02   4.4784976701e+01    0.9208553    0.2822591 -65.07  0.004066288    2.318    0.569
       193  -9.7782    231.9638    116.5102   7.9857943997e+01   1.0758962349e+01    0.2010059     0.143786  56.72 0.0005285348    1.541    0.351
       194 -10.6138     67.3727    115.4734   1.1855747480e+02   4.5115740848e+01    0.3507011    0.2461515  32.84  0.001552413    1.591    0.371
       195  -9.7248     29.4784    109.4796   1.2883857749e+02   5.0837006417e+01    0.1294667    0.1062746 -57.54 4.606528e-05    1.003    0.003
       196  -9.0582    203.5032    111.4963   8.3565117986e+01   1.7934321856e+01    0.1506495    0.1424841 -55.61 0.0007673392    1.043    0.041
       197 -12.1429     12.8708    153.6050   1.3989743942e+02   4.1887579476e+01    0.4936532    0.2728492 -50.58  0.001185795    1.829    0.453
       198 -11.0090     14.4842    104.1348   1.3245895852e+02   5.3248959476e+01    0.2278579    0.1482018  45.70  0.001344542    1.944    0.486
       199  -8.3869     71.7058    100.2565   1.1354548581e+02   4.7965978878e+01    0.1285615     0.108937  80.77 0.0002188636    1.494    0.331
       200  -9.7871     17.1542     99.1407   1.3071394599e+02   5.4171117029e+01    0.1563415    0.1325238 -86.53  0.000252324    1.313    0.239
       201  -9.0179     28.9573     94.4662   1.2595597461e+02   5.4255065281e+01    0.1612077    0.1249905  19.33 0.0005509832    1.523    0.343
       202 -10.9961    249.5297    151.0526   8.4531222383e+01   9.8759566064e-01    0.5334215    0.2967521 -42.81  0.002562052    1.583    0.368
       203 -10.4398    249.6986    117.9198   7.7449309258e+01   6.9288236273e+00    0.4172082    0.2742887 -25.85  0.001720997    1.790    0.441
       204 -11.7648    199.6317    246.2666   1.1206804155e+02  -6.7769470379e+00    0.5591441    0.1897954  42.07   0.00229904    2.684    0.627
       205 -10.4503    192.7894    248.8058   1.1378870150e+02  -6.0647456670e+00    0.2474973    0.1968863  17.02   0.00104493    1.183    0.155
