#   1 NUMBER                 Running object number                                     
#   2 MAG_AUTO               Kron-like elliptical aperture magnitude                    [mag]
#   3 X_IMAGE                Object position along x                                    [pixel]
#   4 Y_IMAGE                Object position along y                                    [pixel]
#   5 X_WORLD                Barycenter position along world x axis                     [deg]
#   6 Y_WORLD                Barycenter position along world y axis                     [deg]
#   7 A_WORLD                Profile RMS along major axis (world units)                 [deg]
#   8 B_WORLD                Profile RMS along minor axis (world units)                 [deg]
#   9 THETA_WORLD            Position angle (CCW/world-x)                               [deg]
#  10 FWHM_WORLD             FWHM assuming a gaussian core                              [deg]
#  11 ELONGATION             A_IMAGE/B_IMAGE                                           
#  12 ELLIPTICITY            1 - B_IMAGE/A_IMAGE                                       
         1 -16.4773    232.6841     99.4868   2.6202518229e+01   1.3726954969e+01     4.039322     3.040122 -31.23   0.02298052    1.178    0.151
         2 -12.7289     22.3933    100.1404   8.1991468139e+01   5.3441867053e+01     1.028383    0.4478383  86.35  0.003891137    3.251    0.692
         3 -11.9416     63.2475     93.3173   6.5878688843e+01   5.0595076325e+01    0.8869891    0.2982666 -62.71  0.002834172    3.441    0.709
         4 -10.9854     40.9510     13.9621   4.6429653429e+01   7.0398338113e+01    0.1915815    0.1611618  -5.73 0.0002970541    1.012    0.012
         5 -10.8026     52.4673    250.0283   8.7674849491e+01   1.8110219821e+01    0.2604368    0.1360975  32.61  0.001035131    1.740    0.425
         6 -10.7341     57.1322    247.3849   8.6656005920e+01   1.8000922606e+01    0.2138717    0.1528697  39.02 0.0007305478    1.245    0.197
         7 -10.6721    162.2192    224.9960   6.3830860015e+01   7.0135017823e+00    0.3091353    0.1810811  14.41  0.001599189    2.143    0.533
         8 -10.6805     98.1795    225.1711   7.6793941440e+01   1.6466230710e+01    0.2952529    0.1778744  37.39  0.001286972    1.354    0.261
         9 -10.2867     84.3546    226.6779   7.9776965740e+01   1.8097892371e+01    0.1292165   0.07085207  57.72 0.0007046591    1.758    0.431
        10 -10.6743    126.1848    220.5868   7.0496144407e+01   1.3158413177e+01    0.2203448    0.1653025  58.83 0.0006659632    1.432    0.302
        11 -10.2195     74.1929    219.1448   8.1211393418e+01   2.0786039640e+01    0.1763137     0.113297  56.95 0.0009914738    1.352    0.260
        12 -10.1480    143.6059    216.7994   6.6425678906e+01   1.1105109211e+01    0.1493737    0.1230702 -68.74 0.0009502301    1.644    0.392
        13 -10.1575    170.1488    215.1009   6.0858575213e+01   7.2300095153e+00    0.1933233    0.1488073  12.62  0.001176025    1.239    0.193
        14 -10.0587    186.3123    214.6377   5.7669719057e+01   4.8018035995e+00    0.1122753   0.09467559  60.54 0.0005864515    1.753    0.429
        15 -10.6024     76.5223    211.9774   8.0068591956e+01   2.1809715737e+01    0.1696358    0.1171282 -73.22  0.001042775    1.622    0.384
        16 -11.0645    185.9382    204.1494   5.6070115869e+01   6.3371896566e+00    0.1883163    0.1629269  39.40   0.00123424    1.308    0.235
        17 -11.4523    165.1082    202.2764   5.9895332385e+01   9.9765910305e+00    0.3570301    0.2961113 -81.84  0.002128409    1.894    0.472
        18 -12.2153    163.8752    194.6975   5.8925214957e+01   1.1393556311e+01    0.5036097    0.3539941  69.06  0.002499594    2.429    0.588
        19 -12.3675    176.7172    198.0122   5.6865368907e+01   8.7378862156e+00    0.4228151    0.2402764  21.88  0.002084242    1.902    0.474
        20 -10.4121    112.6772    195.8450   7.0226474252e+01   1.9614793634e+01    0.3678392    0.1576758 -50.01  0.001627261    2.701    0.630
        21 -10.5314    124.8387    197.0491   6.7676271467e+01   1.7452754804e+01    0.3303892    0.1588434  41.24  0.001548779    1.764    0.433
        22 -10.3069     66.3352    193.4550   8.0555592726e+01   2.6799374655e+01    0.2984444    0.1453032  67.98   0.00133165    2.589    0.614
        23 -10.4501    138.8571    188.7475   6.3320906824e+01   1.6647889403e+01     0.237235    0.1652901 -64.05  0.001247802    1.883    0.469
        24 -10.0501    129.3791    188.2004   6.5353412815e+01   1.8344216242e+01    0.1729406    0.1301794 -70.17 0.0005750436    1.689    0.408
        25 -11.3563     94.9735    183.2817   7.2645795157e+01   2.4850459510e+01    0.4110785     0.260823 -71.48  0.002130751    1.824    0.452
        26 -10.5199     11.6069    187.2356   9.2505174361e+01   3.4064271789e+01    0.1494083   0.09226534 -74.83 0.0004716132    1.580    0.367
        27 -10.3668      7.6800    187.6782   9.3386565847e+01   3.4310636512e+01     0.102527   0.08154573 -52.67 0.0004813736    1.671    0.402
        28 -10.1597    165.4075    186.2555   5.7180339699e+01   1.2526735352e+01    0.1695369    0.1305497 -54.55  0.000876458    1.656    0.396
        29 -10.6356    174.2500    182.9595   5.4766408648e+01   1.1540311590e+01     0.242287      0.20896 -87.50  0.001398984    1.753    0.430
        30 -10.3924     20.2267    181.7693   9.0266891386e+01   3.4437695407e+01    0.2711253   0.08476406 -87.93  0.001065491    3.597    0.722
        31 -10.8918    147.8607    179.5729   5.9803954198e+01   1.6761177065e+01    0.2547736    0.1911991 -72.02  0.001323945    1.901    0.474
        32 -10.5718    138.3693    179.1565   6.1861997886e+01   1.8504864694e+01    0.1852311    0.1322686 -65.21 0.0009473957    1.812    0.448
        33 -12.4620      3.3746    177.4991   9.3879830403e+01   3.6799974851e+01    0.3989953    0.2735091 -72.75  0.002680124    1.468    0.319
        34 -11.2352     77.5574    175.1401   7.5829869661e+01   2.9146204900e+01    0.3238956    0.1794949  75.09  0.001413679    2.495    0.599
        35 -10.2641    183.4137    175.1968   5.1475199840e+01   1.1198536757e+01    0.1771818     0.128206 -48.56 0.0009474753    1.700    0.412
        36 -10.9752    177.2272    169.9760   5.1739568059e+01   1.3170734665e+01    0.3547186    0.2185672 -42.22   0.00176726    1.769    0.435
        37 -11.5020    121.8199    167.6898   6.3790101211e+01   2.3660479726e+01    0.5637963    0.3105163 -59.14  0.002523487    2.135    0.532
        38 -11.4937    139.1895    163.9034   5.8969472692e+01   2.1295946307e+01    0.5153705    0.2764671 -61.34  0.002094547    2.659    0.624
        39 -10.7575     80.0043    163.7241   7.3693981769e+01   3.1313130154e+01    0.2894973    0.1608335  81.53  0.001173064    2.766    0.638
        40 -10.7657    146.2350    162.7790   5.7120078308e+01   2.0208651142e+01    0.2392582    0.2070787  85.39 0.0004976752    1.459    0.314
        41 -11.6456    205.7974    161.9176   4.4536651536e+01   9.3234499516e+00    0.2414502    0.1877141 -49.42   0.00134989    1.654    0.395
        42 -10.7030    177.7798    159.7783   4.9608125505e+01   1.4811575233e+01    0.2776807     0.197321 -48.53   0.00134786    1.643    0.391
        43 -10.9557     92.7019    159.0016   6.9681045396e+01   3.0424964564e+01    0.3819198    0.2203606 -69.61  0.001737202    2.001    0.500
        44 -11.7709    196.9220    157.0364   4.5215625680e+01   1.1696626091e+01    0.3137415    0.2233966 -46.76  0.001631605    1.661    0.398
        45 -12.6869    188.8379    136.3263   4.2313903185e+01   1.6714706799e+01    0.7667015     0.295758 -44.81  0.002770214    2.887    0.654
        46 -12.8673    188.9131    148.2006   4.4919833582e+01   1.4669682301e+01    0.6781902    0.3486514 -47.74  0.002869066    2.333    0.571
        47  -9.9354    128.3974    158.1970   6.0485935557e+01   2.4432715589e+01    0.1978588    0.1395505 -65.46 0.0009507336    1.728    0.421
        48 -10.4191    105.1875    156.7214   6.6058725600e+01   2.8869339119e+01    0.3474319    0.1976845 -66.01   0.00152315    2.093    0.522
        49 -11.9447    204.9953    154.2620   4.3112964135e+01   1.0656231329e+01    0.2990313      0.18804 -38.06   0.00118075    1.624    0.384
        50 -10.9034    167.8905    156.3937   5.1012484552e+01   1.7293044757e+01    0.3271512    0.1889414 -50.19  0.001460993    2.050    0.512
        51 -10.6967     49.9109    154.4144   8.0481352134e+01   3.7462225473e+01     0.479202    0.2238031  78.99  0.001846821    3.149    0.682
        52 -10.7248     81.2812    153.6679   7.1877403355e+01   3.3407543873e+01    0.2575811    0.1698859 -81.38  0.001098948    1.735    0.424
        53 -11.0295     67.8189    152.9677   7.5427448680e+01   3.5510443721e+01    0.4193499    0.2496078  75.64  0.001883145    2.090    0.522
        54 -10.9026    132.9035    152.2753   5.8243550006e+01   2.4814585252e+01    0.3647569    0.2592348 -89.64  0.001615297    2.224    0.550
        55  -9.9658    162.5847    149.8295   5.0808085993e+01   1.9534850927e+01    0.1989625    0.1386657 -53.84 0.0009474522    1.709    0.415
        56 -12.3000    200.2502    147.8904   4.2654036003e+01   1.2553185544e+01    0.3777503    0.2326704 -43.23  0.001799214    1.762    0.433
        57 -10.5541     39.1563    146.9973   8.2593854608e+01   4.0421386271e+01    0.2336726    0.1256374  72.24  0.001088758    2.070    0.517
        58 -11.7578    148.9478    142.7671   5.2413034230e+01   2.3612995394e+01    0.8025671    0.3818825 -52.21  0.003078788    2.497    0.600
        59 -11.0774    106.8262    144.1896   6.3345140909e+01   3.1366580933e+01    0.5401557    0.3318385  88.54  0.002035386    2.986    0.665
        60 -11.0857     55.5189    144.6679   7.7708710232e+01   3.9085088090e+01    0.4356534    0.2330303  75.47  0.001840559    2.479    0.597
        61 -11.1451    165.8197    142.8254   4.8583365487e+01   2.0201706375e+01    0.4237728     0.189428 -47.24  0.001620884    2.494    0.599
        62 -10.9585     87.7798    141.9723   6.8154600678e+01   3.5106026692e+01    0.5419066    0.1959727 -61.93  0.001883837    3.067    0.674
        63 -11.2515    124.4095    140.9923   5.8083082564e+01   2.8816308434e+01    0.5569859     0.276628 -61.92  0.002035968    2.809    0.644
        64 -10.7621    182.0993    140.7059   4.4655276029e+01   1.7306835694e+01    0.2557243    0.1981613 -46.41  0.001326991    1.422    0.297
        65 -10.8772    172.3337    137.1171   4.5894071435e+01   1.9934721976e+01    0.3405157    0.2244902 -57.78  0.001513545    2.027    0.507
        66 -10.7824     23.0321    137.7314   8.6192973837e+01   4.4196037493e+01    0.2809525    0.1236133  73.24  0.001173481    2.718    0.632
        67 -10.7403    162.5711    135.3051   4.7619159355e+01   2.2288421117e+01    0.2845541    0.1430383 -45.72   0.00114099    2.110    0.526
        68 -11.2163    161.4813    249.0029   6.7066319470e+01   3.8672663291e+00    0.1430052    0.1137033 -36.20  0.001042832    1.621    0.383
        69 -12.4201    192.9826    113.4852   3.6109770705e+01   1.9772349130e+01     0.521084    0.2273828 -42.15  0.002008208    2.298    0.565
        70 -12.9238    189.2060    106.1499   3.4988781295e+01   2.1850377073e+01    0.4690875    0.2539219 -40.44  0.001999217    1.804    0.446
        71 -12.0029    186.0204    114.3977   3.7671439643e+01   2.1122253238e+01    0.4362679    0.2162766 -38.15  0.001367381    1.965    0.491
        72 -11.1622      2.5868    115.5397   9.0318432895e+01   5.1022377836e+01    0.5938207    0.1533385 -89.24  0.001823161    5.025    0.801
        73 -11.4142     78.5637    110.9538   6.4765285874e+01   4.3988674408e+01    0.7512237    0.3398288 -71.57  0.002375035    3.727    0.732
        74 -11.5472     92.2024    109.7480   6.0184159787e+01   4.1953586867e+01    0.8934959    0.2856206 -56.24  0.002746883    3.432    0.709
        75 -11.7041    174.7257    109.8760   3.8810226194e+01   2.4423752208e+01    0.4781359    0.2534656 -39.77  0.001969337    1.864    0.464
        76 -11.6092    159.3039    110.6717   4.2361049542e+01   2.7739500364e+01    0.4496278    0.2384737 -40.31  0.001812019    1.894    0.472
        77 -11.3237    122.0152    110.6856   5.1700347660e+01   3.5911751360e+01     0.480671     0.235591 -44.74  0.001841091    2.075    0.518
        78 -11.7650     14.8539    108.1750   8.5630789443e+01   5.2026600210e+01    0.4872411    0.2751884 -63.48  0.002362242    1.523    0.343
        79 -11.1556     66.4918    109.2915   6.8346373154e+01   4.6236636062e+01    0.4593131    0.1891304 -68.63  0.001578468    3.060    0.673
        80 -11.6814    108.8724    111.4263   5.5595635195e+01   3.8421603658e+01     0.847681    0.3343438 -52.54  0.002904423    2.681    0.627
        81 -11.9831    183.0529    107.8987   3.6621387976e+01   2.2915457963e+01    0.3808666    0.2173622 -38.51  0.001646454    1.710    0.415
        82 -10.6942    133.1489    108.0602   4.8040393721e+01   3.4090368254e+01    0.3775983    0.2295813 -44.97  0.001599741    1.671    0.401
        83 -10.9530    179.5717    132.6771   4.3354097075e+01   1.9248892566e+01    0.4207013     0.256388 -45.31  0.001691955    1.752    0.429
        84 -11.6222    139.7920    102.5840   4.4872166736e+01   3.3747581789e+01    0.5990736     0.294382 -41.28  0.002280997    2.062    0.515
        85 -10.8183      5.7259    244.6348   9.5825885052e+01   2.3824126419e+01    0.1602088    0.1066866 -78.72 0.0009280764    1.686    0.407
        86 -11.7496     44.8115    101.1074   7.4159800167e+01   5.1050738753e+01     0.639043    0.3237613  72.18  0.002266688    3.628    0.724
        87 -11.6796    128.5843    100.1064   4.7101014707e+01   3.6764881488e+01    0.5671199    0.3014472 -41.52   0.00223855    1.915    0.478
        88 -11.6625    175.8761    100.1962   3.6051738918e+01   2.5905749034e+01    0.3471892    0.2167567 -30.11  0.001458793    1.653    0.395
        89 -11.2745    159.8233     99.3919   3.9247780652e+01   2.9772377440e+01    0.4379926    0.2068398 -42.94  0.001646913    2.134    0.531
        90 -12.2100    108.1972     96.0599   5.1745538998e+01   4.2001279913e+01    0.8215145    0.4226243 -52.98  0.003173996    2.085    0.520
        91 -11.0741     81.6344     98.0661   6.0696445910e+01   4.6560533388e+01    0.4917386    0.1856919 -56.24  0.001692521    2.721    0.633
        92 -12.3237    192.5313    129.2471   3.9967113944e+01   1.7178015959e+01    0.3522392    0.2734462 -29.79  0.001288467    1.252    0.202
        93 -10.6476      3.3578    249.2048   9.6358594442e+01   2.3282991863e+01    0.1707154    0.1033845  50.89 0.0006858404    1.149    0.130
        94 -10.9854     94.8119     94.5093   5.5451733667e+01   4.5005153791e+01    0.5699328    0.2009568 -45.76  0.001880529    2.834    0.647
        95 -11.5279    168.8113    128.4138   4.4638980506e+01   2.2284645041e+01    0.4699298    0.2354308 -45.40  0.001884535    2.113    0.527
        96 -12.5138    177.1082     92.0223   3.3608333904e+01   2.7059049272e+01    0.4355756    0.2190045 -40.24  0.001737078    1.940    0.485
        97 -11.8144    165.0336     92.5437   3.6224705742e+01   2.9817572852e+01    0.4038109    0.2347337 -32.38  0.001676927    1.777    0.437
        98 -11.1124    152.8268    127.6407   4.8068651544e+01   2.5826231396e+01    0.5890368    0.2570189 -50.47  0.002088481    2.698    0.629
        99 -10.8597    157.6521     90.0168   3.7120450064e+01   3.2035965471e+01    0.3616309    0.1445324 -37.52  0.001240256    2.499    0.600
       100 -11.9617    124.8134     87.5875   4.4529313923e+01   4.0207715823e+01    0.8303431    0.3893819 -34.64  0.002950579    2.438    0.590
       101 -11.9187    167.0374    102.0182   3.8378402497e+01   2.7611917936e+01    0.5268424    0.2291117 -37.06  0.001922958    2.302    0.566
       102 -11.2459    151.0678     87.8632   3.7994387736e+01   3.4009885979e+01    0.3410657    0.2029354 -42.14  0.001422911    1.687    0.407
       103 -11.2637     85.9173     85.7995   5.5925105097e+01   4.8650498456e+01    0.3925025    0.2737541 -83.81  0.001662865    2.185    0.542
       104 -11.6249    188.6743    156.6309   4.6746311119e+01   1.3297289899e+01    0.4153374    0.2551494 -43.66  0.001363671    1.785    0.440
       105 -11.3706    138.6944     89.8801   4.1566097948e+01   3.6548629504e+01    0.5544801    0.2926976 -41.01  0.002179426    1.904    0.475
       106 -12.1432     98.6905    124.3198   6.1559435819e+01   3.7374248753e+01     0.992606    0.4102534 -55.02  0.003632165    2.482    0.597
       107 -11.2263     48.1443     83.4102   6.9135755291e+01   5.4999557286e+01    0.4431606    0.2524901 -86.16  0.001767329    2.767    0.639
       108 -10.4456     72.7924    128.3023   7.0057216464e+01   4.0679777518e+01    0.3481716    0.1934472 -80.24  0.001408007    2.390    0.582
       109 -11.4835    140.9929     81.3355   3.8450838655e+01   3.7656312042e+01    0.4448703    0.2324228 -35.30  0.001721488    1.983    0.496
       110 -11.5740    104.3008     80.8281   4.8446027864e+01   4.6116767176e+01     0.687346    0.2627203 -45.77  0.002338141    2.619    0.618
       111 -11.2730     24.2695     79.7516   7.7883740065e+01   5.8304639025e+01    0.4526177    0.2030485 -81.08   0.00182329    2.723    0.633
       112 -11.2779    150.2460     78.8561   3.5515132700e+01   3.5873008609e+01     0.390268    0.2102722 -38.75  0.001556718    1.848    0.459
       113 -10.7956     12.3992    128.6146   8.8449822821e+01   4.7235345312e+01    0.2572287   0.09257078  85.22 0.0009555027    3.362    0.703
       114 -10.7466    119.1920     78.5098   4.3305793380e+01   4.3324998141e+01    0.3129622    0.2203472 -40.65  0.001419611    1.428    0.300
       115 -11.6041    174.8844     76.9069   2.9811528092e+01   3.0166959746e+01    0.3281053    0.2008494 -29.58     0.001419    1.677    0.404
       116 -10.4363    112.5971    132.3807   5.9388370282e+01   3.2963257893e+01    0.3651988    0.1930749 -68.08  0.001300482    2.918    0.657
       117 -10.9229    157.5477     74.7526   3.2664797106e+01   3.4804801795e+01    0.2952632    0.1544926 -29.69  0.001131953    2.072    0.517
       118 -10.9553    140.4872     73.4977   3.6148011020e+01   3.9235834330e+01    0.3331686    0.1540313 -36.49  0.001217751    2.190    0.543
       119 -10.7174     10.0120     74.3195   8.2809844212e+01   6.0607141936e+01    0.1639019    0.1521751 -54.79 0.0002436924    1.120    0.107
       120 -11.0080    143.0281    130.1643   5.1008805972e+01   2.7373254621e+01    0.5074757    0.2271008 -46.42  0.001902091    2.330    0.571
       121 -11.2440     81.9777     71.7836   5.3004282492e+01   5.2491658103e+01     0.410026     0.204852 -57.29   0.00154808    2.425    0.588
       122 -10.3343     74.4749     79.4865   5.8102307824e+01   5.2101579563e+01    0.2758286    0.1414264 -62.79  0.001040524    2.462    0.594
       123 -11.4686    117.1014    123.3363   5.6138002819e+01   3.4118174097e+01     0.649803     0.384213 -58.27  0.002723539    1.906    0.475
       124 -11.8692    180.1645    123.2682   4.1012609974e+01   2.0812623095e+01    0.5877361    0.2530178 -34.42  0.002195451    2.415    0.586
       125 -11.1009    163.0163     70.2361   3.0166751897e+01   3.4213190810e+01    0.2871637    0.2049784 -14.49  0.001283971    1.688    0.407
       126 -11.0985    158.3639     81.5547   3.4515810111e+01   3.3404645028e+01    0.3175978    0.1925716 -32.91  0.001337535    1.688    0.408
       127 -10.9184     94.7301     68.4684   4.7502196379e+01   5.0694491185e+01    0.7160093    0.1861574 -47.39  0.001970682    4.180    0.761
       128 -11.2271    170.9631     82.2472   3.2100319009e+01   3.0218355524e+01    0.2826817    0.2016063 -17.00  0.001276083    1.638    0.390
       129 -11.1117     50.9298     67.2836   6.3680850498e+01   5.8451890035e+01     0.609152    0.1957037 -61.09  0.001904088    3.860    0.741
       130 -11.1949    167.4950     76.5006   3.1131381287e+01   3.2047507367e+01    0.3238077     0.150254 -33.66  0.001208649    2.162    0.537
       131 -11.1356     58.9199    122.8530   7.3370137046e+01   4.3947300827e+01    0.5778738    0.2961217  85.55  0.002037102    3.442    0.709
       132 -11.4767    128.0956     72.3660   3.8908219919e+01   4.2442955350e+01    0.6747136    0.3040851 -32.61  0.002369137    2.497    0.599
       133 -11.1555     34.5739     87.0283   7.5216908980e+01   5.5604367325e+01    0.6896345    0.2082297 -64.66  0.002497598    2.880    0.653
       134 -11.0542    146.9991     66.0245   3.2258643864e+01   3.8942032703e+01    0.5138711    0.2332289 -28.45  0.001804044    2.551    0.608
       135 -10.9034    138.6775     64.0618   3.3540605125e+01   4.1361406569e+01     0.415626    0.1978427 -27.01  0.001467067    2.545    0.607
       136 -10.7255    121.5232     63.7141   3.7783863814e+01   4.5618753416e+01    0.4670646    0.1559005 -35.63  0.001447681    3.159    0.683
       137 -11.1337    110.0067     60.9970   4.0100483262e+01   4.8819835717e+01    0.5221713     0.210356 -29.87    0.0016356    3.324    0.699
       138 -12.3207    188.6594    122.7652   3.9191782782e+01   1.9098688388e+01     0.419397    0.2377362 -40.75  0.001433864    1.759    0.432
       139 -11.6478     43.1245    120.7684   7.8043239124e+01   4.6364857980e+01    0.8498585    0.3591073 -89.59  0.002702609    4.316    0.768
       140 -11.3029    131.6860    129.3686   5.3665566799e+01   2.9873462822e+01    0.6758845    0.3013584 -52.26  0.002465752    2.508    0.601
       141 -11.1883    172.5275    119.9817   4.1806458735e+01   2.3056103757e+01    0.3719307    0.2379485 -51.16  0.001643187    1.790    0.441
       142 -10.3722     99.8851     57.7455   4.2034823472e+01   5.1704382745e+01    0.4740301    0.1558935 -43.23  0.001517172    3.100    0.677
       143 -10.6687     72.9663     57.2233   5.1347247967e+01   5.7208307104e+01    0.6068794    0.1696384 -48.82  0.001833708    3.777    0.735
       144 -10.9194    158.4521    119.9789   4.4909305081e+01   2.6124610969e+01    0.4292418    0.2621101 -44.72  0.001868745    1.687    0.407
       145 -11.9022    141.6574    116.5769   4.8065980611e+01   3.0464446052e+01    0.8569226    0.3259516 -47.20  0.002877896    2.781    0.640
       146 -11.7987    150.1346    100.0408   4.1651894978e+01   3.1893217907e+01    0.8174388    0.2450408 -41.21  0.002452683    3.324    0.699
       147 -11.0221    130.4886    116.9143   5.1001326366e+01   3.2784021250e+01    0.5153056    0.2764068 -56.03  0.001978043    2.230    0.552
       148 -10.6854     70.5077    118.5389   6.8919094489e+01   4.3390210213e+01     0.266886    0.1385382 -74.07  0.001040131    2.418    0.586
       149 -11.8688     45.3224     49.3465   6.0284047441e+01   6.3164425608e+01    0.3909209       0.2153 -40.61 0.0006611567    1.698    0.411
       150 -10.4053     53.4015     51.2395   5.7286425802e+01   6.1642536843e+01    0.5109234    0.1405896 -56.59  0.001266548    6.362    0.843
       151 -10.0208    105.3239     51.0032   3.7834272633e+01   5.1698665894e+01    0.2447402    0.1263542 -13.87 0.0007049096    4.291    0.767
       152 -10.7812     92.0051     48.0714   4.0931069190e+01   5.5191769131e+01     0.620441     0.149727 -41.66  0.001757724    4.172    0.760
       153 -10.2453     82.0000     45.0438   4.3212140518e+01   5.7829449889e+01    0.4029268    0.0808634 -39.69  0.001052799    4.948    0.798
       154 -10.2919    113.2098     42.8955   3.2463479053e+01   5.1169054625e+01    0.4956959     0.259735  -5.79  0.001436369    4.619    0.784
       155 -11.5686     83.2554    129.4229   6.7137373330e+01   3.8796438571e+01    0.8959185    0.2893803 -60.78  0.002909601    3.351    0.702
       156 -11.3677      4.9917     40.2189   7.8229458964e+01   6.8831317587e+01    0.4074797    0.1531327 -80.67  0.001427507    4.407    0.773
       157 -10.3099     12.9958     21.2414   6.7032498650e+01   7.2358399302e+01    0.1691673    0.1414714 -17.69 0.0006199116    1.115    0.103
