#   1 NUMBER                 Running object number                                     
#   2 MAG_AUTO               Kron-like elliptical aperture magnitude                    [mag]
#   3 X_IMAGE                Object position along x                                    [pixel]
#   4 Y_IMAGE                Object position along y                                    [pixel]
#   5 X_WORLD                Barycenter position along world x axis                     [deg]
#   6 Y_WORLD                Barycenter position along world y axis                     [deg]
#   7 A_WORLD                Profile RMS along major axis (world units)                 [deg]
#   8 B_WORLD                Profile RMS along minor axis (world units)                 [deg]
#   9 THETA_WORLD            Position angle (CCW/world-x)                               [deg]
#  10 FWHM_WORLD             FWHM assuming a gaussian core                              [deg]
#  11 ELONGATION             A_IMAGE/B_IMAGE                                           
#  12 ELLIPTICITY            1 - B_IMAGE/A_IMAGE                                       
         1 -15.2356     68.6675    144.3021   1.0814272481e+02   3.7098121876e+01     5.691223     2.704444  66.00  0.003158627    3.907    0.744
         2 -14.3273    199.9597     36.2581   4.7548433474e+01   3.0503055241e+01     1.947762     1.386791  30.78  0.007555454    1.830    0.453
         3 -13.4563      4.3690      8.3396   9.6732608836e+01   7.2940593159e+01     1.523697    0.4855045 -42.05  0.007740878    2.246    0.555
         4 -11.7609    236.3865      1.9873   3.5339613950e+01   2.5777483042e+01    0.6395873    0.2056835  75.25  0.002453229    2.956    0.662
         5 -11.3280     57.9995      3.0045   6.7362713322e+01   6.7178653544e+01     0.261745    0.1410111  31.91   0.00138469    1.674    0.403
         6 -14.4234    211.9137     23.6507   4.2747566087e+01   2.9116143479e+01     1.288491    0.9426915  29.64  0.006782612    1.860    0.462
         7 -16.9471     12.4868    241.4055   1.2899626933e+02   2.2703253689e+01     4.285471     2.029245  31.76   0.02600979    2.591    0.614
         8 -10.8413    139.9055    249.6689   1.0693528251e+02   4.4005881718e+00    0.2067848    0.1811101 -89.37  0.001468634    1.403    0.287
         9 -10.2811    134.6285    248.7197   1.0781436564e+02   5.3654731589e+00    0.3184932    0.1544932 -70.50  0.001376678    4.125    0.758
        10 -14.9895     86.0632    228.7598   1.1494900607e+02   1.6118386568e+01     2.537189     1.282003  46.43     0.013005    1.628    0.386
        11 -13.8144     13.6421    191.6415   1.2610201935e+02   3.2320949700e+01     1.368774    0.3456457 -58.92  0.002218988    4.188    0.761
        12 -15.6638     44.6995    203.7355   1.2082412807e+02   2.6526106268e+01     3.143759     1.422274  65.39  0.008882303    2.294    0.564
        13 -14.4821     53.0313    194.5049   1.1827414486e+02   2.7489507012e+01     1.087015    0.9379944 -80.53  0.003437866    1.200    0.167
        14 -11.2100     69.5341    198.2889   1.1515461250e+02   2.4542079136e+01    0.3192369    0.1898395 -56.69  0.001656697    1.830    0.454
        15 -10.0750    111.9688    197.7470   1.0584787617e+02   1.8241426883e+01    0.1826939    0.1068564  40.25 0.0008888763    1.578    0.366
        16  -9.5887     82.3091    194.9038   1.1199945249e+02   2.3468725133e+01    0.2407879    0.1551749  52.11  0.001308838    1.407    0.289
        17 -15.9075     64.5791    247.8667   1.2057027724e+02   1.5581500106e+01     8.566835     2.481411  30.72  0.003201958   11.473    0.913
        18  -9.0216     97.3232    191.2816   1.0819546965e+02   2.1969818900e+01    0.1235589    0.1076554  -9.08 0.0001982066    1.592    0.372
        19 -10.7963     75.0481    189.8149   1.1298579241e+02   2.5613764730e+01    0.3535523    0.1985803  66.56 0.0009868968    1.974    0.493
        20 -10.5230     72.0456    186.5219   1.1325984114e+02   2.6758815879e+01    0.2230564    0.1859913  83.46 0.0004949386    1.060    0.056
        21  -9.2830     94.7569    187.4162   1.0823920526e+02   2.3210056007e+01    0.1688408    0.1271321  31.87 0.0002872649    1.465    0.317
        22 -10.3679    147.1503    184.6448   9.5881396893e+01   1.4706551616e+01    0.1949435    0.1820621  80.45 0.0009639254    1.163    0.140
        23 -10.3937     99.4152    180.8629   1.0621744138e+02   2.3911995646e+01    0.2465672    0.1934073  36.03  0.000564322    1.331    0.249
        24 -12.1970     68.5701    177.6881   1.1296614005e+02   2.9220833296e+01    0.4030648    0.2745953 -39.72   0.00210069    2.019    0.505
        25 -12.0790     72.8550    172.5930   1.1129734071e+02   2.9799149729e+01    0.3389989    0.2432842 -47.43  0.001091777    1.619    0.382
        26 -13.1734     88.3647    156.1336   1.0497164715e+02   3.1366939141e+01      1.42437    0.8241822 -76.72  0.006183636    2.075    0.518
        27 -13.0970     81.7545    162.9493   1.0774034650e+02   3.0763985791e+01     1.187404    0.4631992  53.20 0.0005420159    3.207    0.688
        28 -13.6905     69.9351    158.5336   1.1002924525e+02   3.3500392609e+01    0.6754903    0.5751894 -24.37  0.002462278    1.557    0.358
        29 -10.8675    172.6336    243.1151   9.9899076809e+01   2.0907010148e-01    0.3800846    0.2231375 -66.65  0.001752931    3.741    0.733
        30 -10.4401     47.1463    172.3265   1.1729050388e+02   3.3140609980e+01     0.220792    0.1539906 -66.76  0.001095225    1.339    0.253
        31 -12.1085     33.9552    166.3615   1.1970647060e+02   3.5951014645e+01    0.5250822    0.2608354  51.46  0.002439203    1.975    0.494
        32  -9.8535     37.9935    162.0000   1.1830475624e+02   3.6543183425e+01    0.1850764   0.07089012  30.46 0.0007897101    2.932    0.659
        33 -10.4987     35.6912    158.3200   1.1845302787e+02   3.7642728455e+01    0.2101406    0.1331919  87.70 0.0006134667    1.464    0.317
        34 -11.3884     31.9418    156.8314   1.1919337375e+02   3.8367565733e+01    0.3059378    0.2647204  -7.02  0.001174043    1.647    0.393
        35  -9.6643    126.0347    155.0650   9.5235743514e+01   2.5055058246e+01     0.212439    0.2064176  85.89            0    1.017    0.017
        36 -10.2976    134.2445    148.2691   9.1775259636e+01   2.4995315142e+01    0.3937043    0.1718146 -54.93  0.001383713    2.565    0.610
        37 -11.3917    133.5618    142.3529   9.0649142554e+01   2.6468321960e+01    0.7462741    0.2828287 -55.84  0.002319557    3.282    0.695
        38 -12.2820     54.6174    146.9953   1.1227098430e+02   3.8243018798e+01    0.7155595    0.2253639 -56.76  0.002740555    2.717    0.632
        39 -11.0970     38.7099    146.2018   1.1628123520e+02   4.0206039965e+01    0.2859729    0.2222418  56.80 0.0007879467    1.320    0.243
        40 -10.1299    174.8940    149.1238   8.2364179740e+01   1.6391591882e+01    0.2309783    0.2154965  86.52 0.0006684211    1.250    0.200
        41  -9.5758     47.2930    146.6530   1.1412823495e+02   3.9175843809e+01     0.138542   0.08954386  75.57 0.0007029814    1.667    0.400
        42 -10.4754     84.4315    143.9079   1.0385374363e+02   3.4909317292e+01     0.287607    0.1996595  66.50 0.0008139961    1.661    0.398
        43 -11.1799    102.1963    141.1137   9.8554048246e+01   3.2668375415e+01    0.5582385    0.3462951 -29.37  0.002267217    2.378    0.579
        44 -12.4288     89.6893    140.9227   1.0188026792e+02   3.4805066071e+01    0.2871289     0.253563 -54.22 0.0004522542    1.123    0.110
        45  -9.9066     36.7444    140.9397   1.1612060902e+02   4.1667635640e+01    0.1820832    0.1450658 -75.61 0.0007411223    1.052    0.050
        46 -10.3631    111.6269    130.8976   9.3815225780e+01   3.3395893639e+01    0.3313337    0.2591331  -8.38 0.0008499387    1.723    0.420
        47 -10.3813    106.0668    130.7853   9.5307937678e+01   3.4445757348e+01    0.3392967    0.3051499 -87.09  0.001127938    1.161    0.139
        48 -11.9636     44.5246    129.3724   1.1237270916e+02   4.3668874333e+01    0.3898476    0.2503779  30.61  0.002095261    1.801    0.445
        49 -11.5620    135.3636    123.1313   8.5635955501e+01   3.0447772651e+01    0.9101391    0.1805357 -47.33  0.002147979    5.111    0.804
        50  -9.9421    125.9535    127.6411   8.9209766851e+01   3.1367769252e+01    0.3179767    0.1977856 -75.04  0.001095083    2.672    0.626
        51 -11.6420    118.2638    124.6220   9.0545599942e+01   3.3597608095e+01    0.7434395    0.4424506 -25.88  0.002746345    2.589    0.614
        52 -11.1309     98.7900    127.1079   9.6510128777e+01   3.6616874750e+01    0.3211905    0.2682872 -16.40   0.00151616    1.455    0.313
        53 -12.1171     23.1806    125.3573   1.1775924141e+02   4.6639084944e+01    0.3678992    0.2183365  52.79  0.002017544    1.886    0.470
        54 -14.5905     45.0686    223.6672   1.2231183507e+02   2.2465579752e+01     1.535171    0.8315812  35.28    0.0041363    1.956    0.489
        55 -10.0037    107.9167    119.6497   9.2207931048e+01   3.6745161143e+01    0.2258419    0.2002864 -38.66 0.0003171135    1.130    0.115
        56 -10.0906     84.4991    173.9876   1.0872043895e+02   2.7790395177e+01    0.1955506     0.127692 -64.06 0.0003363107    1.492    0.330
        57 -11.2709    138.1974    171.8778   9.5581842790e+01   1.9036901872e+01    0.3948627    0.2742369  87.02  0.001716434    2.215    0.549
        58  -9.5641    168.5220    113.3792   7.5002763521e+01   2.5137848785e+01    0.3203684    0.2198564 -71.13  0.001063792    2.195    0.544
        59 -12.0897    194.5614    196.8273   8.8034514569e+01   3.6907726302e+00     1.137352    0.6583606 -66.94  0.003494405    6.191    0.838
        60  -9.9903    205.4184    110.2610   6.6529802837e+01   1.7209094627e+01    0.3071156    0.2112881  44.71  0.000962654    1.523    0.344
        61 -10.8630    118.6103    109.8250   8.6711739661e+01   3.6940337374e+01    0.2317948     0.145073 -57.42 0.0009530345    1.753    0.430
        62 -11.7551     45.7191    105.9358   1.0793865786e+02   4.9239519343e+01    0.2955306    0.2212159  41.03  0.001173139    1.530    0.346
        63 -10.5422    134.6262    104.9665   8.1038887047e+01   3.4635203067e+01    0.4926234    0.1488323 -41.11  0.001409548    3.386    0.705
        64 -10.1788     34.0046    100.4884   1.1064128816e+02   5.1690562957e+01     0.170404    0.1320315  23.58 0.0005746491    1.551    0.355
        65 -10.6888     42.1679     91.9847   1.0621861580e+02   5.2932362822e+01    0.2425687    0.1908974  22.63  0.001040719    1.491    0.329
        66 -10.6734     53.1526     90.5044   1.0213856823e+02   5.2084002711e+01    0.2670723    0.1761319 -54.38  0.001294456    1.304    0.233
        67  -8.6869     74.5213     84.5206   9.3286402974e+01   5.0588081676e+01    0.1437596    0.1310419 -41.90 0.0001135513    1.039    0.037
        68  -9.3627     56.5217     66.5068   9.4346359500e+01   5.7040179467e+01    0.1365791    0.1190533 -35.51 0.0003633704    1.040    0.039
        69 -10.6715     13.4828     59.9405   1.0948068283e+02   6.2483863584e+01    0.2168498    0.1800607 -58.96 0.0004334058    1.150    0.130
        70  -9.2020    100.9830     58.9721   7.6295558980e+01   5.1129175396e+01    0.1740342    0.1608299   3.56 0.0003349951    1.022    0.021
        71 -12.7880    190.8459     42.7892   5.0670260974e+01   3.1926240760e+01     0.701541     0.524628  50.87  0.001029338    1.369    0.269
        72 -10.3983    198.5382    222.7767   9.1821898465e+01  -1.0382951956e+00    0.2248485    0.1523136  33.99  0.000450773    1.259    0.206
        73  -9.3129     67.7840     51.8928   8.5132260361e+01   5.8376188986e+01    0.1677747    0.1663761  74.23 0.0005442226    1.322    0.244
        74 -10.4436    147.5513     43.7214   5.8741459689e+01   4.2843630968e+01     0.258724    0.2394023 -86.75  0.000422567    1.171    0.146
        75 -11.4260      2.3289     29.3854   1.0597954827e+02   6.9323384801e+01    0.2632397    0.1627141 -54.97  0.001046884    1.367    0.268
        76 -16.6422      6.9110    203.8630   1.2810584679e+02   3.0402358368e+01      7.42283     1.131073 -74.92  0.006061868    4.832    0.793
        77 -11.5035    145.5650     50.0539   6.1286920144e+01   4.2405575862e+01     0.572127    0.3674524 -81.27  0.002106003    2.704    0.630
        78  -9.4373    130.5291    213.0523   1.0404317756e+02   1.2130280653e+01    0.1729041    0.1319069 -59.27 0.0003853679    1.492    0.330
        79 -10.6817    209.9708    199.5099   8.5496642589e+01   5.4823789314e-01    0.2243768    0.1853194 -47.00 0.0006308816    1.546    0.353
