#   1 NUMBER                 Running object number                                     
#   2 MAG_AUTO               Kron-like elliptical aperture magnitude                    [mag]
#   3 X_IMAGE                Object position along x                                    [pixel]
#   4 Y_IMAGE                Object position along y                                    [pixel]
#   5 X_WORLD                Barycenter position along world x axis                     [deg]
#   6 Y_WORLD                Barycenter position along world y axis                     [deg]
#   7 A_WORLD                Profile RMS along major axis (world units)                 [deg]
#   8 B_WORLD                Profile RMS along minor axis (world units)                 [deg]
#   9 THETA_WORLD            Position angle (CCW/world-x)                               [deg]
#  10 FWHM_WORLD             FWHM assuming a gaussian core                              [deg]
#  11 ELONGATION             A_IMAGE/B_IMAGE                                           
#  12 ELLIPTICITY            1 - B_IMAGE/A_IMAGE                                       
         1 -14.3500    197.8525     17.3292   6.6947009231e+01   3.3441411992e+01     2.366869     1.284288  47.56  0.008448603    2.016    0.504
         2 -14.0508    202.8616      9.1538   6.4103733077e+01   3.3016219391e+01     3.306042       1.7645  21.99  0.001346303    3.600    0.722
         3 -15.7831      6.5843    239.5222   1.5155857051e+02   2.5787889590e+01     7.538401    0.7940914 -70.76   0.02993746    6.282    0.841
         4 -11.2553    249.2670    247.7416   1.1097768103e+02  -1.0207135692e+01    0.4721864    0.1703156 -26.43   0.00240609    3.262    0.693
         5 -12.1310    140.4991    249.1945   1.2975190200e+02   6.4648120473e+00    0.4053806    0.2531877  49.56  0.002587243    1.241    0.194
         6 -12.5285    106.2220    247.2596   1.3556105232e+02   1.2039633197e+01    0.4155653    0.3007782  46.10  0.002451724    1.207    0.172
         7 -12.5522     98.4725    248.4776   1.3701465545e+02   1.2989510849e+01    0.4821705    0.2421771  49.01  0.001762142    1.488    0.328
         8 -12.2213    101.1471    246.1230   1.3634034986e+02   1.2970962402e+01    0.3781525    0.2296099  59.32   0.00041466    1.344    0.256
         9 -13.0690     80.1400    247.5050   1.4007128562e+02   1.5742797994e+01    0.7073617    0.3136782  45.28  0.004109957    1.738    0.425
        10 -12.2452     81.5041    242.0170   1.3939960519e+02   1.6457141062e+01    0.4262329    0.2154886  74.12  0.001995538    2.244    0.554
        11 -12.0586     66.2145    249.4081   1.4254601526e+02   1.7298227272e+01    0.3675198    0.2002034  48.90    0.0024391    1.400    0.286
        12 -15.1224      5.3410     17.4057   1.2390342582e+02   7.1578774230e+01      21.4202       1.0783 -56.15   0.03605775   21.512    0.954
        13 -14.9693     32.9401    246.8074   1.4777909307e+02   2.1779415205e+01     8.224993      2.17209  32.80   0.02389037   10.800    0.907
        14 -11.8093    128.5024    244.4825   1.3135782000e+02   9.0523203196e+00    0.2353966     0.207412  -5.54  0.001681865    1.709    0.415
        15 -12.3349     35.0368    229.4208   1.4648403632e+02   2.4546356520e+01    0.4129109    0.3175991 -67.20  0.002172644    1.690    0.408
        16 -10.4368    192.3941    193.6155   1.1204000170e+02   5.8908438269e+00    0.4048435    0.2456708 -65.76  0.001680381    3.409    0.707
        17 -11.6300     70.9533    195.4043   1.3709480989e+02   2.6541292125e+01    0.3494584    0.2435052 -46.46  0.001705548    2.055    0.513
        18 -11.7052     75.7380    188.3128   1.3533589630e+02   2.7321332326e+01     0.276838    0.2228135 -56.44 0.0006350437    1.508    0.337
        19  -8.7769    113.3517    193.3102   1.2805238295e+02   2.0429307035e+01    0.1229776    0.1051716   5.09 0.0007044474    1.720    0.419
        20  -9.2132    125.0009    185.4829   1.2444300741e+02   1.9948298825e+01    0.1877588    0.1180046  21.46 0.0008102107    2.599    0.615
        21 -11.2436     84.2394    175.8152   1.3196716338e+02   2.8707978825e+01    0.3202803    0.2300656 -57.89 0.0006021096    1.501    0.334
        22 -13.2563     71.8409    173.6588   1.3444763322e+02   3.0977232773e+01    0.4576248    0.2704698 -46.61  0.001541602    2.262    0.558
        23 -11.2048    126.1696    174.7105   1.2246773415e+02   2.1899787143e+01    0.4401267    0.2345851  37.31  0.001963374    1.937    0.484
        24 -13.4665     67.8814    145.1737   1.3150109039e+02   3.7900614139e+01     1.511974    0.7534848  84.39   0.00562443    3.465    0.711
        25 -12.8428     58.1253    131.8202   1.3195449405e+02   4.2268359184e+01     2.193658    0.6703786 -74.62  0.005030035    8.366    0.880
        26 -12.5593     90.4195    167.3071   1.2938620397e+02   2.9596076743e+01     1.377397    0.5310876  52.07  0.005411356    2.711    0.631
        27 -10.0802    102.2846    150.9411   1.2393481618e+02   3.1266556667e+01     0.289253    0.2485945 -44.44 0.0007411702    1.344    0.256
        28  -9.4990    104.9340    146.7781   1.2253364088e+02   3.1739430729e+01    0.2825464    0.1698006 -33.78  0.001167159    2.589    0.614
        29 -12.1752     91.1791    150.3192   1.2654226974e+02   3.3255604767e+01    0.2693945     0.246562 -45.43 0.0005411349    1.298    0.229
        30 -12.1915     45.7735    148.4599   1.3739728086e+02   3.9905644748e+01    0.4344322    0.2613638 -66.66    0.0022969    1.463    0.316
        31 -10.1735    134.2013    147.0202   1.1550521330e+02   2.6166707767e+01    0.6873053    0.1580255 -53.88   0.00167177    5.929    0.831
        32  -8.7488    192.2671    144.3045   1.0213236106e+02   1.4342176383e+01    0.1449654    0.1135952   6.32 0.0002634029    1.530    0.346
        33 -14.1719     11.4348    207.2616   1.4931792567e+02   3.1123717956e+01     1.503568     1.059414  27.24   0.01085453    2.083    0.520
        34 -10.0344    112.1701    136.4435   1.1871317081e+02   3.2757071469e+01    0.3162248     0.248485  -7.74    0.0011446    1.929    0.482
        35 -10.6994     99.8431    133.5286   1.2127606635e+02   3.5634566532e+01      0.28864    0.2434582 -31.20 0.0009846599    1.454    0.312
        36 -12.9752     47.2235    229.1811   1.4438638488e+02   2.3159807115e+01     0.362611    0.3156082  81.10 0.0008819902    1.352    0.261
        37 -11.6772     49.9914    130.0779   1.3384215498e+02   4.3650956824e+01    0.2936568    0.2348644  80.93 0.0008123892    1.179    0.152
        38 -10.8730     44.2028    130.2192   1.3539367193e+02   4.4266882143e+01    0.1827487    0.1320585  78.06  0.001002437    1.359    0.264
        39 -15.3151     55.6052    217.0112   1.4201570833e+02   2.4354371009e+01     3.836315     1.277647  46.90   0.01909306    2.327    0.570
        40  -9.4380    108.7809    123.4890   1.1681530933e+02   3.6315970476e+01    0.1991465    0.1443146  43.68 0.0004456202    1.410    0.291
        41  -9.5127     94.5762    216.6226   1.3465050804e+02   1.9002539099e+01    0.2513052    0.1337227  67.69  0.001024536    2.062    0.515
        42 -11.2098    168.3177    113.4768   9.9761591239e+01   2.5669600643e+01    0.4043353    0.3303671 -79.55 0.0008865267    1.482    0.325
        43  -9.1604    184.6543     77.6614   8.6544362389e+01   2.8311550174e+01    0.1642364    0.1207902  20.62 0.0007048027    1.780    0.438
        44 -11.9118    120.1741    238.4300   1.3220207875e+02   1.1300666367e+01     0.357346    0.2169902  88.01  0.001983675    2.342    0.573
