#   1 NUMBER                 Running object number                                     
#   2 MAG_AUTO               Kron-like elliptical aperture magnitude                    [mag]
#   3 X_IMAGE                Object position along x                                    [pixel]
#   4 Y_IMAGE                Object position along y                                    [pixel]
#   5 X_WORLD                Barycenter position along world x axis                     [deg]
#   6 Y_WORLD                Barycenter position along world y axis                     [deg]
#   7 A_WORLD                Profile RMS along major axis (world units)                 [deg]
#   8 B_WORLD                Profile RMS along minor axis (world units)                 [deg]
#   9 THETA_WORLD            Position angle (CCW/world-x)                               [deg]
#  10 FWHM_WORLD             FWHM assuming a gaussian core                              [deg]
#  11 ELONGATION             A_IMAGE/B_IMAGE                                           
#  12 ELLIPTICITY            1 - B_IMAGE/A_IMAGE                                       
         1 -11.5509    244.0644     21.0606   2.6000405569e+02  -6.1120377033e+01    0.1341914    0.1164226 -33.32  0.004355502    1.173    0.147
         2  -9.8851    118.9351      9.8723   2.5659501920e+02  -5.6967208147e+01   0.07989486   0.03218934  49.53  0.002226845    2.880    0.653
         3  -8.6655    109.6033     11.4594   2.5652305413e+02  -5.6630486024e+01   0.03266979   0.02325632 -46.78 0.0004877539    1.405    0.288
         4  -8.2594     93.1620     12.1442   2.5626935947e+02  -5.6057998969e+01   0.02776325   0.02408359  48.02 0.0005422698    1.169    0.145
         5  -7.8823    139.8428    243.3291   2.7089469929e+02  -5.4517833088e+01    0.0255771   0.02291239  -2.35 0.0007982543    1.178    0.151
         6 -10.0146    247.5409    248.9471   2.7464672867e+02  -5.7757107413e+01   0.05144289   0.04596081 -23.25   0.00226134    1.192    0.161
         7 -14.3210     36.2263    210.5256   2.6639242469e+02  -5.1714142088e+01     0.458323    0.3716792  64.68   0.01160863    1.366    0.268
         8 -15.0401     29.3478    234.5584   2.6747348897e+02  -5.1139339940e+01    0.3246714    0.2322789 -75.37  0.006670515    1.511    0.338
         9 -14.5011     13.5995    227.4720   2.6673083235e+02  -5.0737553754e+01    0.6437417    0.1786821 -42.47   0.01324402    5.391    0.815
        10 -13.5240      3.0480    210.2842   2.6560324849e+02  -5.0642453600e+01   0.09900571   0.05620962  15.57  0.001992436    1.899    0.473
        11 -13.3966     10.8599    206.6884   2.6559642857e+02  -5.0946467153e+01    0.1003229   0.06695251 -57.74  0.001879612    1.458    0.314
        12 -13.0772     18.8500    221.3152   2.6653911898e+02  -5.0996191904e+01    0.0605131   0.05875757  -1.89 0.0007729029    1.027    0.026
        13 -13.7148      9.9834    214.4111   2.6597535068e+02  -5.0808770167e+01    0.1151201   0.06672631 -37.09  0.003975261    1.936    0.484
        14 -15.1990     12.1027    243.4804   2.6750899652e+02  -5.0454077515e+01    0.1787971    0.1065487  23.96   0.00577907    1.685    0.407
        15 -15.8850      3.1962    233.2153   2.6677759753e+02  -5.0319381502e+01    0.7842276   0.05399328  27.23   0.01146654    7.064    0.858
        16  -8.9354    245.6361    239.3632   2.7403367296e+02  -5.7874921621e+01   0.02903821   0.02149386 -23.24  0.001113257    1.627    0.385
        17  -9.2033    247.5408    235.6714   2.7388704416e+02  -5.8000407810e+01   0.03789013   0.02299171 -55.49  0.001373929    1.614    0.381
        18 -10.1484     65.2967    230.4551   2.6816214831e+02  -5.2353957050e+01    0.1530965   0.06001808  13.84  0.003762201    3.922    0.745
        19 -10.0369     67.6365    222.9125   2.6782413249e+02  -5.2543915214e+01   0.07651495   0.04338828 -44.27  0.001582811    1.828    0.453
        20 -10.0984     67.7485    215.5450   2.6743563095e+02  -5.2658640789e+01   0.07990626   0.05342027  37.01  0.001338623    1.484    0.326
        21  -9.1172     65.1487    211.5634   2.6715772713e+02  -5.2634244238e+01   0.04479175    0.0337515  34.55  0.001134115    1.317    0.241
        22  -8.1897    250.6167    232.2287   2.7379421667e+02  -5.8157150118e+01    0.0264106   0.01606356  41.41  0.000485878    1.652    0.395
        23 -10.1590    124.4397    229.7018   2.6971313140e+02  -5.4253779259e+01   0.07241582   0.04098079   6.60   0.00230067    2.422    0.587
        24 -10.1973    104.1635    229.3583   2.6913289274e+02  -5.3613676073e+01    0.0764275   0.03361026 -65.20  0.002328258    2.357    0.576
        25 -11.0285     94.7911    228.6144   2.6883942177e+02  -5.3326196200e+01    0.1137903   0.04946011 -46.45  0.003455317    2.375    0.579
        26  -9.3689     95.0427    223.2227   2.6855681976e+02  -5.3418389009e+01   0.04195759   0.03468433 -47.55  0.001134851    1.201    0.168
        27 -10.2016    116.2793    227.5093   2.6936609976e+02  -5.4029255868e+01   0.05529207    0.0378899  41.19  0.002126867    1.477    0.323
        28  -9.1137    139.6936    231.0035   2.7021899942e+02  -5.4716585049e+01   0.02661584   0.02450224  20.27 0.0008349415    1.097    0.088
        29  -7.3093     74.2984    231.7025   2.6846108905e+02  -5.2622976786e+01   0.01875255   0.01344975 -28.70 0.0002577644    1.573    0.364
        30 -10.0807     82.2973    225.0258   2.6831616151e+02  -5.2982135200e+01   0.08579639   0.04781537  40.75  0.002984452    1.814    0.449
        31 -10.1410     77.7216    219.9261   2.6792481277e+02  -5.2913413654e+01   0.08144234   0.06266718  11.33  0.002642703    1.382    0.276
        32  -9.2404     90.2128    218.0656   2.6815116092e+02  -5.3343196860e+01   0.05004774   0.02863916 -27.86  0.001381566    2.322    0.569
        33  -9.4893    120.3493    214.9596   2.6879331473e+02  -5.4357899826e+01   0.05427868   0.02942119  28.28 0.0004028151    1.819    0.450
        34  -9.3194    106.5449    216.5141   2.6850235886e+02  -5.3891295077e+01   0.06270313   0.01717243  38.51    0.0015654    3.427    0.708
        35  -8.2027    103.6372    215.2970   2.6835793257e+02  -5.3816906328e+01   0.04076196   0.01857748 -33.38  0.001080791    3.309    0.698
        36  -9.0473     90.5180    210.6430   2.6775808168e+02  -5.3466433285e+01   0.03523685   0.02730219  56.47 0.0008893504    1.410    0.291
        37  -8.4128     93.5794    206.4881   2.6761222440e+02  -5.3628155649e+01   0.03168212   0.02920015 -65.45 0.0006232465    1.088    0.081
        38  -7.3041    183.3010    209.6701   2.7031347365e+02  -5.6448577106e+01    0.0190967   0.01369315 -25.10 0.0007032507    1.646    0.393
        39  -9.2070    110.5579    205.6667   2.6801620693e+02  -5.4187889340e+01   0.04668162   0.02986785  22.36 0.0009411609    1.599    0.374
        40  -8.0640    124.2216    206.0261   2.6840621024e+02  -5.4621753745e+01    0.0242536   0.02289097  28.87            0    1.062    0.058
        41  -8.5532    100.3009    204.6058   2.6768557381e+02  -5.3873533571e+01   0.03168428   0.02398197 -79.18 0.0008610587    1.438    0.305
        42  -8.0328     90.2830    202.7688   2.6732386411e+02  -5.3577778484e+01   0.03236069   0.02267019  19.16  0.001059785    1.473    0.321
        43 -14.3407      9.5194    195.8860   2.6500404748e+02  -5.1053522733e+01    0.4840548    0.3251459 -87.69   0.01791602    1.768    0.434
        44  -8.5816     99.8984    196.5524   2.6723244585e+02  -5.3982060871e+01   0.03496996   0.03102507  26.77 0.0006637389    1.126    0.112
        45  -8.6943     89.8021    188.4722   2.6652757771e+02  -5.3774298072e+01   0.04921119    0.0264327 -44.50 0.0005914592    1.940    0.485
        46  -7.9549    246.6029    186.1693   2.7092308152e+02  -5.8839470585e+01   0.02678884   0.01589916  40.17 0.0006822889    1.680    0.405
        47  -8.3568     71.0650    184.9811   2.6586918626e+02  -5.3214617890e+01   0.02863568   0.02753915  87.52 0.0004751729    1.069    0.064
        48  -8.5154     71.2903    177.6135   2.6547102634e+02  -5.3326941148e+01   0.03765684   0.03218319 -13.92 0.0009270799    1.242    0.195
        49  -8.9293    124.1303    174.0482   2.6660499663e+02  -5.5103634027e+01   0.04660046   0.02574421  28.79 0.0007503104    1.762    0.433
        50  -9.2361     31.1993    170.9351   2.6417126312e+02  -5.2104254817e+01   0.07115671   0.03783032  -0.56  0.002172291    2.587    0.614
        51  -7.6026     65.8067    174.5965   2.6517336462e+02  -5.3189896157e+01   0.02566867   0.01586129 -52.37 0.0004627799    1.578    0.366
        52  -7.9196    103.3161    172.3229   2.6597025754e+02  -5.4449827103e+01   0.01940509   0.01341448  59.08 0.0003621595    1.664    0.399
        53  -9.5524    110.2974    167.4846   2.6587395469e+02  -5.4747861749e+01   0.05480992   0.03816307 -25.98  0.001405686    1.656    0.396
        54 -10.5312     69.3228    166.8950   2.6483303286e+02  -5.3412659698e+01    0.1064363   0.05212449 -60.77  0.003516326    1.944    0.486
        55 -10.4356     72.9184    161.6355   2.6462673481e+02  -5.3603624365e+01    0.1284138    0.0437556  38.65  0.003544613    2.828    0.646
        56 -10.9672     68.4899    150.2708   2.6388920402e+02  -5.3612268624e+01   0.08756076   0.05778816 -15.23  0.001081776    1.839    0.456
        57 -11.1215     67.1361    143.0123   2.6345153801e+02  -5.3664299214e+01     0.107181   0.05895367 -39.51   0.00279613    2.002    0.501
        58 -10.0264     41.8168    157.3397   2.6367265385e+02  -5.2636370227e+01   0.07002217   0.04070775 -39.84  0.002431355    1.859    0.462
        59  -9.7684     60.5026    155.5317   2.6399765145e+02  -5.3277570550e+01   0.06666051   0.03157225 -54.94  0.001683915    1.996    0.499
        60  -9.6464     84.4201    149.1300   2.6419804095e+02  -5.4154147637e+01   0.08326588   0.04458192 -29.95  0.001485187    2.416    0.586
        61  -9.4088     81.6099    155.8199   2.6450832942e+02  -5.3969932520e+01   0.04894879   0.03060685 -16.74    0.0016782    2.036    0.509
        62  -9.0706     29.7413    141.1285   2.6252119254e+02  -5.2447733003e+01   0.04086708   0.02952095 -25.50  0.001427583    1.534    0.348
        63  -9.6334     27.9848    136.0300   2.6220433086e+02  -5.2454054150e+01   0.08819059    0.0438548  60.24 0.0003147199    2.794    0.642
        64  -9.8947     27.6258    129.2389   2.6182341337e+02  -5.2527212603e+01   0.06991079    0.0325788 -48.53  0.001147653    2.138    0.532
        65  -8.9581     98.4881    140.9487   2.6406686427e+02  -5.4730417709e+01   0.03588859     0.027389 -53.90 0.0005239602    1.288    0.223
        66  -9.1986     89.6356    136.1085   2.6357977591e+02  -5.4502173245e+01   0.05215971   0.03623716 -35.65  0.001984853    1.545    0.353
        67  -9.0522     35.1604    136.7991   2.6239928435e+02  -5.2683039670e+01   0.05309244   0.03259755  88.16  0.001828975    2.006    0.502
        68  -9.6272     80.5000    161.1265   2.6477924331e+02  -5.3860130187e+01   0.03829712   0.02740617 -35.53  0.001477667    1.493    0.330
        69  -8.8168     13.9814    123.4805   2.6122709884e+02  -5.2142588656e+01   0.03683894   0.01627951 -62.69  0.001060002    2.124    0.529
        70  -9.4682     20.9588    125.9588   2.6150503121e+02  -5.2345324870e+01   0.05683109   0.02589893 -31.32  0.001574579    3.041    0.671
        71  -8.7763     17.6819    125.3423   2.6140417713e+02  -5.2243476386e+01   0.03168665   0.02157224 -51.41 0.0008436568    1.446    0.309
        72  -9.0824     23.8556    131.8351   2.6188751144e+02  -5.2369185314e+01   0.04653941   0.02934528 -11.04  0.001027436    1.927    0.481
        73  -8.5704     13.8780    119.2289   2.6099199722e+02  -5.2190589032e+01   0.02888468   0.02324668 -35.25 0.0007361565    1.282    0.220
        74  -7.6509    106.9437    117.4764   2.6290350730e+02  -5.5323379846e+01   0.02608076   0.01754815 -63.31 0.0003949111    1.456    0.313
        75  -8.9869      1.5889    112.3087   2.6037116737e+02  -5.1861422458e+01   0.03607319   0.01809788  10.94   0.00114192    2.192    0.544
        76  -8.5694     23.9863    104.4936   2.6037834778e+02  -5.2705063616e+01   0.02778935   0.01784279 -69.66  0.001021679    1.557    0.358
        77  -8.4573      4.2426     75.0343   2.5836379274e+02  -5.2371571361e+01   0.04034462   0.02048654  68.98  0.001194804    2.692    0.629
        78  -8.9354     83.7480    238.5275   2.6907076468e+02  -5.2818267107e+01    0.0503096   0.03636437 -21.67  0.001832049    1.625    0.384
        79  -8.2049    144.0603     59.4950   2.6022815082e+02  -5.7289328824e+01   0.02719215   0.02500772  13.47 0.0006175268    1.092    0.084
        80 -11.2048    202.4954     48.0012   2.6083338418e+02  -5.9400953124e+01    0.1144946   0.09243456 -17.78  0.004741243    1.323    0.244
        81 -11.1412    210.5846     40.1751   2.6050513327e+02  -5.9766981816e+01   0.08410063   0.05768056  70.73  0.001989515    1.696    0.410
        82  -7.8013    190.4682     49.5021   2.6064613236e+02  -5.8977114049e+01   0.01795045   0.01787837  37.28 9.615123e-06    1.012    0.012
        83  -9.4919    221.5641     40.0614   2.6076349456e+02  -6.0138739617e+01    0.0379952   0.03226904  14.20 0.0007019903    1.187    0.157
        84  -8.8143    206.0105     32.0611   2.5985173331e+02  -5.9706636848e+01   0.02696795   0.02656079  31.45 0.0004100495    1.021    0.020
        85  -9.5345    237.7280    248.5628   2.7428579388e+02  -5.7465188941e+01    0.0355787   0.01823966 -64.74  0.001142962    2.136    0.532
        86  -7.3180     88.9635     23.7870   2.5690797578e+02  -5.5798260996e+01   0.02371856   0.01471983 -74.62 0.0004184263    1.622    0.383
        87  -7.9020    102.7261    246.0532   2.6998460860e+02  -5.3301064962e+01    0.0262084   0.02355178  23.84  0.001146101    1.119    0.107
        88  -8.8365     90.5020    246.8317   2.6969024028e+02  -5.2901195582e+01   0.04860444   0.02912292 -27.21  0.001371495    2.183    0.542
