#   1 NUMBER                 Running object number                                     
#   2 MAG_AUTO               Kron-like elliptical aperture magnitude                    [mag]
#   3 X_IMAGE                Object position along x                                    [pixel]
#   4 Y_IMAGE                Object position along y                                    [pixel]
#   5 X_WORLD                Barycenter position along world x axis                     [deg]
#   6 Y_WORLD                Barycenter position along world y axis                     [deg]
#   7 A_WORLD                Profile RMS along major axis (world units)                 [deg]
#   8 B_WORLD                Profile RMS along minor axis (world units)                 [deg]
#   9 THETA_WORLD            Position angle (CCW/world-x)                               [deg]
#  10 FWHM_WORLD             FWHM assuming a gaussian core                              [deg]
#  11 ELONGATION             A_IMAGE/B_IMAGE                                           
#  12 ELLIPTICITY            1 - B_IMAGE/A_IMAGE                                       
         1 -14.6206      5.8206     76.3487   1.1713115141e+02   6.0564048373e+01     3.747964     1.925205  61.81    0.0182007    2.197    0.545
         2 -13.1441     30.7155     10.4987   8.1538028180e+01   7.3421788455e+01     1.578405     0.565046 -37.69  0.006450516    2.590    0.614
         3 -13.8113     24.4125     49.6179   1.0296048831e+02   6.5855367044e+01      1.30756    0.8924253 -33.47   0.00716672    1.549    0.354
         4 -15.4566      9.0228     26.6330   1.0416331579e+02   7.2460054785e+01     3.045456     1.157821 -57.47   0.01405554    1.997    0.499
         5 -14.4142     96.7063     71.3515   8.0838418562e+01   4.9695530661e+01     1.661649     1.381109  10.54  0.001898872    1.492    0.330
         6 -14.4561     44.3450     41.8682   9.0210490965e+01   6.5317082806e+01     2.289563     1.692401 -36.45   0.01227381    1.276    0.216
         7 -15.7574     57.8272     71.3219   9.4571737504e+01   5.6594935578e+01     3.825103     2.723565  20.17   0.01390309    1.756    0.431
         8 -13.8818     69.3378     55.5015   8.4748850576e+01   5.8376241304e+01     1.329295     1.215387  88.87  0.004201513    1.240    0.194
         9 -14.3111     79.8905     69.6831   8.5857845731e+01   5.3330278239e+01     2.996929     1.855571 -14.10   0.01062773    3.373    0.703
        10 -12.8752    138.3095      4.2640   4.4601802632e+01   4.9924761339e+01     1.281833    0.3978072  65.70  0.004530059    2.837    0.648
        11 -11.6965     73.4451      1.5066   5.6316174363e+01   6.6492445160e+01    0.2980593    0.1666927  60.48 0.0005747303    1.817    0.450
        12 -13.3191     83.6248     22.6854   6.4871379538e+01   6.1557599739e+01    0.9051304    0.6433519  56.82 0.0006347515    1.492    0.330
        13 -13.8013    120.7039     10.8784   5.0116909554e+01   5.3912099645e+01      1.74671    0.8256339  61.57  0.007274455    1.995    0.499
        14 -13.7553    104.5105      4.9065   5.0446566213e+01   5.8659972942e+01     1.080266      0.80884  55.14  0.005674565    1.286    0.223
        15 -14.1049     86.2794     11.6679   5.8321984897e+01   6.2406918817e+01     1.531325    0.6952862  61.08  0.004627466    2.273    0.560
        16 -14.0330     84.7879      3.8075   5.4441389794e+01   6.3620127641e+01     2.016719    0.5595978  61.67  0.006860332    3.362    0.703
        17 -11.8485    149.6490     21.8936   4.9796615409e+01   4.5117894762e+01    0.5822707    0.4879213  24.19  0.003078216    1.343    0.255
        18 -12.4888    176.2654     12.6657   4.3230481471e+01   3.9199172389e+01     1.039061    0.5312945   9.86  0.003751053    3.425    0.708
        19 -13.2441    185.8882     12.9466   4.2375271451e+01   3.6733664666e+01     1.050594    0.5831734 -27.12   0.00493053    1.670    0.401
        20 -12.5565    192.9297      5.9099   3.9591608858e+01   3.5669125577e+01    0.6331279    0.3899823 -35.57  0.002337792    1.437    0.304
        21 -11.2356    188.1920      5.4729   3.9837333865e+01   3.6883982791e+01    0.4396846     0.227167 -24.82  0.001114756    1.816    0.449
        22 -12.6084     75.7814     13.6305   6.2631767029e+01   6.4560989492e+01    0.4285322    0.3737636 -38.94  0.000940571    1.200    0.167
        23 -12.5553    149.6993      8.5599   4.4798759874e+01   4.6520714620e+01    0.7936517    0.4463325  85.72  0.003056437    1.950    0.487
        24 -12.0181    169.4353     10.5385   4.3230778257e+01   4.1167917820e+01    0.3429195    0.2879175 -76.52  0.001427342    1.170    0.146
        25 -11.7390     64.5548     17.9511   6.9179241615e+01   6.6329442244e+01     0.448541    0.3246628  30.10  0.001354538    1.468    0.319
        26  -9.3109     66.4950      8.4726   6.2877742186e+01   6.7238538339e+01    0.1357799    0.1244813   0.67  8.90704e-05    1.013    0.013
        27 -10.1336     49.2843      4.4759   6.7385966518e+01   7.1224767839e+01     0.235333    0.1663976 -27.67  0.000831702    1.315    0.239
        28 -11.6689    167.9903      2.5379   4.0648643845e+01   4.2287911852e+01    0.3343605    0.2741083 -53.49   0.00188093    1.146    0.128
        29  -9.8619    211.9241      1.6573   3.7027333303e+01   3.1505491262e+01    0.1823187    0.1524772 -69.97 0.0005678681    1.132    0.117
        30 -11.1439    233.7533    153.7334   7.2445315671e+01   7.4547457368e+00    0.2128725    0.1440898  31.89  0.001288561    1.480    0.324
        31 -11.0295    135.4082     98.2283   7.8317250506e+01   3.5766703314e+01    0.5727574    0.3175559  30.71  0.002152714    2.534    0.605
        32 -10.8848    134.6219     92.7309   7.6965651507e+01   3.7059311939e+01    0.5010322    0.2352065 -44.43  0.001658654    2.054    0.513
        33 -10.7419    114.2985     97.1605   8.3483557837e+01   4.0439207299e+01    0.3464171    0.2675514 -49.38 0.0007011213    1.247    0.198
        34 -10.7166    198.8319    154.0010   7.8265626394e+01   1.3154785360e+01     0.204688    0.1529923 -60.25  0.001094863    2.039    0.510
        35 -10.9098    188.7633     94.5708   6.6233365186e+01   2.4687316051e+01    0.3277202    0.2679949 -75.13  0.001271024    1.554    0.357
        36 -11.5497    117.1212     91.1271   8.1017465101e+01   4.1167717067e+01     0.295516     0.221758  27.30 0.0007682522    1.609    0.378
        37 -10.8813    249.0674     86.2584   5.5538731923e+01   1.3748123142e+01     0.357933    0.2627585 -30.34  0.002160067    1.113    0.102
        38  -9.7804    235.9082     87.2705   5.7361646050e+01   1.6074490072e+01    0.2429371    0.1470636 -34.27  0.001267978    1.387    0.279
        39  -9.1733    152.4936     88.4660   7.1608643727e+01   3.3884675988e+01    0.1523141    0.1446782 -46.68 0.0004054937    1.034    0.033
        40 -12.4164    125.5823     72.7498   7.3110509592e+01   4.3098630923e+01    0.9080865    0.4397375  60.22  0.003259016    2.599    0.615
        41 -11.8462    128.0374     82.1338   7.5464241390e+01   4.0671229479e+01    0.4469325    0.4007985 -44.52   0.00126953    1.068    0.063
        42 -11.5197    116.0500     68.6869   7.4270149050e+01   4.6074003311e+01    0.4347236    0.3796986  -5.65  0.002209016    1.309    0.236
        43 -10.9400    118.6381     63.8487   7.1903027488e+01   4.6428094719e+01    0.4134986     0.247658 -38.50  0.001047279    1.600    0.375
        44 -13.3751    119.2678     79.6184   7.6972081746e+01   4.3136362579e+01      1.10098    0.8160145 -80.23  0.004658913    1.825    0.452
        45 -11.2952    112.6430     82.0654   7.9552998966e+01   4.4059673817e+01    0.3885799    0.3087283  69.62  0.001150215    1.461    0.315
        46 -10.3356    148.5163     80.5295   7.0127938314e+01   3.6285916601e+01    0.3001689    0.2464422  -3.33  0.001026736    1.445    0.308
        47 -12.2354    144.3055     75.7481   6.9589081898e+01   3.8160935561e+01    0.7477311    0.5537413 -52.79    0.0028291    1.394    0.283
        48  -9.4909    234.4787     76.4630   5.4881726891e+01   1.7805793423e+01    0.1357451    0.1134208 -31.14 0.0001104188    1.025    0.025
        49  -9.8023    249.9919     73.5134   5.2417606602e+01   1.5201054935e+01    0.2175411    0.1451761 -29.01   0.00100419    1.211    0.175
        50 -11.1959    152.6041     73.3952   6.7053777502e+01   3.6621514620e+01    0.4082192    0.2862905  52.60  0.001898204    1.493    0.330
        51 -10.3455    171.3816     72.6372   6.3153558257e+01   3.2278068958e+01    0.3527559     0.264996  86.58  0.001668773    1.694    0.410
        52 -11.0047     18.3396    153.9092   1.2039980224e+02   4.0596646158e+01    0.2196802    0.1425325  51.19  0.001333126    1.362    0.266
        53  -9.3591    182.5019     71.5752   6.0902825700e+01   2.9828523942e+01    0.1476937    0.1370233 -37.95 6.863783e-05    1.018    0.017
        54  -9.1813    198.0217     69.9784   5.8009226752e+01   2.6491215108e+01    0.1699184    0.1515552 -33.24 0.0009481061    1.008    0.008
        55 -10.0537    146.6320     66.3704   6.6076096786e+01   3.9300148350e+01    0.3162217    0.2222998  13.08  0.001331497    2.061    0.515
        56 -12.4210    141.3662     96.3410   7.6367884024e+01   3.4850184084e+01    0.7648383    0.7048382 -74.83  0.003170988    1.161    0.139
        57 -11.0632    214.4021     61.0258   5.3316748163e+01   2.4094645925e+01    0.4003079    0.2472403 -27.28  0.001966335    1.453    0.312
        58  -9.2865    210.4478     61.5427   5.3955856707e+01   2.4900491740e+01    0.1409957    0.1255391 -27.10 6.793278e-05    1.052    0.049
        59 -10.7315    169.3514     62.9517   6.0559260491e+01   3.4338374264e+01    0.5196968    0.2044353  58.33  0.001680175    2.669    0.625
        60 -11.1992    227.3097     57.9668   5.0991668782e+01   2.1711245772e+01     0.291727    0.2177055 -26.81 0.0005266045    1.178    0.151
        61 -11.6026    124.7570     57.3165   6.8007874821e+01   4.6199750156e+01    0.3955008    0.3040414  47.85 0.0006488744    1.357    0.263
        62 -11.3679    174.6157     56.4385   5.7634002737e+01   3.4060655240e+01    0.2723725    0.2420108 -54.34 0.0004861887    1.106    0.096
        63 -11.5689    152.6578     53.6305   6.0604369546e+01   3.9946372287e+01    0.4366065    0.3208836  30.33  0.002028551    1.637    0.389
        64  -9.5261    209.0299     55.4743   5.2456445458e+01   2.6047186057e+01    0.1920545    0.1065316  37.52 0.0007845769    2.412    0.585
        65 -10.0232    137.7644     55.4042   6.4283331201e+01   4.3363660081e+01    0.3380343    0.1977999  42.94  0.001345357    1.900    0.474
        66 -11.5806    133.1212     53.6360   6.4693410903e+01   4.4808176242e+01     0.399526    0.2992204  57.54 0.0008388414    1.389    0.280
        67 -11.3690    145.3038     50.4409   6.0949293146e+01   4.2297397712e+01    0.3841227    0.2838103 -42.91 0.0007442562    1.299    0.230
        68 -10.7773    137.4726     48.3139   6.1809698964e+01   4.4603364848e+01    0.3806413    0.2683018 -52.30  0.001214595    1.487    0.328
        69 -10.7336    139.8962     43.8323   5.9669234416e+01   4.4692042390e+01    0.4378814    0.2731694  66.23  0.001514961    1.729    0.422
        70 -10.5527    175.9756     44.4598   5.3634690770e+01   3.5454117297e+01    0.4513246    0.3023538 -24.13  0.002129629    1.476    0.323
        71 -10.9355    181.6686     43.2455   5.2434282799e+01   3.4204440835e+01    0.3016488    0.2585306  73.86 0.0002390373    1.242    0.195
        72 -11.3237    157.2284     43.5458   5.6324031292e+01   4.0319422245e+01     0.348355    0.2803867  51.33 0.0008386834    1.306    0.234
        73 -11.5811    122.2199     43.7072   6.3517822649e+01   4.9144552042e+01    0.3164085    0.2906297 -15.42 0.0006840632    1.110    0.099
        74 -10.6045    203.3310     43.5640   4.9765261324e+01   2.8931073415e+01    0.3098386    0.2428911  45.68  0.001676657    1.458    0.314
        75 -11.1746    197.3364     40.8838   4.9690977650e+01   3.0695499525e+01    0.3411423    0.2818196 -77.45 0.0006407836    1.288    0.224
        76 -12.5992    216.7859     38.6766   4.6926789488e+01   2.6438540010e+01    0.6931651    0.3121803  60.60  0.003052636    2.392    0.582
        77 -11.9606    203.0070     37.7584   4.8120728826e+01   2.9738630581e+01    0.8408063    0.3939236  70.47  0.003564975    2.380    0.580
        78 -10.4919    159.8826     36.2183   5.3353545907e+01   4.0659731840e+01    0.2362388    0.2215001 -54.87 0.0003600354    1.026    0.026
        79  -9.9883    140.8386     34.8601   5.6149338602e+01   4.5758466758e+01     0.237238    0.2023478  23.04 0.0007826131    1.311    0.237
        80 -12.6497     80.5377     32.0149   7.0500604855e+01   6.0763287388e+01    0.9091424    0.6325055  55.98   0.00364062    1.587    0.370
        81  -9.7502    139.0042    152.4913   8.9981592455e+01   2.4055351467e+01    0.2118683    0.1296648  40.54 0.0008815453    1.566    0.361
        82 -11.1271    247.5474    145.9880   6.8859081897e+01   6.3131588102e+00    0.3978179    0.3058181 -80.96  0.002140385    3.104    0.678
        83 -11.1355     58.6062    144.2647   1.0877833784e+02   3.8544019810e+01    0.8645556    0.3680137  54.46  0.003546598    2.576    0.612
        84 -11.8792     51.5619    141.7667   1.1038859158e+02   4.0004886404e+01    0.5930746    0.2913592 -72.66  0.002769649    1.931    0.482
        85 -12.7730     47.0207    141.9969   1.1166937110e+02   4.0484471199e+01    0.5331573    0.5128509 -18.01  0.003499547    1.340    0.254
        86 -10.1826     90.6861    145.9824   1.0049814408e+02   3.3597168611e+01    0.1982099    0.1775549 -84.35 0.0009590464    1.084    0.077
        87 -11.3946    213.9759    142.9005   7.3369635184e+01   1.2189988853e+01    0.4627983    0.1908432  46.78   0.00201826    2.623    0.619
        88  -9.9836    240.5307     34.1643   4.3603284829e+01   2.1815873453e+01    0.1853697    0.1687057  -2.25 0.0004827332    1.261    0.207
        89 -10.9446    176.4703     33.4641   5.0020435575e+01   3.6782327936e+01    0.2991618    0.2639553  73.47 0.0006233236    1.185    0.156
        90  -9.9032     97.3124     33.8637   6.5991700415e+01   5.6716558494e+01    0.2402129    0.2071838  67.85 0.0008830942    1.275    0.215
        91 -10.8146    150.8813     31.9033   5.3282077165e+01   4.3557502300e+01    0.4651805    0.2722848  62.66  0.002049203    1.725    0.420
        92 -10.1758    104.8030     29.1905   6.1818845724e+01   5.5651481772e+01    0.3460946    0.1722181  47.31 0.0007745319    2.054    0.513
        93 -10.0615    109.1273     28.0492   6.0208652409e+01   5.4757843802e+01    0.2702477    0.2161788  52.05  0.001386169    1.262    0.208
        94  -9.5263    216.2106     28.5883   4.4193599420e+01   2.7752116954e+01    0.1762448    0.1223319  56.67 0.0006977856    1.633    0.388
        95 -10.0039    168.2547     28.3674   4.9433127227e+01   3.9508793712e+01    0.2785989    0.1319708  64.19  0.001121804    2.115    0.527
        96 -11.4651    241.7340     22.6532   4.0613912921e+01   2.2824300851e+01    0.3613136    0.2376135 -57.92  0.001115198    1.440    0.306
        97 -10.1973    235.2834     21.4154   4.0750225904e+01   2.4316438495e+01    0.3359866    0.1292841  75.41   0.00143807    2.992    0.666
        98 -11.6286     76.1947    141.2158   1.0356682657e+02   3.6868680322e+01     0.435644    0.2269818 -89.27  0.001654002    3.060    0.673
        99 -10.8495    153.6739     20.7015   4.8766567682e+01   4.4200662490e+01     0.244823    0.2325759 -45.84 0.0006873755    1.021    0.021
       100 -10.4746    139.4777     20.8648   5.1012028776e+01   4.7904877741e+01    0.2789444     0.243391  84.19 0.0006150917    1.173    0.148
       101 -10.9759    208.9603     19.0849   4.2156241791e+01   3.0480089904e+01    0.3578554    0.2478132 -45.78  0.001206674    1.264    0.209
       102 -11.0081    196.4516     19.1150   4.3278505523e+01   3.3475080481e+01    0.3345975    0.1863008 -50.95  0.001561212    1.702    0.413
       103 -12.1651     35.3431    135.4017   1.1419937704e+02   4.3344192614e+01    0.5077368     0.272116  16.09  0.002366659    2.648    0.622
       104 -11.4992     82.1335    134.3395   1.0081040760e+02   3.7591330956e+01    0.2562567    0.1855411 -53.42  0.001336601    1.409    0.290
       105 -10.9955    122.2569    127.3222   8.8799259404e+01   3.2278982262e+01     0.407105     0.350794 -61.29  0.001468418    1.181    0.153
       106 -11.1129    198.9863    126.7006   7.2363977555e+01   1.7372486673e+01    0.1948312    0.1796321  13.48   0.00118105    1.094    0.086
       107 -10.1529    250.5078    108.4597   6.0457720647e+01   1.0624565704e+01     0.128243    0.1034625 -18.64 0.0001119862    1.010    0.010
       108 -10.5627    250.0000    243.9542   8.5046414832e+01  -4.3722677954e+00    0.1402484   0.04769672 -28.92 0.0008083692    2.984    0.665
       109  -9.8063    124.0026    205.9939   1.0148003793e+02   1.6803456641e+01    0.1641958    0.1390184  38.03            0    1.020    0.020
       110  -9.1185    246.4900    183.4799   7.6103987001e+01   2.0136924578e+00     0.114868   0.08695216   0.33 0.0008102517    1.009    0.009
       111 -10.5868     34.1401    177.1949   1.1817566195e+02   3.3929087776e+01    0.2194615    0.1472938  -3.73  0.001171516    2.735    0.634
       112 -10.8370    202.8880    172.9864   8.1208696871e+01   9.7169789796e+00    0.4260059     0.132135 -31.08  0.001571661    3.829    0.739
       113 -10.5156     29.5056    153.5408   1.1750349555e+02   3.9642391172e+01    0.1846512    0.1512497  71.30  0.001040478    1.032    0.031
