#   1 NUMBER                 Running object number                                     
#   2 MAG_AUTO               Kron-like elliptical aperture magnitude                    [mag]
#   3 X_IMAGE                Object position along x                                    [pixel]
#   4 Y_IMAGE                Object position along y                                    [pixel]
#   5 X_WORLD                Barycenter position along world x axis                     [deg]
#   6 Y_WORLD                Barycenter position along world y axis                     [deg]
#   7 A_WORLD                Profile RMS along major axis (world units)                 [deg]
#   8 B_WORLD                Profile RMS along minor axis (world units)                 [deg]
#   9 THETA_WORLD            Position angle (CCW/world-x)                               [deg]
#  10 FWHM_WORLD             FWHM assuming a gaussian core                              [deg]
#  11 ELONGATION             A_IMAGE/B_IMAGE                                           
#  12 ELLIPTICITY            1 - B_IMAGE/A_IMAGE                                       
         1 -13.7009    238.8320     13.0984   3.3002115140e+01   2.5303758377e+01    0.7940651    0.5937902 -55.55  0.002667118    1.141    0.124
         2 -14.2804    217.0731     33.0175   3.9320359086e+01   2.7644291060e+01     1.885002     1.138742  40.10  0.009218925    2.445    0.591
         3 -10.5995      2.4326      3.0795   8.8231859372e+01   7.4195681030e+01    0.3144208    0.1011862 -39.21  0.001593876    2.460    0.593
         4  -9.0338     91.9649      1.5000   4.9509496464e+01   6.0310863900e+01    0.1870827    0.1112211  60.51  0.001009364    1.554    0.357
         5 -10.5646     60.4396    233.0185   1.1490908669e+02   1.7935307964e+01    0.2784696    0.1887883  69.62 0.0006702192    1.340    0.254
         6 -14.2911    114.8157    229.2084   1.0316752932e+02   1.0986077925e+01     4.692266     1.399218  38.55   0.01782725    2.827    0.646
         7 -15.4059     34.9613    194.8365   1.1695459104e+02   2.9185605690e+01     4.219632     1.896649  74.58   0.01690303    2.742    0.635
         8 -10.7713     23.0313    224.0396   1.2163199590e+02   2.4091828884e+01    0.3448372    0.1761373  58.69  0.001992058    1.654    0.395
         9  -9.6028     48.8543    224.8600   1.1656403267e+02   2.1035422795e+01    0.1971644    0.1520314 -57.45 0.0006630718    1.561    0.359
        10 -13.1003     86.0298    228.6425   1.0920989404e+02   1.5369214832e+01      1.54059    0.8048675 -67.68  0.007835098    2.098    0.523
        11 -10.8883     25.9529    249.2266   1.2257871984e+02   1.8821748206e+01     0.371767     0.193659  43.75  0.001541356    1.593    0.372
        12 -10.5218     30.4734    246.6548   1.2162158001e+02   1.8815907334e+01     0.288012     0.190097  43.35  0.001144148    1.386    0.278
        13 -10.2697     53.5408    230.9021   1.1611550158e+02   1.9225562321e+01    0.2678414     0.165075  79.31 0.0009228576    1.591    0.372
        14 -15.2075      4.5457    174.7003   1.2217120334e+02   3.6657239458e+01      7.79345    0.6309807 -75.10   0.01921445    8.051    0.876
        15 -10.7286     37.5989    249.5708   1.2050673927e+02   1.7468505371e+01    0.6071984    0.1865327  54.04  0.002804413    2.761    0.638
        16 -14.2984      9.6543    207.6367   1.2324899076e+02   2.8852878306e+01     1.154593    0.9596362 -84.55  0.005026089    1.215    0.177
        17 -13.9531     79.1574    248.6853   1.1258578225e+02   1.2454027452e+01     3.270814    0.7307503  32.59   0.01003552    5.635    0.823
        18 -10.1631     70.8653    211.6624   1.1064155972e+02   2.1031457567e+01    0.2471899    0.1773692 -85.86 0.0008398812    1.389    0.280
        19  -8.8284    109.6171    201.4922   1.0052447344e+02   1.7486463397e+01    0.1353072    0.1268285  64.59 -5.329054e-05    1.028    0.028
        20 -10.1841    192.7449    194.4852   8.0798482552e+01   4.5567571376e+00    0.8207511    0.4018878 -62.26  0.001803357   10.643    0.906
        21  -9.5552     81.4727    182.1337   1.0445733278e+02   2.6261054579e+01    0.2506356    0.1970595  39.89 0.0009734886    1.279    0.218
        22 -11.8995     54.8525    179.9022   1.1074040272e+02   3.0393226093e+01    0.4092697    0.2868438 -35.00  0.002128318    1.955    0.489
        23 -11.9248     60.8604    174.1063   1.0851405566e+02   3.1034510959e+01    0.3472672    0.2651907 -41.53 0.0005875277    1.559    0.359
        24 -11.5378     71.7681    164.1828   1.0427187753e+02   3.2002995518e+01    0.3560109    0.2685752 -65.99 0.0004089114    1.246    0.197
        25 -13.0958     56.6896    128.9970   1.0262149706e+02   4.2812511858e+01     3.321574    0.9592041 -70.85  0.006487225    9.696    0.897
        26 -13.0414     79.2631    157.8479   1.0123722019e+02   3.2493392634e+01     1.331904    0.8068686  66.20  0.001561144    2.151    0.535
        27 -13.9289     68.1663    144.2714   1.0198403646e+02   3.7472290394e+01     2.538353     1.260292  66.93  0.002613747    4.026    0.752
        28 -10.0733    123.0760    151.4602   8.8243425864e+01   2.6619625727e+01     0.260172    0.2139175 -63.53  0.000176514    1.268    0.211
        29  -9.3370    134.0000    145.6063   8.4135146027e+01   2.5876203156e+01    0.6933478   0.08769253 -48.95  0.001332577    7.828    0.872
        30 -11.6087     23.1221    147.7707   1.1510564847e+02   4.1595445248e+01    0.2998463    0.1885787  46.28  0.001653422    1.691    0.409
        31 -11.7749    165.0074    220.0135   9.1119245056e+01   4.6367998190e+00    0.6005965    0.3196456 -55.70  0.002738856    2.489    0.598
        32 -10.6443     94.5580    143.5042   9.4326234347e+01   3.3646075317e+01    0.3414018    0.3254911 -19.57 0.0009167933    1.135    0.119
        33  -9.4951     98.2245    140.1724   9.2601361170e+01   3.3846590333e+01    0.3389074    0.2213585 -30.19   0.00143275    1.971    0.493
        34 -12.1340     82.5851    141.9604   9.7420108914e+01   3.5952681750e+01    0.3139154    0.2808108 -55.91 0.0004452128    1.072    0.068
        35 -10.9948     28.4838    142.8753   1.1304609738e+02   4.2331813456e+01    0.2186864    0.1696012  69.62  0.001290195    1.316    0.240
        36  -9.7695    157.2106    132.1774   7.5227983140e+01   2.4107636479e+01    0.2906292    0.2587121  10.45  0.000721304    1.217    0.179
        37 -10.7333    106.7404    131.4796   8.8268253622e+01   3.4455387727e+01    0.3736714    0.3612416  27.53  0.001193052    1.076    0.070
        38 -11.8062     66.7995    127.5273   9.9246782527e+01   4.1866587496e+01    0.6178772    0.3797545 -85.22  0.002594635    2.253    0.556
        39 -11.5049     15.2521    129.3618   1.1511222503e+02   4.6754298418e+01    0.2600309    0.1852289 -88.23 0.0008304042    1.298    0.229
        40 -13.4899     58.0739    160.5715   1.0737476700e+02   3.4714173100e+01    0.5702143    0.3396834 -45.36  0.001586104    1.873    0.466
        41 -10.0779     94.6060    127.7087   9.0910156005e+01   3.7526721628e+01     0.304484    0.2351239 -27.70 0.0009476479    1.482    0.325
        42 -10.1420    239.3941    127.1785   5.7987598469e+01   8.2670592228e+00    0.1977973    0.1120179 -45.41 0.0004056039    1.631    0.387
        43  -9.6700    114.9772    125.0306   8.4412658828e+01   3.4443224974e+01    0.2582501    0.1935746 -10.30   0.00112965    1.796    0.443
        44 -12.0325     33.8611    157.7254   1.1341410321e+02   3.8144233675e+01    0.5604962    0.3107665  76.34  0.002631893    2.086    0.521
        45  -9.7247    105.0937    120.0197   8.6006964144e+01   3.7508158185e+01    0.2202912    0.2108625 -33.89 0.0002720582    1.032    0.031
        46  -9.9639     23.7229    116.9808   1.1083312827e+02   4.9157118342e+01    0.1885594    0.1465875 -66.72 0.0003844439    1.072    0.067
        47  -9.3876    167.9637    113.0132   6.7929166928e+01   2.5799978070e+01    0.2537687    0.1936073 -79.30  0.001127899    1.763    0.433
        48 -10.0269    205.1767    110.6449   5.9894045695e+01   1.8038866728e+01     0.333026    0.2556338  32.85   0.00132045    1.512    0.339
        49  -8.9347    134.4950    103.0014   7.3311765074e+01   3.5375288260e+01    0.2117921    0.1373206 -17.73 0.0005053363    2.260    0.557
        50  -9.2838     66.2889    103.6083   9.4124024054e+01   4.7811578604e+01    0.1469062    0.1118928  85.53 0.0007006084    1.768    0.435
        51 -13.7986      6.3223    239.2881   1.2553925527e+02   2.2707319340e+01     1.824978    0.9111621 -82.86   0.01146728    1.758    0.431
        52 -10.2103     44.6610     90.5095   9.8500614008e+01   5.3603523849e+01    0.2577718    0.2126953 -75.81 0.0006971696    1.353    0.261
        53 -11.6180      2.0945     82.9153   1.1268168579e+02   5.8655645022e+01    0.5445833    0.1017547 -63.23  0.002023604    3.186    0.686
        54  -9.0510    184.3619     77.3250   5.5149379433e+01   2.8720024952e+01    0.1522583    0.1157265  19.74 0.0007041398    1.787    0.440
        55 -10.0194     57.1930     76.4163   9.0057197732e+01   5.5267523371e+01    0.2526255    0.2119009  69.18 0.0009816237    1.651    0.394
        56 -10.8063    162.0544     82.8044   6.1035552202e+01   3.3047151997e+01    0.2772089    0.2243526 -39.01 0.0008428138    1.225    0.184
        57  -9.3094     62.8022     70.1588   8.6024939793e+01   5.5810613050e+01    0.1987636    0.1884249 -62.37 0.0005707318    1.267    0.211
        58 -10.5096     13.4785     60.2124   1.0329611126e+02   6.3073012198e+01    0.2243388    0.1806117 -45.34 0.0004317004    1.052    0.049
        59  -8.5524     95.3337     60.7493   7.1492081081e+01   5.2001469016e+01    0.1338123    0.1154715  79.50 0.0002595397    1.558    0.358
        60 -12.8002     60.2759    248.0934   1.1617926183e+02   1.5027528982e+01    0.8049079    0.5316091  26.30  0.004887121    1.855    0.461
        61 -12.6248    200.9097     48.2411   4.4952424568e+01   2.9326959047e+01     1.047183    0.6772617 -73.58  0.005152196    1.757    0.431
        62 -12.9901     24.7124    207.4993   1.2017688510e+02   2.7430209092e+01    0.3947487    0.3171867 -47.82 0.0008532293    1.659    0.397
        63  -9.0467     26.9242     51.7068   9.4865878543e+01   6.3784712744e+01    0.1643426    0.1401985  -9.10  0.000385446    1.152    0.132
        64 -10.5058    129.4719     36.9655   5.3979653294e+01   4.8107219995e+01    0.3498018    0.2420045 -70.60  0.001208181    2.040    0.510
        65 -10.2154    189.8062     15.3255   3.7946706858e+01   3.6007907276e+01    0.2214025    0.1594994 -51.06 0.0007515516    1.351    0.260
        66 -10.3137     20.4398    238.7582   1.2298966960e+02   2.1406726916e+01    0.1994763    0.1510592  68.92 0.0003788852    1.025    0.024
