#   1 NUMBER                 Running object number                                     
#   2 MAG_AUTO               Kron-like elliptical aperture magnitude                    [mag]
#   3 X_IMAGE                Object position along x                                    [pixel]
#   4 Y_IMAGE                Object position along y                                    [pixel]
#   5 X_WORLD                Barycenter position along world x axis                     [deg]
#   6 Y_WORLD                Barycenter position along world y axis                     [deg]
#   7 A_WORLD                Profile RMS along major axis (world units)                 [deg]
#   8 B_WORLD                Profile RMS along minor axis (world units)                 [deg]
#   9 THETA_WORLD            Position angle (CCW/world-x)                               [deg]
#  10 FWHM_WORLD             FWHM assuming a gaussian core                              [deg]
#  11 ELONGATION             A_IMAGE/B_IMAGE                                           
#  12 ELLIPTICITY            1 - B_IMAGE/A_IMAGE                                       
         1 -13.9762     51.4784     40.0892   7.3076011403e+01   6.2915542212e+01     1.094481    0.6715745  25.89  0.005909075    1.567    0.362
         2 -14.4482      6.8749     22.0391   8.7632971870e+01   7.1028180900e+01     2.221963     1.099577 -10.85   0.01169644    2.272    0.560
         3 -13.5388     29.0181     12.9340   7.1473278986e+01   6.9951713607e+01    0.8824317    0.5838448 -41.49   0.00548519    1.936    0.483
         4 -13.7808     34.1777     10.8473   6.7951886070e+01   6.9489247148e+01      1.11679    0.6115577  -6.65  0.005941629    2.198    0.545
         5 -14.3742     67.7750     42.4400   6.7598901319e+01   5.9865524928e+01     1.157404    0.8366892   8.18  0.005944528    1.469    0.319
         6 -12.5767    111.7948      3.4395   4.0906208182e+01   5.5066935301e+01     1.331209    0.3406114  64.75  0.004928146    3.243    0.692
         7 -11.4283     64.3008     17.5804   5.8744852397e+01   6.3744133952e+01    0.9590431    0.3984629  39.80  0.004481229    2.123    0.529
         8 -12.9577     89.2855      2.2524   4.5176631475e+01   6.0128003983e+01    0.9376767    0.2729062  62.08  0.003679333    3.056    0.673
         9 -11.6599     74.3785      1.4778   4.8688268661e+01   6.3294393170e+01    0.8641783    0.1761246  59.50  0.002752942    4.895    0.796
        10 -13.4594     75.5334     13.8215   5.3491807707e+01   6.1971751740e+01    0.5709908     0.468573  55.88  0.003700825    1.273    0.214
        11 -14.3932     85.5203     11.3272   4.9648661781e+01   6.0162482612e+01       1.8842    0.7877997  47.44  0.008962948    1.950    0.487
        12 -11.6337    115.3363     12.8742   4.3399398276e+01   5.3458456831e+01    0.2679216    0.1415233 -39.62  0.001353394    2.170    0.539
        13 -11.9304    124.4564     11.2928   4.1196908058e+01   5.1505389152e+01    0.3627316    0.2436708  65.09  0.001081605    1.271    0.213
        14 -11.4202    120.1558      7.5569   4.0756313159e+01   5.2823663805e+01    0.2078283    0.1848854   3.04 0.0005118041    1.329    0.248
        15 -11.9615    242.1827     10.2398   2.8293647320e+01   2.5628271907e+01     0.233329      0.13393 -53.31 0.0005408784    1.397    0.284
        16 -10.2292    150.9290      8.7244   3.6405044933e+01   4.5571352650e+01    0.1851607     0.137715  72.25  0.001135945    1.137    0.121
        17 -10.6141     68.5022      6.9013   5.2741086268e+01   6.4007127964e+01    0.1649252    0.1157811 -17.32  0.000607595    1.556    0.358
        18  -9.9661     56.2023      8.8531   5.7784814299e+01   6.6125793356e+01    0.1719166    0.1175423  19.20  0.001054553    1.352    0.261
        19 -11.3213    137.6314      5.1507   3.7224025169e+01   4.8983435663e+01    0.3122826    0.1716585  70.71  0.001146841    1.553    0.356
        20 -11.0782      6.5427      3.0782   7.8962869125e+01   7.3819082615e+01    0.2961147    0.1529684 -10.00  0.001683825    2.068    0.516
        21  -9.8170    212.2689      1.3494   2.8616157958e+01   3.2566776064e+01    0.1004095   0.08508307  49.17 0.0003305017    1.622    0.383
        22 -13.5279     82.8027     75.0170   7.3628454587e+01   5.1487127884e+01    0.7372549    0.3942693  26.22  0.002984042    2.319    0.569
        23 -14.9926     96.3205     72.9050   6.8561998280e+01   4.9299862322e+01     1.852621    0.8371748  54.28  0.006704745    2.856    0.650
        24 -13.7122     60.1231     71.2983   8.0648476910e+01   5.6006453543e+01    0.7218863    0.5996889 -80.84  0.003741797    1.746    0.427
        25 -13.9076     64.0084     68.9811   7.8424123559e+01   5.5869489642e+01    0.8297196    0.5710008  51.24  0.004141034    1.849    0.459
        26 -13.0695    165.2990     73.4718   5.1777884905e+01   3.3762097803e+01    0.5398796    0.4078214  73.88  0.002771372    1.389    0.280
        27 -14.6423    118.2120     71.7778   6.1896870378e+01   4.4877253142e+01    0.9987732    0.7378231  -4.08  0.004709905    1.819    0.450
        28 -13.7199     86.1093     60.9863   6.7909665522e+01   5.3459027830e+01    0.6357954    0.3756933  24.77  0.002801064    2.062    0.515
        29 -12.6824     92.8981     56.6082   6.4247307865e+01   5.2851647441e+01    0.4139378    0.2883176 -41.21 0.0003910357    1.530    0.347
        30 -10.9131     84.5399     56.9083   6.7026124225e+01   5.4456898950e+01    0.1974407    0.1795975 -18.79 0.0008263346    1.109    0.099
        31 -13.6772     74.8301     60.8124   7.1709419928e+01   5.5583165955e+01    0.5353633    0.4032094  46.20  0.002882258    1.429    0.300
        32 -12.6426      9.0216     64.1334   1.0021473909e+02   6.2955874375e+01    0.4352405    0.2752117 -37.28  0.002393404    1.316    0.240
        33 -12.1710    103.6375     63.6325   6.3371986408e+01   4.9450820593e+01    0.3416412    0.2790374 -54.29  0.001242816    1.406    0.289
        34 -13.8399     27.8607     55.7645   8.9212875278e+01   6.3133067011e+01    0.8757629    0.3575466 -48.65  0.004027117    2.142    0.533
        35 -13.4724     19.9725     58.3115   9.3623016538e+01   6.3356105412e+01    0.7049884    0.3424677   2.54   0.00325217    2.598    0.615
        36 -11.0887    170.2901     62.6973   4.8031931242e+01   3.4338633991e+01    0.2933135    0.2080683  87.63 0.0007663391    1.594    0.373
        37 -11.1980    165.9678     62.9723   4.8860085193e+01   3.5304112142e+01    0.2119853    0.1998672  77.09  0.000442072    1.055    0.052
        38 -10.8833    214.7614     60.7477   4.1105030524e+01   2.4703819780e+01    0.2718253    0.1631256 -36.55 0.0009023986    1.666    0.400
        39 -14.1703    141.7129     77.0883   5.7676338912e+01   3.8611444103e+01    0.6879157    0.5599123   3.01  0.003460207    1.578    0.366
        40 -11.1924    147.5251     58.4883   5.1105084140e+01   4.0329589359e+01    0.1407885    0.1325668  73.07  0.000168404    1.008    0.008
        41 -11.0624    174.4918     56.4591   4.5710644727e+01   3.4305365941e+01    0.2317117    0.2089092 -71.42 8.445331e-05    1.049    0.046
        42 -12.8772     55.6652     77.9053   8.4395912686e+01   5.5287613784e+01     0.524924    0.3949484 -33.31  0.002853818    1.242    0.195
        43 -12.1048    132.4734     53.6272   5.2841520652e+01   4.4589625431e+01    0.3645923    0.2419826  61.16 0.0008157156    1.463    0.316
        44 -12.2442     68.0935     54.6298   7.1990891672e+01   5.7839429258e+01    0.3388891    0.2865044  74.68  0.001888537    1.770    0.435
        45 -11.1207    246.5358    183.1242   6.1906077279e+01  -1.6466190558e+00    0.1955511    0.1046806 -38.04   0.00102352    1.571    0.364
        46 -14.4191     41.8263     47.8458   8.0182069284e+01   6.2991591093e+01     1.256285    0.7131292   2.65  0.004845364    2.371    0.578
        47 -14.0024     42.1134     42.8417   7.8180077500e+01   6.3812792117e+01     1.105801     0.403078  24.32  0.003588426    3.664    0.727
        48  -9.7091    208.5490     55.4363   4.0677870526e+01   2.6802625532e+01    0.1279157    0.1142249 -73.36 6.713309e-05    1.066    0.062
        49 -13.2956      2.8711     46.4123   9.8345596145e+01   6.6942040096e+01    0.6949167    0.5302523  61.94  0.003202721    2.151    0.535
        50 -12.4549      2.4286     38.4891   9.6139453158e+01   6.8480698139e+01    0.4212197    0.3007655 -61.67  0.002067341    1.623    0.384
        51 -12.9828    232.8154    163.6806   6.0417335498e+01   3.6829448307e+00    0.5487223    0.3953197  45.27  0.002969961    1.665    0.400
        52 -13.5468    248.3200    140.1820   5.3309674463e+01   5.3076269069e+00     1.771573    0.5622591 -38.13   0.00690256    2.725    0.633
        53 -12.8121    248.5219    153.6114   5.5924879444e+01   2.9962049372e+00    0.6425238    0.3083219 -39.96  0.003159156    1.715    0.417
        54 -12.5752    241.6703    153.0398   5.6866646738e+01   4.1495847325e+00     0.415606    0.2952785  48.54  0.002356614    1.739    0.425
        55 -12.4100     79.9431     32.0515   5.9397845024e+01   5.9032054811e+01    0.6612459    0.4697621  81.87  0.003042446    2.554    0.608
        56 -11.2079    137.2000     48.2032   5.0189254764e+01   4.4268160933e+01     0.193177    0.1601111 -80.69   0.00078365    1.333    0.250
        57 -11.8714     97.2609     47.1815   5.9676402539e+01   5.3412021490e+01    0.2853819    0.2288466  31.88 0.0006217709    1.185    0.156
        58 -10.9508    116.4694     45.4750   5.3982813101e+01   4.9443540612e+01    0.1379969    0.1269662  47.87 6.637567e-05    1.003    0.003
        59 -11.0208    157.1349     43.6594   4.5146026618e+01   4.0182243335e+01     0.275589    0.1924213  60.87  0.000809631    1.325    0.245
        60 -12.0918    141.5330     43.5578   4.7938482191e+01   4.3885196583e+01    0.2423391    0.2237837  62.24 0.0006066854    1.039    0.038
        61 -10.8990     90.2518     43.4563   6.0438392913e+01   5.5410027190e+01    0.2311023    0.1877713 -25.56  0.001124253    1.296    0.228
        62 -10.3849    204.6407     43.1735   3.8368140956e+01   2.9353963582e+01    0.1689308    0.1461781 -62.37 0.0004266266    1.097    0.088
        63 -10.7302    106.2490     42.0062   5.5403699690e+01   5.2205167164e+01    0.1841221    0.1737779  32.65 0.0003272551    1.045    0.043
        64 -10.2583    197.4740     40.8541   3.8677844783e+01   3.1240591347e+01    0.1773497    0.1197187 -40.65 0.0004775111    1.475    0.322
        65 -10.0895    225.7843     39.5095   3.5344633077e+01   2.5365603988e+01    0.1586178    0.1021409 -86.02  0.000361608    1.513    0.339
        66 -11.5452    217.9977     38.2094   3.5835884949e+01   2.7147369984e+01     0.243713    0.1807915  70.89 0.0004145424    1.356    0.262
        67 -10.9808    122.2781     43.2749   5.1899604567e+01   4.8419461874e+01    0.2207695    0.1890372  33.50 0.0003371885    1.193    0.162
        68 -11.2391    130.2466     38.4197   4.8633589410e+01   4.7208560153e+01    0.2519505    0.2086047 -58.21  0.001450503    1.336    0.251
        69  -9.8470    159.8193     36.3750   4.2707638620e+01   4.0490035038e+01    0.1705422    0.1118721  56.73 0.0001001648    1.433    0.302
        70 -10.0084    176.5137     33.5348   3.9548850143e+01   3.6936595428e+01    0.1321166    0.1127662 -85.19 0.0008091962    1.039    0.037
        71 -10.6723    249.9746     32.1477   3.1820033828e+01   2.1569048819e+01    0.1905456     0.117313 -66.63  0.001204974    1.367    0.268
        72 -12.6457     27.7346     29.5302   7.9608605121e+01   6.7771325415e+01    0.3684565     0.362742 -31.54  0.002677342    1.553    0.356
        73 -10.2313     62.0141     29.4989   6.4601461406e+01   6.2715637996e+01    0.1866532    0.1118517  38.61 0.0004582748    1.504    0.335
        74 -10.2335    108.2118     28.5786   5.0288139393e+01   5.3454088751e+01     0.191542    0.1056665  46.90 0.0003525505    1.614    0.380
        75 -11.3106    241.9737     22.6288   3.0626883093e+01   2.4249976589e+01      0.28189    0.1599079 -61.62  0.001085986    1.461    0.316
        76 -11.7080     84.2295     22.4862   5.4372184897e+01   5.9305305680e+01    0.3762732    0.2042159  41.51  0.001469298    1.627    0.385
        77 -11.5269     18.0202    153.7562   1.1205439918e+02   4.0740164225e+01    0.1623871    0.1137412  25.41 0.0008970679    1.645    0.392
        78 -10.7182    138.5051    152.4988   7.7717067273e+01   2.3289557254e+01    0.1535475    0.1513887 -34.52 5.279015e-05    1.013    0.013
        79 -11.8248     51.5164    141.5014   1.0039286372e+02   4.0486928517e+01     0.537827    0.2090821 -63.13  0.002020129    2.341    0.573
        80 -12.2626     47.1630    142.3191   1.0187022482e+02   4.0791667520e+01    0.4278563    0.2210565  14.36  0.001735673    2.653    0.623
        81 -12.0361    214.6961    141.9608   5.9054013499e+01   1.0704676522e+01    0.4826834     0.359869  46.17  0.002314232    1.515    0.340
        82 -10.9382     33.5970    135.8056   1.0504248182e+02   4.3916817845e+01    0.2006708    0.1230358 -80.51 0.0009461631    1.681    0.405
        83 -10.2789    153.9596     19.7595   3.9029369899e+01   4.3778895027e+01    0.1770356    0.1480606  77.15 0.0004085063    1.035    0.033
        84 -10.0548    175.5034     14.5340   3.4924094474e+01   3.9314713259e+01    0.1253412    0.1049339  88.54 0.0008096811    1.010    0.009
        85 -11.0788    224.7798    130.3594   5.4893904997e+01   1.1016807346e+01    0.2290885    0.1862429  33.04  0.001318878    1.452    0.311
        86 -10.5655     28.4716    126.4908   1.0521673802e+02   4.6773500683e+01    0.1379842    0.1203792 -63.80 0.0008099309    1.004    0.004
        87 -11.3366     74.8303    109.9895   8.6236596910e+01   4.5166710789e+01    0.2515387    0.1802216 -88.81  0.001098231    2.068    0.517
        88 -12.9335     62.3146    106.5282   8.9651927214e+01   4.7866274510e+01    0.4811108    0.2914525 -70.27  0.002058884    2.072    0.517
        89 -10.5811    173.1944    100.3927   5.7199642368e+01   2.7125673606e+01    0.2102368    0.1413886  65.39 0.0009320895    1.695    0.410
        90 -12.5083    139.8855     97.4024   6.3771554098e+01   3.5174102732e+01    0.4617373    0.2787717  48.59   0.00182647    1.662    0.398
        91 -12.8590     40.9801     81.8080   9.1271646287e+01   5.6297382153e+01    0.4148373    0.2799574  18.47  0.002196709    1.578    0.366
        92 -14.3413    150.5346     73.4514   5.4717248438e+01   3.7200746430e+01    0.8526242     0.577333  37.40  0.004002851    1.702    0.412
        93 -14.4235    136.0096     75.9939   5.8686743604e+01   4.0116120208e+01    0.6689503    0.6268169 -43.58  0.002035795    1.093    0.085
