#   1 NUMBER                 Running object number                                     
#   2 MAG_AUTO               Kron-like elliptical aperture magnitude                    [mag]
#   3 X_IMAGE                Object position along x                                    [pixel]
#   4 Y_IMAGE                Object position along y                                    [pixel]
#   5 X_WORLD                Barycenter position along world x axis                     [deg]
#   6 Y_WORLD                Barycenter position along world y axis                     [deg]
#   7 A_WORLD                Profile RMS along major axis (world units)                 [deg]
#   8 B_WORLD                Profile RMS along minor axis (world units)                 [deg]
#   9 THETA_WORLD            Position angle (CCW/world-x)                               [deg]
#  10 FWHM_WORLD             FWHM assuming a gaussian core                              [deg]
#  11 ELONGATION             A_IMAGE/B_IMAGE                                           
#  12 ELLIPTICITY            1 - B_IMAGE/A_IMAGE                                       
         1  -9.6162      2.1782      3.5530   9.1030424957e+01   7.3917666123e+01    0.2452075    0.1200132 -42.54  0.001500077    1.727    0.421
         2 -10.7201      1.8485     20.7886   9.8909519515e+01   7.1140217114e+01    0.8598767    0.1266412 -54.56  0.002704632    6.039    0.834
         3 -11.9412    200.2284     39.5490   4.6414542479e+01   3.0314050867e+01     1.026084    0.8517869  14.08  0.005664917    1.575    0.365
         4 -11.9670    208.7655     33.6130   4.3807000876e+01   2.9037366418e+01    0.9184175    0.7645744 -83.08  0.004690413    1.127    0.113
         5 -11.0112    216.2628     26.3001   4.1142416831e+01   2.8180123446e+01    0.5305996    0.3800236  40.05  0.001332176    1.818    0.450
         6 -11.7554    225.9388     16.2203   3.7801554241e+01   2.7139091457e+01    0.7405997    0.5946992 -62.79  0.002806222    1.073    0.068
         7 -10.5615      1.8959     36.5164   1.0436406833e+02   6.8234892455e+01     0.662101    0.1887176 -60.85  0.002747787    3.266    0.694
         8 -11.3378    112.0433    242.4934   1.0882498876e+02   9.5339305656e+00    0.6385793      0.26227  31.81  0.002756424    2.849    0.649
         9  -9.6060     52.5079    250.5051   1.2045283728e+02   1.6282308551e+01     0.411562    0.1219528  35.27  0.001795161    3.490    0.713
        10 -10.7089    102.6703    245.7916   1.1095252497e+02   1.0350140069e+01    0.4077951    0.3226863   3.36  0.002543084    2.011    0.503
        11 -11.4410     84.2956    248.2582   1.1459955144e+02   1.2530509756e+01    0.8635505    0.5164107  47.18  0.003725413    1.347    0.258
        12 -10.6461     96.4905    246.6001   1.1219016573e+02   1.1103732492e+01    0.4413144    0.2657794  28.97  0.002481527    1.967    0.492
        13 -10.8412     71.9239    248.3121   1.1685182999e+02   1.4194885250e+01    0.7774475    0.3247484  40.72  0.004124652    2.007    0.502
        14  -9.9822     61.4358    250.1062   1.1886243235e+02   1.5237873631e+01    0.4324298     0.281931  71.70  0.002154995    1.333    0.250
        15  -8.5521     57.4890    250.4608   1.1958175235e+02   1.5672890523e+01    0.1785774    0.1347688  62.82 0.0006910415    1.022    0.021
        16 -11.8689     30.8646    247.9325   1.2398858227e+02   1.9278261428e+01    0.8813081    0.7685042  60.34  0.007203288    1.362    0.266
        17 -11.7805     21.3011    222.6105   1.2416629093e+02   2.5109402528e+01    0.6506132    0.6016805  87.22   0.00506896    1.414    0.293
        18 -12.0644      2.6256    179.7789   1.2505463737e+02   3.5865678472e+01     2.550055    0.3580428 -78.17   0.00718894    6.808    0.853
        19 -11.6352     33.5349    208.1313   1.2086883430e+02   2.6755042751e+01    0.5327266    0.4739978 -38.46  0.001068645    1.692    0.409
        20 -13.7818     40.8587    195.7756   1.1835184612e+02   2.8584419451e+01      4.68163     1.726819  69.65     0.015696    4.824    0.793
        21  -9.2545     48.6243    224.9553   1.1927090018e+02   2.1564686143e+01    0.2098621    0.1499683  50.35 0.0005370226    1.259    0.206
        22  -9.5439     45.5075    221.4981   1.1959069953e+02   2.2629997367e+01    0.3010986    0.1449526 -80.71 0.0009110599    2.024    0.506
        23 -10.3274     48.7324    216.1818   1.1853596424e+02   2.3320875652e+01    0.4526256    0.2569904  81.29   0.00255535    1.718    0.418
        24  -9.5232    168.2225    223.6897   9.5287102671e+01   3.7790989671e+00    0.2392361    0.1589353  30.15  0.001322277    1.389    0.280
        25  -8.5545     93.7741    220.9469   1.0999818861e+02   1.6251056041e+01    0.1710534    0.1496011  74.94  0.000661652    1.075    0.070
        26 -13.7986      2.9631    134.9173   1.2136686372e+02   4.6123411716e+01     6.446905    0.9950648 -76.09   0.01740882    6.406    0.844
        27 -10.4231    121.8351    224.8726   1.0478267560e+02   1.1170791134e+01    0.3570713    0.2056178  60.96  0.001763027    2.022    0.505
        28  -8.6549    164.4171    217.2439   9.5032282354e+01   5.4990317902e+00    0.1686111     0.128202 -61.00 0.0009497335    1.671    0.402
        29 -10.2972     90.5194    231.4758   1.1179547001e+02   1.4702991151e+01    0.2877916    0.2150477 -42.98  0.001765055    1.851    0.460
        30 -10.9253    128.6931    230.0116   1.0407303032e+02   9.1488242130e+00    0.3258894    0.2310744  42.79  0.001938446    1.209    0.173
        31 -11.3593    115.5413    231.2368   1.0684112829e+02   1.0994767463e+01    0.5079978    0.2641264  49.65   0.00261182    1.714    0.416
        32 -10.7506     20.4965    193.9948   1.2240190268e+02   3.1140750815e+01    0.4148059     0.188573  85.07  0.001952107    2.146    0.534
        33  -7.7204    190.6642    191.3399   8.5176944590e+01   5.4316220931e+00     0.133091    0.1120016  82.77 0.0002919527    1.756    0.431
        34 -10.2834     61.0817    180.3493   1.1227922096e+02   2.9589889267e+01    0.4199196    0.2774639 -38.66  0.002142694    2.168    0.539
        35 -10.2188     66.5180    174.5759   1.1027883559e+02   3.0209688931e+01    0.3382413    0.2577505 -50.70  0.001087741    1.466    0.318
        36 -10.1209    159.1509    227.8315   9.7711284816e+01   4.5879477786e+00    0.3918046    0.1403996  38.29  0.001620709    2.447    0.591
        37 -10.0347     76.3031    164.6767   1.0649922104e+02   3.1180566719e+01    0.3467651    0.2553719 -56.69 0.0004863804    1.340    0.254
        38 -11.3603     82.7155    158.8273   1.0396002088e+02   3.1630703876e+01    0.7768945    0.7357048  -1.84  0.002258179    1.296    0.228
        39 -11.7586     73.8006    154.0322   1.0545363642e+02   3.4101908616e+01     1.100488    0.5933505  73.16  0.004195218    2.989    0.665
        40 -10.4111     70.4700    145.5003   1.0490418884e+02   3.6654112874e+01    0.3708617    0.3364321 -85.43  0.001101134    1.032    0.031
        41 -11.2035     67.5136    142.5259   1.0518943348e+02   3.7792699951e+01    0.5084236    0.4151224  46.11  0.001749275    1.306    0.234
        42 -11.6717     63.4430    160.9789   1.0915305659e+02   3.3847098418e+01    0.5187263    0.3006503 -44.16  0.001383248    2.088    0.521
        43 -13.6575      6.5660    240.5692   1.2764135207e+02   2.3162253803e+01     2.052945     1.339411 -80.64   0.01543746    1.445    0.308
        44  -8.9926     32.9825    155.0222   1.1596830672e+02   3.8827707367e+01    0.3142561    0.1121147 -58.12  0.001343903    2.420    0.587
        45 -12.8653      9.0938    207.4416   1.2550343208e+02   2.9386589807e+01     1.019177    0.9011965  24.23  0.004699908    1.671    0.401
        46  -9.0031     32.5478    144.2802   1.1477307491e+02   4.1457701464e+01    0.4020674    0.1151163 -71.40  0.001438174    3.183    0.686
        47  -9.3134     99.0708    142.3596   9.6664208987e+01   3.2963920229e+01    0.6108562    0.3587713 -26.10  0.002219267    3.105    0.678
        48 -10.5223     85.7744    142.2570   1.0020398538e+02   3.5173643501e+01    0.3284995    0.2831375 -43.33 0.0004544959    1.232    0.188
        49 -10.7730     58.1612    130.4344   1.0566512248e+02   4.1998513668e+01    0.6433037    0.2368754 -66.31   0.00235669    2.696    0.629
        50  -8.5982     96.4787    128.3048   9.4376954502e+01   3.6799471993e+01    0.2869887    0.2272507 -35.11 0.0008734614    1.374    0.272
        51  -8.8403    107.4134    131.6793   9.2134357770e+01   3.4047719087e+01    0.4744505    0.2618888  46.25   0.00196974    1.907    0.476
        52  -8.0297    106.5035    120.1119   8.9669656718e+01   3.6958695285e+01    0.2204015    0.1443049 -48.82 0.0003751815    1.449    0.310
        53  -7.7502    205.4971    110.4613   6.4174883512e+01   1.7520334560e+01    0.1505571    0.1393864 -43.93  0.000294744    1.041    0.039
        54  -8.0585    134.5038    102.5373   7.7488663539e+01   3.5237013074e+01    0.1559791    0.1515819 -42.33 9.868382e-05    1.010    0.010
        55 -10.6395     88.4279    227.4457   1.1178294208e+02   1.5771393762e+01    0.4067838    0.2560322 -84.99  0.001430729    1.793    0.442
        56  -8.5422    160.4795     81.4830   6.5234411164e+01   3.3439504763e+01    0.1528923    0.1501894 -34.04 0.0008100396    1.016    0.015
        57  -7.3176     61.0551     72.0000   9.0862673557e+01   5.5346067057e+01    0.2066437   0.07899334  33.50 0.0007955596    2.895    0.655
        58  -9.3011     13.7060     60.4496   1.0586909515e+02   6.2652749133e+01    0.2241893    0.1371389 -56.71 0.0006818853    1.312    0.238
        59 -10.2592      2.3285     51.7834   1.0843061189e+02   6.5144787685e+01    0.5410883    0.1501724 -65.70  0.002097477    3.504    0.715
        60 -10.4297    127.2215    241.3623   1.0578240525e+02   7.4153591563e+00    0.3274052     0.170958 -51.99  0.001747619    2.267    0.559
        61  -9.1658     53.2443    240.7024   1.1962198719e+02   1.7974145135e+01    0.2167538    0.1551314 -71.73 0.0007419352    1.502    0.334
        62 -10.5134     41.5569    236.5520   1.2142347018e+02   2.0160555230e+01    0.2760291    0.1974045  65.43 0.0004852157    1.067    0.063
        63 -10.0203     38.9156    232.1165   1.2159500863e+02   2.1314837224e+01    0.2302078    0.1892983  54.82 0.0003397932    1.259    0.206
        64 -10.4052     98.9516    226.7979   1.0962158959e+02   1.4348314815e+01    0.3780643    0.1612059  35.66  0.001720468    2.305    0.566
        65 -10.5840     83.9794    227.2281   1.1263777087e+02   1.6450267123e+01    0.5776834    0.2587231 -67.33  0.002794061    2.422    0.587
        66  -8.5091     61.9242    235.6827   1.1764255489e+02   1.7819330016e+01     0.207129    0.1416556  84.54  0.000608067    1.357    0.263
