#   1 NUMBER                 Running object number                                     
#   2 MAG_AUTO               Kron-like elliptical aperture magnitude                    [mag]
#   3 X_IMAGE                Object position along x                                    [pixel]
#   4 Y_IMAGE                Object position along y                                    [pixel]
#   5 X_WORLD                Barycenter position along world x axis                     [deg]
#   6 Y_WORLD                Barycenter position along world y axis                     [deg]
#   7 A_WORLD                Profile RMS along major axis (world units)                 [deg]
#   8 B_WORLD                Profile RMS along minor axis (world units)                 [deg]
#   9 THETA_WORLD            Position angle (CCW/world-x)                               [deg]
#  10 FWHM_WORLD             FWHM assuming a gaussian core                              [deg]
#  11 ELONGATION             A_IMAGE/B_IMAGE                                           
#  12 ELLIPTICITY            1 - B_IMAGE/A_IMAGE                                       
         1 -10.9345    170.3450     25.4182   6.8125691302e+01   3.9515233319e+01    0.6307525    0.4885116   1.06  0.003534269    1.775    0.437
         2 -11.2668    165.2193     22.0207   6.7996570699e+01   4.1131573793e+01    0.7250956    0.5398876  13.20   0.00398452    1.862    0.463
         3  -8.9258    119.9900      8.8908   7.2080771950e+01   5.2920108970e+01    0.2733642    0.2391633  70.31  0.001191027    1.190    0.160
         4  -8.8875    173.8625      8.1386   6.3112228181e+01   4.0496887531e+01    0.1887753    0.1529211 -84.05 0.0004494441    1.171    0.146
         5  -8.1243    171.6268      2.3215   6.1912782067e+01   4.1568858093e+01     0.135023   0.08335842 -73.80 0.0006008096    1.809    0.447
         6  -8.4045    142.0336    157.5114   1.0882860813e+02   2.1534613253e+01    0.5020043    0.3028615  73.68  0.001745213    2.954    0.661
         7  -7.4069    250.3420    250.2888   1.0417375988e+02  -1.4839604697e+01    0.1214969   0.07447382   6.25 0.0007022848    1.647    0.393
         8  -9.2587    144.5919    250.5699   1.2428375032e+02   1.8061491325e+00    0.4192536    0.1053018  42.06 0.0005844244    3.273    0.694
         9 -18.2060     78.6980    222.0841   1.3395334703e+02   1.8108169292e+01      5.06532     4.180782  74.97   0.01456608    1.014    0.013
        10  -8.7355    150.4608    155.4704   1.0636374529e+02   2.0242054396e+01    0.3249933    0.2749296 -11.21  0.001093235    1.457    0.313
        11  -9.4895    146.9459    157.8023   1.0771024969e+02   2.0448325926e+01    0.5892243    0.3903416 -89.72  0.002238278    2.525    0.604
        12  -9.8460    142.4397    153.5231   1.0786394930e+02   2.2369473051e+01    0.4363082    0.3531455  12.47  0.001224764    1.579    0.367
        13  -8.8236    140.6652    164.1728   1.1056652534e+02   2.0281281201e+01    0.3029647    0.2264123  73.95 0.0007793919    1.629    0.386
        14  -8.7748    175.6330    205.7936   1.1079292442e+02   4.4576789836e+00    0.2364285    0.2217569  79.55 0.0004690486    1.202    0.168
        15  -8.5184    158.3005    156.6727   1.0478383516e+02   1.8309250864e+01    0.2885178    0.2260065  81.64 0.0008594822    1.594    0.372
        16  -9.0569    155.7832    153.7688   1.0472964833e+02   1.9496979793e+01    0.3229715    0.2298006  59.22 0.0006714521    1.543    0.352
        17  -9.4323    188.9635    154.8476   9.7552688328e+01   1.2130297216e+01    0.5017152    0.4119059  56.65   0.00251285    1.292    0.226
        18 -10.9987    191.9308    193.4930   1.0503569795e+02   3.7251896688e+00     1.022716    0.4836061 -55.59  0.003783839    2.973    0.664
        19  -9.0530     10.2313    152.1890   1.4114154803e+02   4.2155863570e+01    0.4371614    0.2613998 -68.51  0.002612409    1.312    0.238
        20  -8.8360    175.1602    150.9378   9.9664296989e+01   1.5937357380e+01    0.3980914    0.2240807  44.99 0.0008723447    1.791    0.442
        21  -9.9004    202.6997    189.7206   1.0207668341e+02   2.3889622380e+00    0.3557698    0.2829455 -39.71  0.001252403    1.270    0.213
        22 -10.0856    222.2103    145.0852   8.8787335278e+01   7.1192839901e+00    0.2525195    0.2383594  51.58 0.0002976721    1.141    0.124
        23  -9.6616    144.0724    145.6891   1.0571498559e+02   2.3828390967e+01    0.4372014    0.2942726 -66.05  0.001707509    1.770    0.435
        24  -9.1978    140.0462    141.3871   1.0571803842e+02   2.5669864081e+01    0.3170326    0.2429415  72.80   0.00101454    1.563    0.360
        25  -8.7657    126.5064    145.5736   1.1007060894e+02   2.7486465465e+01    0.2986927    0.2565839  84.91  0.000192317    1.266    0.210
        26  -8.6688     23.0576    144.4556   1.3708529942e+02   4.2884081178e+01    0.3531961    0.1964587 -24.62  0.001622956    3.202    0.688
        27  -9.1714    162.5224    140.5188   1.0012318432e+02   2.0989804013e+01    0.4698832    0.2206188 -51.21  0.001685978    2.242    0.554
        28 -13.1871     56.2317    240.7647   1.4017462205e+02   1.7442690918e+01    0.3893751    0.2741407 -73.23 0.0009088418    1.423    0.297
        29  -7.4120    154.2746    137.3102   1.0130173512e+02   2.3523000233e+01    0.1540151    0.1267474  -7.07 0.0003285096    1.553    0.356
        30  -9.6152      5.9990    222.4966   1.4781061543e+02   2.7029025053e+01    0.3582838    0.1291753 -74.58  0.001534002    2.246    0.555
        31  -9.1079    176.1883    218.2857   1.1289772918e+02   2.0009609484e+00    0.6665972    0.2653663 -34.31  0.002272011    3.913    0.744
        32  -9.2465    168.5891    187.9912   1.0895141237e+02   9.3953408863e+00     0.321979    0.2503702 -66.04 0.0007531922    1.509    0.337
        33  -9.3209     17.2969    185.5625   1.4287770164e+02   3.3895075463e+01    0.5304313    0.1835039 -61.00  0.001429892    2.479    0.597
        34  -9.6363     21.8090    182.7921   1.4167162275e+02   3.4082691407e+01    0.3523299    0.1764904 -88.74  0.001795212    1.893    0.472
        35  -9.3508    157.2958    132.6885   9.9478376978e+01   2.3882315144e+01    0.3403487     0.256784 -85.97  0.001292801    1.753    0.429
        36  -9.0741     23.9388    179.0430   1.4084530451e+02   3.4728868465e+01    0.2841961    0.1895837 -48.36 0.0006449721    1.804    0.446
        37  -8.3121    169.0553    128.0294   9.5633992515e+01   2.2247437882e+01    0.2291132    0.2213246  82.32 0.0004028463    1.035    0.034
        38  -8.9545    240.7311    126.8816   8.1571659290e+01   6.8013299694e+00     0.223237    0.2033781  66.17 0.0003133769    1.219    0.179
        39  -9.1145    122.8015    127.1382   1.0675422143e+02   3.2539300394e+01    0.2408706    0.2144526 -86.85 0.0008105373    1.211    0.174
        40  -7.9050    226.1830    126.1526   8.3839475224e+01   9.9135824728e+00    0.2021464    0.1667121 -71.10 0.0004073944    1.337    0.252
        41  -9.3373    181.2288    185.5482   1.0572227962e+02   7.3838779807e+00    0.4166655    0.1915821 -50.26  0.001596996    2.380    0.580
        42 -10.1856    161.5237    176.7534   1.0829078522e+02   1.3205588702e+01    0.6883277    0.3546012 -62.58   0.00239378    2.832    0.647
        43  -9.2264    111.1477    121.7227   1.0856776183e+02   3.6091186428e+01    0.2792783    0.2506248 -79.94 0.0007274732    1.185    0.156
        44  -8.3756    139.9801    120.6986   1.0072906247e+02   3.0373036104e+01     0.222253    0.2023613  51.99 0.0004955339    1.107    0.097
        45 -11.2870    186.9991    176.2089   1.0258166688e+02   8.1242457876e+00    0.7325139    0.7022323  79.52  0.002462132    1.137    0.121
        46  -9.4371    188.1482    167.7418   1.0054846909e+02   9.6252162357e+00    0.4272079    0.3158749 -75.62  0.001593656    1.898    0.473
        47  -9.1623     81.5398    118.2167   1.1611892515e+02   4.2085423949e+01    0.2528844    0.1982867  35.16  0.001121382    1.382    0.276
        48 -11.9694    249.0623    234.6071   1.0169941872e+02  -1.2598841820e+01    0.2419676    0.2035704 -13.16 0.0004339872    1.171    0.146
        49  -7.1749     12.6396    114.7600   1.3569168544e+02   5.0577362086e+01    0.1184951   0.07647755 -39.17 0.0001739553    1.593    0.372
        50 -10.0735    113.0994    109.5328   1.0494745365e+02   3.8465442567e+01    0.4123439    0.2511887 -46.42  0.001796305    1.597    0.374
        51  -9.6503    122.3268    111.8120   1.0302911105e+02   3.6098960211e+01     0.440578    0.2618045  52.60  0.001418915    1.838    0.456
        52  -9.7555    116.9765    108.8192   1.0369402592e+02   3.7849279261e+01    0.3195827     0.279358 -77.24  0.001185529    1.281    0.219
        53  -8.8193     52.1054    111.1065   1.2332019474e+02   4.7764130553e+01    0.2913701    0.2066286   6.70  0.001553747    1.820    0.451
        54  -8.7843      4.2421    231.2183   1.4863617159e+02   2.5439911817e+01    0.2011352    0.1106733  77.45  0.001298266    1.415    0.293
        55  -7.4457    195.5331    103.5993   8.4068089721e+01   2.1080393337e+01    0.1499604    0.1432876 -80.72 0.0001779669    1.019    0.019
        56 -11.0142     63.1265    107.7699   1.1921427304e+02   4.7153468208e+01    0.9778716    0.5075519 -34.48  0.004140834    2.342    0.573
        57  -8.6394    103.7100     97.9037   1.0448809980e+02   4.2801592927e+01    0.2512123     0.207717  48.28  0.000281033    1.279    0.218
        58  -8.9724     66.7610     90.9392   1.1390976740e+02   5.0370721697e+01    0.4549883    0.1925143  37.51  0.001903687    2.549    0.608
        59  -8.3873    142.8385     82.7231   8.9774870464e+01   3.7540405217e+01    0.2461963    0.2033352 -24.28 0.0005619882    1.330    0.248
        60  -8.3988     44.9937     83.0270   1.1905692759e+02   5.4733132961e+01    0.1962559    0.1626285 -33.09 0.0004177954    1.064    0.060
        61  -8.9087    180.2547     81.1801   8.1284788770e+01   2.8890746723e+01    0.2441338    0.2278624  40.70 0.0003946558    1.170    0.146
        62  -8.9511    193.9916    171.9895   1.0022229287e+02   7.5620637649e+00     0.286779    0.2102432 -41.03 0.0006390637    1.356    0.263
        63  -8.9267    141.8440     73.3138   8.7301235022e+01   3.9468754410e+01    0.2805596     0.199578   0.04   0.00122613    2.080    0.519
        64  -7.1412     30.2764     74.3491   1.2195588489e+02   5.7962354924e+01    0.1309655   0.07495345 -33.53 0.0003435356    1.636    0.389
        65  -9.7735    236.1860     71.1101   6.9914925649e+01   1.7497804570e+01    0.2422804    0.2225627  80.90 0.0002865807    1.169    0.144
        66  -9.3172    240.4430     66.9844   6.8471685860e+01   1.7225199654e+01    0.3030106    0.2182359  43.77 0.0009531909    1.834    0.455
        67  -7.9086     74.8258     71.9381   1.0585720379e+02   5.3007569401e+01    0.1821977    0.1613092 -25.97 0.0004185997    1.048    0.046
        68 -10.8649    146.1257     66.2811   8.4263991528e+01   3.9663638901e+01    0.5307105      0.50354 -85.80  0.001880249    1.096    0.087
        69  -9.9523    152.1743    164.0526   1.0781067247e+02   1.7941642922e+01    0.5827419    0.3594088  61.47  0.001680795    2.016    0.504
        70  -9.0324    122.1849     65.9333   8.9960502027e+01   4.5157584175e+01    0.2400502    0.1968591  39.09  0.001281518    1.177    0.150
        71  -7.9485    237.6845     60.3077   6.7364780151e+01   1.8866130494e+01    0.1420083   0.08977756 -69.65 0.0004291033    1.629    0.386
        72  -7.3149    231.2913     60.3769   6.8172385867e+01   2.0274828813e+01    0.1265806    0.1088935  15.02 0.0001743345    1.736    0.424
        73  -9.9872    152.0648     45.4533   7.6924164616e+01   4.1404640650e+01    0.4342072    0.2904493  29.91 0.0009166406    1.868    0.465
        74 -11.9392    156.0720     52.8809   7.8271830998e+01   3.9384078795e+01    0.9989119     0.947897   4.43  0.004642298    1.179    0.152
        75 -10.5036    160.5983     43.3911   7.4706102330e+01   3.9631023715e+01    0.4668053    0.3596928 -36.94 0.0008216384    1.405    0.288
        76  -9.2030    144.3794     59.7714   8.2743447437e+01   4.1122838212e+01    0.2799974    0.2245414  89.51   0.00101418    1.488    0.328
        77  -7.4324    178.5278     54.5840   7.4572505200e+01   3.3667692208e+01    0.1433403    0.1294469  81.12 7.839182e-05    1.018    0.018
        78 -10.3819    133.9328     43.1653   8.0042737572e+01   4.5976314894e+01    0.2335459    0.2276092 -14.91  0.000317462    1.110    0.099
        79  -7.6707    144.8513     39.3900   7.6578099772e+01   4.3930076497e+01    0.1919308    0.1145389  49.08 0.0004072369    1.538    0.350
        80  -8.9546     29.7839    246.5050   1.4528940583e+02   1.9647066370e+01    0.3014136    0.1507841  81.23  0.001319001    1.818    0.450
        81  -8.0213    166.5502    244.8879   1.1914038739e+02  -9.6558826687e-01     0.195496    0.1528994  53.57 9.760002e-05    1.280    0.219
        82  -8.9276    228.9262     22.5696   6.0255291262e+01   2.6051896101e+01    0.3107521    0.1741825 -37.79 0.0008609166    1.851    0.460
        83  -7.6169    201.5619     16.5042   6.1800818306e+01   3.3059381628e+01    0.1286661    0.1082003  87.10 0.0002294514    1.032    0.031
        84  -8.0889    189.5198     14.9965   6.2855189914e+01   3.6072075225e+01    0.1610826    0.1098725  19.16 0.0008087927    2.441    0.590
        85  -7.6511    184.2883    242.3308   1.1523949048e+02  -3.5626556243e+00    0.1281999   0.09421108   5.61  0.000174578    1.621    0.383
        86  -9.6547    153.8972    237.1098   1.2051818234e+02   2.5695374667e+00    0.5089564    0.3302952 -17.64  0.002324363    2.765    0.638
