#   1 NUMBER                 Running object number                                     
#   2 MAG_AUTO               Kron-like elliptical aperture magnitude                    [mag]
#   3 X_IMAGE                Object position along x                                    [pixel]
#   4 Y_IMAGE                Object position along y                                    [pixel]
#   5 X_WORLD                Barycenter position along world x axis                     [deg]
#   6 Y_WORLD                Barycenter position along world y axis                     [deg]
#   7 A_WORLD                Profile RMS along major axis (world units)                 [deg]
#   8 B_WORLD                Profile RMS along minor axis (world units)                 [deg]
#   9 THETA_WORLD            Position angle (CCW/world-x)                               [deg]
#  10 FWHM_WORLD             FWHM assuming a gaussian core                              [deg]
#  11 ELONGATION             A_IMAGE/B_IMAGE                                           
#  12 ELLIPTICITY            1 - B_IMAGE/A_IMAGE                                       
         1  -9.2828    113.7921     70.8264   7.9289429397e+01   4.6193904408e+01    0.2455167    0.2341168  43.97 0.0003483716    1.105    0.095
         2 -11.0280    200.7968    242.4141   9.6988023643e+01  -3.4404002154e+00    0.9416671    0.6078022  -5.24  0.005520813    2.016    0.504
         3 -11.1739    214.2855    237.9682   9.3926574405e+01  -4.9786764016e+00      2.00084    0.9811953   4.48  0.006118712    7.319    0.863
         4 -11.4205    225.4296    230.9802   9.0859387903e+01  -5.8350702548e+00     3.017947     1.425394  -0.02  0.007247713   11.629    0.914
         5 -10.7908    225.9841    239.7296   9.2158606445e+01  -6.9591839403e+00    0.8860821    0.4652594 -21.26  0.004951439    2.251    0.556
         6 -10.1036    240.8663    218.2078   8.6025750054e+01  -6.6260489023e+00    0.6307272    0.3291122 -13.75  0.003191971    2.340    0.573
         7 -10.4835    219.0018    244.9464   9.4168923127e+01  -6.5243682767e+00    0.7471114    0.4140628 -10.01  0.004022215    2.508    0.601
         8 -10.5982    248.5793    214.5118   8.4060194175e+01  -7.3356879896e+00    0.7619319    0.4016149 -14.74  0.003999502    2.128    0.530
         9 -10.6057    234.5731    234.0762   8.9778285482e+01  -7.5764886524e+00     0.888268    0.2344133  36.63  0.003602774    3.261    0.693
        10 -10.0694    235.6763    226.8710   8.8400136414e+01  -6.8923205260e+00    0.5658437    0.3105137  11.16  0.002944116    2.185    0.542
        11 -10.1950    248.7820    223.3334   8.5566843746e+01  -8.4128563901e+00    0.6237351    0.2652185  27.66  0.003053057    2.312    0.568
        12  -9.7975    233.2597    250.3711   9.2556208161e+01  -9.1987781307e+00    0.4836729    0.1363284  37.26  0.001767273    2.842    0.648
        13 -11.1981    233.1848    243.8060   9.1561785198e+01  -8.4752060492e+00     1.171318      0.53307  13.91  0.004786303    3.996    0.750
        14 -11.8409    245.4688    233.5276   8.7839339614e+01  -9.0961403594e+00     1.088469     0.665836  -8.59  0.006762308    1.659    0.397
        15 -10.7015    246.6773    250.2324   9.0302730319e+01  -1.1043392024e+01     0.791782    0.1758348  38.07  0.003252027    3.644    0.726
        16 -11.4425    246.2950    244.4541   8.9463876298e+01  -1.0394631851e+01     1.023202    0.3470289  30.90  0.004804891    2.689    0.628
        17  -9.0790    184.7922    250.5600   1.0098345924e+02  -1.9797708061e+00    0.3416243   0.09159023  39.94  0.001396092    2.937    0.659
        18  -8.0216    177.9823    250.5784   1.0219625664e+02  -9.2094540730e-01    0.1853797    0.0912154  38.95  0.001016548    1.588    0.370
        19 -10.4456    169.1640    249.0360   1.0357122940e+02   6.6864783649e-01    0.5965446    0.3388394  33.66  0.003484928    1.507    0.336
        20  -9.8490    152.0196    248.9059   1.0664021608e+02   3.3900304980e+00    0.3704479    0.1818307  37.14  0.001898127    1.712    0.416
        21  -9.7976    144.6067    249.6449   1.0806294139e+02   4.4462475524e+00    0.4178627    0.1681499  42.65  0.002097428    1.927    0.481
        22  -9.9488    140.3196    245.8363   1.0839239190e+02   5.6827947796e+00    0.3021038    0.1656974  46.79  0.001443135    1.457    0.313
        23  -8.9243    138.7239    250.1791   1.0918109864e+02   5.2844944622e+00    0.2126489    0.1249715  47.70 0.0007763286    1.351    0.260
        24 -10.1184    104.3279    246.3875   1.1494307569e+02   1.1096002628e+01    0.3020368    0.1453151  37.63  0.001629729    1.932    0.482
        25 -10.1372    129.3621    249.2676   1.1075919594e+02   6.8682532322e+00    0.5363466    0.1798442  46.36   0.00247236    2.350    0.574
        26  -9.7531    109.2899    243.4523   1.1376307969e+02   1.0837766778e+01     0.253271    0.1722128  29.86  0.001085126    1.737    0.424
        27 -10.0466    116.8988    246.3314   1.1268610273e+02   9.2278405885e+00    0.4313628    0.2623595  21.89  0.002230683    2.724    0.633
        28 -10.1779    114.6059    242.9172   1.1274505997e+02   1.0123236547e+01    0.3278502    0.1818445  34.20  0.001606071    1.856    0.461
        29  -9.9976    119.3022    249.2022   1.1255255005e+02   8.4129301914e+00    0.3289199    0.2351562  19.75  0.002020807    2.019    0.505
        30 -10.2567    125.5324    245.3665   1.1102413910e+02   8.0599942794e+00    0.3325517    0.1480304  48.72  0.001729994    1.829    0.453
        31  -9.3648    108.6879    249.2543   1.1444568627e+02   9.9923147677e+00    0.2619833    0.1908255  20.85  0.001642676    2.006    0.502
        32  -8.7708     96.5368    250.5320   1.1670168798e+02   1.1554963679e+01    0.2285061   0.08936064  41.92  0.001174337    2.047    0.512
        33  -8.8473     88.8715    249.8369   1.1797449335e+02   1.2752329968e+01      0.22815     0.155482  44.89 0.0009951025    1.281    0.219
        34  -9.4878     73.6708    250.1465   1.2060938500e+02   1.4776500963e+01    0.2889498    0.1324857  42.81  0.001456616    1.786    0.440
        35  -9.5813     49.1639    249.5401   1.2465667669e+02   1.7989761384e+01    0.3055729    0.1839544  31.80  0.001954525    2.190    0.543
        36 -10.9137     15.0625    239.6622   1.2961496115e+02   2.3501477411e+01    0.5815987   0.06430931  40.87  0.002525348    4.245    0.764
        37 -10.2425      3.3827    242.4951   1.3154667084e+02   2.4165948752e+01    0.3932563     0.144301  59.73  0.002450208    1.947    0.486
        38 -10.4901     11.0437    247.3929   1.3057608981e+02   2.2574744821e+01    0.4251544    0.1120164  44.86  0.002382524    2.565    0.610
        39 -10.2268      9.1442    239.8614   1.3055249718e+02   2.4061104981e+01    0.2754757    0.1231017  67.18  0.001324805    1.686    0.407
        40 -11.3856      4.4805    235.1345   1.3108341862e+02   2.5345684366e+01    0.7410904    0.1902241  38.36  0.003894131    3.236    0.691
        41 -10.2424     63.4978    248.4040   1.2220176932e+02   1.6397291822e+01    0.4048167    0.1802148  38.34  0.002282731    2.147    0.534
        42  -9.3930     33.1255    247.9107   1.2715511202e+02   2.0136123096e+01    0.3312549    0.1298133  46.80  0.002008063    1.908    0.476
        43  -9.1573     25.3758    248.5903   1.2841528509e+02   2.0874901593e+01    0.1918238   0.06762021  45.06  0.001126582    2.120    0.528
        44  -9.5200      3.7366    248.7279   1.3173020115e+02   2.3070676063e+01    0.3303061    0.1116118  43.81  0.002052859    2.243    0.554
        45  -9.0403    187.8804    245.1860   9.9693269002e+01  -1.7709527686e+00    0.2442203     0.157916  31.09  0.001042095    1.279    0.218
        46 -10.4557    158.2087    245.0546   1.0504127883e+02   2.9618825780e+00    0.3180483    0.2302841  34.34  0.001422171    1.190    0.160
        47  -9.4627    164.1216    243.9618   1.0382358849e+02   2.1732069618e+00    0.2908938    0.1446342  35.57  0.001068936    1.729    0.422
        48  -9.9261    133.6700    245.0742   1.0951358176e+02   6.8414187486e+00     0.237653    0.2098515 -46.38  0.001727429    1.467    0.318
        49  -9.9882    148.0100    244.6847   1.0685403454e+02   4.6392296384e+00     0.258677    0.1691519  38.93  0.001275156    1.254    0.203
        50  -9.1954    144.8095    241.2489   1.0702035325e+02   5.6652463440e+00    0.3031499     0.144691  40.29  0.001586838    1.703    0.413
        51  -9.1995     95.3362    244.3415   1.1635167235e+02   1.2741451349e+01     0.216351    0.1892167   5.38  0.001373286    1.828    0.453
        52  -9.5751     81.8897    244.3572   1.1872826080e+02   1.4634544971e+01      0.34184    0.1909602  33.67  0.001976077    2.047    0.511
        53  -9.0610     42.4428    244.3517   1.2544288517e+02   1.9678071287e+01    0.2366504    0.1713592  35.58  0.001723235    1.744    0.426
        54 -10.1323    178.7599    242.9763   1.0102958784e+02  -3.1656195756e-02    0.4925412    0.2238522  35.23  0.002082108    1.879    0.468
        55 -10.6130     28.7361    242.3726   1.2756500536e+02   2.1578944484e+01    0.2605736    0.2041478  32.68  0.002011443    1.830    0.454
        56  -8.9957    193.4003    242.0243   9.8253166575e+01  -2.2307123901e+00    0.3365635    0.1411955  37.49  0.001677197    1.930    0.482
        57  -9.9736    103.7766    241.8361   1.1459822754e+02   1.1925432927e+01    0.2248188    0.1612717  21.17  0.001355729    2.070    0.517
        58 -10.4856    125.8801    240.8680   1.1046187909e+02   8.7178049959e+00    0.3483134    0.2231344 -44.95  0.002099299    2.094    0.523
        59  -9.1633    130.0213    240.0000   1.0959996340e+02   8.2073803357e+00    0.1908385    0.1064515  52.26  0.001066305    1.556    0.357
        60  -9.3547     69.3983    239.7855   1.2054523245e+02   1.7109414270e+01    0.2979593    0.2360613  26.13   0.00206627    1.834    0.455
        61  -9.7780    171.5030    239.4393   1.0186690126e+02   1.6256401242e+00    0.3778684    0.1926887  29.06  0.001684275    2.070    0.517
        62  -9.2653    155.8154    240.1231   1.0484811053e+02   4.0654203876e+00    0.1866388    0.1403629  53.29 0.0006133635    1.255    0.203
        63  -9.9925    121.2220    239.2173   1.1113535816e+02   9.7090738168e+00    0.3132564    0.2091658  10.47  0.001559052    3.091    0.676
        64  -8.8546     50.6321    239.3533   1.2375452577e+02   1.9572139410e+01    0.2014979    0.1660712  71.61  0.001278451    1.203    0.169
        65  -8.4988     36.9502    240.4535   1.2611759956e+02   2.0994775968e+01    0.1596851   0.08358402  45.15 0.0008446146    1.621    0.383
        66  -9.8622    150.3171    237.6681   1.0555091402e+02   5.3244879159e+00    0.3434308    0.1586513  39.30   0.00173694    1.794    0.443
        67  -9.0783    112.9189    237.8762   1.1252110599e+02   1.1209164848e+01     0.174786    0.1452993  39.41 0.0007656788    1.260    0.206
        68  -8.7619    102.2250    238.5937   1.1455831741e+02   1.2699443572e+01    0.1643044   0.09837915  36.11  0.000950244    1.675    0.403
        69  -8.7604    134.7972    237.1766   1.0838133812e+02   7.9001178611e+00    0.1633792    0.1298857  28.59  0.001064495    1.359    0.264
        70  -9.1279     92.1960    235.7354   1.1611157714e+02   1.4659698995e+01    0.3111619     0.208114  25.15  0.001806531    2.150    0.535
        71  -8.8495     78.6308    236.0146   1.1859596749e+02   1.6525634222e+01    0.1839195     0.172149  68.92  0.001074178    1.353    0.261
        72  -8.6386    139.0304    239.5371   1.0787937306e+02   6.8521100275e+00    0.1891147   0.09730271  42.74 0.0006190856    1.556    0.357
        73  -9.6207    196.6663    235.7322   9.6735899098e+01  -1.9263417524e+00    0.4548047    0.1512959  33.31  0.001806864    3.092    0.677
        74  -9.5461    185.2814    236.0576   9.8858927447e+01  -1.3582228215e-01    0.3075083     0.149745  44.97  0.001588607    1.796    0.443
        75  -8.4254     42.7160    236.4187   1.2490719719e+02   2.1042181423e+01     0.245159   0.09465411  36.80  0.001287907    2.618    0.618
        76  -8.9280    207.5765    234.7255   9.4616835517e+01  -3.5285103171e+00    0.2926907     0.130077  36.77  0.001483463    1.854    0.461
        77  -9.8143    163.2101    234.2241   1.0268738749e+02   3.7382778021e+00    0.3924932     0.184138  31.76   0.00185192    2.209    0.547
        78  -8.7518    130.2516    234.5916   1.0892194809e+02   9.0428313069e+00    0.1724729    0.1005319  35.32 0.0009450402    1.633    0.387
        79  -8.9934    101.4243    233.8300   1.1422414578e+02   1.3634726495e+01    0.1940213     0.121355  41.81 0.0007599784    1.412    0.292
        80  -8.8125    109.4699    232.8905   1.1262620381e+02   1.2580651289e+01    0.2394005    0.1474494  29.37  0.001315896    1.985    0.496
        81  -8.2421    171.8427    232.1780   1.0078610529e+02   2.6173591746e+00    0.1743206    0.1303442  22.26  0.001042165    1.346    0.257
        82  -8.3403    154.4697    232.5010   1.0409458789e+02   5.4400056935e+00    0.2239808    0.1018444  33.24 0.0007815423    2.238    0.553
        83  -8.2390    116.2186    231.9557   1.1125555531e+02   1.1698117161e+01    0.1747413    0.1420125 -15.40  0.001082265    1.993    0.498
        84  -9.0296     56.4820    231.0153   1.2214784874e+02   2.0344954579e+01    0.2715177     0.229727 -35.15  0.001913333    2.072    0.517
        85  -8.7576    191.8253    248.6492   9.9474351741e+01  -2.8294940806e+00    0.1896639    0.1178265  27.79 0.0006931923    1.405    0.288
        86  -9.2551    195.7745    229.9283   9.6013589873e+01  -1.0019342401e+00    0.3808669    0.1610243  29.72  0.001658746    2.585    0.613
        87  -8.2303    177.7158    231.5835   9.9603842418e+01   1.7331390539e+00    0.2508892      0.10026  37.49  0.001138389    2.139    0.532
        88  -9.4649    124.1395    230.7697   1.0962053152e+02   1.0651321996e+01    0.3801492    0.2130089  21.95  0.001665679    3.270    0.694
        89 -10.6726      5.8116    229.3363   1.3062669918e+02   2.6255662257e+01    0.2447142    0.1649581  74.79  0.001667818    1.032    0.031
        90  -9.3257    216.6991    229.2038   9.2113225103e+01  -4.2608970732e+00    0.4250834    0.1946194  25.00  0.001953077    2.503    0.600
        91  -8.4943    207.7215    229.8563   9.3827756328e+01  -2.9220497943e+00    0.2187335    0.1354995  28.68 0.0006944528    1.383    0.277
        92  -8.9729    147.4678    230.0255   1.0509044335e+02   6.9846607771e+00    0.2490175    0.1531672  31.48  0.001369462    1.626    0.385
        93  -8.1028    188.5205    229.5008   9.7285320686e+01   2.4656649489e-01    0.2336631    0.0974081  32.27  0.001024798    2.394    0.582
        94  -8.3358    102.7091    229.0187   1.1348157104e+02   1.4284379646e+01    0.1674749    0.1390374  69.80 0.0008782924    1.095    0.087
        95  -8.2283     45.6915    228.9897   1.2390393955e+02   2.2038982069e+01    0.1848991     0.144548   5.22  0.001175327    2.646    0.622
        96  -7.6937     37.6826    228.6958   1.2527770794e+02   2.3029143744e+01   0.09058246    0.0829226 -65.75 0.0007026537    1.626    0.385
        97  -9.2560    140.5573    234.3673   1.0695783433e+02   7.4217200767e+00    0.2862049    0.1866729  36.45  0.001696057    1.374    0.272
        98  -8.2939    153.5119    227.4868   1.0359436395e+02   6.3859260335e+00    0.2354394   0.09599636  49.30  0.001028943    2.325    0.570
        99  -8.0033    117.3333    227.3136   1.1051040735e+02   1.2322526178e+01    0.1138546   0.09483752  12.00 0.0003700983    1.683    0.406
       100  -8.3879     79.8165    228.2184   1.1768500556e+02   1.7760105246e+01    0.1936807    0.1468161 -42.33  0.001228149    2.060    0.514
       101  -8.1381     93.0017    227.0560   1.1510888562e+02   1.6082646068e+01    0.1672058    0.1487138   5.02  0.001127915    1.721    0.419
       102  -8.6054    212.3327    225.3008   9.2262236538e+01  -3.0627547149e+00    0.2598102    0.1690331  10.87  0.001310565    1.669    0.401
       103  -8.2839    184.9077    226.3437   9.7476073702e+01   1.2960245152e+00    0.1897754   0.09637365  32.44 0.0006652178    1.821    0.451
       104  -9.2219     69.0180    223.7207   1.1928404424e+02   2.0068364628e+01    0.3600008    0.2521273 -38.54  0.002103644    2.579    0.612
       105  -8.6679    224.1826    224.5104   9.0013508560e+01  -4.8393242601e+00     0.240358    0.1565159  12.30  0.001250585    1.530    0.346
       106 -10.3032      2.4882    228.0743   1.3110536345e+02   2.6798352110e+01    0.3070479    0.1305617 -82.32   0.00194261    1.963    0.490
       107  -8.2386    200.4633    224.6602   9.4322830393e+01  -1.0464038760e+00    0.2274672   0.09865922  39.50  0.001082388    1.942    0.485
       108  -8.0646     85.5947    231.2042   1.1689467743e+02   1.6406389136e+01    0.1460613    0.1047256 -59.69 0.0009471491    1.683    0.406
       109  -8.3512    207.0492    222.2670   9.2725865460e+01  -1.7994822807e+00    0.2559832    0.1567249  17.05  0.001370103    1.803    0.445
       110  -7.7608    104.6622    223.6864   1.1252855245e+02   1.4940436062e+01     0.111338   0.09639231   7.99 0.0007046659    1.694    0.410
       111  -8.2692    135.1096    229.8566   1.0742251536e+02   9.0382916843e+00     0.195214    0.1453224  57.92  0.001218656    1.244    0.196
       112  -8.4397    133.5614    222.2814   1.0674955962e+02   1.0569312342e+01    0.2222794    0.1453973  26.48  0.001193769    1.828    0.453
       113 -10.4945      3.5207    221.3618   1.3064756693e+02   2.7932326238e+01    0.2568956    0.2251062 -52.73  0.002133516    1.878    0.468
       114 -10.6654      4.9643    215.4680   1.3013630766e+02   2.8902800891e+01     0.328935    0.1406684  64.93  0.001830382    1.855    0.461
       115  -9.3215      1.8086    211.8133   1.3049908667e+02   2.9886315363e+01    0.1590091    0.1422272  60.96  0.001121782    1.475    0.322
       116  -8.8662    217.3288    220.1839   9.0512198808e+01  -3.1906463545e+00    0.2446826    0.1648149  14.96 0.0009701331    1.450    0.310
       117  -8.3348     50.5588    221.4654   1.2249279486e+02   2.2859046897e+01    0.1826601    0.1078465  27.81  0.001031154    2.421    0.587
       118  -9.4489    233.1875    211.4933   8.6179288792e+01  -4.5865277951e+00    0.3886382    0.2287895   6.46  0.001355245    2.050    0.512
       119  -8.6912    226.3244    219.1142   8.8722116301e+01  -4.4872554319e+00    0.2426182    0.1603585  15.98  0.001229154    1.428    0.299
       120  -8.4547    228.2152    215.0037   8.7676255734e+01  -4.2541678237e+00    0.2580309    0.1579645   7.31 0.0008564527    1.869    0.465
       121  -7.7805    176.4984    220.4641   9.8163242655e+01   3.5925310433e+00    0.1282936    0.1077273  37.18 8.367211e-05    1.042    0.041
       122  -7.7356     93.6465    220.6919   1.1432568948e+02   1.7154562816e+01    0.1095278   0.09684785   4.18 0.0004154777    1.719    0.418
       123  -7.7834     60.3493    220.2870   1.2060054108e+02   2.1854949277e+01   0.09683845   0.09294684 -19.75  0.000409554    1.659    0.397
       124  -7.9174    202.6493    218.6886   9.2946426518e+01  -5.7576175451e-01    0.1323512   0.08658311  13.15 0.0007045282    1.720    0.419
       125  -7.8091    129.6441    218.6750   1.0704523614e+02   1.1845537206e+01    0.1231029   0.09780075   9.47 5.424581e-05    1.770    0.435
       126  -8.0514    211.7300    215.8616   9.0797635492e+01  -1.6909764273e+00    0.2118619    0.1194834   7.42 0.0009400532    2.749    0.636
       127  -8.3558    160.6519    216.6703   1.0065420150e+02   6.9211966433e+00    0.1307764   0.09563795  11.41 -2.445262e-05    1.762    0.432
       128 -10.3058     12.7021    215.9397   1.2884241405e+02   2.8076833710e+01    0.2244135    0.1358822  44.85  0.001450295    1.582    0.368
       129  -7.8734     83.3493    215.2991   1.1575883090e+02   1.9679860203e+01    0.1070514   0.09762452  -2.96 0.0005303894    1.687    0.407
       130  -8.7298    221.8355    213.1425   8.8491798092e+01  -2.9796973032e+00    0.3232341    0.1599694  18.73  0.001374748    2.867    0.651
       131  -7.4514    155.6700    211.6943   1.0088609770e+02   8.6195733279e+00    0.1289989   0.09786056  12.29 0.0007037568    1.657    0.396
       132  -8.2903     63.2612    211.6031   1.1929652801e+02   2.3160360057e+01    0.1516947    0.1067618  36.37 0.0009440034    1.604    0.376
       133 -10.2207    241.1828    204.9939   8.3609456214e+01  -5.0039009856e+00    0.3996058    0.2474522  -8.07  0.002205363    1.725    0.420
       134  -9.4973    244.2994    198.4510   8.1857175456e+01  -4.6372244984e+00    0.2741602     0.201935  -6.54 0.0008264306    1.228    0.186
       135  -8.2537    216.5086    207.0042   8.8377175087e+01  -1.2495587177e+00    0.1780542    0.1018632  -8.98  0.000740111    2.508    0.601
       136  -7.7383    163.3111    207.6593   9.8732338105e+01   7.9591751017e+00    0.1307072   0.09977522  71.69 0.0007045508    1.695    0.410
       137  -9.4153    248.2071    205.0549   8.2415471985e+01  -6.1052209979e+00    0.3202798    0.2130911   6.17  0.001094229    1.436    0.304
       138  -9.2744    250.1417    199.2489   8.1009856995e+01  -5.6600085709e+00    0.3360997    0.1634635 -21.63  0.001510794    2.179    0.541
       139 -10.3691      1.9967    204.4945   1.3011693080e+02   3.1283165166e+01    0.4891988    0.0886914  49.12  0.002232087    3.509    0.715
       140  -8.8805    228.6610    204.6546   8.5751476126e+01  -2.9435233463e+00    0.3122448    0.1872461  15.99  0.001622905    1.822    0.451
       141  -8.5732    235.9074    201.6866   8.3921085226e+01  -3.7224791427e+00    0.2138129    0.1569267  -5.01  0.001297035    1.280    0.218
       142 -10.5187      2.5796    195.5856   1.2955898696e+02   3.2995906133e+01     0.325165    0.1434035  55.67  0.001968034    1.868    0.465
       143 -10.7844      7.3907    190.3977   1.2838104080e+02   3.3625372229e+01    0.3865083    0.1388336  38.24  0.002106541    2.602    0.616
       144  -8.5131    230.8543    197.3819   8.4014570654e+01  -2.3003536136e+00    0.1847234    0.1036821  29.11 0.0009378701    1.695    0.410
       145  -8.3420    237.2958    196.3463   8.2678363348e+01  -3.2221766990e+00    0.1336306   0.08639569   4.60 0.0007032955    1.672    0.402
       146 -10.1563    247.0217    190.9096   7.9954681876e+01  -4.0621558979e+00    0.3890235    0.2333309  13.83  0.001922856    1.837    0.456
       147  -8.0894    231.6688    191.6394   8.2779047025e+01  -1.6250667023e+00    0.2084961    0.1363277   7.92  0.001097086    1.678    0.404
       148  -8.9475    243.6763    186.6615   7.9703931930e+01  -2.9322819972e+00    0.2085984    0.1325322   7.56  0.001091369    1.735    0.424
       149  -8.2298    237.7913    186.4032   8.0678292227e+01  -1.9128905008e+00    0.1779801    0.1084933  28.05 0.0006550516    1.579    0.367
       150  -8.8894    249.6696    183.8075   7.8118893627e+01  -3.5203220191e+00    0.2059826    0.1398932 -10.24  0.001168617    1.409    0.290
       151 -11.0278      5.7880    181.9972   1.2818251493e+02   3.5502499605e+01    0.3064973    0.1687321  81.54  0.001935412    1.452    0.311
       152  -7.8635    187.6443    182.2999   8.9352618256e+01   7.8337965533e+00    0.1363916     0.110597  74.71 0.0006686164    1.704    0.413
       153  -9.3643    243.9318    179.6265   7.8267248790e+01  -1.9812794624e+00     0.343656    0.1867379  19.89  0.001580444    2.267    0.559
       154  -9.5896      2.2359    177.5764   1.2860544221e+02   3.6724887552e+01    0.2856056    0.1097369  82.31  0.001404342    2.479    0.597
       155  -9.0770    248.2249    174.7774   7.6556271845e+01  -2.0111617459e+00    0.1875985    0.1362899   2.72  0.001070776    1.333    0.250
       156 -11.1227      3.1256    167.8778   1.2781323870e+02   3.8714868013e+01    0.4108819    0.2149265  76.62  0.002466133    1.634    0.388
       157  -9.2280    248.0255    164.6462   7.4502267465e+01  -5.0164780710e-01    0.3899094    0.2139956  21.24            0    2.324    0.570
       158  -8.1059    246.4983    156.4830   7.3031379541e+01   9.9282344309e-01    0.1380861    0.1151447  -3.93 0.0003761416    1.073    0.068
       159 -10.9106      4.7376    153.2592   1.2642773631e+02   4.1781043927e+01    0.3281032    0.2328229  51.21  0.002285899    1.463    0.316
       160  -8.7009    250.0000    150.0003   7.1053695044e+01   1.3505747497e+00    0.2241463    0.0695685 -34.36  0.000800731    2.931    0.659
       161  -8.2261    243.2912    138.3552   6.9587148213e+01   4.4132256614e+00    0.1444503    0.1009115   0.17 0.0007028498    1.683    0.406
       162 -10.2961      3.8698    135.8800   1.2519318869e+02   4.5736205382e+01    0.3600676    0.1094507 -85.99  0.001360292    3.647    0.726
       163  -8.3465      3.6603    116.3392   1.2334009229e+02   5.0200948416e+01    0.1231845   0.07292071  71.97 0.0007050316    1.765    0.433
       164  -9.5672      5.7160    110.5864   1.2213638651e+02   5.1393019654e+01    0.2193786     0.118923  86.57  0.001195896    1.833    0.454
       165  -8.4809    151.5170    100.4790   7.8356251784e+01   3.1776979964e+01    0.1569104    0.1536489 -12.22 0.0008098977    1.029    0.028
       166  -8.7707    142.4954    100.0008   8.0430095585e+01   3.3945681049e+01    0.2224224    0.1394839 -17.69 0.0008096719    2.465    0.594
       167  -8.5535    122.6861     87.6647   8.2047437558e+01   4.0903810703e+01    0.1586975    0.1221597  -2.08 0.0007046302    1.688    0.408
       168  -8.2015    142.4903     79.5204   7.4424861122e+01   3.8070050521e+01     0.155242    0.1514684  -3.73 0.0008101612    1.022    0.022
