#   1 NUMBER                 Running object number                                     
#   2 MAG_AUTO               Kron-like elliptical aperture magnitude                    [mag]
#   3 X_IMAGE                Object position along x                                    [pixel]
#   4 Y_IMAGE                Object position along y                                    [pixel]
#   5 X_WORLD                Barycenter position along world x axis                     [deg]
#   6 Y_WORLD                Barycenter position along world y axis                     [deg]
#   7 A_WORLD                Profile RMS along major axis (world units)                 [deg]
#   8 B_WORLD                Profile RMS along minor axis (world units)                 [deg]
#   9 THETA_WORLD            Position angle (CCW/world-x)                               [deg]
#  10 FWHM_WORLD             FWHM assuming a gaussian core                              [deg]
#  11 ELONGATION             A_IMAGE/B_IMAGE                                           
#  12 ELLIPTICITY            1 - B_IMAGE/A_IMAGE                                       
         1 -12.0508    220.6567     36.4562   9.4697089441e+00   2.6250307053e+01    0.8799097    0.4748173 -51.24  0.003578703    1.698    0.411
         2 -15.3665    225.1528     10.6696   3.4684960158e+00   2.8332367078e+01     4.478489      1.66302  75.39   0.02070607    2.505    0.601
         3 -13.6588    184.6847     25.5595   1.1044894055e+01   3.5915703763e+01     1.403109    0.7053555  72.36  0.006552055    1.860    0.462
         4 -12.5492    211.4044     30.4020   9.0883467414e+00   2.9092286238e+01     0.909279    0.6950948   2.67  0.005082373    2.093    0.522
         5  -9.8030    116.2926     12.4339   1.8272984269e+01   5.3678287381e+01    0.2654005    0.1609877  55.68  0.001293452    1.381    0.276
         6 -11.2245    120.3175      8.8904   1.6236317431e+01   5.3059522226e+01    0.4056082    0.3205638  56.74   0.00149405    1.070    0.066
         7 -10.1750    145.9593    220.9680   6.5125951548e+01   7.1475666655e+00    0.2167609    0.1596008  63.01  0.000711874    1.689    0.408
         8 -19.4709    230.0546    131.6886   2.9745061568e+01   8.9114524931e+00     6.951735     6.817558  19.31   0.02848706    1.140    0.123
         9 -11.4140    104.5250    112.8178   5.3930928402e+01   3.9395392904e+01    0.3752515    0.3325077 -29.76  0.001926284    1.131    0.115
        10 -11.3158    103.4824    108.4871   5.3101930215e+01   4.0594141997e+01    0.3459157    0.2511892 -45.75  0.001201516    1.339    0.253
        11 -11.8709     99.8963    107.8491   5.4025565037e+01   4.1416998215e+01    0.7011168    0.4339386   5.60  0.002504946    2.962    0.662
        12 -13.4678     60.9224    101.0941   6.5049011912e+01   4.9258267675e+01    0.9140711    0.7133561 -39.00 0.0006585086    1.188    0.158
        13 -14.1157     75.2058    106.5932   6.1588387521e+01   4.5915861628e+01     1.512334     1.231083 -10.38  0.003797044    1.372    0.271
        14 -12.7433     69.0387    102.0049   6.2496006280e+01   4.7916628060e+01    0.8299493    0.5395091 -33.98   0.00311516    1.602    0.376
        15 -13.8726     40.8436     98.1258   7.1404473193e+01   5.2317519903e+01     1.034129     0.863698 -46.74  0.003501324    1.033    0.032
        16  -9.9639    205.3602    206.3176   4.9897975717e+01  -1.7380231721e-01    0.2462241    0.2275782   7.03 0.0008984769    1.157    0.136
        17 -11.7934    128.5897     87.2478   3.9839138960e+01   3.9917436972e+01    0.3586351    0.2667241 -21.25 0.0009079396    1.550    0.355
        18 -13.3457      3.4888     90.4626   8.3284604755e+01   5.6910287889e+01    0.3797596    0.3139889  19.73  0.002024846    1.486    0.327
        19  -9.5210    169.2799    184.0350   5.3289179475e+01   1.0381619471e+01    0.1971416    0.1859569 -31.24 0.0002936544    1.100    0.091
        20 -10.2265     58.1567    184.1030   8.0565376591e+01   2.9037752754e+01    0.1961125    0.1765068 -60.08 0.0004120805    1.206    0.171
        21 -12.1721    138.6223     83.8492   3.6234875913e+01   3.8290569859e+01     0.693081    0.3653175 -20.39  0.002256362    3.388    0.705
        22 -11.5718    151.7094    181.2854   5.6813925011e+01   1.4274623248e+01    0.3730193    0.3102138  37.85  0.001028376    1.163    0.140
        23 -11.7217    146.6832     78.8534   3.2815067901e+01   3.7329843323e+01    0.5413805    0.3220683 -11.85   0.00190381    3.096    0.677
        24  -9.4696     85.6688     81.9902   5.1211106150e+01   4.9687170182e+01    0.3041914    0.1728989 -51.91  0.001075143    1.905    0.475
        25 -10.1709    207.7909     74.8710   2.0124351608e+01   2.3543206221e+01    0.3446447    0.1932302 -60.46 0.0008769428    2.111    0.526
        26  -9.6876    182.9707    205.2623   5.4343548037e+01   3.7758742974e+00    0.2234344    0.1991079  89.60 0.0004433301    1.586    0.370
        27 -10.3620    101.0059    175.9862   6.8457670701e+01   2.4670151664e+01    0.2079558    0.1994399  74.46   0.00116614    1.006    0.006
        28 -12.0168    228.9850     69.0930   1.5828494907e+01   1.9789245095e+01    0.4003206    0.3549384  86.94  0.001118646    1.140    0.123
        29 -11.5778    178.2801    249.4491   6.2685285768e+01  -2.9642121468e+00    0.4398216    0.1929949  42.89  0.002036053    2.203    0.546
        30 -10.6331    135.3361    249.2008   7.1438036663e+01   3.7008862323e+00    0.3410525    0.1954497  60.43  0.001616662    2.414    0.586
        31  -9.3274    114.8648    200.5176   6.9048912340e+01   1.6657677184e+01    0.1963084    0.1854785 -75.68 0.0003992365    1.108    0.097
        32 -10.9585    225.7932     63.3185   1.4927891029e+01   2.1355043696e+01    0.4174464    0.2146962  54.81 0.0004675288    2.098    0.523
        33 -11.0271    215.5040     62.9667   1.6178630419e+01   2.3674570434e+01    0.6167945    0.2765328  59.82  0.002071409    2.249    0.555
        34 -10.8094    217.1197     56.9548   1.4562150359e+01   2.4209757146e+01    0.6495451    0.3458901  51.83  0.003061872    2.088    0.521
        35 -11.2959    199.7428     69.6183   2.0067918760e+01   2.6237821667e+01    0.7427881    0.3660016  47.28  0.003097915    2.299    0.565
        36 -11.3312    209.0200     66.2478   1.7857157994e+01   2.4634712291e+01    0.6071965    0.3995649 -77.03  0.002745428    1.810    0.448
        37  -9.9471    235.8765     68.7846   1.4904975333e+01   1.8385114440e+01    0.3904407    0.2392984 -19.87  0.001351274    2.428    0.588
        38 -10.8933    234.4417     61.7863   1.3540878303e+01   1.9738001222e+01    0.3574905    0.2704484  56.70  0.001564212    1.496    0.332
        39  -9.1464     71.3180    200.9828   7.9470981425e+01   2.3292310845e+01    0.1875915    0.1565645 -89.02 0.0004317866    1.130    0.115
        40 -10.0316    159.0089     67.4888   2.6801961717e+01   3.6337293635e+01    0.2147041    0.1979121 -42.01 0.0003256353    1.118    0.106
        41 -11.7344    185.3569     60.7602   2.0098188019e+01   3.1024884117e+01    0.4747943    0.3495161 -43.08  0.002469902    1.347    0.258
        42  -9.8850    245.6397    212.2632   4.3390627725e+01  -7.1891517214e+00    0.2064243    0.2014657  17.05   0.00126832    1.555    0.357
        43  -9.9462    166.7410    165.8783   5.0121604637e+01   1.4681873255e+01    0.2982636    0.2442549  15.34 0.0008488498    1.314    0.239
        44 -11.5125    144.0231     59.2984   2.7581511006e+01   4.1276856357e+01    0.3866012    0.2941332 -67.97  0.001212583    1.611    0.379
        45  -9.8341    226.5134     58.0657   1.3654460166e+01   2.1979209753e+01    0.2708564    0.1625754  57.35 0.0008286039    1.779    0.438
        46 -10.6344    196.2787     55.2879   1.7001414559e+01   2.9246278193e+01    0.5078888    0.2259375 -27.79  0.001703177    2.820    0.645
        47  -9.1544    248.5036     56.4210   1.0857460498e+01   1.7634800185e+01    0.1264913    0.1040155 -63.49 0.0001380354    1.014    0.014
        48  -9.6242    242.8872     56.2580   1.1409575926e+01   1.8792965425e+01    0.2341316    0.1075345  74.63  0.001049819    2.593    0.614
        49 -10.9099    229.1057     50.0299   1.1564605205e+01   2.2570909134e+01    0.5171411    0.3339848  88.40  0.002795585    1.635    0.389
        50  -9.1671    248.8564    199.6681   4.0475587677e+01  -5.7419151371e+00    0.1602757    0.1313794   7.83 0.0003564934    1.152    0.132
        51 -10.8297    250.3956    194.7999   3.9283394441e+01  -5.2111113229e+00    0.2032544    0.1394724 -25.42 0.0005514941    1.235    0.190
        52 -11.1616    207.0319     48.2477   1.3797541049e+01   2.7746512514e+01    0.2748213    0.2115676  65.42 0.0007186858    1.291    0.225
        53 -12.3880     68.2197    144.2249   7.1843922065e+01   3.7626246480e+01    0.7676065    0.4998798  71.13  0.003138983    2.024    0.506
        54  -8.6608     98.9781    250.7611   7.9088868390e+01   8.9243582086e+00    0.1561876   0.08958409  38.78 0.0008409653    1.475    0.322
        55 -15.5077    192.7755    157.4767   4.2540018353e+01   1.1255491542e+01     1.649662     1.105748 -53.35  0.005985979    1.683    0.406
        56  -9.6810    244.6517    193.2703   3.9986563520e+01  -4.1404578982e+00    0.1872059    0.1390073 -33.97 0.0008103885    1.286    0.222
        57 -13.1939    199.0422     37.6343   1.2245424627e+01   3.1031989315e+01     1.527465    0.3393146  54.91  0.004921171    4.181    0.761
        58 -10.5735     48.0935     12.7192   3.9123263132e+01   6.7199133153e+01    0.2753758    0.1194003  22.90  0.001168429    2.995    0.666
        59 -11.3582     79.7226    125.9773   6.4716443191e+01   4.0516840357e+01    0.4815263    0.2233135 -53.27  0.001886702    1.990    0.498
        60 -10.4501     38.7272    126.2013   7.7571450526e+01   4.5686042329e+01    0.2275014    0.1962252 -48.04 0.0002233924    1.122    0.109
