#   1 NUMBER                 Running object number                                     
#   2 MAG_AUTO               Kron-like elliptical aperture magnitude                    [mag]
#   3 X_IMAGE                Object position along x                                    [pixel]
#   4 Y_IMAGE                Object position along y                                    [pixel]
#   5 X_WORLD                Barycenter position along world x axis                     [deg]
#   6 Y_WORLD                Barycenter position along world y axis                     [deg]
#   7 A_WORLD                Profile RMS along major axis (world units)                 [deg]
#   8 B_WORLD                Profile RMS along minor axis (world units)                 [deg]
#   9 THETA_WORLD            Position angle (CCW/world-x)                               [deg]
#  10 FWHM_WORLD             FWHM assuming a gaussian core                              [deg]
#  11 ELONGATION             A_IMAGE/B_IMAGE                                           
#  12 ELLIPTICITY            1 - B_IMAGE/A_IMAGE                                       
         1 -12.3742    193.9941     39.7891   4.8154906856e+01   3.1760371363e+01     1.063784    0.9237515 -57.01  0.003552737    1.103    0.094
         2 -12.5817    202.2850     31.0240   4.4693137819e+01   3.0858865772e+01    0.8262805    0.7792732 -36.04  0.001428607    1.162    0.139
         3 -11.8819    225.6906      4.8961   3.5868624987e+01   2.8312889511e+01    0.8491336    0.5567433  81.95  0.004956273    1.410    0.291
         4  -9.5654     44.5016      6.4892   7.2229064748e+01   6.8757730216e+01     0.121871   0.09534597   2.07 6.388076e-05    1.001    0.001
         5 -10.5264     58.0638      4.3969   6.5715797154e+01   6.6817594209e+01    0.2808494     0.195788 -29.56  0.001730954    1.550    0.355
         6  -9.4943     43.0223      2.4802   7.0745551424e+01   6.9435563809e+01    0.1770328    0.1039132  36.85  0.001047054    1.634    0.388
         7  -8.0422    169.0021    235.5322   9.7987421989e+01   1.8364023748e+00    0.1695053    0.1565596 -20.35 4.382073e-05    1.239    0.193
         8  -9.8524    139.5642    249.7972   1.0547053213e+02   4.2605266167e+00    0.2596016    0.1750656  74.87  0.001477891    2.144    0.533
         9  -8.7243    150.9290    179.7073   9.2496897009e+01   1.4998277719e+01    0.3325972    0.2049121 -69.19  0.001379989    2.461    0.594
        10  -8.8067     99.4822    180.7345   1.0445842038e+02   2.3871330855e+01    0.2458511    0.1816582  42.91 0.0006909754    1.325    0.245
        11  -8.1940    145.2363    180.6171   9.3937407285e+01   1.5875605617e+01    0.2029786    0.1314834  30.85 0.0009377645    1.648    0.393
        12  -9.0868     61.4437    219.8250   1.1728636234e+02   2.1028712556e+01    0.2264988    0.1898787 -61.77 0.0007146314    1.457    0.314
        13 -10.7306     74.1655    173.8313   1.0939729243e+02   2.9291208544e+01     0.397434    0.3062483 -35.08  0.002172856    1.741    0.426
        14 -10.6577     78.0348    168.9816   1.0777948406e+02   2.9869523375e+01    0.3857818    0.3008716 -37.88  0.001155838    1.616    0.381
        15 -10.0556     53.1655    172.5816   1.1417628868e+02   3.2349080377e+01    0.3578016    0.2496902  73.80 0.0009606303    1.373    0.272
        16 -10.9549     47.5065    172.8308   1.1551850787e+02   3.2967369755e+01    0.4781581    0.2951524  32.15   0.00260892    1.859    0.462
        17  -9.6051    104.2274    172.0097   1.0194431979e+02   2.5066311924e+01    0.3294802    0.2085804  18.66  0.001415927    2.407    0.585
        18  -9.6417     92.6101    217.1976   1.1079736202e+02   1.7220152270e+01    0.2603822    0.1956868  83.10 0.0009076663    1.336    0.252
        19  -8.5064     77.3782    226.3907   1.1479989166e+02   1.7605004676e+01    0.1981191    0.1305813 -79.42 0.0007461886    1.552    0.356
        20  -8.3216    187.5006    172.9998   8.3293341559e+01   9.3194827732e+00    0.1947072    0.1271406 -65.01  0.000810024    2.491    0.599
        21 -10.5528     92.5413    153.1647   1.0157134880e+02   3.1404433537e+01    0.6607975    0.4429412 -28.19  0.002942297    2.210    0.548
        22  -9.9663    162.8498    224.8549   9.7603308731e+01   4.5370808826e+00    0.2795477     0.222004  59.89  0.001684809    1.447    0.309
        23  -9.8168    134.0000    147.5704   8.9961948036e+01   2.5225805938e+01    0.5201991    0.2203923 -54.95  0.001805307    2.620    0.618
        24  -8.3564    175.4770    149.4948   8.0758230056e+01   1.6316753707e+01    0.1505706     0.145069  -7.94 0.0008102208    1.002    0.002
        25  -9.9755    104.8983    138.9447   9.5553966214e+01   3.2720710823e+01    0.4715327    0.3294593 -27.50  0.002107778    1.903    0.475
        26 -10.5915     92.8170    138.7517   9.8750279934e+01   3.4834451058e+01    0.2949467    0.2500499 -40.62 0.0005291831    1.256    0.204
        27  -9.7592    113.8726    207.1794   1.0510293714e+02   1.5913289312e+01    0.2851094    0.1779234  63.54  0.001421364    1.803    0.445
        28  -9.1315    105.7975    130.6640   9.3507084560e+01   3.4537901138e+01    0.3318862    0.2892859 -65.57  0.001494287    1.120    0.107
        29  -9.8970    113.3593    129.5158   9.1204659159e+01   3.3412320891e+01    0.3242141    0.2514432 -25.90 0.0008410561    1.539    0.350
        30  -9.4939    109.8708    201.1566   1.0512305040e+02   1.7786842639e+01    0.2068549    0.1664925  70.34 0.0005611817    1.227    0.185
        31  -9.3490    135.3593    127.2132   8.4910437832e+01   2.9567742676e+01    0.4204686    0.1388762 -54.71  0.001106841    4.263    0.765
        32  -9.5049    100.5702    125.7046   9.3818355393e+01   3.6658193718e+01    0.2989174    0.2425081 -15.21 0.0008558895    1.550    0.355
        33 -10.1648    119.2342    123.7851   8.8267988012e+01   3.3621795854e+01    0.4340968    0.2846438 -10.05  0.001589667    2.847    0.649
        34  -9.7819    194.1753    197.1822   8.6680930179e+01   3.7924596177e+00    0.5142106     0.265751 -61.09  0.001646955    5.309    0.812
        35  -8.6005    109.0327    118.9008   8.9849418542e+01   3.6727899604e+01     0.229713     0.218657 -50.77 0.0004711556    1.012    0.012
        36 -10.9460    119.2644    110.2383   8.4810697915e+01   3.6730119132e+01    0.5033246    0.3429089 -58.81  0.002218112    1.587    0.370
        37  -8.3793    205.7729    110.3717   6.5126714664e+01   1.7383032753e+01    0.2020893    0.1401916  40.43 0.0005766109    1.578    0.366
        38  -9.0722    134.5770    105.7685   7.9526258275e+01   3.4503781504e+01    0.2964579    0.1467143 -53.53 0.0008607204    2.307    0.567
        39  -9.4529    113.0357    198.6775   1.0407997063e+02   1.7782485699e+01    0.3714422    0.1986537  63.05  0.001527868    2.498    0.600
        40  -8.8399     69.4876    199.3698   1.1360786550e+02   2.4212578431e+01    0.2084176     0.155124  31.55  0.001209303    1.574    0.365
        41  -8.2311    128.5853    195.8116   1.0023900282e+02   1.5744595724e+01    0.1857278    0.1309596 -72.35 0.0004903136    1.699    0.411
        42 -10.1078     74.4047    189.1028   1.1133675356e+02   2.5781965297e+01    0.4511963    0.2420595  69.29  0.001811531    2.293    0.564
        43  -7.9872    156.4933     81.4621   6.7179784784e+01   3.4393107430e+01    0.1545088    0.1509362  -6.46 0.0002444052    1.037    0.035
        44  -7.8417     63.2760     69.6415   9.0592199675e+01   5.5489144236e+01    0.1320736    0.1083186 -78.88  0.000417043    1.656    0.396
        45 -12.2487    182.3581     49.5840   5.2688137786e+01   3.3289566056e+01    0.9684699    0.7976666  -1.91  0.002481026    1.474    0.322
        46 -18.4918     10.3844    156.9090   1.2251424674e+02   4.0328738308e+01     18.86058        3.723 -76.85   0.06040561    4.724    0.788
        47 -10.5920    119.7063    245.6056   1.0870852848e+02   7.9612907477e+00    0.2833746    0.2064777 -56.19  0.001838978    1.651    0.394
        48  -9.2502    152.0010     55.2362   6.0050092891e+01   4.0019684164e+01    0.3224499    0.2436797 -89.56 0.0004402072    1.668    0.400
        49  -8.0371     94.3851    187.2118   1.0658569358e+02   2.3238176275e+01    0.1825493    0.1233552 -77.23 0.0004871369    1.571    0.363
        50  -9.5244    124.3659    249.7462   1.0829921089e+02   6.5813113136e+00    0.2368428    0.1140599  47.56  0.001072175    1.730    0.422
        51 -10.3432    112.0267    242.9965   1.0986903022e+02   9.5560179046e+00    0.2887242    0.1931868  16.41  0.001559098    2.351    0.575
        52  -9.4801     95.4063    242.3085   1.1292456765e+02   1.2117225668e+01    0.2936992    0.1951127 -83.75  0.001129332    1.712    0.416
