#   1 NUMBER                 Running object number                                     
#   2 MAG_AUTO               Kron-like elliptical aperture magnitude                    [mag]
#   3 X_IMAGE                Object position along x                                    [pixel]
#   4 Y_IMAGE                Object position along y                                    [pixel]
#   5 X_WORLD                Barycenter position along world x axis                     [deg]
#   6 Y_WORLD                Barycenter position along world y axis                     [deg]
#   7 A_WORLD                Profile RMS along major axis (world units)                 [deg]
#   8 B_WORLD                Profile RMS along minor axis (world units)                 [deg]
#   9 THETA_WORLD            Position angle (CCW/world-x)                               [deg]
#  10 FWHM_WORLD             FWHM assuming a gaussian core                              [deg]
#  11 ELONGATION             A_IMAGE/B_IMAGE                                           
#  12 ELLIPTICITY            1 - B_IMAGE/A_IMAGE                                       
         1 -13.5197     65.0755     52.4874   7.0283986745e+01   5.9291246704e+01     1.334374    0.7206068 -29.26  0.005865094    2.071    0.517
         2 -13.4959      6.8053     43.4458   9.5231285880e+01   6.8301218291e+01     2.073108    0.9710292 -20.99  0.009782184    2.375    0.579
         3 -13.5123      2.8854     10.5562   8.4160375405e+01   7.4663966480e+01    0.6886133    0.4786291 -45.34  0.004559067    1.546    0.353
         4 -15.8479     12.7817     21.3837   8.2947195533e+01   7.1974388941e+01     1.914065     1.011555 -22.13  0.008725801    1.930    0.482
         5 -14.3956    166.5445     29.2862   3.7309933153e+01   3.9553763332e+01     1.051962    0.8050591  82.34  0.004122403    1.217    0.178
         6 -14.6800    147.3539     29.2841   4.0078350189e+01   4.4176634476e+01      1.45667    0.9038504  55.89    0.0074588    1.517    0.341
         7 -12.9798    132.0753     33.0006   4.3895479345e+01   4.7449268333e+01    0.5961253    0.4767878 -25.76  0.002268241    1.384    0.278
         8 -13.1254    137.9434     21.9229   3.9290474181e+01   4.7284355569e+01    0.8031062    0.3226691  68.51   0.00245884    2.342    0.573
         9 -13.0075      8.0222      2.7466   7.6089817679e+01   7.5331285232e+01    0.6007998    0.4315071  38.41   0.00259169    1.883    0.469
        10 -13.5460    188.7608     25.4382   3.3687037330e+01   3.4821389996e+01     1.206916    0.5256559 -52.02  0.005326386    2.242    0.554
        11 -11.9953    222.9805     10.5113   2.7387354723e+01   2.9074187318e+01      0.26296    0.1958736 -84.73  0.001740337    1.183    0.155
        12 -13.2431    219.0100     15.7260   2.8775568898e+01   2.9330471366e+01    0.3115835    0.2706845 -45.78  0.001673407    1.256    0.204
        13 -13.3005    214.9454     10.3250   2.7898906802e+01   3.0750697756e+01    0.5144987    0.3013762 -54.88  0.001776075    1.436    0.304
        14 -11.6522     46.3933     20.7338   6.4352019451e+01   6.7515150246e+01    0.3803444    0.2766563  13.92  0.002129311    1.286    0.222
        15 -15.0767     98.9543     11.6744   4.3038682001e+01   5.7634475442e+01     1.414117    0.7657002  61.59  0.005316287    1.622    0.383
        16 -12.3269     70.0911     16.1246   5.2848155059e+01   6.3582401050e+01    0.3987307    0.3319923  70.16  0.001952153    1.468    0.319
        17 -11.6192     59.2187     16.3833   5.6846228514e+01   6.5727683030e+01    0.3028043    0.2964384   9.53  0.002066799    1.271    0.213
        18 -11.5641     46.7369     13.1261   6.0323644844e+01   6.8410974916e+01    0.2775693    0.2490807  39.53    0.0013425    1.306    0.234
        19 -13.8472     41.5846      4.5259   5.7966963569e+01   7.0265910061e+01    0.7392104    0.5182024  24.09  0.004643452    1.221    0.181
        20 -11.9753    167.2014      8.9972   3.1677226984e+01   4.1544253113e+01    0.4140038    0.1828219 -74.15  0.001671781    3.042    0.671
        21 -12.1199    152.9117      8.9046   3.3245509440e+01   4.4948127258e+01    0.2724124    0.2094723  52.20  0.001239948    1.351    0.260
        22 -12.3799     85.2970     14.2931   4.7469562669e+01   6.0499726463e+01    0.3825245     0.311043 -16.32  0.001765994    1.346    0.257
        23 -11.0663    133.4054      8.7677   3.5775210445e+01   4.9663932761e+01    0.2294518    0.1555187  70.67 0.0002881519    1.289    0.224
        24  -9.8529    145.2834      8.3163   3.4013955475e+01   4.6834849452e+01    0.1264395   0.08931718  42.23 0.0002798703    1.581    0.368
        25 -10.6000     59.0421      7.7867   5.2652866718e+01   6.6673979438e+01    0.2145377    0.1108222  32.58 0.0008253657    1.884    0.469
        26 -11.9369    224.6802      4.5447   2.6036290837e+01   2.9345454729e+01    0.2773819    0.2064191  53.18  0.001858827    1.781    0.438
        27 -11.7910    120.0072      3.7566   3.6135167712e+01   5.3314065786e+01    0.4824996    0.1969547  78.65  0.001944521    2.743    0.635
        28 -11.1272    117.2423      1.5812   3.5815407624e+01   5.4145727460e+01    0.2918545    0.1618814  63.25  0.001030792    1.499    0.333
        29 -10.4805     67.2639      4.3895   4.8210650225e+01   6.5309986466e+01    0.1715119    0.1115738  64.02  0.000390896    1.626    0.385
        30 -10.7398    232.5949      1.6537   2.4993195606e+01   2.8064238953e+01    0.2113136    0.1188449  88.29  0.001120667    1.628    0.386
        31 -11.5241     61.2136      1.6375   4.8795231024e+01   6.6793526624e+01    0.3976734    0.1436246  59.24  0.001598571    2.727    0.633
        32 -11.0784    181.5951      1.5069   2.8401320875e+01   3.8906252283e+01    0.2586044     0.104615  75.76  0.001217382    2.188    0.543
        33 -13.2812    187.6115     11.1860   3.0270752185e+01   3.6616502886e+01    0.7884024    0.4239078 -39.49  0.004296866    1.756    0.431
        34 -11.2579     81.8503      1.4138   4.2775196196e+01   6.2392681840e+01    0.4472288   0.09655067  61.18  0.001536656    3.641    0.725
        35 -13.9100     25.2211     14.0444   7.1687523260e+01   7.1659852214e+01    0.7499011    0.3079003  33.39   0.00363137    2.300    0.565
        36 -11.0059    122.2117    181.5248   8.5807155051e+01   1.9623482406e+01    0.4432144    0.2564696  78.44  0.001217253    5.804    0.828
        37 -12.4081    109.8560    249.3171   9.8380729948e+01   7.7231831423e+00    0.3143744    0.2022074  50.72   0.00179613    1.566    0.361
        38 -11.6950     51.5799    248.8481   1.1063052547e+02   1.5224956525e+01     0.314871    0.1902577  86.65  0.001845648    1.828    0.453
        39 -12.4056      2.9245    249.2559   1.2027717128e+02   2.0199702973e+01    0.4294428    0.2829279  62.03  0.002502559    1.155    0.134
        40 -13.4247      9.5180    245.8727   1.1888232751e+02   2.0240609906e+01    0.7403535    0.3501765  56.40  0.003471758    1.676    0.403
        41 -12.8481    124.0626    166.8058   8.2580744926e+01   2.2659056261e+01    0.6434982    0.4265908 -72.95  0.002730157    2.103    0.524
        42 -11.1045    177.9865    167.4883   7.0045362917e+01   1.2806605566e+01    0.1927959    0.1261779  62.64 0.0008102005    2.522    0.603
        43 -11.9643     24.5091    159.8093   1.0943216046e+02   3.8441151426e+01    0.3021274    0.1862783 -14.15  0.001402623    2.471    0.595
        44 -11.6986    238.0178    160.0000   5.7491033317e+01   4.3140767040e+00    0.3112339   0.07287063  42.95  0.001060129    5.014    0.801
        45 -13.4510     74.2961    154.5231   9.4086376556e+01   3.3881347960e+01    0.9799815    0.6133589  47.33  0.004157281    1.661    0.398
        46 -11.7490    110.5754    155.5127   8.3909885776e+01   2.7718190454e+01    0.5221206    0.3137529 -87.24   0.00170682    3.619    0.724
        47 -11.3412    103.2922    150.2018   8.4852456342e+01   3.0291324216e+01    0.3574451    0.2437321 -29.85  0.001550596    1.787    0.440
        48 -11.3708    190.2124    150.8073   6.4009972062e+01   1.3849964607e+01    0.3040825    0.1092253  49.19  0.001025918    3.529    0.717
        49 -12.2845     59.9749    147.7463   9.7240326118e+01   3.7625211927e+01    0.4495874    0.3627754   9.08  0.002330223    1.458    0.314
        50 -11.5955     12.5240    148.5347   1.1175247070e+02   4.2330693785e+01    0.2755609    0.1153061 -75.19 0.0008197037    2.075    0.518
        51 -11.3329     38.1364    145.8974   1.0369094762e+02   4.0699963748e+01    0.2188724    0.1816101  75.45 0.0005560676    1.210    0.173
        52 -10.9131    188.6663    156.3081   6.5500251951e+01   1.3075966532e+01    0.1362762    0.1153916 -81.83 0.0004586411    1.671    0.402
        53 -11.5706      8.2727    144.4465   1.1261344828e+02   4.3687174108e+01    0.4415628    0.2436803 -18.58  0.002029407    2.690    0.628
        54 -12.1473     40.7530    137.5259   1.0163469241e+02   4.2609205064e+01    0.3695965    0.2309761  74.98   0.00165944    1.980    0.495
        55 -11.6816    246.7354    135.7226   5.1345284505e+01   6.9051183274e+00    0.2218106    0.1596645  82.90  0.001184866    2.548    0.608
        56 -11.9992     45.2662    134.5199   9.9689803198e+01   4.2893316622e+01    0.4432984    0.2984983 -68.20  0.002079869    1.384    0.277
        57 -10.7327     10.6680    133.8815   1.1078990089e+02   4.6233459688e+01    0.1949542    0.1778037 -28.72  0.000395411    1.260    0.206
        58 -12.6092    135.5641    132.6103   7.2142963022e+01   2.8333581326e+01     0.562465    0.2448915  44.09  0.002014622    2.356    0.576
        59 -11.9002    111.9806    131.7898   7.8321443858e+01   3.3175566552e+01     0.366844    0.2877325 -29.85  0.001703132    1.387    0.279
        60 -12.3355     78.5904    110.4452   8.3441995241e+01   4.4394324673e+01    0.4426263    0.3357567 -70.33  0.001554005    1.497    0.332
        61 -13.5289    108.3980    124.3210   7.7554993413e+01   3.5644713605e+01      1.12613      0.65951  33.04  0.004599208    1.836    0.455
        62 -13.2244     84.5154    115.1466   8.2653704587e+01   4.2238157698e+01      1.09159    0.6358416  14.33  0.004030861    2.659    0.624
        63 -13.4393     95.5784    110.5186   7.7927635964e+01   4.1364941214e+01    0.9804823    0.9026698 -76.34  0.004446183    1.180    0.153
        64 -14.5157    106.4998    105.3692   7.3189188225e+01   4.0437940941e+01     2.183543     1.158697 -34.11  0.008151343    2.255    0.557
        65 -10.0641     58.7011    125.3068   9.3541095068e+01   4.3626385353e+01    0.1490218    0.1124713  71.39 0.0004781647    1.593    0.372
        66 -12.7231     28.5408    122.2139   1.0330860019e+02   4.7831341139e+01    0.3941086    0.3497163 -70.33  0.002330469    1.023    0.022
        67 -13.5775    111.2159    117.1962   7.4944227395e+01   3.6773848730e+01    0.7973003    0.4125376  30.51  0.002926909    2.340    0.573
        68 -12.3810    181.0239    121.1528   5.9061532860e+01   2.1362807099e+01    0.3356653    0.2208489  47.48  0.001050948    1.634    0.388
        69 -11.9396      4.2332    119.8708   1.1131155487e+02   5.0245551568e+01    0.5236864    0.2036433  16.80  0.002210263    2.988    0.665
        70 -11.6608     34.7362     86.5023   9.3870801839e+01   5.6261482647e+01    0.4268011     0.260395 -31.42  0.001168705    1.728    0.421
        71 -13.3692      2.3117     97.0660   1.0906237996e+02   5.6123046517e+01    0.8019866    0.3295429 -74.32  0.003311673    2.163    0.538
        72 -14.1375     18.1129    111.2744   1.0528357122e+02   5.1528792457e+01    0.8486522    0.6634179 -31.95  0.003387281    1.346    0.257
        73 -14.1907     12.0711    103.8896   1.0636677916e+02   5.3839061095e+01    0.8528978    0.6608214  35.76  0.004786753    1.476    0.322
        74 -12.0918     36.6595     93.1881   9.4684722848e+01   5.4430248260e+01    0.4667412    0.2986192   8.05  0.001556667    1.848    0.459
        75 -14.5520     22.9705     94.9653   1.0055433425e+02   5.5280597975e+01     1.359278     1.056402  12.14    0.0065512    1.438    0.304
        76 -11.1553     44.4900    112.3543   9.5875415898e+01   4.8740266953e+01    0.5227377    0.2229792 -32.14  0.001635515    3.985    0.749
        77 -11.8689     63.2011    111.5148   8.9003730011e+01   4.6522928652e+01    0.4582625    0.2911666  53.83  0.002002352    1.944    0.486
        78 -13.0956     29.5256     89.4672   9.6724863397e+01   5.6059504761e+01    0.9036323    0.5018023  66.87  0.003462179    3.399    0.706
        79 -10.9045     42.0283    107.4628   9.5766068113e+01   5.0269467953e+01    0.2102637    0.1431745  23.45  0.001035142    1.605    0.377
        80 -12.4168    120.9886    112.2568   7.0883844315e+01   3.5916842585e+01    0.4390168    0.3478864  85.38  0.001242061    1.678    0.404
        81 -12.4550    136.1097    103.2025   6.4445283140e+01   3.4637872847e+01    0.6618682    0.3559468  50.53  0.001807287    1.946    0.486
        82 -13.3771    120.9682    102.3624   6.8196620821e+01   3.8101676536e+01     0.661409    0.3781757  36.61   0.00266635    1.898    0.473
        83 -11.6693     42.6658     90.9286   9.1735150338e+01   5.4311695000e+01    0.4137541    0.2800282 -77.78 0.0006762374    1.844    0.458
        84 -11.8849     46.9176     99.8284   9.2228734928e+01   5.1617526535e+01    0.5476098    0.3838755  68.95  0.002559744    1.982    0.496
        85 -11.6793     52.5096     97.6722   8.9576065121e+01   5.1440231574e+01    0.4055488    0.2524862 -24.05  0.001518963    2.019    0.505
        86 -12.2171     49.2250     93.5458   8.9802751059e+01   5.2873154591e+01    0.4755634    0.3900931  87.30  0.001679138    1.521    0.342
        87 -12.2361    163.5205     98.3473   5.6868764221e+01   2.9506764620e+01    0.3383462    0.2953073 -73.55 0.0007303495    1.241    0.194
        88 -11.9145     61.0299     98.0315   8.6467443969e+01   5.0170059675e+01    0.4053816    0.3077904  63.27   0.00196704    1.694    0.410
        89 -12.8375    136.2878     95.2132   6.2180538502e+01   3.6236623013e+01    0.5149972    0.3896484  50.49  0.002190263    1.346    0.257
        90 -12.6220    128.1935    102.3030   6.6233407217e+01   3.6557663584e+01    0.5380855     0.290667  48.51  0.002143043    1.906    0.475
        91 -11.2925    125.0946     91.8843   6.4092228831e+01   3.9406289577e+01    0.2393993     0.213861  89.45  0.001219082    1.270    0.213
        92 -11.1592     89.6439     87.3479   7.3290749187e+01   4.7774407660e+01     0.351528    0.2421462  52.03  0.001599423    1.630    0.386
        93 -13.2380    187.9155     84.5619   4.8781273725e+01   2.6568640988e+01    0.6455564    0.3248172  44.28  0.002279846    2.372    0.578
        94 -11.4970    241.7557     84.4206   4.1371465271e+01   1.5785841559e+01    0.2136538      0.12459  68.28  0.001146996    2.131    0.531
        95 -12.4751    159.8379     68.1199   4.9329830136e+01   3.5718109800e+01    0.8691552    0.2856823 -47.20  0.002800777    3.393    0.705
        96 -13.3680    164.3278     71.6771   4.9489937755e+01   3.4080901772e+01     1.083019    0.5395286  43.17  0.004335418    2.382    0.580
        97 -13.6684    160.6081     81.2777   5.2854883834e+01   3.3304101198e+01     1.620566    0.8801265  23.15  0.004559286    5.430    0.816
        98 -14.3069    169.3719     77.0851   5.0043727551e+01   3.2006315377e+01     1.510127    0.4591886  55.69  0.004984729    3.321    0.699
        99 -12.0295     47.4950     81.9541   8.7390974833e+01   5.5849440906e+01    0.4698184    0.3641787 -52.85  0.002522192    1.234    0.189
       100 -12.2904     42.0108     77.1246   8.8309735147e+01   5.7649471330e+01     1.626038    0.5690761 -65.52  0.004375837    5.660    0.823
       101 -12.6059     28.4351    245.7190   1.1514460411e+02   1.8388891110e+01    0.4470334    0.2776546  52.47  0.002758197    1.282    0.220
       102 -13.1944     91.6175     58.1200   6.2923952606e+01   5.3125844746e+01    0.5345665    0.4999198 -22.89  0.001699448    1.088    0.081
       103 -13.4256     87.2335     65.3681   6.6928716523e+01   5.2717269529e+01     1.049276    0.6277729  14.59  0.003973529    2.821    0.646
       104 -13.5330     53.6586     68.5908   8.0739218755e+01   5.7975094555e+01     1.322047    0.7995181  30.60  0.006347159    1.694    0.410
       105 -14.0501     61.1645     75.8031   8.0022796157e+01   5.5284506230e+01     0.761931    0.5006205 -31.50   0.00148036    1.579    0.367
       106 -13.0400     71.3396     75.0620   7.5869556864e+01   5.3765706946e+01    0.7320115    0.4833131   0.07   0.00247953    2.182    0.542
       107 -12.3779     77.1678     73.3226   7.3153927167e+01   5.3089090115e+01    0.5075529    0.3338012 -19.80  0.001443022    1.919    0.479
       108 -10.7123    126.7333     83.3978   6.1154547973e+01   4.0724996835e+01    0.2147235    0.1409083  39.16 0.0009401277    1.609    0.379
       109 -13.4903    214.2340     79.2929   4.3614628392e+01   2.1854164336e+01     0.849972    0.4974892  86.69  0.003838562    2.566    0.610
       110 -12.5877    135.6164     79.7794   5.7869361760e+01   3.9375444272e+01    0.7371039    0.3806455  54.81  0.002403739    1.997    0.499
       111 -11.8376    237.2531     80.4430   4.1040464229e+01   1.7204756861e+01     0.276485    0.1276649  65.13    0.0013058    2.669    0.625
       112 -14.9066      6.3679     71.1577   1.0276355199e+02   6.2199543359e+01     1.380358    0.7383784 -58.63  0.005383394    1.520    0.342
       113 -13.5814      4.4150     63.9970   1.0209510337e+02   6.3964334065e+01    0.5576715    0.4164981  44.73  0.003349643    1.709    0.415
       114 -11.3705     26.5531     74.7616   9.4419800131e+01   5.9851061176e+01    0.6071329    0.3260521 -71.18  0.002691056    2.254    0.556
       115 -12.2162    114.4585     80.2858   6.3500007155e+01   4.4077287642e+01    0.3657627    0.3248611 -55.27 0.0006064092    1.187    0.157
       116 -13.4146    199.1119     70.1587   4.3503327206e+01   2.6453929721e+01    0.6939111    0.4368885  48.07  0.002591175    1.841    0.457
       117 -10.1307    117.6622     71.7236   5.9920858049e+01   4.4978280757e+01    0.1518721    0.1158258  18.30 0.0005279061    1.612    0.380
       118 -12.6476    134.7161     66.1426   5.3940732920e+01   4.1996458289e+01    0.5928419    0.4706055  35.51  0.001866079    1.365    0.267
       119 -12.1164     31.4432     63.3098   8.8899436416e+01   6.1944170864e+01      0.57893    0.3253278 -61.78  0.002738603    1.968    0.492
       120 -12.1334     24.7456     59.3514   9.0872709501e+01   6.3483478018e+01    0.4520439    0.3040278 -45.80  0.001598148    1.293    0.226
       121 -11.2094     99.6034     65.1408   6.2895229861e+01   5.0177964686e+01     0.325068    0.2385175  85.57  0.001444037    2.136    0.532
       122 -11.7127    199.8841     62.3245   4.1486869079e+01   2.7469561195e+01    0.2773254    0.2167365 -45.25  0.001600236    1.170    0.145
       123 -13.3805    177.7337     57.8986   4.3495770325e+01   3.3113212674e+01    0.7915503    0.5394157 -51.65  0.002561372    1.417    0.294
       124 -12.9542     78.0104     59.5955   6.8072220583e+01   5.5607203241e+01    0.7130029    0.6122335 -42.25  0.003958766    1.231    0.188
       125 -12.8702     82.3103     54.5450   6.4700378969e+01   5.5662101397e+01    0.6047398    0.4807864 -13.69  0.002916148    1.338    0.253
       126 -11.3331     38.8036     60.2865   8.4489137255e+01   6.1740064258e+01    0.2917558    0.2296129  58.73  0.001583336    1.811    0.448
       127 -13.9416    100.8643     49.5288   5.7010829660e+01   5.2530152388e+01     0.945097    0.7797341  87.55  0.003436283    1.544    0.352
       128 -14.5667    120.0437     54.7974   5.3764152931e+01   4.7302092633e+01     1.090232    0.6115291  42.70   0.00455385    1.828    0.453
       129 -12.1685    136.2419     49.8242   4.8494187826e+01   4.4191551028e+01    0.4534746    0.3012429  35.87  0.001643608    1.764    0.433
       130 -11.2616     17.8397     55.4946   9.3122685803e+01   6.4934932736e+01     0.345664    0.1702188 -58.19  0.001661546    1.908    0.476
       131 -10.6756    248.6723     56.3167   3.4857581523e+01   1.8536808285e+01    0.1278213   0.07248835 -60.91 0.0003488062    1.677    0.404
       132 -12.9045     54.5687     82.2697   8.4615500216e+01   5.4819367219e+01    0.5838518    0.3928171 -46.04  0.001649561    1.378    0.274
       133 -11.8264     35.5956     53.6608   8.3698534204e+01   6.3496462312e+01    0.5056809    0.2680382  -2.08  0.002020336    3.031    0.670
       134 -10.7167     22.4003     50.4402   8.9149434639e+01   6.5589546025e+01    0.3487009    0.1560131  14.03  0.001524616    2.621    0.618
       135 -10.4369    249.2422     48.6387   3.3259474802e+01   1.9448859215e+01    0.1447971     0.104404  64.35 0.0007412357    1.638    0.390
       136 -13.1984    157.3095     44.3123   4.2943186528e+01   3.9874926726e+01    0.9001929    0.4947235  44.29  0.004024568    2.097    0.523
       137 -10.1055     21.9543     46.9658   8.8171506568e+01   6.6340196827e+01     0.153547    0.1278556 -21.10 0.0003308081    1.022    0.021
       138 -11.8209     60.6913    246.0175   1.0851522777e+02   1.4691864312e+01    0.3363918    0.1968425   7.84  0.001583157    2.991    0.666
       139 -13.4861    172.0080    242.6876   8.4535154041e+01   3.0291228397e-01    0.7184712    0.4772391  12.49  0.004237278    1.408    0.290
       140 -13.4412     98.5589    238.6743   9.9629072691e+01   1.1218569040e+01    0.8237056    0.3789298  31.98  0.003911638    1.900    0.474
       141 -13.2052    204.9894     40.2899   3.5582965549e+01   2.9400424070e+01     1.152406    0.4857517 -88.03  0.003909728    4.558    0.781
       142 -12.5659    211.7347     44.4809   3.5851533151e+01   2.7406984372e+01    0.3955579    0.3581338  72.25  0.001603102    1.245    0.197
       143 -13.4427    219.4711     41.7300   3.4451497515e+01   2.6144753357e+01     0.581076     0.368944  89.82  0.002046952    1.646    0.392
       144 -13.8590     92.1590    230.6101   1.0014515807e+02   1.3669893932e+01    0.5808365    0.5650476   5.18  0.003922083    1.164    0.141
       145 -11.9475    147.2938    239.0397   8.9111518107e+01   4.3127136747e+00     0.174742      0.15843   8.75 0.0009150247    1.103    0.093
       146 -12.3625    109.5900     42.1081   5.1976360811e+01   5.1631668833e+01    0.5303932    0.2075799  56.56  0.001539042    2.430    0.588
       147 -12.3191     24.6507    217.1310   1.1418622557e+02   2.4713014334e+01    0.6201701    0.2813804  49.38  0.003151353    1.880    0.468
       148 -13.1107    113.6499     38.0774   4.9542036899e+01   5.1228342679e+01    0.4795649    0.3607407  76.85  0.002424261    1.487    0.328
       149 -12.4054     14.0057    222.1096   1.1680537980e+02   2.4671389597e+01    0.4041857    0.2805238  80.64  0.001866349    1.255    0.203
       150 -13.6382     25.9577    226.9561   1.1453528393e+02   2.2465114963e+01    0.8295238    0.3718682 -56.15  0.004095452    2.637    0.621
       151 -13.9150    121.9910     36.9049   4.7245389650e+01   4.9395426115e+01    0.9668033    0.5275332  40.46   0.00347587    2.007    0.502
       152 -10.7684    104.5366     37.2141   5.1484534673e+01   5.3471741309e+01    0.2567215     0.130331 -36.70  0.001130709    2.079    0.519
       153 -12.4408     75.5126     37.3615   6.0302483596e+01   5.9775024896e+01    0.4037156    0.2426652  46.77  0.001023602    1.577    0.366
       154 -11.7563     70.7383     36.5770   6.1682147712e+01   6.0839957986e+01     0.285659    0.2689091  -5.30 0.0008878537    1.124    0.110
       155 -12.5072    241.9465     36.1601   3.1322558659e+01   2.2391074304e+01    0.4766074    0.2443372  73.97  0.002151688    2.078    0.519
       156 -12.8370     44.3159     32.8036   7.1045149974e+01   6.6081090909e+01    0.7214029    0.5529559  29.13  0.004329772    1.256    0.204
       157 -10.8398     35.1484     35.1557   7.6589908812e+01   6.7021138806e+01    0.2898636    0.1881344 -32.97  0.001053951    1.432    0.302
       158 -11.1711    178.6901     17.5152   3.2727018436e+01   3.8006492448e+01    0.2781636    0.1007673  65.23 0.0008611591    2.436    0.590
       159 -11.6296    194.5000     23.8530   3.2716934000e+01   3.3707986738e+01    0.2720221    0.2386933 -20.86  0.001777611    1.415    0.293
       160 -13.3234     20.1855    224.4483   1.1561888492e+02   2.3576821520e+01    0.5567904    0.4379876 -67.80  0.002605047    1.414    0.293
       161 -13.2145     55.2887     27.2847   6.3616701849e+01   6.5071039608e+01    0.6453164    0.3740291  45.29  0.002605495    1.706    0.414
       162 -11.9120     63.7098     25.1315   5.9267835396e+01   6.3792101682e+01     0.469669    0.2331971  29.02  0.002043758    2.363    0.577
       163 -12.8985    216.9881     28.9904   3.1841341502e+01   2.8240181383e+01    0.3377307    0.1998054 -56.20  0.001535742    1.470    0.320
       164 -12.6047    120.4936     26.2552   4.3878706621e+01   5.1041135959e+01    0.6340666    0.3798085  50.45  0.003165126    1.534    0.348
       165 -11.2499    122.5157     22.4997   4.2182174631e+01   5.0965776583e+01    0.3073438      0.17978  67.04   0.00105076    1.588    0.370
       166 -10.5149     98.5193     27.3292   4.9285441975e+01   5.6098841023e+01    0.2459084    0.1159569  57.24  0.001072042    1.934    0.483
       167 -11.2368     30.6060     25.7951   7.4682911095e+01   6.9177926790e+01     0.351218    0.1801111  18.48  0.001682044    2.211    0.548
       168 -10.9115     36.0253     23.6063   7.0780306895e+01   6.8752458716e+01    0.2682186    0.1787225 -32.74  0.001559895    1.474    0.322
       169 -13.6507     64.9047    223.4419   1.0559083464e+02   1.8755763321e+01    0.8184742    0.6076298  35.12  0.004879083    1.254    0.202
       170 -13.9351     64.1614    214.6524   1.0488530834e+02   2.0754161056e+01     0.737226    0.4204178  45.14  0.003782934    1.559    0.359
       171 -10.5819    249.6715    225.6592   6.7566594416e+01  -6.8936234537e+00    0.1222196   0.06875692  -7.33 0.0007051517    1.739    0.425
       172 -11.9685     94.3192    218.2894   9.8184618720e+01   1.5894264515e+01    0.2310314    0.2072677   2.86  0.001153511    1.253    0.202
       173 -11.3173     51.5155     20.5550   6.2004706660e+01   6.6648951371e+01    0.2705413    0.1612863  38.99 0.0009089712    1.519    0.342
       174 -11.8751    223.9177     20.7467   2.9488641207e+01   2.7766792777e+01    0.2641884    0.1986624  71.31  0.001603483    1.419    0.295
       175 -10.6501    202.4964     21.5207   3.1414125576e+01   3.2202840972e+01    0.1254986    0.1026166 -70.76 0.0004381897    1.020    0.020
       176 -11.5701    156.6599    214.8374   8.3439590668e+01   7.2263776222e+00    0.2616434    0.1116246 -39.62  0.001089719    2.547    0.607
       177 -11.9521      4.2289    211.6947   1.1835679125e+02   2.7812997954e+01    0.4624287    0.2192227 -83.44  0.002461196    1.907    0.476
       178 -10.7519    136.6810    211.3146   8.7332647003e+01   1.0975187510e+01    0.1351696    0.1045161  61.97 0.0005557272    1.652    0.395
       179 -11.4043     72.8438    208.0691   1.0208702563e+02   2.1087877792e+01    0.3054232    0.1747024 -57.18  0.001501718    1.840    0.457
       180 -10.8785    149.5487    207.4925   8.3801564300e+01   9.7102020907e+00    0.2947616    0.1255808  34.55  0.001214023    2.176    0.540
       181 -10.9259     63.5593     20.7833   5.7311535572e+01   6.4365785713e+01    0.2561647    0.2230067 -68.97  0.001060905    1.667    0.400
       182 -10.4780    123.4851     11.4862   3.8226556915e+01   5.1818977697e+01    0.1314341    0.1147237  65.03 0.0003889236    1.019    0.019
       183 -12.4623     57.3652    203.4608   1.0535879961e+02   2.4132541429e+01    0.4916396    0.2549826 -89.79  0.002136189    2.458    0.593
       184 -13.3428     15.3207    197.4633   1.1500642561e+02   3.0055668514e+01    0.8085446    0.3933552 -68.07  0.004124061    1.917    0.478
       185 -13.8791     22.4883    166.8747   1.1070725327e+02   3.6833057564e+01     1.121264    0.5663801  60.18  0.004457965    2.120    0.528
       186 -13.4832     30.0639    169.0839   1.0884693604e+02   3.5557381963e+01    0.9554765    0.7621223 -39.14  0.003667382    1.477    0.323
       187 -13.6650     22.2110    181.2725   1.1208088347e+02   3.3283579413e+01    0.9952779    0.4194694 -57.36  0.004432563    2.335    0.572
       188 -15.1896      8.2883    183.5114   1.1576022485e+02   3.3960044060e+01     1.507929     1.054825 -80.77  0.009079631    1.259    0.205
       189 -15.1451     15.8821    175.3509   1.1322575988e+02   3.5305672635e+01     2.514754     1.059566  65.04   0.01035764    2.730    0.634
       190 -11.9128    164.7946    197.1936   7.8639771152e+01   9.2607232438e+00    0.2226142     0.158415  75.63 0.0009602243    2.880    0.653
       191 -12.9844     40.2732    195.2647   1.0876646667e+02   2.8060073816e+01    0.3766487    0.2323978  78.81  0.001928028    1.680    0.405
       192 -12.2534    200.9811    191.7484   7.0179642277e+01   4.5653640726e+00    0.3534544    0.2633047 -14.91  0.001367931    1.253    0.202
       193 -10.8960     80.0774    193.0180   9.8398779392e+01   2.3550568469e+01    0.4214119    0.1155908  41.58  0.001388778    3.267    0.694
       194 -11.4991     97.9774    188.0000   9.3066631689e+01   2.2067754725e+01    0.2421694   0.07872065  33.19 0.0008037731    2.952    0.661
       195 -11.9315    155.8440    185.1536   7.8417076420e+01   1.3113952801e+01    0.2134495    0.2058086  57.90  0.001170267    1.219    0.180
       196 -11.4754     49.0935    182.1438   1.0513265068e+02   3.0225478605e+01    0.3457823    0.1665208 -57.62  0.001533279    2.025    0.506
       197 -11.9827    198.2867    181.6436   6.8768643828e+01   6.7535570387e+00    0.2938639    0.2539525  21.43  0.001482217    1.187    0.158
