#   1 NUMBER                 Running object number                                     
#   2 MAG_AUTO               Kron-like elliptical aperture magnitude                    [mag]
#   3 X_IMAGE                Object position along x                                    [pixel]
#   4 Y_IMAGE                Object position along y                                    [pixel]
#   5 X_WORLD                Barycenter position along world x axis                     [deg]
#   6 Y_WORLD                Barycenter position along world y axis                     [deg]
#   7 A_WORLD                Profile RMS along major axis (world units)                 [deg]
#   8 B_WORLD                Profile RMS along minor axis (world units)                 [deg]
#   9 THETA_WORLD            Position angle (CCW/world-x)                               [deg]
#  10 FWHM_WORLD             FWHM assuming a gaussian core                              [deg]
#  11 ELONGATION             A_IMAGE/B_IMAGE                                           
#  12 ELLIPTICITY            1 - B_IMAGE/A_IMAGE                                       
         1 -14.4799     68.5489    144.7214   9.8740593498e+01   3.7565730108e+01     4.759181     2.583448  77.03  0.005143976    3.542    0.718
         2 -14.1685    210.1681     38.8516   3.9748615429e+01   2.8430950764e+01     1.659752     1.402335  -5.11  0.007642918    1.716    0.417
         3 -13.8091    226.1999     23.4506   3.4799238843e+01   2.6873007556e+01    0.9706315    0.7818742  61.48  0.002595559    1.462    0.316
         4 -12.5694    247.6738      3.8919   2.9369922120e+01   2.4717289548e+01    0.5146869     0.324246 -76.16  0.003445595    1.285    0.222
         5 -12.4389     75.7782    160.7007   9.9433454397e+01   3.2513110837e+01    0.5859056    0.5284016  30.91 0.0008260935    1.204    0.169
         6 -14.8553      5.1570    182.2478   1.2013175717e+02   3.5259061431e+01     10.35607    0.9555842 -77.54  0.006101284   17.390    0.942
         7 -13.1347     84.5642    219.1402   1.0538172149e+02   1.7505121089e+01     1.152765    0.6612871  80.56  0.001512051    2.401    0.583
         8 -15.6593     10.5514    209.1755   1.2074964112e+02   2.8686495358e+01     2.383944     1.324012 -84.32   0.01386857    1.557    0.358
         9 -16.2526     40.5226    192.6428   1.1272032372e+02   2.9334188708e+01     10.43701     4.122224  64.35   0.03762218    3.624    0.724
        10 -16.2750     19.4467    247.3388   1.2122664875e+02   1.9864649080e+01     8.911505     2.366711  26.51   0.02784083    7.446    0.866
        11 -11.5988    184.9084    214.5110   8.2549447145e+01   2.2348759279e+00    0.3772148    0.2780525  52.72   0.00205649    1.681    0.405
        12  -9.3102     89.9984    212.4640   1.0332818608e+02   1.8144192848e+01     0.204654    0.1709459 -81.26 0.0005634727    1.233    0.189
        13  -9.7793    111.9878    205.5007   9.7240338716e+01   1.6201722282e+01    0.1994948    0.1754806  48.36 0.0003603345    1.042    0.040
        14  -9.6021    110.5204    202.5079   9.7140992596e+01   1.7096125814e+01    0.2029442    0.1374547 -73.47 0.0001706532    1.738    0.425
        15  -9.1508    107.4850    203.5135   9.8009307067e+01   1.7370651380e+01    0.1409983    0.1281921  55.84   8.7384e-05    1.013    0.013
        16 -10.9108    192.8955    194.7705   7.7373064181e+01   4.4493230028e+00    0.8632689    0.4518702 -64.29   0.00257091    5.901    0.831
        17 -10.1517     57.3531    194.5093   1.0888421989e+02   2.6838430668e+01    0.2335076    0.1849018  87.61 0.0005550434    1.173    0.147
        18 -10.5094     80.8748    182.1745   1.0142392396e+02   2.6488785256e+01    0.3195502    0.2955455 -81.59 0.0009836312    1.069    0.065
        19  -9.3894     99.4657    180.9194   9.6483392116e+01   2.3854438503e+01    0.2180148    0.1886666  44.01 0.0005577178    1.123    0.110
        20  -8.8884    189.0000    176.4960   7.4636561995e+01   8.5669512622e+00      0.32612   0.07842245 -44.15 0.0009543582    4.095    0.756
        21 -12.1138     60.4342    175.3445   1.0574371217e+02   3.1041276819e+01    0.4545854    0.3040559 -32.00  0.001444325    2.128    0.530
        22 -12.0322     65.4580    170.2307   1.0370838323e+02   3.1622837198e+01    0.3325775    0.2826073 -29.98   0.00142419    1.447    0.309
        23  -8.6171    148.2738    174.6343   8.3280664442e+01   1.6549635886e+01    0.1489485    0.1183195  87.12 0.0007003583    1.668    0.400
        24 -13.5872     62.6075    156.7417   1.0245813439e+02   3.5369664144e+01    0.5461914    0.3955717 -42.38  0.001642577    1.541    0.351
        25 -12.5939     82.8398    154.6142   9.6419619162e+01   3.2949602159e+01    0.9899651    0.5606657 -50.57  0.001480409    1.756    0.430
        26 -13.3942     56.8612    238.7917   1.1332296828e+02   1.7193606728e+01    0.5074533    0.3699374  85.49 0.0005143074    1.314    0.239
        27  -9.6985    174.7223    149.0895   7.1905508073e+01   1.6820499107e+01    0.2524261    0.2085252  58.52 0.0006286198    1.339    0.253
        28 -10.6398    133.7933    144.5267   8.0554268527e+01   2.6156189133e+01     1.009997     0.217378 -53.71   0.00208236    7.177    0.861
        29 -10.8258     29.3599    143.4441   1.1002566125e+02   4.2537474138e+01    0.3734798    0.3097763   5.64    0.0019449    1.499    0.333
        30  -8.7616    200.1672    143.2121   6.5415702587e+01   1.2918690744e+01    0.1895702    0.1632493 -64.91 0.0004287285    1.301    0.232
        31 -10.0846     97.4777    141.4630   8.9717990155e+01   3.3771302526e+01    0.2839493      0.26592  79.95 0.0008067826    1.081    0.075
        32  -9.9914    100.2391    138.1769   8.8233504641e+01   3.4084284282e+01    0.3644715    0.2643245 -19.52  0.001605974    1.895    0.472
        33 -12.3719     85.4414    139.6353   9.2816158589e+01   3.6257524342e+01    0.3049286     0.274513 -49.65 0.0004909486    1.107    0.097
        34 -10.8011    107.3321    130.6501   8.4536925872e+01   3.4595093595e+01    0.5252256     0.340952  31.17  0.002065903    1.691    0.409
        35 -10.8778     17.6837    130.2054   1.1174401980e+02   4.6832742111e+01    0.2583374    0.2028741  53.61  0.000674612    1.386    0.279
        36 -10.3889    135.6671    127.7161   7.6175043144e+01   2.9602700983e+01    0.5774439    0.1418906 -52.00  0.001359604    5.326    0.812
        37 -10.4371    230.7338    166.7290   6.4777569607e+01   3.1063500163e+00    0.2166069   0.09941183 -48.83 0.0009058299    2.425    0.588
        38  -9.4274    160.7509    127.7117   7.0101076832e+01   2.4244355994e+01    0.2514594      0.12267 -54.15 0.0007433682    2.373    0.579
        39  -9.6795     96.4659    125.9876   8.6610980337e+01   3.7710572049e+01    0.2796306    0.2165153   7.36 0.0009702532    1.652    0.395
        40 -10.8178     13.0927    121.3359   1.1198459526e+02   4.9347486456e+01     0.319384    0.1682342  39.92  0.001622489    2.120    0.528
        41 -10.1805    205.1500    110.3056   5.7092121951e+01   1.8123639744e+01    0.3281361    0.2526271  40.71  0.001158086    1.472    0.321
        42 -11.3307    245.5828    108.2992   5.0498867405e+01   1.0524167113e+01    0.2726893    0.1045551 -43.13  0.001153064    2.189    0.543
        43  -9.4237    134.4925    105.5018   7.0846800115e+01   3.4716922933e+01    0.1524726     0.151305  89.52 0.0008106462    1.003    0.003
        44  -9.8854    106.0707    119.0457   8.2138973457e+01   3.7574467885e+01     0.216047    0.2154249 -72.12 0.0003214839    1.013    0.013
        45 -11.1756     53.1170     91.9340   9.2577248461e+01   5.2484986510e+01    0.4396021    0.2051008 -55.78  0.001600204    2.007    0.502
        46  -9.5288     44.5357    165.5391   1.0866188056e+02   3.5432073937e+01    0.2412816     0.154583  64.75 0.0006453026    1.654    0.395
        47 -10.5418    247.4923     91.4771   4.6775840763e+01   1.2900124220e+01    0.1297928    0.1083647 -52.88 3.668575e-05    1.002    0.002
        48 -10.0795     89.9239    174.3167   9.7869538316e+01   2.6983654571e+01    0.2093108    0.1834385  49.33    0.0011433    1.111    0.100
        49  -9.5357    160.8346     82.8179   5.8598665911e+01   3.3139229930e+01    0.2069714    0.1724137 -77.27 0.0004746919    1.302    0.232
        50 -11.2142    243.4870     78.0062   4.4463666163e+01   1.5772545392e+01    0.1904218    0.1645097 -88.64 0.0004364833    1.191    0.161
        51  -8.6434    184.3869     77.2867   5.2693502644e+01   2.8588407551e+01    0.1448325    0.1114885  27.32 0.0007009305    1.750    0.429
        52 -13.4168     44.9741    217.3629   1.1400374618e+02   2.3188784005e+01     1.022042    0.8470706  64.23  0.005313354    1.045    0.043
        53  -8.9781     25.6400     68.2360   9.7168435233e+01   6.0674837401e+01    0.1145659   0.09457609  52.16 0.0003153519    1.587    0.370
        54  -9.0607     37.5787     63.7552   9.0875957976e+01   6.0413168715e+01    0.1647742    0.1190762 -59.30 0.0003272581    1.522    0.343
        55 -11.5174     13.2844     59.7924   1.0028496551e+02   6.3416977306e+01    0.2682993    0.2358387 -86.61 0.0004938629    1.470    0.320
        56 -12.6092    218.2512     31.0017   3.7148932750e+01   2.7656579702e+01    0.5243617    0.3633728  57.87   0.00109409    1.612    0.380
        57 -13.8041    201.0584     44.4728   4.2132104919e+01   2.9734112473e+01     1.224099    0.9252318  43.53   0.00331662    1.668    0.400
        58  -9.4640    172.5302    239.1452   8.9057949516e+01  -4.8030444347e-03    0.2507006     0.128188 -53.82   0.00118395    2.635    0.620
        59 -10.6247     41.4982     59.0355   8.7761646502e+01   6.0898564529e+01    0.3105976    0.2098144  43.26  0.001240425    1.823    0.451
        60 -11.5999    164.7502    217.7244   8.7304178569e+01   4.9426877791e+00    0.4097658    0.2091255  26.46  0.001785027    2.144    0.534
        61  -9.5958      6.6686     50.3060   1.0077151837e+02   6.5770455122e+01    0.1052883   0.09064529  63.76 0.0003648544    1.661    0.398
        62 -10.2947    132.9701     39.6754   5.1870209990e+01   4.6583843108e+01    0.2714408    0.2148335 -84.79  0.000641098    1.452    0.311
        63  -8.6810     23.3015     57.2834   9.5121161167e+01   6.3136422018e+01    0.1280234   0.07925884 -26.75  0.000287072    1.552    0.356
        64  -9.9077    132.7460     31.8041   4.9439974022e+01   4.7633129303e+01    0.2146939     0.178094  77.86  0.000500393    1.196    0.164
        65  -9.5993    189.5187     15.0166   3.6419792736e+01   3.5996520665e+01    0.1753979    0.1198292 -37.68 0.0007175309    1.557    0.358
        66 -13.1301     32.0053    201.7332   1.1553252948e+02   2.8180115039e+01    0.4536717    0.3759106 -39.80  0.001358118    1.622    0.384
