#   1 NUMBER                 Running object number                                     
#   2 MAG_AUTO               Kron-like elliptical aperture magnitude                    [mag]
#   3 X_IMAGE                Object position along x                                    [pixel]
#   4 Y_IMAGE                Object position along y                                    [pixel]
#   5 X_WORLD                Barycenter position along world x axis                     [deg]
#   6 Y_WORLD                Barycenter position along world y axis                     [deg]
#   7 A_WORLD                Profile RMS along major axis (world units)                 [deg]
#   8 B_WORLD                Profile RMS along minor axis (world units)                 [deg]
#   9 THETA_WORLD            Position angle (CCW/world-x)                               [deg]
#  10 FWHM_WORLD             FWHM assuming a gaussian core                              [deg]
#  11 ELONGATION             A_IMAGE/B_IMAGE                                           
#  12 ELLIPTICITY            1 - B_IMAGE/A_IMAGE                                       
         1 -12.8445     56.2920    124.4005   6.1470925097e+01   4.4200143418e+01     3.284293     1.411453 -82.48  0.008898471    4.902    0.796
         2 -13.5343    217.7358     47.0407   3.0928143265e+00   2.5098743962e+01    0.9384531    0.7028175  46.52  0.001305886    1.791    0.441
         3 -12.8531    246.0464     24.8348   3.5625421820e+02   2.2325849966e+01    0.8043409    0.5408792 -48.28  0.005194023    1.186    0.157
         4  -9.6048      2.1765      2.2892   5.3404295650e+01   7.7694804343e+01    0.2096271    0.1305163 -32.79  0.001128035    1.417    0.294
         5 -12.4961    108.3700    229.0216   6.1796249289e+01   1.1714120520e+01     1.036528    0.5136804  27.37   0.00487156    1.800    0.444
         6  -9.7264     75.5198    247.4652   7.1211501279e+01   1.2640188294e+01    0.5159954    0.1260123 -55.38  0.001948771    4.690    0.787
         7 -13.6936     44.0671    242.2605   7.7891797580e+01   1.7410003784e+01     1.450918     1.099392 -82.24  0.007122927    1.493    0.330
         8 -14.6896     54.7732    234.3230   7.4911340122e+01   1.7740007391e+01      5.03915     1.988437 -54.34   0.02052558    3.185    0.686
         9 -16.8774      6.2291    218.2078   8.5272939827e+01   2.6239099173e+01     4.574945      2.53764  19.53   0.01219365    1.997    0.499
        10 -15.0243     10.0583    206.3637   8.3871164590e+01   2.8500658487e+01    0.9939415    0.6923345   2.60  0.002770132    1.959    0.490
        11 -11.5772     89.5899    224.1631   6.5706727376e+01   1.5293539113e+01    0.8627581    0.5855844  66.83  0.004619714    1.742    0.426
        12 -10.7154     81.1062    220.8147   6.7411723689e+01   1.7141592749e+01     0.428534    0.2806826  52.18  0.001299073    1.437    0.304
        13  -9.5658    185.1110    238.6830   4.6523042730e+01  -4.0585900008e-01     0.183742    0.1535793 -30.24 0.0009196242    1.412    0.292
        14  -9.9425     72.5310    232.9286   7.0642207508e+01   1.5812053099e+01    0.2784025    0.1669264  37.30  0.000700505    1.327    0.246
        15 -12.4278    133.5455    229.4453   5.6069487356e+01   8.0546812344e+00    0.7358313    0.3668701  21.09  0.003349547    2.095    0.523
        16 -11.6451    147.0182    228.4216   5.2940689362e+01   6.3176036750e+00    0.4262628    0.2892814  10.02  0.002375672    1.498    0.332
        17 -10.6156    174.6286    223.2255   4.6322008026e+01   3.3123492019e+00     0.217366    0.1647071  10.66  0.000644008    1.132    0.117
        18 -10.0306     67.0975    221.0425   7.0866157059e+01   1.8949999600e+01    0.2029884    0.1773329  81.64 0.0004099764    1.227    0.185
        19 -10.1833     71.7217    225.0847   7.0117266002e+01   1.7506780144e+01    0.3757058    0.1679934  29.54   0.00157387    1.941    0.485
        20 -11.7026     97.7462    224.3096   6.3762105143e+01   1.4126583272e+01    0.5648379    0.5340404 -69.76  0.003136538    1.258    0.205
        21  -9.6342     96.0161    211.1099   6.2615092568e+01   1.7072215229e+01    0.3287168    0.2149838 -78.59  0.001634087    2.001    0.500
        22  -9.6708    211.0596    198.7704   3.5279560717e+01   2.1608201456e+00    0.1968903    0.1554293 -19.29 0.0005194133    1.119    0.106
        23 -11.5490     67.9818    191.9110   6.7632325532e+01   2.5351186821e+01    0.5053571    0.2879746  79.83  0.001583887    2.348    0.574
        24  -9.5596    192.4931    193.9789   3.7933842007e+01   5.5399502463e+00     0.165448    0.1157665 -64.65  0.000810413    2.575    0.612
        25 -11.5779     73.8024    189.4278   6.5746890430e+01   2.5129606593e+01     0.379207    0.2590176 -86.04 0.0008514885    1.699    0.411
        26  -9.0182    207.5445    189.4994   3.4300606343e+01   4.0921372437e+00    0.1272739    0.1053338  -7.33  0.000133126    1.018    0.018
        27  -9.9463     63.9435    182.7537   6.7679090007e+01   2.8094119898e+01    0.4030435    0.2015177 -83.89  0.001397342    2.634    0.620
        28  -9.7014     60.0951    179.4256   6.8378181778e+01   2.9423768992e+01    0.3264267    0.2415279  77.90 0.0003735456    1.419    0.295
        29  -9.9261    116.1147    181.7647   5.3232529690e+01   2.0305587623e+01    0.2277782    0.1915354  52.73 0.0005668578    1.216    0.178
        30  -9.7496    100.0942    181.2956   5.7421769533e+01   2.3049846525e+01    0.2505062    0.2138111 -74.10 0.0002128018    1.306    0.234
        31  -9.4075    174.8414    179.8695   3.8976150371e+01   1.0754594813e+01    0.2332376    0.1934763 -34.70 0.0008063023    1.216    0.178
        32 -11.4645    171.8905    174.9287   3.8679733135e+01   1.2165128710e+01    0.6843121     0.446574  -7.49  0.003158958    2.069    0.517
        33 -10.0427    104.1825    170.7433   5.4591396484e+01   2.4839177655e+01    0.4698404    0.2943648 -82.93  0.001898457    2.423    0.587
        34  -9.4893    101.5684    166.9984   5.4680934456e+01   2.6169343611e+01    0.5896591    0.3608408 -31.08  0.001610985    2.275    0.560
        35 -10.0254     78.3209    167.9054   6.1531514061e+01   2.9695901274e+01    0.5461319    0.3054015  89.83  0.001734528    2.758    0.637
        36 -10.8746    180.6785    167.3317   3.5379972426e+01   1.2094315960e+01    0.4904388    0.2914543 -59.79  0.002119045    2.552    0.608
        37 -10.2317    178.4695    164.5156   3.5284037896e+01   1.2997675793e+01    0.3052273    0.2481766  18.64 0.0009947114    1.225    0.184
        38 -10.5959     90.5015    166.7698   5.7798795969e+01   2.8061989482e+01    0.4529904    0.4366278 -45.65  0.002008101    1.126    0.112
        39 -11.0370     85.9448    162.0127   5.8351370070e+01   2.9970733566e+01    0.5493946    0.3363859  45.42  0.002423645    1.558    0.358
        40 -10.4988     85.0173    157.7662   5.7918619849e+01   3.1180617166e+01    0.5033479    0.2846798 -83.64  0.001858769    2.695    0.629
        41 -12.1966     66.5423    126.1218   5.8148849156e+01   4.2257781344e+01     1.502242    0.8153127 -86.41  0.005151944    3.048    0.672
        42 -15.3178      6.7717    145.1943   8.1264692033e+01   4.3694459829e+01      8.34466     2.025233 -82.44   0.02586676    4.185    0.761
        43 -10.3686     59.8855    121.1494   5.9550260968e+01   4.4549966910e+01    0.2576951    0.2352665 -79.94 0.0002842342    1.098    0.089
        44 -12.0528     76.8246    150.3397   5.9171949621e+01   3.4370420019e+01     1.342298     0.477639 -55.29    0.0003791    2.753    0.637
        45 -11.9127     62.5174    161.5816   6.5366716114e+01   3.3589591317e+01     0.730657    0.4665731 -30.55  0.002251612    2.193    0.544
        46 -12.0787     67.6503    157.3775   6.3170662107e+01   3.3944102674e+01    0.7175688    0.6525081 -75.91  0.001462234    1.123    0.109
        47 -12.9268     64.3254    145.6012   6.2383930954e+01   3.7478991671e+01    0.9141504     0.537799  20.69 0.0008243087    1.927    0.481
        48  -9.8293    110.7293    167.1851   5.2170606434e+01   2.4549810138e+01      0.28872    0.2372137  62.62 0.0004998578    1.328    0.247
        49  -9.6383     32.0586    163.3041   7.4919472706e+01   3.6822059881e+01    0.2779857    0.1931422  55.72 0.0005397787    1.348    0.258
        50  -9.4320    129.1450    162.8725   4.6457091779e+01   2.2240557004e+01    0.2146449    0.1977534  65.90 0.0003144091    1.184    0.155
        51  -9.2500     96.4630    162.2163   5.5308742805e+01   2.8186359294e+01    0.3155536    0.2164067  78.43 0.0009661549    1.989    0.497
        52 -11.4279     92.0468    155.0185   5.5333272626e+01   3.0703485188e+01    0.7151561    0.4321546  76.05  0.001617499    2.712    0.631
        53 -11.5450     83.7710    145.5497   5.6139133344e+01   3.4474093578e+01    0.6777422    0.5130461  -7.62 0.0009494812    1.766    0.434
        54 -10.7692     82.0693    140.7830   5.5783914601e+01   3.5973876330e+01    0.3152227    0.2816524  47.03 0.0004723521    1.073    0.068
        55 -10.6233    238.0269    159.7151   2.3774020702e+01   4.4203165316e+00    0.3183006    0.1300668 -29.92  0.001426382    2.471    0.595
        56 -10.2001     36.0490    158.0937   7.3156328504e+01   3.7749069962e+01    0.4623434    0.3075953 -49.42  0.002281509    1.659    0.397
        57 -10.8683     43.6811    156.2419   7.0545381803e+01   3.7376314010e+01    0.5697165    0.2657502  59.27  0.001800042    2.552    0.608
        58 -13.4430     18.9309    235.8027   8.3140084751e+01   2.1371993274e+01    0.4320449    0.3187881 -83.74 0.0005070902    1.461    0.316
        59 -12.8162     70.2565    145.2448   6.0395658561e+01   3.6697407586e+01    0.8482649    0.5796198  78.05  0.003742583    1.799    0.444
        60 -10.2704     30.2454    153.3922   7.4489601499e+01   3.9576485904e+01    0.4308308    0.2371059  30.99 0.0003941488    1.747    0.428
        61 -14.1942     33.0450    182.2612   7.6339290368e+01   3.1947070396e+01     2.426087      1.28223  37.15  0.008880561    1.659    0.397
        62 -10.6877    133.9805    146.6247   4.1917022094e+01   2.4962409142e+01    0.7708461     0.252475 -53.00  0.002339586    3.523    0.716
        63  -9.4571    132.6604    139.1289   4.0636526940e+01   2.6904710337e+01    0.3892575    0.1568711 -53.22  0.001304302    2.777    0.640
        64  -9.7729    122.6251    148.9610   4.5414526031e+01   2.6623300601e+01    0.3412894    0.2518851 -73.18  0.001546605    1.702    0.413
        65  -9.7871    126.3864    156.6630   4.5965649786e+01   2.4148009080e+01    0.3191008    0.2555105  83.55  0.001128706    1.616    0.381
        66  -9.1194    115.0087    148.2695   4.7373356720e+01   2.8228529049e+01    0.2086093      0.19007  38.94 0.0002149267    1.049    0.047
        67 -10.5509    108.9370    145.3591   4.8506154818e+01   3.0061689870e+01    0.3127674    0.2718063  44.65 0.0006381058    1.104    0.094
        68 -10.3393     36.8417    142.4492   7.1076497155e+01   4.1776671986e+01    0.3066174    0.2243341 -77.43 0.0008350717    1.324    0.245
        69  -9.0785     27.1802    142.7382   7.4355022138e+01   4.2676210695e+01    0.2487528    0.2183965 -44.99   0.00142134    1.248    0.199
        70 -10.6342     48.5539    140.8098   6.6892308656e+01   4.0856549741e+01    0.4457936    0.2393049 -86.22  0.001760847    2.288    0.563
        71 -10.8948     76.0856    134.1987   5.6468616877e+01   3.8652034137e+01    0.4889964    0.3483434 -43.28  0.002240544    1.529    0.346
        72  -8.4219    115.0303    136.9750   4.4979704386e+01   3.0901619777e+01    0.1802949     0.176804  51.68 0.0009480552    1.018    0.018
        73  -9.0728     37.7245    137.2499   7.0099486793e+01   4.3063386369e+01    0.2993259    0.1501675  50.26  0.001225949    2.085    0.520
        74 -11.0672    101.3445    132.3509   4.8007417311e+01   3.4657588919e+01    0.8504052    0.5146956   0.87  0.002625778    3.881    0.742
        75 -10.6539    105.5301    130.6200   4.6355015818e+01   3.4278150369e+01     0.713213    0.5536273  18.89  0.003296194    1.479    0.324
        76 -14.1445     46.1162    174.8749   7.1908548519e+01   3.2314126284e+01     3.783497     1.678325 -67.78   0.01582281    2.236    0.553
        77  -8.6688    112.9648    133.0373   4.4701657319e+01   3.2243156072e+01    0.1841299    0.1746665  45.17 0.0009481498    1.018    0.018
        78 -11.5938     86.7208    132.1161   5.2559021051e+01   3.7389018455e+01    0.2969507    0.2830323 -53.25 0.0003896065    1.088    0.081
        79 -10.1037     43.9414    131.0548   6.7029067797e+01   4.4010680723e+01     0.349948    0.2146529 -67.67 0.0009904414    1.580    0.367
        80  -8.9600    122.9662    130.0514   4.1191667586e+01   3.0935806030e+01    0.2394993    0.1882731  79.25            0    1.604    0.377
        81 -10.0706     33.4759    127.4531   7.0262274572e+01   4.6124858454e+01    0.2957892    0.2217903  69.78 0.0005582967    1.388    0.280
        82  -9.1304     35.3033    124.3009   6.9139398562e+01   4.6777046169e+01    0.2137743    0.2016893 -51.37 0.0002720545    1.093    0.085
        83  -9.7696    110.0851    126.2795   4.4003927854e+01   3.4426629462e+01    0.3356309    0.2653811  -7.92  0.001029196    1.653    0.395
        84 -10.1813    135.4266    125.1965   3.6721518550e+01   2.9445065656e+01    0.3604689    0.1480918 -55.12    0.0011492    3.050    0.672
        85  -8.2632    219.2224    126.0164   2.0031279337e+01   1.2705798064e+01    0.1667473   0.09458866 -38.29 0.0003078121    1.541    0.351
        86 -10.0459     97.0479    121.5016   4.6891543902e+01   3.8143009482e+01    0.2970802    0.2691792 -18.44  0.001056625    1.231    0.188
        87  -8.9026    106.1950    120.8224   4.3884433872e+01   3.6510678990e+01     0.210446     0.184018 -14.20  0.000387589    1.326    0.246
        88 -15.4705     13.6348    242.3619   8.4557296269e+01   2.0584337934e+01     1.409627    0.9372857  33.95  0.008430183    1.321    0.243
        89  -8.3492     76.4977    120.4921   5.3503220562e+01   4.2116980550e+01    0.1543843    0.1508872  57.54 -0.0001537792    1.006    0.006
        90 -11.2789     45.3316    121.5184   6.4976636701e+01   4.6385387592e+01    0.5720782    0.2832924  51.84  0.002215019    2.336    0.572
        91  -9.3833    106.6614    116.1195   4.2598406057e+01   3.7537508446e+01    0.2513657    0.2092769  54.46 0.0003632095    1.208    0.172
        92 -10.1732    243.9394    114.4902   1.4280514343e+01   1.0421151668e+01    0.1569396     0.122795  54.95  0.001025074    1.570    0.363
        93  -8.7305    138.2272    111.0172   3.2519801781e+01   3.1920942869e+01    0.2067892     0.194198 -55.05 0.0002409347    1.075    0.070
        94 -10.8380     52.7027    109.4023   5.9880280496e+01   4.8634737327e+01    0.4784287    0.2559341 -55.70  0.001553393    1.790    0.441
        95 -10.3044     32.5231    109.8665   6.7936233976e+01   5.0900995199e+01    0.5258054    0.2304323  42.93  0.002063823    2.391    0.582
        96  -9.0401     20.0215    108.5212   7.2735334865e+01   5.2378570625e+01    0.2006102    0.1357881  23.29 0.0006942476    1.558    0.358
        97 -11.1266     23.3019    104.5051   7.0807897004e+01   5.3168005960e+01    0.4499074    0.2910365  44.66  0.002216819    1.634    0.388
        98  -9.8519    134.4085    105.1303   3.1970360404e+01   3.4024180059e+01    0.4704998    0.1813136 -53.50  0.001439504    3.300    0.697
        99 -10.9480    112.7175    102.5273   3.7259352019e+01   3.9405377861e+01    0.6113437    0.3887888 -77.00  0.002233718    2.630    0.620
       100  -9.4605     68.6292    102.7366   5.2242170462e+01   4.7943223042e+01    0.3783507    0.2536501 -23.76  0.001579475    2.019    0.505
       101  -9.3329     46.8025    104.0740   6.1107892425e+01   5.0798581541e+01    0.2158822    0.1929987  69.00 0.0003551951    1.182    0.154
       102  -8.8298     87.8660    100.8311   4.4776147279e+01   4.4942778999e+01    0.2101457    0.1792734  68.74 0.0002474496    1.287    0.223
       103  -8.5845     58.6612     98.7335   5.5140330578e+01   5.0525171049e+01    0.1522644     0.115652 -16.55 0.0006252461    1.595    0.373
       104 -11.0424     51.4109     90.3101   5.6050544484e+01   5.3692966071e+01    0.7102481    0.3348397  28.26  0.002758155    2.162    0.537
       105  -9.2834     40.0768     89.8651   6.0839211569e+01   5.5270149806e+01    0.2094186    0.2044871 -57.63 0.0002815581    1.034    0.033
       106 -11.2351     47.7631     96.2984   5.9017806833e+01   5.2677463003e+01    0.3449017    0.2643754  53.60  0.001719115    1.430    0.300
       107 -11.0165     43.7668     93.7723   6.0130299770e+01   5.3831392125e+01    0.4041493    0.3328168 -19.35 0.0004268229    1.315    0.240
       108 -10.7761     24.6679     86.5193   6.7055623927e+01   5.7706890850e+01    0.2720434    0.2656326 -48.23 0.0002167462    1.046    0.044
       109  -8.9938     73.1735     87.0680   4.6330199703e+01   5.0972247197e+01    0.2217121    0.2013821  -8.02  0.000307144    1.177    0.150
       110  -8.6396     32.9627     82.0085   6.2244251563e+01   5.8039452977e+01    0.1671448    0.1584994 -34.80            0    1.008    0.008
       111 -10.1740    116.4418     79.2801   2.9503110705e+01   4.3514020166e+01    0.3158493    0.2536497 -84.02 0.0007262154    1.490    0.329
       112 -10.0305     60.3890     77.3918   4.8665917826e+01   5.5440242651e+01    0.3547324    0.2414104  43.69  0.001664774    1.503    0.335
       113  -9.9682     38.3025     75.6764   5.8152297357e+01   5.8990656111e+01    0.4300087    0.1962621  53.96  0.001422446    3.834    0.739
       114  -8.2671    132.3042     77.2630   2.4734310053e+01   4.0128963873e+01    0.1474692    0.1197136  24.18 0.0006925578    1.522    0.343
       115 -10.7503    142.1283     69.1659   2.0082924587e+01   3.9208355226e+01    0.7787226    0.4148033 -70.34  0.002463476    3.815    0.738
       116 -12.0913    195.1566     62.2024   9.1737879051e+00   2.7790736019e+01    0.6305641    0.5396373  30.86  0.001063591    1.561    0.359
       117 -12.8492    207.6433     54.4735   5.8269853022e+00   2.6196922168e+01      0.90687    0.7532881 -56.75  0.003094403    1.054    0.051
       118 -10.3521     75.4634    220.6442   6.8777081591e+01   1.7936738814e+01    0.4792062    0.2725955  63.28   0.00205664    2.051    0.513
       119 -12.0586     13.0302     60.3873   6.7261719835e+01   6.5025410699e+01    0.4741172    0.2679193 -51.56  0.001040632    1.540    0.351
       120  -8.9737     30.5322     72.4959   6.1090526569e+01   6.0626992387e+01    0.1396718     0.127967 -31.74 0.0001487011    1.019    0.018
       121 -10.1578     21.2362     52.5500   6.0509275064e+01   6.6179400739e+01    0.2438952    0.2107919 -32.62 0.0002303776    1.043    0.041
       122  -8.7823     46.4586     50.4651   4.6053162000e+01   6.3527146095e+01    0.1383392    0.1286226   5.47 5.911171e-05    1.034    0.033
       123 -15.3314      4.7426    230.4068   8.6046831063e+01   2.3811812617e+01     1.102687    0.5428318 -76.33  0.006172375    2.127    0.530
       124 -10.8946     22.2135     33.7763   5.3299015995e+01   7.0051795291e+01    0.2801012    0.1999232  28.61 0.0006784548    1.417    0.294
       125 -10.3485    103.0284    238.9147   6.4150300234e+01   1.0609342837e+01    0.4324491    0.2674398 -31.78  0.001100423    2.288    0.563
       126  -9.6186     61.0478     21.4013   2.6328629667e+01   6.5851204933e+01    0.2320859    0.2085405  86.41  0.000806861    1.436    0.304
       127  -9.7627      2.4052     22.2184   6.2765007925e+01   7.4019531259e+01     0.154112    0.1139005 -69.99 0.0007161482    1.644    0.392
