#   1 NUMBER                 Running object number                                     
#   2 MAG_AUTO               Kron-like elliptical aperture magnitude                    [mag]
#   3 X_IMAGE                Object position along x                                    [pixel]
#   4 Y_IMAGE                Object position along y                                    [pixel]
#   5 X_WORLD                Barycenter position along world x axis                     [deg]
#   6 Y_WORLD                Barycenter position along world y axis                     [deg]
#   7 A_WORLD                Profile RMS along major axis (world units)                 [deg]
#   8 B_WORLD                Profile RMS along minor axis (world units)                 [deg]
#   9 THETA_WORLD            Position angle (CCW/world-x)                               [deg]
#  10 FWHM_WORLD             FWHM assuming a gaussian core                              [deg]
#  11 ELONGATION             A_IMAGE/B_IMAGE                                           
#  12 ELLIPTICITY            1 - B_IMAGE/A_IMAGE                                       
         1  -9.5257    237.0493    126.9942   8.9653139243e+01   7.9844041658e+00    0.2145153    0.1970279 -31.17 0.0005953846    1.076    0.070
         2  -8.6981    170.0087    250.4684   1.2434544662e+02   1.4728320041e+00    0.1865649    0.0898095  42.81  0.001034421    1.605    0.377
         3  -9.7292    145.6549    249.6638   1.2847093420e+02   5.4122939258e+00    0.3165824    0.1529989  50.60  0.001636224    1.741    0.426
         4  -9.4559    140.5602    245.8667   1.2893032998e+02   6.7611237924e+00    0.2814611    0.1297097  52.99  0.001462215    1.978    0.495
         5 -11.1793    120.8583    248.2930   1.3263778621e+02   9.4475404474e+00    0.4004141    0.2718923  56.77  0.002696217    1.199    0.166
         6 -10.4613    104.9770    246.4960   1.3521910330e+02   1.2106047660e+01    0.2271176    0.1509914  45.21  0.001063306    1.271    0.213
         7 -10.8368    110.9667    249.1021   1.3443029205e+02   1.0810002014e+01    0.4556501    0.1510614  51.13  0.002121744    2.520    0.603
         8  -9.2811    105.1639    250.5928   1.3556624733e+02   1.1433638669e+01    0.3487626   0.09356412  40.90  0.001478426    3.104    0.678
         9  -8.3798     96.6710    250.6964   1.3702264120e+02   1.2645733033e+01   0.09743971   0.08363419  27.53 0.0004343965    1.650    0.394
        10  -9.1658     89.9299    250.0998   1.3811416722e+02   1.3696067538e+01    0.2929038    0.1041954  49.25  0.001510553    2.105    0.525
        11  -9.7594     74.7075    250.0968   1.4066693449e+02   1.5783504540e+01    0.3972729    0.1208464  45.73   0.00199161    2.385    0.581
        12 -10.0907     65.5156    248.9731   1.4210822854e+02   1.7177299570e+01    0.4325665    0.1468572  52.70  0.002278147    2.221    0.550
        13  -9.6887     50.7159    250.0724   1.4459027409e+02   1.8854926131e+01    0.3691865    0.1154692  43.08  0.001956938    2.455    0.593
        14  -8.4220     38.2303    249.4150   1.4654102464e+02   2.0446293007e+01     0.151913   0.07888757  47.32 0.0004172113    1.549    0.354
        15  -9.7963     33.3760    248.1818   1.4723980979e+02   2.1207138049e+01    0.3101343    0.1676359  61.69  0.002204332    1.315    0.240
        16  -8.0556     10.1184    244.2198   1.5065368453e+02   2.4358682111e+01    0.2041677   0.08836597  62.52 0.0009983409    1.632    0.387
        17 -10.5034      6.0309    235.5902   1.5093340517e+02   2.6246610864e+01    0.6333486    0.1390619  38.63  0.003166103    3.624    0.724
        18  -9.4403     28.7997    243.5879   1.4772552959e+02   2.2496343538e+01     0.296013    0.1310314  77.10  0.001810498    2.004    0.501
        19 -10.7338     11.9464    240.0372   1.5019985642e+02   2.4888745085e+01    0.9602923    0.1841019  36.81  0.004199801    4.782    0.791
        20  -9.3130     26.2604    249.0439   1.4839118981e+02   2.1853217765e+01    0.2622049    0.1044457  50.28 0.0009446376    1.786    0.440
        21  -9.4923     21.7559    244.2535   1.4886392471e+02   2.3147531547e+01    0.3193443    0.1059569  42.49  0.001847509    2.394    0.582
        22  -9.8803      4.3873    248.8258   1.5168928038e+02   2.4154850081e+01    0.4764869    0.1456958  42.31   0.00286309    2.519    0.603
        23 -10.4223      3.5636    242.3085   1.5157242208e+02   2.5329859082e+01    0.5263644     0.162692  66.77   0.00289887    2.605    0.616
        24  -9.1793     20.0159    233.9872   1.4864895995e+02   2.5112682290e+01    0.2566193   0.08535169  48.03  0.001481935    2.167    0.538
        25  -9.7851     20.2747    249.1349   1.4931465376e+02   2.2482546334e+01    0.3822877   0.09079829  54.02   0.00198809    2.744    0.636
        26  -9.8106     13.5454    247.8698   1.5028292146e+02   2.3396164334e+01    0.3962879   0.09378745  47.47  0.002178389    2.611    0.617
        27  -9.4092     20.0697    240.0515   1.4893121737e+02   2.4047029552e+01    0.3689346    0.1210583  65.93  0.001935358    2.679    0.627
        28 -10.2324     23.0132    237.3173   1.4833174840e+02   2.4209478161e+01    0.3657419    0.1814313  53.03  0.002500562    1.502    0.334
        29  -8.9681    152.9303    249.5122   1.2718830447e+02   4.2915918473e+00    0.1850013   0.09023555  43.74 0.0009986665    1.582    0.368
        30  -8.7028     58.0146    248.0111   1.4327572181e+02   1.8294164212e+01    0.1878015   0.08820491  64.21   0.00112665    1.797    0.443
        31  -9.0305    159.3366    245.6321   1.2560297087e+02   3.8170999695e+00    0.2209354    0.1526253  64.42  0.001382882    1.682    0.405
        32 -10.1218    126.0159    245.7181   1.3146986824e+02   9.0510832834e+00    0.1685871    0.1227033  49.32 0.0007745164    1.073    0.068
        33  -9.5635     44.7566    245.0912   1.4525253625e+02   2.0409009500e+01    0.3436738    0.1287922  47.49  0.002000994    1.967    0.492
        34  -8.4873    148.5828    244.7545   1.2738856216e+02   5.6543037585e+00    0.1387992    0.1101216 -81.05 0.0009446694    1.624    0.384
        35  -9.7403     91.4921    244.4692   1.3736827163e+02   1.4387882392e+01    0.4681252    0.1469247  57.01  0.001899923    3.606    0.723
        36  -9.6128     83.7164    244.4680   1.3870508955e+02   1.5481639772e+01    0.3567749      0.13937  49.37  0.001915995    1.937    0.484
        37 -10.1394    134.3731    245.4126   1.2996783372e+02   7.7991107827e+00    0.2469384    0.1585606  63.65  0.001324837    1.600    0.375
        38 -10.9370    109.1805    239.2550   1.3377792624e+02   1.2646383509e+01    0.4174378    0.1791551  63.06  0.001832992    3.138    0.681
        39 -10.7841    110.1151    243.7279   1.3405749856e+02   1.1783292904e+01    0.2824619    0.1420516  46.43  0.001471378    1.547    0.354
        40  -8.7883    145.0069    242.2640   1.2772660534e+02   6.5880141127e+00    0.1758865    0.1257282  46.28 0.0008753552    1.100    0.091
        41  -9.7905     73.3736    240.2021   1.4013599072e+02   1.7614097122e+01    0.4237139    0.1905653  53.62  0.002437146    1.728    0.421
        42  -9.8487     53.8517    240.2336   1.4344934503e+02   2.0135203342e+01    0.3744543    0.1702523  70.94  0.002114533    2.139    0.532
        43  -9.6513     32.2708    240.2620   1.4699693540e+02   2.2681989006e+01    0.3708442    0.1381968  80.52  0.001874225    2.993    0.666
        44 -11.1563    126.6908    240.9851   1.3084090887e+02   9.6774177841e+00    0.4913937     0.201581  55.76  0.002283517    2.543    0.607
        45  -9.5976     98.9957    241.5021   1.3579521486e+02   1.3792294361e+01    0.1807518   0.09049067  45.22  0.001033828    1.593    0.372
        46  -9.5052     37.9143    240.5737   1.4610024594e+02   2.1985591365e+01    0.2998622     0.115522  58.52  0.001024475    2.006    0.502
        47  -9.2492     31.6310    229.1740   1.4648371153e+02   2.4715890512e+01    0.2404186    0.1146928  65.38  0.001064877    1.665    0.400
        48 -10.6651    114.7161    242.7489   1.3315027095e+02   1.1244682040e+01    0.2331617    0.1528593  42.43  0.001125232    1.331    0.249
        49  -8.0936    172.7189    239.3551   1.2243728688e+02   2.5323267832e+00    0.1123696   0.08519845  67.73 0.0004047405    1.660    0.397
        50  -9.4612     82.6402    237.2824   1.3828739942e+02   1.6842930917e+01    0.3889956    0.1426035  56.73  0.001845924    2.546    0.607
        51  -8.8449    151.4752    238.0502   1.2605941427e+02   6.1715918494e+00    0.2362585     0.137341  53.31  0.001352909    1.563    0.360
        52  -9.5806     44.6578    237.2092   1.4478889757e+02   2.1780793100e+01     0.331211    0.1216921  60.52  0.001750767    2.329    0.571
        53 -10.3192    100.0601    247.2274   1.3613588919e+02   1.2708685047e+01    0.2923633    0.1497409  52.11  0.001637111    1.509    0.337
        54 -10.2570     94.6189    236.2542   1.3607825111e+02   1.5308405791e+01    0.5352507    0.1580587  42.53  0.002379386    2.710    0.631
        55 -10.1928     63.1202    232.5264   1.4131704232e+02   2.0308842448e+01    0.5379517    0.2488312  68.80  0.002912084    2.172    0.540
        56  -8.6347    141.9587    234.9816   1.2739942687e+02   8.1802070175e+00    0.1953865    0.1278943  66.93  0.001135387    1.752    0.429
        57  -9.2013    130.9198    234.8076   1.2938386853e+02   9.9841444372e+00    0.2347808    0.1344848  55.75  0.001103075    1.572    0.364
        58  -8.7419    164.8865    234.6202   1.2320355353e+02   4.4811826652e+00    0.1826583   0.09153372  49.92 0.0009448102    1.792    0.442
        59 -10.0700    102.8777    234.4166   1.3442149011e+02   1.4399014590e+01    0.3473743    0.1056711  46.30  0.001541452    2.545    0.607
        60 -10.9792    123.8475    231.7005   1.3031693684e+02   1.1613218947e+01    0.2664799    0.2077321 -73.42  0.001792867    1.478    0.323
        61  -9.2181    116.6380    232.3328   1.3170676584e+02   1.2643308702e+01    0.1882388    0.1159928  65.83  0.001089312    1.649    0.394
        62 -10.2632     22.3486    228.5571   1.4799432161e+02   2.5836622239e+01    0.4155665    0.1243955  42.61  0.002239097    2.593    0.614
        63  -9.7861     10.8807    231.8538   1.5001246526e+02   2.6425561481e+01    0.1853573     0.102186  54.40  0.001343642    1.386    0.279
        64  -9.6649      5.6290    230.0473   1.5076890924e+02   2.7261316893e+01    0.2402771    0.1315615  58.59  0.001661029    1.330    0.248
        65 -10.0641     10.2798    226.1456   1.4985268462e+02   2.7506956803e+01    0.2771736     0.112572  61.36  0.001444739    1.844    0.458
        66  -9.5970      5.9538    225.5214   1.5052489877e+02   2.8040764389e+01     0.212538    0.1506074  52.15  0.001338485    1.386    0.279
        67 -10.1706      3.6408    222.3206   1.5076145880e+02   2.8841229962e+01    0.3109355    0.1062418  64.34  0.001733773    2.318    0.569
        68  -8.6836    149.1071    230.6626   1.2555326395e+02   7.6791130881e+00    0.2026305    0.1266454  55.30 0.0008834813    1.497    0.332
        69  -9.4129     47.8666    229.9539   1.4377417311e+02   2.2685853361e+01    0.3150174    0.1352964  63.38  0.001744619    2.039    0.510
        70  -9.1172    135.5275    230.0252   1.2797136240e+02   1.0007961949e+01     0.273282    0.1179081  54.98  0.001244582    2.407    0.584
        71  -9.3112     39.1783    229.1376   1.4520706004e+02   2.3863923652e+01     0.392492    0.1046741  52.36  0.001875345    2.792    0.642
        72  -9.0410    104.0180    229.4926   1.3371300106e+02   1.5067978692e+01     0.186867   0.09613767  45.60  0.001030126    1.587    0.370
        73  -9.2260     81.5326    228.7496   1.3773515793e+02   1.8490058032e+01    0.2605145   0.09947956  52.14  0.001286314    2.153    0.536
        74  -8.9269     27.1563    232.1508   1.4739266266e+02   2.4674595497e+01    0.1877153   0.08413471  65.56  0.001037773    1.772    0.436
        75  -9.1853     93.9457    227.7160   1.3537924731e+02   1.6885095546e+01    0.2955643    0.1362533  41.48  0.001553366    1.909    0.476
        76 -10.0050     73.5286    223.8542   1.3875250515e+02   2.0486050555e+01    0.6002529    0.2079827  41.28  0.002866067    2.491    0.598
        77  -9.8157    110.2414    233.1623   1.3296078457e+02   1.3493999475e+01    0.2331778     0.117315  59.95  0.001218344    1.968    0.492
        78  -8.0829     33.6813    224.3054   1.4584735068e+02   2.5374601081e+01    0.1168371   0.05770446  66.06 0.0005159341    1.631    0.387
        79  -9.3119     53.9614    222.3640   1.4216388119e+02   2.3325576626e+01    0.3192996    0.1519025  52.00  0.001872259    1.667    0.400
        80  -9.5974     16.8462    223.4809   1.4864539781e+02   2.7332808036e+01    0.3185669    0.0686233  39.18  0.001499265    3.576    0.720
        81  -9.6243    134.8614    222.1599   1.2711383552e+02   1.1410500420e+01    0.1992527    0.1478078  62.58  0.001233321    1.278    0.218
        82  -8.8156     27.2202    225.2516   1.4700183423e+02   2.5915051867e+01     0.233034   0.06719435  54.87   0.00115632    2.650    0.623
        83  -9.3488     45.1070    221.0554   1.4364367167e+02   2.4652454858e+01    0.2688798     0.129445  54.68  0.001156865    1.638    0.390
        84  -8.7122     99.3252    221.6973   1.3376543124e+02   1.7153903303e+01    0.1272886   0.07604834  66.51 0.0002804031    1.639    0.390
        85  -8.8344     63.2735    221.1064   1.4038618537e+02   2.2367550987e+01    0.2354283    0.1018609  60.08  0.001214925    2.099    0.524
        86  -8.8061      8.3268    220.7938   1.4992689807e+02   2.8673296132e+01      0.24903   0.07568182  50.94  0.001386423    2.340    0.573
        87  -7.8474    116.0569    221.0000   1.3053009782e+02   1.4672925712e+01    0.2005839   0.05952257  41.88 0.0007500282    2.855    0.650
        88  -9.6188    248.5115    218.4741   1.0615726732e+02  -6.8926936585e+00    0.2224973    0.1063215 -29.89  0.001210422    2.164    0.538
        89  -8.5321    142.1977    219.3769   1.2536015633e+02   1.0647899222e+01    0.1911993   0.09648015  50.92 0.0009029887    1.763    0.433
        90  -9.5876    130.8038    218.6080   1.2742997439e+02   1.2686856439e+01    0.1842112   0.09707637  50.86 0.0006694736    1.639    0.390
        91  -8.0015    110.6658    218.7166   1.3128862613e+02   1.5933882319e+01    0.1106295   0.09505641  19.01 0.0004213589    1.618    0.382
        92  -9.0732     33.2157    216.3210   1.4542906000e+02   2.6919016876e+01    0.2430834     0.124455  72.34  0.001483986    1.648    0.393
        93  -8.7032     23.8504    217.0625   1.4711102353e+02   2.7796977490e+01    0.1766065    0.1031209  72.11 0.0008248602    1.298    0.230
        94  -9.4541     12.6160    216.4791   1.4900223844e+02   2.9054551599e+01     0.305923    0.1213236  51.94  0.001540031    1.921    0.479
        95  -9.6603    123.3726    216.3352   1.2856652141e+02   1.4310323128e+01    0.2558802    0.1330041  46.18  0.000999662    1.610    0.379
        96  -8.7504      6.4007    215.8719   1.5001909594e+02   2.9769016049e+01    0.2362349   0.09926814  61.06  0.001455778    1.808    0.447
        97  -9.8537    134.8447    213.2566   1.2594842555e+02   1.2936495805e+01    0.2141207    0.1377919  56.94   0.00118732    1.449    0.310
        98  -8.5189     44.5092    213.0174   1.4317400797e+02   2.6248296198e+01    0.2483596   0.08736326  53.44  0.001237304    2.334    0.572
        99  -9.4542      1.7973    212.2688   1.5062657299e+02   3.0871630087e+01    0.1854891    0.1010444  81.55 0.0009524864    1.355    0.262
       100  -8.9627     67.8451    211.6713   1.3871954771e+02   2.3549915794e+01    0.3352128    0.1060304  50.69  0.001486278    2.658    0.624
       101  -8.9620     57.3458    212.0772   1.4073035987e+02   2.4847705312e+01    0.2651072    0.1196019  50.36  0.001451589    1.818    0.450
       102  -9.0390     21.5462    210.9784   1.4716068734e+02   2.9194476572e+01    0.2142859    0.1043212  55.95  0.001049637    1.619    0.382
       103  -9.2135     12.2745    211.2534   1.4879346514e+02   3.0074240753e+01    0.2619094   0.05460669  50.72    0.0012144    3.217    0.689
       104  -9.1952     97.3365    210.5594   1.3292615649e+02   1.9512907638e+01    0.3009196    0.1096844  39.50  0.001299671    2.589    0.614
       105 -10.7728    241.1261    207.3060   1.0543532320e+02  -4.4198085125e+00     0.304457    0.1531865 -35.63  0.001616085    2.131    0.531
       106  -8.4966    108.7866    209.4218   1.3054957072e+02   1.7934045714e+01    0.1692811    0.1106474  36.33 0.0008113275    1.616    0.381
       107  -8.7538     35.2849    208.1051   1.4450819490e+02   2.8268239333e+01    0.2245255   0.09327288  59.42  0.001203273    2.059    0.514
       108  -8.7769     78.5400    207.3660   1.3624846438e+02   2.2905999809e+01    0.2863559    0.1112622  35.70  0.001252878    2.883    0.653
       109  -9.0048    229.1654    205.8059   1.0720047079e+02  -2.2901796430e+00    0.1798526    0.1286239  12.37  0.001081556    1.354    0.262
       110  -8.4655     50.6059    206.3594   1.4152434080e+02   2.6808825217e+01    0.2227179   0.05827228  49.39  0.000942892    3.048    0.672
       111  -8.4892     17.2423    206.3793   1.4765659078e+02   3.0520262593e+01     0.152678   0.07240757  51.88 0.0009421684    1.709    0.415
       112  -9.7654      5.6596    205.2517   1.4963551900e+02   3.1851895810e+01    0.2710617    0.1297964  58.40  0.001754666    1.624    0.384
       113  -7.8042     40.6579    205.3253   1.4331351545e+02   2.8201046530e+01    0.1261357   0.06386818  67.18 0.0006863705    1.734    0.423
       114  -9.6007     11.9863    203.8490   1.4844940446e+02   3.1527692434e+01    0.3012616     0.135047  64.61  0.001804638    1.805    0.446
       115  -8.6020     87.8194    204.1722   1.3408298645e+02   2.2181363856e+01    0.1579095    0.1440633  46.97  0.001073389    1.332    0.249
       116  -9.7927    249.5807    202.2856   1.0313492376e+02  -5.1324249475e+00    0.2158372    0.1073438 -34.31  0.001033899    2.077    0.519
       117  -8.2070     30.6766    202.2798   1.4495432652e+02   2.9925008798e+01    0.1188437   0.06232621  66.34 0.0003816739    1.589    0.371
       118  -7.9596     59.9843    202.0000   1.3934554770e+02   2.6491867746e+01    0.1824088   0.06017013  38.49 0.0007950863    2.892    0.654
       119  -9.0509    133.4947    200.4890   1.2442707633e+02   1.5463627204e+01    0.1314078    0.1145961  54.67 0.0002087613    1.031    0.030
       120  -9.9165      3.3914    197.0134   1.4962117130e+02   3.3662283873e+01    0.3339469    0.1411139  73.73  0.001916521    1.988    0.497
       121  -8.6000    230.6574    198.6853   1.0566473127e+02  -1.5928280069e+00     0.132788     0.085921  11.81 0.0005012744    1.708    0.415
       122  -8.5145    180.7253    198.1055   1.1470067804e+02   7.3498064215e+00    0.1751867     0.162072  19.47 0.0004752427    1.086    0.079
       123  -8.2837     23.2430    198.3777   1.4607425199e+02   3.1488746571e+01    0.1526696   0.07741973  52.52 0.0006333183    1.650    0.394
       124  -8.8026     13.6602    196.6298   1.4773738343e+02   3.2789486260e+01    0.2281712   0.09863651  66.00  0.001158489    1.975    0.494
       125  -8.4674     19.0290    194.8128   1.4663028147e+02   3.2630093713e+01    0.1889741   0.08223429  60.13 0.0009917304    1.944    0.486
       126  -9.9870    126.4051    193.7242   1.2488362549e+02   1.7977531303e+01     0.256454    0.1428886  52.23  0.001253692    1.653    0.395
       127 -10.8300    247.7533    191.5700   1.0145454107e+02  -3.4851087010e+00    0.3990861     0.217688  -6.86  0.001841428    2.500    0.600
       128  -8.3426     38.9684    193.4884   1.4271680230e+02   3.0779365300e+01    0.1676571   0.06551615  57.78 0.0007174351    2.356    0.576
       129  -9.7648    114.4861    192.4749   1.2717640735e+02   2.0263605502e+01    0.2817676    0.1179655  41.96  0.001215521    2.187    0.543
       130  -8.0279     28.6653    192.3190   1.4462844295e+02   3.2149136630e+01    0.1245866   0.06375391  67.82 0.0004593429    1.699    0.412
       131  -8.3785     11.1617    191.1654   1.4787678990e+02   3.4121683918e+01    0.1591715   0.09370454  70.39 0.0007508546    1.322    0.244
       132  -9.5282      2.8325    188.4223   1.4927122293e+02   3.5422250225e+01    0.2294566     0.130497  58.36 0.0009051099    1.454    0.312
       133  -8.9373    243.6590    187.6622   1.0139346519e+02  -2.2939426258e+00    0.1352696   0.08620885   8.85 0.0007050288    1.764    0.433
       134  -8.4126     23.0453    187.5432   1.4537410222e+02   3.3711230166e+01    0.1674691   0.05913807  56.07 0.0008087438    2.521    0.603
       135  -8.5535      9.4047    186.7989   1.4794647511e+02   3.5169050017e+01    0.1948401   0.09782671  51.04 0.0008743195    1.728    0.421
       136  -9.7366    249.5306    184.1581   9.9746680641e+01  -2.8033724226e+00    0.2873809    0.1630806 -15.46  0.001253101    1.941    0.485
       137  -8.2687    118.3158    185.3224   1.2532950543e+02   2.1040749858e+01    0.1251466    0.1085062  -4.86 0.0007041952    1.663    0.399
       138  -8.8109      4.8405    182.8389   1.4858024914e+02   3.6382669113e+01    0.1591783   0.09318579  72.34 0.0005525061    1.331    0.248
       139 -10.3276    243.5607    180.6619   1.0005561044e+02  -1.3262391365e+00    0.4196013    0.1815293  28.62  0.001695996    2.992    0.666
       140  -8.3578     16.2406    180.3835   1.4620847885e+02   3.5862044632e+01    0.1510553   0.08249699  52.18  0.000815514    1.630    0.387
       141  -9.4706      1.8081    177.2392   1.4883764224e+02   3.7791800915e+01    0.2556134    0.1108715  82.71  0.001420961    1.953    0.488
       142  -9.4931    122.1665    179.2011   1.2355426709e+02   2.1610362467e+01    0.2001372    0.1523764  71.96  0.001088681    1.346    0.257
       143  -9.9318    100.9890    175.9879   1.2769886894e+02   2.5904275042e+01    0.1937645    0.1674496  75.02  0.001171172    1.013    0.013
       144  -8.8860      9.3115    176.6741   1.4733166789e+02   3.7268781643e+01     0.120232   0.06149317  69.43 0.0004404759    1.661    0.398
       145  -9.1996      5.0275    174.0414   1.4801280637e+02   3.8188342946e+01    0.1867979   0.09418502  67.59 0.0009923382    1.684    0.406
       146  -9.2585     14.6701    170.6996   1.4583660826e+02   3.8053045551e+01    0.1043869   0.07752749 -57.19 0.0007031742    1.645    0.392
       147  -8.2625     22.6883    179.3695   1.4484752872e+02   3.5452921301e+01     0.127284   0.06453682  70.50 0.0007035842    1.770    0.435
       148  -8.9359     21.4383    169.2253   1.4431440545e+02   3.7739904395e+01    0.1685801   0.08665553  87.93  0.000937544    1.688    0.408
       149  -9.1968      5.6800    169.3588   1.4758155509e+02   3.9119062356e+01    0.1784125   0.09187505  67.81 0.0008162981    1.671    0.402
       150  -9.5967      2.1677    167.3350   1.4816376670e+02   3.9833932505e+01    0.2647171    0.1113048 -47.41  0.001195328    4.239    0.764
       151  -9.2213     19.4937    163.9834   1.4430049787e+02   3.9059866506e+01    0.1767787   0.07422855  79.67 0.0008105142    2.579    0.612
       152  -8.9882     14.6721    164.3123   1.4535543337e+02   3.9425991807e+01     0.122919   0.06594802  69.34 0.0004475991    1.667    0.400
       153  -9.6474    112.4751    181.3436   1.2598479256e+02   2.2856900512e+01    0.2460914    0.1170112  42.42   0.00109458    1.971    0.493
       154  -8.9931      9.5084    154.4603   1.4570129178e+02   4.2011984413e+01    0.1167153   0.08650123  87.63 0.0001541732    1.009    0.009
       155  -9.0249      3.6670    152.6781   1.4684498807e+02   4.2863188978e+01    0.1092111   0.07201455 -56.29 0.0005049827    1.702    0.413
       156  -9.0720    243.5795    138.2014   9.1142078487e+01   4.9168273006e+00    0.1983486    0.1220402 -20.96  0.000946781    1.685    0.406
