#   1 NUMBER                 Running object number                                     
#   2 MAG_AUTO               Kron-like elliptical aperture magnitude                    [mag]
#   3 X_IMAGE                Object position along x                                    [pixel]
#   4 Y_IMAGE                Object position along y                                    [pixel]
#   5 X_WORLD                Barycenter position along world x axis                     [deg]
#   6 Y_WORLD                Barycenter position along world y axis                     [deg]
#   7 A_WORLD                Profile RMS along major axis (world units)                 [deg]
#   8 B_WORLD                Profile RMS along minor axis (world units)                 [deg]
#   9 THETA_WORLD            Position angle (CCW/world-x)                               [deg]
#  10 FWHM_WORLD             FWHM assuming a gaussian core                              [deg]
#  11 ELONGATION             A_IMAGE/B_IMAGE                                           
#  12 ELLIPTICITY            1 - B_IMAGE/A_IMAGE                                       
         1  99.0000     30.8597     21.7330   4.9542985650e+01   7.1393018619e+01     1.049317    0.7878172 -48.10  0.004684484    1.658    0.397
         2 -14.4825     43.0185     74.5927   6.5379217032e+01   5.9020951203e+01     1.859702      1.66897  77.33   0.01019824    1.348    0.258
         3 -14.2370     10.4507     69.0392   8.0815097919e+01   6.3875653266e+01     2.803216     1.682182  -9.26   0.01344685    1.823    0.451
         4 -11.7479     64.1938     46.1040   4.5216834647e+01   6.1195956262e+01     1.379247    0.8840735 -37.31  0.004032244    1.637    0.389
         5 -12.8662     24.6305     39.4460   6.2400571060e+01   6.9188794695e+01     1.523249    0.6287617 -44.71  0.002575789    2.329    0.571
         6 -11.2921     78.7541      9.4773   2.3783524210e+01   6.2696831275e+01    0.3780826    0.2133766  52.13  0.001510483    1.537    0.349
         7 -13.6563     56.7212      4.0845   2.7301707198e+01   6.8289518796e+01    0.7152756    0.3898933  62.94 0.0009325578    1.677    0.404
         8 -11.5831     47.5709      2.1525   2.9436024611e+01   7.0483297812e+01    0.4260245    0.2970734  42.63  0.001543442    1.225    0.184
         9 -11.2886     50.9291     21.5676   3.9134991243e+01   6.7639346987e+01     2.114333     1.769426 -88.93   0.01191757    1.676    0.403
        10 -14.0846     12.2284     38.2167   7.0111567383e+01   7.0859256013e+01     1.405674     1.320005 -89.52  0.009000995    1.394    0.282
        11 -13.1584     78.1901     23.1912   3.0198910506e+01   6.1414584382e+01       1.3227    0.5193989  50.85  0.005454344    2.207    0.547
        12 -13.2704     46.3960     54.9779   5.6844104745e+01   6.2829924607e+01     1.951237    0.9134396 -27.09  0.006387648    3.838    0.739
        13 -11.4839    211.1499     21.1229   1.0914081339e+01   3.1388962948e+01    0.3847173    0.3561517  13.28  0.002914334    1.561    0.360
        14 -11.4572    202.9716     18.8077   1.0940553929e+01   3.3219479618e+01    0.5801402    0.4670267 -12.78  0.003953345    1.671    0.401
        15 -14.3377    199.5617     62.7852   2.1343061668e+01   2.8563246718e+01     1.888462     1.248487 -88.93  0.004696095    1.780    0.438
        16 -13.6323    193.8376     36.9897   1.5870090842e+01   3.3023032901e+01     1.324492    0.9009078 -35.73  0.008127592    1.391    0.281
        17 -12.5055    202.0536     33.0595   1.4242181527e+01   3.1837115643e+01    0.7830545    0.3893028 -54.54  0.003606485    1.761    0.432
        18 -13.1856    233.5630     48.0519   1.4996135429e+01   2.4255665123e+01     1.148126     0.992798 -35.24  0.006202423    1.284    0.221
        19 -12.5331    221.5661      8.4078   7.6379746384e+00   3.0731822728e+01    0.4929712     0.154204 -52.32  0.001419962    2.408    0.585
        20 -12.5417    199.6158     47.7619   1.7850399403e+01   3.0540212204e+01     1.016791     0.645181  14.79  0.004203339    3.812    0.738
        21 -12.8829    221.9299     38.7193   1.3936054535e+01   2.7414706304e+01    0.8563724    0.4287818 -77.59 0.0009915604    2.396    0.583
        22 -13.7215    243.5545      8.7297   6.7141798134e+00   2.6854215674e+01     1.072273      0.48227 -83.99  0.006578893    2.301    0.565
        23 -12.0179    232.9088      3.8616   6.2218756418e+00   2.9141036795e+01    0.5115678    0.2302651 -32.95  0.002903111    1.933    0.483
        24 -11.6016    178.0598     37.8287   1.7638924460e+01   3.6221194118e+01    0.5149291    0.3461969   8.79  0.002545018    2.756    0.637
        25 -12.5897    225.1128     23.4148   1.0530466323e+01   2.8553414294e+01    0.9471961    0.8176451   8.42  0.004399481    1.784    0.440
        26 -10.9825    171.5192     17.7800   1.3104991027e+01   3.9887709458e+01    0.3507393    0.2262246   1.93  0.001807588    2.657    0.624
        27 -10.8066    150.0337     13.0743   1.3841449809e+01   4.5209188400e+01    0.2104183    0.1617078 -63.12 0.0007442525    1.181    0.153
        28  -9.6099    141.3980     12.8040   1.4680653034e+01   4.7255160593e+01    0.2211134    0.1121846 -32.45  0.001109507    1.976    0.494
        29 -11.7378    115.8244     10.3818   1.7141281423e+01   5.3621193352e+01    0.3857163    0.2844331   8.78  0.001449151    1.802    0.445
        30  -9.1551    125.0362      9.4286   1.5553858874e+01   5.1471820612e+01    0.2744119    0.2011479 -87.97  0.001202484    1.259    0.206
        31 -10.5687    132.9897     11.4845   1.5241482468e+01   4.9375569862e+01    0.2460091    0.1578462 -66.23 0.0005976701    1.562    0.360
        32  -8.3747    131.0984      8.4858   1.4501979289e+01   5.0097074555e+01    0.3226036    0.2359743  79.15  0.001302643    1.208    0.172
        33  -9.6309     93.8362     11.8172   2.1462643570e+01   5.8853085851e+01    0.1911031    0.1508767  51.61 0.0002981056    1.190    0.160
        34 -10.4621     87.4997     11.3184   2.2582439492e+01   6.0432897212e+01    0.3521959    0.2267748  87.07  0.001803853    1.737    0.424
        35 -11.5120    193.5365      7.4339   8.9472136681e+00   3.6243827239e+01    0.2527689    0.2100833 -26.73   0.00181028    1.427    0.299
        36 -10.4593    109.0646     10.3934   1.8175729557e+01   5.5268028936e+01     0.261746    0.2270441 -57.06  0.001650668    1.201    0.167
        37 -12.7445    173.0874      6.7972   1.0145982155e+01   4.0610002487e+01    0.3779052    0.2716417 -15.63  0.001894881    1.772    0.436
        38 -13.1237     65.8910     16.0476   3.0599881220e+01   6.5048870017e+01     1.575372     1.111468  24.20  0.008596009    1.573    0.364
        39 -10.8158     26.4200      9.8692   4.4961768096e+01   7.3842099746e+01    0.2664931    0.1769268  17.15  0.001081454    1.555    0.357
        40  -9.2319    165.4351      8.4703   1.1165878754e+01   4.2139709752e+01    0.1221933   0.09990713 -70.88 9.710854e-05    1.022    0.022
        41  -8.8748    156.4820      7.4718   1.1640863830e+01   4.4246761239e+01    0.1269507    0.0996518 -70.64  5.38576e-06    1.098    0.089
        42  -9.9870     12.8586      7.4071   5.2894830104e+01   7.6345380307e+01    0.1605173    0.1250559  16.00 0.0004998341    1.089    0.082
        43 -11.0668      2.7340      6.1613   6.0882075284e+01   7.7837476536e+01    0.2646182    0.1826553   8.98 0.0008690067    1.287    0.223
        44  -9.7055    210.7868      5.9765   7.6650860062e+00   3.2980783689e+01    0.1404872    0.1305972 -56.57 0.0004267754    1.300    0.231
        45 -10.4747    146.4624      5.8343   1.2074493224e+01   4.6698424841e+01     0.214212    0.1450272  59.19   0.00125951    1.511    0.338
        46 -10.2603    120.7659      4.4849   1.4413738510e+01   5.2921892581e+01    0.3234486    0.1670728 -43.68  0.001078214    1.954    0.488
        47 -10.4783    111.5768      4.4782   1.5619795643e+01   5.5152972282e+01    0.2363289    0.1910418  67.16 0.0008670195    1.118    0.105
        48  -8.8089     97.6660      5.0335   1.7982621287e+01   5.8500761230e+01    0.1666773    0.1446855  82.17 0.0004929409    1.057    0.054
        49  -9.2040    183.4663      3.7380   8.6903607827e+00   3.8669575914e+01    0.2515042    0.1443733 -64.51 0.0007301789    1.501    0.334
        50 -10.0087    187.2369      1.5043   7.9315941102e+00   3.8083463858e+01    0.4289989    0.1430686  83.73  0.001939881    2.963    0.662
        51  -9.9121     93.3191      3.8374   1.8252787799e+01   5.9653511429e+01    0.1534478    0.1178309   6.39 0.0008953018    1.600    0.375
        52 -10.9214    217.1124      2.3608   6.6005480517e+00   3.2129345976e+01    0.3136989      0.16769  84.06  0.001987477    1.825    0.452
        53  -9.8350    207.2507      2.6639   7.1297879054e+00   3.3970429568e+01    0.1799976   0.08503158 -29.17  0.001000049    2.083    0.520
        54  -9.6674    143.3605      2.8833   1.1488149120e+01   4.7671791877e+01    0.1650217    0.1420583 -81.06 0.0002580655    1.027    0.027
        55  -8.9616    135.3210      2.3215   1.2085865506e+01   4.9609424207e+01    0.1248185   0.08542602  46.58 0.0007044942    1.672    0.402
        56 -12.1251     85.8939      1.3984   1.8582876290e+01   6.1639575216e+01    0.4381178    0.1111157  67.53  0.001197178    3.150    0.683
        57 -10.1122    250.2671      1.4656   5.1179971395e+00   2.6445545624e+01    0.1206177   0.07195979 -66.89 0.0002897798    1.346    0.257
        58 -11.7791    175.7641     85.6909   3.0067259318e+01   2.9859972551e+01    0.4937582    0.2964244  30.39  0.001263533    2.696    0.629
        59 -11.0698    181.0540     83.0187   2.8591378832e+01   2.9225040571e+01     0.282585     0.235309 -75.90 0.0009345744    1.276    0.217
        60 -11.7497    183.9221     69.0660   2.4764957795e+01   3.0780257462e+01    0.3477313    0.2858973 -73.02  0.001882547    1.212    0.175
        61 -11.4279    182.5863     63.2852   2.3514597926e+01   3.1893087402e+01    0.5827579    0.3394063 -72.47  0.002595986    2.241    0.554
        62 -14.2345     66.4498     83.0720   5.7844484522e+01   5.3287426322e+01     1.786383     1.360684 -18.29  0.007411125    1.539    0.350
        63 -12.1339     85.3433     73.2315   4.7654124301e+01   5.1749018029e+01    0.8309215     0.569799  53.65  0.002836737    1.543    0.352
        64 -10.6535     36.4012    248.7743   9.2128893534e+01   1.6669111812e+01    0.1536689    0.1066728 -60.48   0.00096162    1.711    0.415
        65 -11.3547    113.9496    245.8678   7.4207489784e+01   8.9634720930e+00    0.1981629     0.178409  35.15 0.0006527001    1.253    0.202
        66 -12.6192     71.0817     73.0837   5.2769395609e+01   5.4636056058e+01     1.288492    0.6882324  53.38  0.005046734    2.305    0.566
        67 -10.4281    180.6832    243.3717   6.0032020309e+01   1.9501332474e+00    0.1583152    0.1335814  35.36  0.001110707    1.695    0.410
        68 -10.7268     88.0381    238.9841   7.9369112640e+01   1.3170863037e+01    0.1576687    0.1292587  23.89 0.0005069828    1.026    0.025
        69  -9.9872     15.5644    238.4940   9.6342570671e+01   2.0572764141e+01    0.1171598   0.09983151  45.32 3.557486e-05    1.050    0.047
        70 -12.2778     10.7789     24.9517   6.5149477349e+01   7.3655287785e+01    0.8491509    0.4010032  19.40  0.003437129    2.126    0.530
        71  -9.6671    101.0985    176.0913   6.7652989617e+01   2.4883495993e+01     0.179702    0.1629648  53.61 -0.0006383859    1.205    0.170
        72  -9.5359    236.7044    145.9931   3.4078149655e+01   1.0091504322e+01    0.1671254    0.1172298 -32.15 0.0003739088    1.095    0.087
        73 -10.3166     96.9085    124.8239   5.8564214771e+01   3.7867853639e+01    0.2369514    0.2037247 -23.86  0.001183988    1.229    0.186
        74 -11.0566    181.7072    117.8077   3.6694430720e+01   2.3232618695e+01    0.4486021    0.2295429 -50.54  0.001993763    2.041    0.510
        75 -10.2588    203.7886    116.0187   3.2735099925e+01   1.9681588279e+01    0.3477473     0.183405  66.57  0.001490365    3.451    0.710
        76  -9.2343     73.0118    118.9957   6.5065675757e+01   4.3415959982e+01    0.1793651    0.1759439   1.38            0    1.019    0.019
        77 -13.3855     37.2642     54.5272   6.1329994330e+01   6.4346552686e+01     1.063691    0.7707611  31.70   0.00268728    1.361    0.265
        78 -11.0174     89.1399    114.2167   5.8424426216e+01   4.1828385081e+01    0.3588966    0.2244909  14.10  0.001389228    2.289    0.563
        79 -10.3697    249.7662     93.9896   2.2657695274e+01   1.5737876456e+01     0.243257    0.1366132 -46.25 0.0009247474    1.420    0.296
        80 -13.1005    192.2014     76.0909   2.5356661949e+01   2.8087023510e+01    0.5972375    0.5740488 -69.08  0.001647406    1.137    0.121
        81 -12.0450    185.3693     92.0633   3.0112524535e+01   2.6923741685e+01    0.3193592     0.249633 -49.88 0.0009825367    1.159    0.138
        82 -10.8564    167.7033     89.9033   3.2462205130e+01   3.0801037436e+01    0.3586456    0.2101595  61.87 0.0006061825    1.973    0.493
        83 -11.4712     96.4339     90.9788   4.9663612892e+01   4.5747044167e+01    0.5496086    0.3947795  51.46   0.00148451    1.456    0.313
        84 -12.0515      5.3726     88.3793   8.7235004413e+01   5.9213480981e+01    0.6666377    0.3697879  42.00  0.003060794    2.037    0.509
        85  -9.5341     79.5311     90.9950   5.5336122710e+01   4.9078503761e+01    0.2208204    0.1486326 -45.93 0.0004856736    1.480    0.324
        86 -11.6557    147.8569     83.4983   3.4468062383e+01   3.6103787308e+01    0.7907466    0.4355333 -49.68  0.003486893    1.835    0.455
        87 -12.2908     47.5369     85.5135   6.6543460618e+01   5.5749137108e+01    0.5842128    0.2776749  21.17  0.002180774    2.490    0.598
        88 -11.5660    238.0669     86.5106   2.2352545383e+01   1.8524269671e+01    0.3331945    0.2354117  66.14 0.0008852879    1.799    0.444
        89 -11.4497    231.5201     83.9389   2.2499695300e+01   1.9923523320e+01    0.3592206    0.2272785 -76.23  0.001545942    2.173    0.540
        90 -11.4369    222.4967     88.0000   2.4315428653e+01   2.0838289360e+01      0.27223    0.1805122  70.68  0.001647617    1.929    0.482
        91 -10.7979    225.8877     85.1573   2.3346170926e+01   2.0678018539e+01    0.2329382    0.1759993 -22.06  0.001039739    1.457    0.314
        92 -11.8536    161.7326     84.1761   3.2041626392e+01   3.3012912191e+01    0.7240342    0.4381904  44.31  0.003461586    1.887    0.470
        93 -12.2611    168.4920     79.5145   2.9683382208e+01   3.2360435439e+01    0.5595689    0.3730392 -46.11  0.001316032    1.372    0.271
        94 -11.3737    103.8799     75.6218   4.2652295242e+01   4.7297247777e+01    0.6103769    0.3924201 -11.64  0.002189507    2.684    0.627
        95 -10.9143     93.6199     43.1826   3.4125974880e+01   5.5166504440e+01    0.3864189    0.2763844  -8.74  0.001171199    1.844    0.458
        96 -12.3116     99.7812     79.5921   4.5125854167e+01   4.7411895786e+01    0.9307704    0.5225729 -56.87  0.003705439    2.211    0.548
        97 -11.4337     94.2910     60.8047   4.0463927782e+01   5.2159692839e+01    0.7227437    0.3377916 -46.40  0.002840759    2.307    0.566
        98 -11.0397     88.0078     46.2743   3.6950653175e+01   5.5994401942e+01    0.2991544    0.2539801  35.14 0.0002055105    1.186    0.157
        99 -11.0183     88.5929     58.2509   4.1301700644e+01   5.3878061284e+01     0.309679    0.2779374  84.13 0.0007299183    1.245    0.197
       100 -12.3438     96.1316     69.0173   4.2758856250e+01   5.0256208243e+01    0.7222913    0.4252287 -35.78  0.001641598    1.810    0.447
       101 -12.2531     87.8457     64.6956   4.3865895936e+01   5.2873812312e+01     0.914598    0.5966424  68.63  0.003927673    2.094    0.522
       102 -13.1745     80.0104     59.0528   4.4451382260e+01   5.5599729862e+01    0.8331975    0.4727607  38.12  0.003608774    1.817    0.450
       103 -11.8549     75.9505     52.0036   4.3175777398e+01   5.7722579377e+01    0.3159765     0.244835 -47.83 0.0003153623    1.402    0.287
       104 -12.7848     81.8009     40.6820   3.6631125987e+01   5.8257452681e+01    0.5895917    0.4172408  40.40  0.001998564    1.385    0.278
       105 -11.9029     75.4138     42.0438   3.9308217056e+01   5.9477898509e+01     0.431313    0.3437304 -38.16  0.001037636    1.338    0.252
       106 -10.1694     30.9561     85.2278   7.4134109592e+01   5.7925017454e+01    0.2634587     0.202543 -57.47 0.0007110761    1.246    0.197
       107  -9.8477    206.9166     85.7605   2.5683561142e+01   2.3878084049e+01    0.1435934    0.1064393  58.93 0.0008700682    1.582    0.368
       108 -12.4641     83.3187     83.9848   5.1855923362e+01   4.9908167335e+01    0.3186623    0.2663684  40.50 0.0004496778    1.188    0.158
       109 -10.9513    249.8522     82.5722   2.0461649951e+01   1.7253485650e+01    0.2789823    0.2103634 -22.85  0.001695962    1.450    0.310
       110 -13.3325    209.8465     76.9516   2.3379010125e+01   2.4636820956e+01     1.099114    0.4742839 -62.20 0.0003595091    4.323    0.769
       111  -9.1318    242.4832    112.4129   2.6966379868e+01   1.4218963522e+01    0.1158939   0.08976343 -36.97 7.334987e-05    1.016    0.016
       112 -11.3174     63.3808    111.2616   6.6748173815e+01   4.6909917053e+01    0.3657585    0.2137916  61.58   0.00134913    2.603    0.616
       113  -9.7726    174.2188    111.5058   3.6569424210e+01   2.5737582340e+01    0.1732919    0.1317397  31.03 0.0003713784    1.554    0.357
       114 -12.5918    184.0620     56.3412   2.1608142720e+01   3.2559453784e+01     1.298049    0.4795513 -51.47  0.005186843    2.841    0.648
       115 -10.5695     38.3858    110.2083   7.6393270413e+01   5.0545924133e+01    0.2117722    0.1417122 -78.76 0.0006757137    1.658    0.397
       116 -10.9825    196.0013    107.8743   3.2125502341e+01   2.2362000835e+01    0.3693323    0.2436713 -51.06  0.001952993    1.467    0.318
       117 -12.2510    209.1539     58.4922   1.9347385711e+01   2.7311980128e+01    0.5690668    0.2985217 -75.46    0.0027238    2.692    0.628
       118 -13.0048    243.3588     61.3503   1.6890703333e+01   2.0995247610e+01      1.04327    0.5851266  55.59  0.003694402    2.316    0.568
       119 -11.2401    191.7211    103.7017   3.1840802953e+01   2.3821516093e+01    0.5104293    0.1837101 -48.71  0.001916222    2.947    0.661
       120 -11.8799    161.9473    107.2430   3.7845544143e+01   2.8885992120e+01     0.558928    0.2547128 -54.09   0.00207344    2.784    0.641
       121 -11.6551    156.2167    104.6476   3.8336710149e+01   3.0512403784e+01    0.3257789    0.2370275  32.64  0.001636268    1.617    0.382
       122 -12.1692    210.6153     47.1812   1.6690478257e+01   2.8488509472e+01    0.8652933    0.4198579 -81.32   0.00365574    2.950    0.661
       123 -11.9067    215.1491     41.9336   1.5152003285e+01   2.8279543421e+01      0.28472     0.203674 -81.42 0.0008094873    1.396    0.284
       124  -9.1389    234.7115    108.6864   2.7131137379e+01   1.5893962629e+01    0.1126933   0.08254893 -14.69 0.0002397235    1.586    0.369
       125 -10.8180    217.7891    108.0096   2.9083763591e+01   1.8636046100e+01    0.1904613    0.1729127 -69.79  0.001321682    1.265    0.209
       126 -10.8665    152.9249    108.1773   3.9896669539e+01   3.0509121439e+01    0.2176218    0.1892392 -71.13 0.0004905924    1.279    0.218
       127 -12.9471    225.6131     60.1422   1.8143964708e+01   2.4117281203e+01    0.9343169      0.50736 -19.72  0.004002199    2.710    0.631
       128 -12.8230    218.1127     57.4792   1.8261277379e+01   2.5793742785e+01    0.7992416    0.4621427 -59.58  0.001889182    1.659    0.397
       129 -12.1109    114.5748     80.3682   4.1198354268e+01   4.4027006441e+01    0.5805921    0.4909678 -32.41  0.002407899    1.227    0.185
       130 -11.9113    222.4639     80.0659   2.2648610606e+01   2.1972700352e+01    0.3688689    0.2132265 -69.98  0.001926392    2.371    0.578
       131 -10.2979    233.0782     79.0400   2.1344156407e+01   2.0344237376e+01     0.276716    0.1432607  81.37  0.001373285    3.246    0.692
       132 -11.5759    203.7189     78.5792   2.4470600265e+01   2.5525815641e+01    0.2657209    0.2271548  67.17  0.001753969    1.344    0.256
       133 -11.4088    200.1472     75.6906   2.4251291426e+01   2.6618292030e+01    0.2821121    0.2485182 -44.02 0.0008524103    1.084    0.077
       134 -10.3399    176.0296     78.3726   2.8203890721e+01   3.0978305920e+01    0.1757772    0.1561882  80.25 0.0003528117    1.196    0.164
       135 -10.3008    161.7011     77.0611   3.0178455589e+01   3.4197800528e+01    0.3181064    0.1765567 -53.49  0.001435909    1.898    0.473
       136 -10.5941    155.6619     76.6013   3.1112845107e+01   3.5577682084e+01    0.3296776     0.245521 -89.97  0.001149759    1.607    0.378
       137 -11.5602    249.9254     75.0086   1.9002778166e+01   1.8230624097e+01    0.2448463    0.1490108 -38.68 0.0004691014    1.253    0.202
       138 -12.3868    227.9133     72.6242   2.0532664983e+01   2.2072128459e+01    0.4395702    0.2992969   7.76  0.002327058    2.941    0.660
       139 -11.1295    234.5142     71.0614   1.9586647267e+01   2.1180782743e+01     0.220364    0.1835709 -20.84 0.0009595858    1.407    0.289
       140 -10.9979    241.1794     71.7231   1.9119301359e+01   2.0015882000e+01    0.4673058    0.2253489 -49.45  0.002675302    1.716    0.417
       141 -12.0666    144.9440     67.8118   3.0630146404e+01   3.9386130173e+01    0.8639796    0.6542441  10.38  0.002567589    1.938    0.484
       142 -11.6101    154.1197     62.5560   2.7514488646e+01   3.8141005447e+01    0.7593765    0.4091108 -47.86  0.003097935    1.796    0.443
       143 -11.4544    143.2742     60.7559   2.8890168059e+01   4.0872869665e+01      1.70679    0.5189948  43.06  0.004291064    6.728    0.851
       144  99.0000    145.4104     53.6066   2.6413078166e+01   4.1444207670e+01     1.309932    0.5482178  49.18   0.00517656    2.619    0.618
       145 -11.8503    134.9295     72.3605   3.3955398747e+01   4.0899849071e+01    0.8823654    0.5422122  79.30  0.003707322    2.342    0.573
       146 -11.4637    123.9639     69.3567   3.5473678875e+01   4.3910676789e+01    0.5026702     0.334156 -68.27  0.001570055    1.985    0.496
       147 -13.9614    116.8233     62.2555   3.4898038410e+01   4.6756351804e+01      1.22608    0.7933358  39.96  0.002174177    1.718    0.418
       148 -10.8713    249.3916     68.2703   1.7751582867e+01   1.9174797888e+01    0.3106197    0.1716256 -32.09  0.001919233    1.597    0.374
       149 -12.6561     81.5281     49.5594   4.0291825777e+01   5.6923848902e+01     0.656186    0.5292099  21.23  0.002460469    1.379    0.275
       150 -11.2200      3.0111     48.2861   7.9952977448e+01   6.9362507235e+01    0.4481592    0.3247805 -84.70  0.001555628    1.716    0.417
       151 -12.6820      4.1898     56.7972   8.1509479152e+01   6.7283317850e+01    0.8161502    0.4133147 -39.61  0.002397643    1.781    0.439
       152 -10.8382      9.5120     55.4781   7.7836019618e+01   6.7234725150e+01    0.2940679    0.2031494 -13.67 0.0009838265    1.445    0.308
       153 -12.3260    128.1420     58.1181   3.1038731375e+01   4.4784683484e+01    0.4289852    0.2934561  42.74  0.002113296    1.610    0.379
       154  -9.6475    161.9518     47.6002   2.2179760907e+01   3.8513832398e+01    0.5281544    0.3419882 -85.08  0.002721212    1.748    0.428
       155 -10.9391    161.1419     58.1496   2.5182720283e+01   3.7227775821e+01     0.326122    0.2335142 -89.39  0.001130359    1.544    0.352
       156 -11.4841    160.0968     54.3709   2.4303978623e+01   3.7999773584e+01    0.6826407    0.3981352  69.31  0.003382486    1.789    0.441
       157 -10.0162    108.4424     55.4453   3.4674620743e+01   4.9817533385e+01    0.4838405    0.2220264 -48.22  0.001882226    2.454    0.593
       158 -10.5767    101.0580     54.0666   3.6122258201e+01   5.1756031032e+01    0.6597868    0.4891817  54.05  0.002711616    1.292    0.226
       159 -11.5076    174.8761     55.7244   2.2608597645e+01   3.4578636513e+01    0.3112937    0.2032025 -55.97 0.0006447874    1.454    0.312
       160 -10.0499    170.0726     56.3057   2.3403032830e+01   3.5531868219e+01    0.2313146    0.1851617 -85.36  0.001012273    1.259    0.206
       161 -11.3636     90.4380     51.1122   3.8073328946e+01   5.4671740190e+01    0.2414378    0.2124669  53.35 0.0007969532    1.087    0.080
       162 -10.8122    245.2673     50.1135   1.4552404529e+01   2.2064411950e+01    0.1993728    0.1470787 -67.48 0.0001778153    1.274    0.215
       163  -9.4484    250.4779     49.5074   1.4075981487e+01   2.1305517008e+01    0.1844235    0.1321155 -46.88   0.00123503    1.038    0.037
       164  -9.7826    248.0428     47.0000   1.3760308756e+01   2.1987648192e+01    0.1851594    0.1251118 -86.34  0.000489945    1.639    0.390
       165  -9.7906    167.5788     42.0183   1.9935742945e+01   3.7987281859e+01     0.248363    0.1318749 -45.60  0.001059963    1.703    0.413
       166 -12.2843    172.8850     44.6228   1.9978981777e+01   3.6491073392e+01    0.4944646    0.3757854  35.00  0.001528089    1.789    0.441
       167 -10.2410    210.1791    105.6640   2.9601896734e+01   2.0259544721e+01    0.2381399    0.2205059  41.92  0.001634556    1.300    0.231
       168 -13.9854    116.7790     92.9759   4.4351717319e+01   4.1058871758e+01      1.59435     0.855641 -64.86  0.004423985    3.380    0.704
       169 -10.4896    133.1187     39.9368   2.4329907049e+01   4.6200329906e+01    0.4674614    0.2962564  88.24  0.001821264    1.816    0.449
       170 -11.8524    143.5510     45.0715   2.4185020539e+01   4.3063319573e+01    0.6868098     0.359655  66.17  0.002078993    1.882    0.469
       171 -12.5928    148.9548     40.6342   2.2042097373e+01   4.2387160381e+01    0.5868698    0.3159694 -45.31  0.002805536    1.767    0.434
       172 -10.9706     41.0076     44.6942   5.5308424149e+01   6.5744876475e+01    0.4212586    0.2757324  47.43  0.002076804    1.723    0.419
       173 -10.6730     39.5479     39.6560   5.3817400667e+01   6.6924858605e+01    0.8535899    0.3974039  23.65  0.003207649    2.965    0.663
       174  -9.4072    120.5820     44.4592   2.8156153595e+01   4.8585706079e+01    0.3441668    0.1962256 -71.58  0.001375442    2.710    0.631
       175  -9.7383    125.6865     43.1230   2.6703342988e+01   4.7549934974e+01    0.2859306    0.1787333   4.55  0.001160195    3.028    0.670
       176 -10.9164    246.7951     41.9742   1.2876544075e+01   2.2773263357e+01    0.2715662    0.1447933 -58.42  0.001492637    1.618    0.382
       177  -9.5028    105.1769     43.3279   3.1186337371e+01   5.2421194862e+01    0.1964819    0.1256219  69.04 0.0009153289    1.638    0.389
       178 -10.2767    156.0108     41.3156   2.1242507701e+01   4.0677003103e+01    0.2548934    0.1587407 -57.48 0.0009519465    1.599    0.375
       179 -10.2166    100.2421     41.3848   3.1688399649e+01   5.3867821089e+01    0.2960037    0.2546118  10.86  0.001654988    1.361    0.265
       180 -10.3957    168.8144     36.2415   1.8246592644e+01   3.8428471910e+01    0.4554082    0.2262835  59.04   0.00169205    2.059    0.514
       181 -10.8986    169.3894     32.6294   1.7222134160e+01   3.8730592696e+01    0.4091757    0.2189507  75.53  0.002092193    1.871    0.465
       182 -11.3113    161.0164     40.5493   2.0363313143e+01   3.9638776703e+01    0.3483059     0.217848  48.50  0.001548161    1.865    0.464
       183 -11.8325    160.8788     36.4508   1.9247471917e+01   4.0177404852e+01    0.4082529     0.282414  54.41  0.002296446    1.575    0.365
       184 -10.0574    250.3095     36.9990   1.1711827814e+01   2.2774124291e+01     0.257263    0.1206755 -32.70 0.0007551558    1.858    0.462
       185 -10.2954    134.2757     35.6955   2.2791443163e+01   4.6462000338e+01    0.2392379    0.1708698 -64.94 0.0001750738    1.452    0.311
       186 -10.2866    131.2591     33.2252   2.2491607020e+01   4.7484555158e+01    0.3908119    0.1682293 -36.12  0.001688993    2.261    0.558
       187 -11.7411    122.5219     33.3077   2.4017830733e+01   4.9575270713e+01    0.4238048    0.2091407 -44.25  0.001132876    2.064    0.516
       188 -10.6478    123.2989     27.6664   2.1971739104e+01   5.0053091245e+01    0.4553746    0.2486812 -32.05   0.00185436    1.909    0.476
       189  99.0000    111.1525     32.6940   2.5991216417e+01   5.2398640646e+01    0.6983938    0.3645671  73.15  0.002777657    2.070    0.517
       190 -11.0068     92.2293     33.8884   3.0852030751e+01   5.6786804420e+01     0.321582    0.2342621  45.58  0.001385313    1.323    0.244
       191 -10.5721     74.9749     33.7612   3.5901252117e+01   6.0797237578e+01    0.2811469    0.2063252  56.75 0.0007570881    1.300    0.231
       192  -9.2697    239.7313     30.3983   1.1065218725e+01   2.5245175635e+01    0.3651872    0.1602402  70.52  0.002151625    2.562    0.610
       193  -9.4282     80.9829     30.4874   3.2588676031e+01   5.9865672290e+01    0.2040481    0.1278941  59.82 0.0006046302    1.509    0.338
       194 -11.3633     86.3239     28.5188   3.0229768111e+01   5.8866422788e+01    0.4407187    0.2361087  54.99   0.00108972    1.663    0.399
       195  -9.8092     90.4267     26.8277   2.8448680351e+01   5.8098459933e+01    0.1745359    0.1370911 -29.53  0.000971051    1.395    0.283
       196 -10.8997     99.6630     47.4261   3.4085642006e+01   5.3120582747e+01    0.3354308     0.232684  35.68  0.001149687    1.608    0.378
       197  -9.6826    162.8431     29.1344   1.7001979435e+01   4.0594725690e+01    0.1927385    0.1435839 -67.77 0.0004426371    1.233    0.189
       198 -10.8554    114.5856     27.9869   2.3629223061e+01   5.2128375835e+01    0.2278607    0.1635537  52.46 0.0004566846    1.357    0.263
       199 -10.1863    167.9119     26.4218   1.5726674003e+01   3.9764946074e+01    0.2367205    0.1438913 -54.41  0.001307335    1.501    0.334
       200  -9.2968    104.4219     27.3826   2.5429999698e+01   5.4664668680e+01    0.1341553    0.1202584  67.21 0.0001623428    1.021    0.021
       201 -10.7735     20.8511     25.1871   5.7918835231e+01   7.2363254621e+01    0.4172489    0.2801054  42.18  0.002280679    1.684    0.406
       202  -8.8775    159.3193     26.3167   1.6616675600e+01   4.1708513389e+01    0.1222943   0.09471118  38.95 0.0003710498    1.657    0.397
       203  -9.7897    144.6566     26.3239   1.8383842994e+01   4.5100563169e+01    0.2981589    0.1342653 -82.04  0.001086772    3.510    0.715
       204 -10.5340    148.4168     24.2104   1.7281889377e+01   4.4451582365e+01    0.2806928    0.2157784  35.05  0.001129838    1.676    0.403
       205 -10.9207    135.3465     24.9190   1.9212360706e+01   4.7461738418e+01    0.3158931    0.2402907  82.27  0.001520485    1.219    0.180
       206 -10.9651    234.3733     24.1867   1.0149230975e+01   2.6834843405e+01    0.2850897    0.2074405  80.95  0.001518663    1.510    0.338
       207  -9.1392    244.0161     18.0676   8.4588539026e+00   2.5840238513e+01    0.2925354    0.1154461 -52.43 0.0008986942    1.875    0.467
       208 -10.7912    247.1785     22.6071   9.1633113789e+00   2.4846073602e+01    0.1954056    0.1603778  71.89  0.001148338    1.562    0.360
       209 -11.4305    242.2026     22.6234   9.4202751851e+00   2.5668035710e+01    0.2745648    0.1750519  68.79  0.001255791    1.877    0.467
       210 -10.9063    239.2746     20.6559   9.1918438369e+00   2.6368193613e+01     0.208852     0.104913 -43.51 0.0006905552    1.457    0.314
       211 -12.4879    176.3287     23.4339   1.4133692402e+01   3.8244725479e+01    0.2747096    0.2582576  14.32 0.0002404717    1.412    0.292
       212  -9.2949    153.2943     25.2726   1.7009453210e+01   4.3203997454e+01    0.1188603   0.09431891  43.83 0.0002048047    1.520    0.342
       213 -10.5178    189.1121     22.9759   1.2927939083e+01   3.5582908422e+01      0.40459    0.2438025  60.92  0.002083333    1.828    0.453
       214 -10.9906    114.0641     23.5022   2.2121407934e+01   5.2757138487e+01    0.3194177    0.2305886  49.50 0.0005413293    1.393    0.282
       215  -9.6829    103.3611     19.2042   2.2522112611e+01   5.5818006659e+01    0.1966191    0.1576451 -34.83 0.0003213639    1.356    0.263
       216  -9.9368    102.7051     23.3145   2.4236093000e+01   5.5540732877e+01    0.1933002     0.157962 -36.29 0.0005454984    1.322    0.244
       217 -10.6773     98.6805     21.9622   2.4555882342e+01   5.6664542513e+01    0.3264621    0.2142039  55.90 0.0007846814    1.374    0.272
       218 -10.1383    119.4620     21.9232   2.0638361952e+01   5.1613768322e+01     0.240248    0.1672909 -84.82 0.0006178244    1.497    0.332
       219  -9.8559    123.9113     20.8303   1.9557468589e+01   5.0649238616e+01    0.1834211      0.16276  66.75  0.001139124    1.104    0.094
       220  -9.5985    163.4317     20.6302   1.4618558901e+01   4.1390506847e+01    0.1250558    0.1022989 -73.80 0.0001940356    1.058    0.055
       221  -9.9184    151.0116     20.5055   1.5894699016e+01   4.4241268158e+01     0.188242    0.1148841  76.27  0.001011663    1.528    0.346
       222 -10.8323    130.2710     19.2280   1.8095842987e+01   4.9279056396e+01    0.2321949    0.1770637  82.99 0.0003385287    1.197    0.165
       223 -10.1966     20.0938     19.2920   5.5122307461e+01   7.3467563589e+01    0.2203581    0.1786301 -64.13  0.001286853    1.885    0.470
       224  -9.9974     13.9811     19.0834   5.9491054880e+01   7.4335098364e+01    0.2876408    0.1844655  55.73  0.001366622    2.856    0.650
       225 -12.3994    141.0092     95.9861   3.9297167639e+01   3.5293542329e+01     1.394871    0.5346176 -53.07  0.004387536    3.594    0.722
       226 -10.4837    193.6256     17.4064   1.1264399635e+01   3.5239866814e+01    0.2586143    0.1421386 -56.71 0.0009314267    1.551    0.355
       227  -9.5696    121.9413     17.0502   1.8567694818e+01   5.1509602758e+01    0.2597994    0.1817284  49.48 0.0003856462    1.485    0.327
       228  -9.6703    125.0000     15.9525   1.7750615403e+01   5.0876174900e+01    0.1929399   0.07405033 -25.54  0.000474688    2.858    0.650
       229 -10.6303     93.7081     16.1575   2.3279368332e+01   5.8471062332e+01    0.3580029    0.1634078  52.37  0.001053108    1.948    0.487
       230 -10.0444    153.8337     15.9414   1.4278906719e+01   4.4052540003e+01    0.1809098    0.1631367  66.48 0.0009738379    1.221    0.181
       231 -13.9087    131.9108     98.0536   4.1948687214e+01   3.6820013865e+01      2.04602    0.9408152 -44.01  0.006913438    2.102    0.524
       232  -9.3710    159.9798     13.9478   1.3121168588e+01   4.2845016577e+01    0.1421868    0.1175443 -82.98            0    1.056    0.053
       233  -9.5519     11.0570     14.2524   5.8896996720e+01   7.5520876397e+01    0.1859933    0.1367052  -2.64 0.0002668368    1.261    0.207
       234  -9.7333     14.3497     13.3160   5.5692684265e+01   7.5237950244e+01    0.2017608    0.1129576  23.87 0.0006681944    1.699    0.411
       235 -10.3643    187.0078     12.9628   1.0678803775e+01   3.7054162955e+01     0.248689    0.1138029 -68.79 0.0009576736    2.217    0.549
       236 -12.5936    121.7993     88.1863   4.1661713395e+01   4.0931243330e+01    0.9001135    0.5092636 -63.92  0.002695994    2.754    0.637
       237 -12.6722    124.0987     84.6717   4.0062580644e+01   4.1104860771e+01    0.7018845    0.5629291 -20.81  0.002469027    1.436    0.304
       238 -12.9184     53.2634     69.4992   5.8964544660e+01   5.8607056811e+01     1.353649    0.8113939 -79.88  0.004506819    4.040    0.752
       239 -11.6327    132.9640     77.4926   3.5889642814e+01   4.0451664728e+01    0.4103067    0.2850519  62.70 0.0003231398    1.532    0.347
       240 -11.4770    134.0175     83.5305   3.7402307290e+01   3.9131057398e+01    0.5016311    0.3272957  85.21 0.0009127203    2.443    0.591
       241 -12.1825    137.0050     80.9974   3.6019877574e+01   3.8928442612e+01     0.550584    0.4116979 -81.67   0.00068084    1.694    0.410
       242 -11.3123    144.5344    103.2465   4.0437194554e+01   3.3164351004e+01     0.359981    0.3132457  11.63  0.001172152    1.329    0.248
       243 -10.7409    109.6150    104.1990   4.9484690667e+01   4.0181121637e+01     0.222547    0.1407374 -36.44 0.0009247728    1.676    0.403
       244 -12.2481     75.7590    103.6295   6.0255525821e+01   4.6782893254e+01    0.5092652    0.3249038 -84.13  0.001049244    2.769    0.639
       245 -10.4075    182.5119    103.0167   3.3147575049e+01   2.5648946732e+01    0.2203811    0.1201515 -38.53  0.001045417    1.630    0.387
       246 -10.6003    165.1330    102.1852   3.5992961105e+01   2.9173538187e+01    0.2627214    0.1954859 -51.83 0.0008484661    1.311    0.237
       247 -11.5573     96.1632    101.5804   5.2805051941e+01   4.3455621860e+01    0.4401729    0.1969126 -44.61  0.001607537    2.235    0.553
       248 -12.5797     60.5859     62.3005   5.3176677863e+01   5.8852272060e+01     1.277414     1.194121  51.89  0.005547628    1.164    0.141
       249  -9.9150    243.7832     99.6616   2.4355022526e+01   1.5832688933e+01    0.3426374    0.1692685 -20.67  0.001549248    3.220    0.689
       250 -11.7154    158.9638     99.0104   3.6371996975e+01   3.0991259344e+01    0.7011142    0.3320684  39.75 0.0003492653    2.639    0.621
       251 -12.3634    156.5672     95.7273   3.5998908518e+01   3.2077716551e+01    0.9204077     0.414643  46.14   0.00252268    2.420    0.587
       252 -10.9863     34.0500    100.3790   7.6204383049e+01   5.3648270933e+01    0.2727528    0.2149118 -73.66 0.0004644232    1.312    0.238
       253 -13.0253     86.3614     98.4867   5.5136763149e+01   4.6062526953e+01    0.7893672    0.4189039  32.33  0.003083592    2.057    0.514
       254 -10.3249     89.2918     93.9052   5.2835301271e+01   4.6537677717e+01     0.217577     0.207983 -71.60 0.0003565275    1.106    0.096
       255 -11.6277    225.7305     97.5695   2.5934360634e+01   1.8916006131e+01    0.3172419    0.1459551 -44.77  0.001019587    1.790    0.441
       256 -10.8289    170.3883     97.8288   3.3965984747e+01   2.8895509109e+01    0.3557733    0.2793257 -66.89  0.001569528    1.421    0.296
       257 -11.7565    102.1607     96.1413   4.9414980424e+01   4.3456807526e+01    0.4232697    0.2955226 -19.31  0.001326316    1.920    0.479
       258 -12.5320    106.7524     96.6182   4.8192797297e+01   4.2408362851e+01    0.5114152    0.3776776 -16.89   0.00153934    1.747    0.428
       259 -12.3437    108.0289     92.2719   4.6567901187e+01   4.3060663530e+01    0.6029754    0.3176591  51.16  0.002406326    2.018    0.504
       260 -12.5603     48.3181     95.7173   6.8941414390e+01   5.3089152324e+01    0.4406914    0.3888582  10.75  0.002342402    1.159    0.137
       261 -11.6422     11.9287     97.3355   8.5575458323e+01   5.6425057848e+01      0.36093    0.2697668 -56.55 0.0009952737    1.206    0.171
       262 -11.2080     13.5185     93.5567   8.4204628083e+01   5.7324136972e+01    0.2929432    0.1832287  11.50  0.001144915    1.717    0.418
       263 -11.7336    165.8703     65.9979   2.6572124509e+01   3.5032207445e+01    0.8175839    0.4870997  51.49  0.004077473    1.831    0.454
       264 -12.5782    177.1695     70.9374   2.6168638154e+01   3.1889805025e+01     1.274447    0.3281273 -45.55  0.002995832    3.667    0.727
       265 -11.1791    199.6081     94.6563   2.8637437211e+01   2.3840141700e+01    0.6369286    0.1842305 -42.65  0.002405966    2.883    0.653
       266 -13.6414    194.2435     86.1193   2.7429356157e+01   2.6168242535e+01    0.7190841    0.6546062  68.49  0.003962012    1.246    0.197
