#   1 NUMBER                 Running object number                                     
#   2 MAG_AUTO               Kron-like elliptical aperture magnitude                    [mag]
#   3 X_IMAGE                Object position along x                                    [pixel]
#   4 Y_IMAGE                Object position along y                                    [pixel]
#   5 X_WORLD                Barycenter position along world x axis                     [deg]
#   6 Y_WORLD                Barycenter position along world y axis                     [deg]
#   7 A_WORLD                Profile RMS along major axis (world units)                 [deg]
#   8 B_WORLD                Profile RMS along minor axis (world units)                 [deg]
#   9 THETA_WORLD            Position angle (CCW/world-x)                               [deg]
#  10 FWHM_WORLD             FWHM assuming a gaussian core                              [deg]
#  11 ELONGATION             A_IMAGE/B_IMAGE                                           
#  12 ELLIPTICITY            1 - B_IMAGE/A_IMAGE                                       
         1 -14.9419    162.1732     43.1130   2.9013295397e+02   6.3471412284e+00    0.0640751    0.0455796 -50.64   0.00345608    1.379    0.275
         2 -14.8539    175.6749     10.1652   2.8977751876e+02   6.6507043781e+00   0.08830724   0.05636946  16.26  0.007608689    1.723    0.420
         3 -12.0981    189.8438     14.5703   2.8963895804e+02   6.5172478672e+00   0.01890394   0.01167342 -57.24  0.001360223    1.569    0.363
         4 -11.1479    133.9414    244.9714   2.9167017342e+02   4.1661789614e+00  0.009535408  0.008624047 -43.43 0.0003541506    1.099    0.090
         5 -20.0834     76.2505    175.6330   2.9192791491e+02   5.3055595498e+00    0.8911903    0.3612255 -65.23   0.07136439    2.583    0.613
         6 -12.5726     22.5476    220.6527   2.9282157422e+02   5.0917472684e+00   0.01638779  0.009816495 -48.38  0.001374824    1.653    0.395
         7 -11.2740     23.6637    215.2373   2.9277637061e+02   5.1482959099e+00  0.009778669  0.007409204 -47.45 0.0005061885    1.309    0.236
         8 -10.5484     16.2749    249.7427   2.9306745758e+02   4.7895703832e+00  0.008522754   0.00565506 -58.11 0.0008723792    1.467    0.318
         9 -11.2167    130.3760    212.7560   2.9151941354e+02   4.5612038157e+00   0.01394046  0.009792364  83.84 0.0008739764    1.811    0.448
        10 -13.2044     11.4072    206.0305   2.9286434099e+02   5.3259101469e+00   0.02680914   0.01648329  17.24  0.002129963    1.783    0.439
        11  99.0000     23.7201    204.7402   2.9271325980e+02   5.2700390019e+00   0.02228964   0.01141142   2.25  0.001673436    3.339    0.701
        12 -13.1503    125.0860    242.3363   2.9175744124e+02   4.2480038055e+00   0.02804669  0.008708767 -61.35  0.002028895    3.065    0.674
        13 -11.5517    139.5870    200.4711   2.9133887396e+02   4.6506800734e+00   0.01555441   0.01260623  16.51  0.000785809    1.279    0.218
        14 -14.3432    173.2023    176.8926   2.9080680072e+02   4.7299394514e+00   0.03819965   0.02446813  38.44  0.003921413    1.561    0.360
        15 -13.6595    177.5002    170.9944   2.9072150065e+02   4.7735408087e+00   0.03046868   0.02254726 -71.93  0.003323329    1.425    0.298
        16 -12.1315    169.8433    195.3484   2.9095627950e+02   4.5349930497e+00   0.01474445   0.01247861 -80.16 0.0006043938    1.258    0.205
        17 -12.9812    180.6266    193.5908   2.9082036045e+02   4.4929213437e+00   0.02508486    0.0204175  88.57  0.001961543    1.386    0.278
        18 -13.7012    165.0372    188.5849   2.9097173360e+02   4.6414195722e+00   0.03631829   0.02234371  25.52  0.002410765    1.645    0.392
        19 -14.2667    174.8810    187.3880   2.9085007319e+02   4.5982817104e+00   0.06680968   0.01908297 -61.69  0.004645529    3.347    0.701
        20 -12.2098    170.4360    185.2378   2.9088891160e+02   4.6490227572e+00   0.02048608    0.0154064 -89.98  0.001302698    1.568    0.362
        21 -11.1524    146.0021    189.4824   2.9119856025e+02   4.7412408224e+00   0.01286059  0.008537799 -42.90 0.0007522581    1.550    0.355
        22 -11.8528    201.0338    163.5809   2.9040339715e+02   4.7231387798e+00    0.0289576   0.01911461 -71.21  0.002962093    1.625    0.384
        23 -13.8012    206.4796    178.2651   2.9042803335e+02   4.5210057815e+00   0.03039171   0.02619797  16.58  0.003531889    1.189    0.159
        24 -14.0892    203.4861    172.0585   2.9042566432e+02   4.6104552033e+00   0.09263882    0.0416081 -81.53  0.006004237    4.463    0.776
        25 -10.6666     24.9787    185.4757   2.9258390869e+02   5.4868049405e+00   0.01160844  0.008236406 -42.86 0.0003776806    1.439    0.305
        26 -10.7852    121.0572    183.9430   2.9145577616e+02   4.9499872031e+00   0.01279793  0.009776399  65.32 0.0009187687    1.519    0.342
        27 -11.5193    117.0805    180.9443   2.9148415426e+02   5.0078425000e+00   0.01752855   0.01372678  40.73   0.00112028    1.294    0.227
        28 -10.7317     31.0281    182.7334   2.9249709191e+02   5.4838464729e+00   0.01765463  0.009750256   7.54  0.001518165    2.453    0.592
        29 -10.9663     27.2733    179.9608   2.9252432268e+02   5.5377151885e+00   0.01997846   0.01182967 -21.12  0.001761674    2.399    0.583
        30 -12.2926    199.4397    179.2239   2.9051562106e+02   4.5507130363e+00   0.02268058    0.0134047  77.40  0.001916358    2.710    0.631
        31 -13.4900    195.6779    169.5706   2.9050155590e+02   4.6846525003e+00   0.02636203   0.02193677 -84.09 0.0009039252    1.308    0.236
        32 -14.6469    138.6262    171.4607   2.9117664766e+02   4.9933650713e+00   0.05395622   0.03922526  18.32  0.005853674    1.442    0.306
        33 -12.2844    149.4035    173.7923   2.9106515630e+02   4.9038601793e+00   0.01306285   0.01058492 -41.57 0.0006636198    1.248    0.198
        34 -14.0285    143.7897    168.3202   2.9109776146e+02   4.9999562914e+00   0.03582568   0.02245591  62.67  0.002805603    2.086    0.521
        35 -12.6001    193.6025    164.7572   2.9049686284e+02   4.7525956526e+00   0.01791226   0.01605777  20.16  0.001379211    1.129    0.114
        36 -11.9481     26.1482    173.5222   2.9249906917e+02   5.6190599705e+00   0.01325824   0.01253041 -80.99 0.0003510184    1.087    0.080
        37 -12.3316    126.0159    171.9960   2.9132664746e+02   5.0601413416e+00   0.01976199    0.0128652 -47.76  0.001875351    1.526    0.344
        38 -12.1597    122.5191    165.7959   2.9133029249e+02   5.1524295555e+00   0.02590085   0.01079003  46.17  0.001420134    2.788    0.641
        39 -11.8534    165.4110    171.9405   2.9086780756e+02   4.8326290408e+00   0.01352932  0.008720527  44.13  0.001369292    1.614    0.380
        40 -11.7196    138.8714    250.2913   2.9164457587e+02   4.0758459555e+00   0.01360566   0.01139107  -1.99  0.001570091    1.296    0.228
        41 -12.7511    229.8180    167.4936   2.9009224039e+02   4.5106076723e+00   0.01969772   0.01139548 -49.21  0.001914169    1.701    0.412
        42 -10.1595    151.0807    242.3056   2.9145498309e+02   4.0980178570e+00   0.01133118  0.008214084 -45.80  0.000741692    1.381    0.276
        43 -11.4338     17.8651    156.2633   2.9249274750e+02   5.8674273681e+00   0.02349621   0.01191901 -59.10  0.002157675    1.893    0.472
        44 -11.0958    192.6839    157.9786   2.9046694018e+02   4.8366521100e+00   0.01264569  0.009220638 -16.13  0.001322616    1.638    0.389
        45 -13.8393    162.5137    154.6681   2.9079813161e+02   5.0500794428e+00   0.03137941    0.0210221  75.95  0.002898169    2.004    0.501
        46 -14.6094    134.4128    146.6703   2.9107739162e+02   5.3058134352e+00   0.07278547   0.02821526 -73.64  0.004835757    4.010    0.751
        47 -14.7246    143.5683    143.7031   2.9095302148e+02   5.2872533060e+00   0.05193306   0.02987153 -89.65  0.004399946    2.665    0.625
        48 -10.5866     22.9745    156.0961   2.9243218835e+02   5.8399469306e+00  0.009710185  0.009561506  -1.29   0.00042304    1.018    0.017
        49  99.0000     12.8798    242.7247   2.9306528931e+02   4.8907162695e+00   0.02077252   0.00658099 -46.40  0.001437518    3.392    0.705
        50 -10.5260     28.6175    240.5799   2.9286938681e+02   4.8250722339e+00  0.006496434  0.006232884  75.30 7.144648e-05    1.080    0.074
        51 -12.7123    173.8657    148.5317   2.9062927532e+02   5.0555371501e+00   0.01836996   0.01499677  37.83  0.001552326    1.232    0.189
        52 -11.5885     27.2836    145.6718   2.9231978109e+02   5.9363135688e+00    0.0154324   0.01179672 -19.50 0.0006867857    1.494    0.331
        53 -14.3179    135.8077    128.0193   2.9094948384e+02   5.5144138755e+00    0.1227188   0.02351842 -66.18  0.005331744    8.845    0.887
        54 -11.1837     21.7191    239.3057   2.9294210141e+02   4.8796047828e+00  0.008912201  0.006651002 -44.56 0.0005856744    1.348    0.258
        55 -11.3428    173.1800    139.2314   2.9058153663e+02   5.1675330919e+00  0.009520322  0.007738525  61.28  0.001069729    1.359    0.264
        56 -10.6656      9.0418    137.5735   2.9248418714e+02   6.1354982252e+00   0.01469284   0.01019609 -21.37  0.001323866    1.747    0.428
        57 -13.0740    160.7943    128.0859   2.9065892047e+02   5.3688140654e+00   0.02153284   0.01701089 -88.80  0.002234442    1.441    0.306
        58 -12.2224    140.7645    120.5831   2.9084720795e+02   5.5720706750e+00   0.01974867   0.01008405  47.19  0.001264319    2.200    0.545
        59 -11.2779    131.2039    236.5704   2.9165190132e+02   4.2796422781e+00   0.01328468  0.008045635 -63.85 0.0004886616    1.657    0.396
        60 -11.1496    167.5086    112.5250   2.9048747064e+02   5.5105757642e+00   0.01565207  0.009133597  62.27  0.001375278    2.389    0.581
        61 -10.6909      7.6415    237.1835   2.9309334709e+02   4.9852906396e+00  0.006605491  0.004505107  45.76 0.0003690186    1.538    0.350
        62 -10.7964    205.3373    110.2383   2.9003349567e+02   5.3174831610e+00   0.01379698  0.009487102  17.28  0.001003508    1.555    0.357
        63 -10.3273     13.6202    233.2366   2.9300030776e+02   4.9967929464e+00  0.008843457  0.005760815 -48.99 0.0005995313    1.514    0.339
        64 -10.3065     29.9664    232.5491   2.9280594744e+02   4.9106902037e+00  0.009703587  0.006444254  27.82 0.0009404386    1.504    0.335
        65 -11.7821    138.9991    243.1416   2.9160044768e+02   4.1581943363e+00   0.02181727   0.01071115 -59.38  0.001422479    1.958    0.489
        66 -10.8006    133.4713    229.4662   2.9158314441e+02   4.3490928980e+00   0.01089932   0.01053639 -79.71 0.0006087817    1.055    0.052
        67  -9.7532     26.1785    227.7619   2.9282157700e+02   4.9881705989e+00  0.005701615  0.004785592  80.39 0.0006326344    1.333    0.250
        68 -11.1686     16.7889    225.6645   2.9291841900e+02   5.0666144717e+00  0.006675676  0.004630296 -39.83 0.0002828126    1.512    0.339
        69 -10.5865    143.9393     80.6830   2.9057100648e+02   6.0169895029e+00  0.009358196  0.008541061  31.13 0.0004495203    1.101    0.092
        70 -14.4372    150.7998     57.6634   2.9035289204e+02   6.2443612689e+00   0.05642181   0.04615787 -30.84 0.0009440474    1.292    0.226
        71 -11.2882    167.0827    249.1415   2.9130976244e+02   3.9259897392e+00   0.01080191  0.008898926 -30.61  0.001233445    1.280    0.219
        72 -13.1700    165.9209     34.7541   2.9003904663e+02   6.4223210040e+00   0.02012995   0.01905826   2.49 0.0008782735    1.073    0.068
        73 -10.9535     13.5338     59.9879   2.9196832211e+02   7.0110978490e+00   0.01214613  0.008747727  45.94 0.0004494708    1.452    0.311
        74 -10.4165    144.8925     34.1009   2.9028021035e+02   6.5519957513e+00  0.009984517  0.008604543  57.63 0.0002978277    1.238    0.192
        75 -10.0457    133.5040    249.1250   2.9170002946e+02   4.1204369222e+00   0.00873142  0.006496205 -63.21 0.0003181725    1.340    0.254
