#   1 NUMBER                 Running object number                                     
#   2 MAG_AUTO               Kron-like elliptical aperture magnitude                    [mag]
#   3 X_IMAGE                Object position along x                                    [pixel]
#   4 Y_IMAGE                Object position along y                                    [pixel]
#   5 X_WORLD                Barycenter position along world x axis                     [deg]
#   6 Y_WORLD                Barycenter position along world y axis                     [deg]
#   7 A_WORLD                Profile RMS along major axis (world units)                 [deg]
#   8 B_WORLD                Profile RMS along minor axis (world units)                 [deg]
#   9 THETA_WORLD            Position angle (CCW/world-x)                               [deg]
#  10 FWHM_WORLD             FWHM assuming a gaussian core                              [deg]
#  11 ELONGATION             A_IMAGE/B_IMAGE                                           
#  12 ELLIPTICITY            1 - B_IMAGE/A_IMAGE                                       
         1 -12.6859     10.2326     49.6702   1.1703289390e+02   6.4349133526e+01     1.330693    0.4077832 -55.51   0.00630853    2.219    0.549
         2 -10.7998     18.2887     25.5399   1.0673187581e+02   6.8855135710e+01    0.4213174    0.2754614 -18.28 0.0007002109    1.751    0.429
         3  -9.3366     37.8607     15.6976   9.3411910475e+01   6.8775933888e+01    0.2547302     0.132737 -38.67 0.0002850964    1.569    0.363
         4 -10.5434     33.1271     12.7878   9.4242079167e+01   6.9828370257e+01    0.5741633    0.2019835 -38.72  0.002249799    2.409    0.585
         5  -9.5851     28.6458     13.8048   9.6898593864e+01   7.0135516332e+01    0.2048023     0.159313 -25.01 0.0006048974    1.115    0.103
         6  -9.8567     10.9919      5.9616   1.0245769334e+02   7.3134608273e+01    0.4961433     0.146112 -39.38 0.0003367879    2.893    0.654
         7 -11.7402     36.7064      4.4355   8.8197604236e+01   7.0767524309e+01    0.7513281    0.6533147  54.08  0.003826824    1.757    0.431
         8 -10.5195     10.7418     10.3461   1.0457482178e+02   7.2351774357e+01    0.4079315    0.1843382 -36.48 0.0008776961    1.920    0.479
         9 -11.3161     12.4241     18.5280   1.0701053259e+02   7.0673683224e+01    0.6456744    0.3233444  31.15  0.003743245    2.508    0.601
        10 -11.2647     16.5026      5.9272   9.9393375319e+01   7.2687356956e+01    0.5093618    0.4052626 -10.51    0.0037178    1.266    0.210
        11 -10.6816     15.6484     14.3206   1.0367955439e+02   7.1233843060e+01    0.2532037    0.1907008 -45.00 0.0003174885    1.073    0.068
        12  -9.7800     16.4953     10.0785   1.0137042045e+02   7.1947417478e+01    0.2194006     0.158219 -32.25 0.0006273666    1.129    0.114
        13  -9.5103     23.9434     11.6969   9.8254675866e+01   7.0982249699e+01    0.2331697    0.1355557 -28.12 0.0003831281    1.623    0.384
        14 -11.4233      2.9547      7.3754   1.0762297282e+02   7.3429552136e+01    0.4126783     0.173833 -42.05   0.00124857    1.790    0.441
        15 -10.2500     31.4158      5.6761   9.1459762288e+01   7.1213034609e+01     0.224187    0.1872089 -30.22  0.000403773    1.158    0.137
        16  -7.9232     61.3892      9.2757   8.0144573448e+01   6.6441794623e+01    0.1338652   0.08876299   8.43 0.0006996411    1.728    0.421
        17 -10.1369     53.0973      5.3307   8.1356456904e+01   6.8326493877e+01    0.3863775    0.3425095   3.44  0.002411714    1.158    0.137
        18  -8.9936     50.3670     13.5903   8.6837890093e+01   6.7488548428e+01     0.227444    0.1304114 -32.88 0.0004653473    1.487    0.327
        19  -8.8140     74.6663      5.3863   7.3302713777e+01   6.4606629033e+01    0.3448887    0.2122596 -53.32  0.001612489    2.560    0.609
        20  -7.8071     64.3414      5.2687   7.6895631270e+01   6.6490807581e+01    0.1310806   0.08811104  11.44  0.000256441    1.605    0.377
        21  -8.9565     59.2453      3.7249   7.7997307957e+01   6.7559030741e+01    0.1731303    0.1260063  -2.17 0.0004484545    1.302    0.232
        22  -8.4114     62.7918      1.3333   7.5316726552e+01   6.7262070561e+01    0.1633802    0.1063438  33.36 0.0002561213    1.549    0.355
        23 -10.3394     68.4108    240.3123   1.2479229661e+02   1.9995357024e+01    0.1798911    0.1400015  57.59  0.000427623    1.202    0.168
        24 -14.8962    241.4693     36.3261   5.3655520421e+01   1.9967756768e+01      14.6502     3.387721 -22.64   0.03998587    4.880    0.795
        25 -12.1133    202.5981    215.1676   9.9858299070e+01   3.6727345727e+00     1.050202    0.6438465   3.80  0.005886225    2.374    0.579
        26 -13.2959    208.3110    200.4426   9.6638114125e+01   4.4762551480e+00     2.833518    0.9347482 -27.25   0.01018049    5.385    0.814
        27 -11.8692    230.1721    234.0442   9.8210926278e+01  -2.5135653068e+00    0.3140079    0.2489352  -8.45  0.001361141    1.391    0.281
        28 -13.8206    224.3300    221.0214   9.7224216479e+01  -3.7551511703e-01     1.690391    0.9479362  36.73   0.01073041    1.386    0.279
        29 -12.0457    235.8725    227.0502   9.6328002045e+01  -2.6972779144e+00     0.377706    0.2696495 -12.71  0.001068378    1.503    0.335
        30 -12.1766    238.3185    217.8800   9.4564036624e+01  -2.1880632116e+00    0.4750356    0.3176234 -14.53  0.001088363    1.586    0.369
        31 -13.3292    243.5035    148.6036   8.1120880629e+01   4.7199073347e+00     2.385589     1.117835  -3.68  0.007706556    4.925    0.797
        32 -13.3323    234.9304    170.8584   8.6978194340e+01   3.4987524390e+00     1.838377      0.79452 -16.49   0.00731274    3.512    0.715
        33 -13.6706    226.2080    198.1600   9.3305232270e+01   1.7771238207e+00     2.707006     1.174791  21.68     0.010291    4.173    0.760
        34 -14.0029    223.8830    183.2254   9.1096359280e+01   3.9170476242e+00     2.713178    0.8544532 -32.68   0.01121747    3.470    0.712
        35 -14.4294    247.6684    218.5941   9.3245678070e+01  -3.6452904394e+00     2.913381    0.5616561 -28.15   0.01043734    6.547    0.847
        36 -13.7814    245.7732    163.0381   8.3710727159e+01   2.5422931042e+00     2.240293    0.7448505 -21.47   0.00780912    4.334    0.769
        37 -14.4136    242.7052    198.1303   9.0668205690e+01  -8.7643562761e-01     2.315554    0.9412833 -15.63  0.009690783    3.942    0.746
        38 -12.7704    248.6235    202.5202   9.0493493231e+01  -2.2460146153e+00    0.7937943    0.3687142  -9.41  0.003796882    3.095    0.677
        39  -8.7281    184.1008    250.0780   1.0739454486e+02   2.6669704043e+00    0.1536382    0.1099818  29.49 0.0005161577    1.224    0.183
        40 -11.8754    140.3772    246.7029   1.1390595645e+02   9.4335328837e+00    0.4079147    0.2712405  22.40 0.0004339939    2.104    0.525
        41 -10.4008    148.6506    238.4156   1.1172316195e+02   9.2601559048e+00    0.2353071    0.2027581  24.89 0.0001830748    1.353    0.261
        42  -9.8049    152.8302    233.2466   1.1046898203e+02   9.2893204143e+00    0.1932296     0.173515  28.68 0.0003780219    1.266    0.210
        43  -9.4997    165.6875    220.5133   1.0678255131e+02   8.9377980693e+00     0.209305    0.1639636  28.11 0.0002714477    1.268    0.212
        44  -9.5012    152.6031    228.0271   1.0990767710e+02   1.0000671514e+01     0.207868    0.1819236  13.75 0.0008059758    1.408    0.290
        45  -9.6214    155.2803    223.6024   1.0893146448e+02   1.0170910397e+01    0.1961877    0.1799077  39.80 0.0005564584    1.187    0.158
        46  -9.9825    158.3779    229.5761   1.0912651430e+02   8.9109978670e+00    0.2275342    0.1883744  17.32 0.0008084073    1.429    0.300
        47 -10.7923    163.2141    225.3305   1.0780613723e+02   8.7044584767e+00    0.3070275    0.2440003  59.84  0.001407555    1.309    0.236
        48 -10.3783    151.6845    250.0535   1.1245572881e+02   7.3947339050e+00    0.4054519    0.1731205  52.49  0.001118211    2.123    0.529
        49 -10.6128    156.8219    246.1193   1.1123533701e+02   7.1104905035e+00    0.2174768    0.1901321  26.33 0.0004093836    1.303    0.233
        50 -11.4067    159.1433    235.9130   1.0973657831e+02   7.9977393724e+00    0.3230263    0.2239784  30.05 0.0009317157    1.436    0.303
        51 -10.0850    151.8530    244.8298   1.1188924302e+02   7.9939209182e+00    0.2963557    0.1683797  39.13  0.001317861    1.403    0.287
        52  -9.6520    155.0563    241.1530   1.1098303986e+02   7.9675161560e+00    0.1910495    0.1643325  18.21 0.0004029996    1.401    0.286
        53  -8.9504    101.6544    250.6331   1.2034026478e+02   1.4297184108e+01    0.1826551   0.07510473  41.03 0.0006027809    1.974    0.493
        54  -9.8071     87.4921    249.7104   1.2246196902e+02   1.6266396619e+01    0.1847763    0.1399726  49.98 0.0006086678    1.229    0.187
        55 -10.5005     93.0560    244.7088   1.2123131603e+02   1.6244158257e+01    0.2477222    0.1749892  36.55 0.0006182197    1.587    0.370
        56  -9.2645     72.7211    250.4954   1.2477240566e+02   1.7999377045e+01      0.16426   0.09202353  42.78 0.0006539332    1.535    0.349
        57 -10.0288     61.3773    248.8942   1.2639171977e+02   1.9582741753e+01    0.1799032    0.1608564  67.55 0.0007800204    1.475    0.322
        58 -10.0571     46.9011    250.4014   1.2862814592e+02   2.1016188906e+01    0.1929145    0.1001913  42.07 0.0007071911    1.702    0.412
        59  -9.6656     16.2084    249.2467   1.3300848373e+02   2.4376507014e+01    0.1587165    0.1344961  59.32 0.0008388061    1.548    0.354
        60  -9.5334      8.4784    248.5834   1.3407186821e+02   2.5211689947e+01    0.1609319    0.1231663  82.57 0.0007993038    1.390    0.281
        61  -8.0250      1.4804    250.5456   1.3509596716e+02   2.5571383169e+01   0.08943222   0.05618186  65.59 4.745837e-05    1.029    0.029
        62  -9.3166     35.1776    240.4596   1.2989611977e+02   2.3757274462e+01    0.1495226    0.1293607  73.16 0.0006762352    1.458    0.314
        63 -10.3741    219.7974    238.7092   1.0044552191e+02  -1.4355016229e+00    0.1991541     0.155421   3.96 0.0006107379    1.321    0.243
        64  -9.2495     61.9888    239.3793   1.2573648834e+02   2.0906031608e+01    0.1476542    0.1270978 -81.81 0.0006083677    1.513    0.339
        65  -9.2747    112.1891    237.9871   1.1761710810e+02   1.4596773248e+01    0.1482287    0.1218619  42.06 0.0005714861    1.307    0.235
        66 -10.2628     90.9659    235.9583   1.2089017478e+02   1.7776228983e+01    0.2036362    0.1888043  39.00  0.000456094    1.525    0.344
        67 -10.2673     25.0111    240.0278   1.3139105871e+02   2.4876415229e+01    0.2093208    0.1649872 -63.38  0.001231014    1.978    0.494
        68  -9.3840     41.4723    236.9460   1.2877206784e+02   2.3614757092e+01    0.1591961    0.1412295  89.88 0.0008379447    1.546    0.353
        69  -9.9967     77.8442    235.8285   1.2299451274e+02   1.9493486696e+01     0.201254    0.1553554  59.30 0.0004651681    1.127    0.112
        70  -9.1412      3.2852    235.7474   1.3441510302e+02   2.7617569827e+01    0.1404049    0.1154455 -62.78  0.001084369    2.030    0.507
        71  -9.5066    108.2195    233.3791   1.1785413326e+02   1.5805380980e+01    0.1706508    0.1488534  37.30 0.0006349866    1.414    0.293
        72  -9.4072      9.4753    239.3991   1.3363760546e+02   2.6487791307e+01    0.1606357    0.1361061  65.16  0.001082295    1.500    0.333
        73  -9.7634    165.7558    232.5261   1.0825872278e+02   7.4071856288e+00    0.1961928    0.1547538  41.10 0.0004733508    1.042    0.040
        74 -10.3083    145.3825    231.2556   1.1147887821e+02   1.0676175896e+01    0.2215569    0.1809287  38.83 0.0005270815    1.174    0.148
        75  -9.6475    143.7194    226.3469   1.1120751646e+02   1.1588148286e+01    0.1957485    0.1568974  38.40  0.000296058    1.185    0.156
        76  -9.6355     84.9103    231.7841   1.2154932094e+02   1.9193888740e+01    0.1812792    0.1684356  45.49 0.0005877186    1.498    0.333
        77  -9.9210     35.4786    230.9886   1.2939823865e+02   2.5186588541e+01    0.2382082    0.1883481 -46.57  0.001508462    2.392    0.582
        78 -10.1361    123.3624    231.0703   1.1512594852e+02   1.3973588047e+01    0.2650111    0.1910184  28.52 0.0007326819    1.696    0.410
        79 -10.0103    100.3449    230.6688   1.1891592550e+02   1.7292807571e+01    0.2049817    0.1818146  47.28 0.0006329145    1.347    0.258
        80 -10.6767     54.6962    231.1064   1.2638298153e+02   2.3028577482e+01    0.2451938    0.1720219  37.17 0.0007294971    1.705    0.413
        81  -9.0642      9.6640    231.7875   1.3335124785e+02   2.7643192061e+01    0.1438073    0.1029552  51.66  0.000715435    1.381    0.276
        82 -10.3694    113.2440    228.2566   1.1654372170e+02   1.5838562680e+01    0.2028534    0.1817818  57.39 0.0003227657    1.236    0.191
        83  -9.3127     44.6368    229.6464   1.2789407715e+02   2.4401475036e+01    0.1569189    0.1492349  88.95 0.0007064746    1.652    0.395
        84  -8.9723    130.0204    229.0007   1.1380192052e+02   1.3285494498e+01    0.1547802    0.1205006  26.05 0.0005134047    1.582    0.368
        85  -9.4433     92.6957    228.1212   1.1996893484e+02   1.8716498310e+01    0.1792718    0.1421251  45.07 0.0004534882    1.312    0.238
        86  -9.3741     78.9286    228.4297   1.2227411726e+02   2.0481342091e+01    0.1615247    0.1366893  89.69 0.0005848387    1.326    0.246
        87  -8.5985     29.6796    229.0155   1.3020270832e+02   2.6107478020e+01    0.1328302   0.09498093  74.69 0.0007192479    1.126    0.112
        88  -9.2798    107.0301    228.1844   1.1757924617e+02   1.6731224370e+01    0.1557477    0.1231785  42.59 0.0004677721    1.295    0.228
        89  -9.3163    109.7581    224.0719   1.1673107051e+02   1.6957543680e+01    0.1888673    0.1438306  48.81 0.0005825655    1.138    0.121
        90  -9.8804     67.9644    227.1218   1.2398046202e+02   2.2065352995e+01    0.2214473    0.1404059  45.86 0.0004347997    1.377    0.274
        91  -9.5713     19.7857    227.5494   1.3166297993e+02   2.7340377857e+01    0.1554568    0.1369456 -79.94 0.0008591354    1.659    0.397
        92  -9.2725      1.6095    227.3151   1.3439776423e+02   2.9084758495e+01    0.1439851   0.09239527  81.01 0.0005872849    1.208    0.172
        93  -9.7062    129.3351    224.0471   1.1339352557e+02   1.4089625033e+01    0.2028403    0.1473918  40.19  0.000524246    1.257    0.204
        94  -9.3599    120.4713    224.9631   1.1499782793e+02   1.5272391011e+01    0.1872205    0.1323835  36.57 0.0005415811    1.432    0.302
        95  -7.9798     89.3313    225.2915   1.2029430534e+02   1.9602599443e+01   0.09207795   0.08027319  28.65 0.0004229704    1.629    0.386
        96  -9.5763      8.0164    225.1887   1.3336548419e+02   2.8841322569e+01    0.2319447    0.1007267  44.09  0.001105385    1.856    0.461
        97  -9.4858    135.5031    223.1653   1.1224487871e+02   1.3283669441e+01    0.1892765     0.154305  28.89 0.0007177667    1.404    0.288
        98  -9.0838    104.1959    224.0508   1.1767443074e+02   1.7750300664e+01    0.1497494     0.131097  49.57 0.0005964699    1.276    0.216
        99 -10.0429     49.7072    222.5101   1.2666611842e+02   2.4972833130e+01    0.1862546       0.1644  63.27 0.0006180445    1.412    0.292
       100 -10.2327    148.4189    220.9958   1.0978575065e+02   1.1595765155e+01    0.2307519    0.2054103 -14.47 0.0007430964    1.509    0.337
       101  -9.5702     97.8237    222.1194   1.1858143050e+02   1.8936936871e+01    0.1705312    0.1482843  49.37 0.0004158615    1.294    0.227
       102  -8.6291     82.6227    222.9545   1.2123025163e+02   2.0857478818e+01    0.1405521    0.1113303  69.79  0.000506232    1.105    0.095
       103  -8.9452    114.8992    221.8178   1.1563063077e+02   1.6553597475e+01    0.1583734    0.1297111  43.22 0.0005293983    1.247    0.198
       104  -8.8988     74.1487    222.2044   1.2259624747e+02   2.2071388697e+01    0.1458564    0.1179177  58.88 0.0004576663    1.188    0.158
       105  -9.3267     15.5816    221.4202   1.3205966189e+02   2.8737899387e+01     0.161246    0.1391511 -71.35  0.000914302    1.732    0.423
       106  -9.4245    140.6502    220.4087   1.1104952787e+02   1.2884918665e+01      0.19227    0.1639371  40.50 0.0005849042    1.171    0.146
       107  -8.5328    124.5320    221.4594   1.1393893685e+02   1.5184802407e+01    0.1123972   0.08781758  52.12 0.0001719126    1.026    0.026
       108  -8.2816     92.4639    221.5327   1.1944279957e+02   1.9764926661e+01    0.1080871   0.08373976  58.97 0.0001875201    1.054    0.051
       109  -9.6795     39.9079    221.1629   1.2818142788e+02   2.6286581320e+01    0.2029566    0.1703064  26.07  0.001054995    1.932    0.482
       110  -9.2009     59.4127    220.7548   1.2495393595e+02   2.4123696004e+01     0.171394    0.1401954  55.55 0.0004989848    1.294    0.227
       111  -8.4286     56.2608    220.2591   1.2544438700e+02   2.4578872358e+01    0.1442463   0.08563644  64.48            0    1.299    0.230
       112  -9.1756    109.1239    219.2675   1.1637047670e+02   1.7779095764e+01     0.154193     0.146344  68.93 0.0004698637    1.313    0.238
       113  -7.9783     88.2947    220.2757   1.2004493317e+02   2.0527683382e+01   0.09037881   0.08072665  34.40 0.0001890412    1.526    0.345
       114  -9.8944    158.8150    217.9887   1.0763271570e+02   1.0366637133e+01    0.2062745    0.1775995  17.32  0.000440056    1.340    0.254
       115  -8.8942    154.2272    218.7804   1.0851983150e+02   1.0987229788e+01    0.1853402    0.1205401  30.10 0.0005548184    1.615    0.381
       116  -9.1603    128.7233    219.0957   1.1295936097e+02   1.4901789379e+01      0.14979    0.1255805  52.46 0.0004507719    1.086    0.079
       117  -8.8530    136.0639    218.1895   1.1158498521e+02   1.3911228656e+01    0.1677579    0.1314156  35.07  0.000518053    1.302    0.232
       118  -8.6626    104.1989    218.6036   1.1715740792e+02   1.8587836206e+01    0.1484862   0.09006396  38.30 0.0005089659    1.611    0.379
       119  -9.9483      7.9294    216.3246   1.3305347794e+02   3.0293698105e+01     0.203024    0.1718599 -55.67  0.001242497    2.008    0.502
       120  -9.7138    165.5442    214.4238   1.0601153577e+02   9.7668493799e+00    0.2395275    0.1882664  11.14 0.0006101315    1.573    0.364
       121 -10.6965    170.9985    214.1665   1.0503855990e+02   8.9169231054e+00    0.2897921    0.2499879 -40.54 0.0005188148    1.448    0.310
       122  -8.9844    167.5347    208.0467   1.0479795233e+02   1.0308598255e+01    0.1806851    0.1700861  -4.48 0.0005569772    1.261    0.207
       123  -9.2336    171.5461    206.2842   1.0384750043e+02   9.8853563005e+00    0.2095554    0.1802725  29.34 0.0006347515    1.128    0.113
       124  -9.2470    173.0840    202.4789   1.0302746679e+02   1.0151171061e+01    0.1964977    0.1608275  -5.40 0.0006336564    1.503    0.335
       125  -9.0958    119.8957    217.0082   1.1426669163e+02   1.6543000973e+01    0.1673095    0.1363405  52.43 0.0005044719    1.078    0.073
       126  -8.8741     28.6498    221.9663   1.3002892808e+02   2.7348476354e+01     0.147779    0.1112422  53.83 0.0005889107    1.319    0.242
       127  -8.7474     21.7682    216.8329   1.3088368962e+02   2.8889863368e+01    0.1310988    0.0944553 -44.72  0.000939957    2.767    0.639
       128  -8.9932    150.7268    215.9414   1.0877092329e+02   1.1935382874e+01    0.1673319    0.1379717  32.79 0.0005234343    1.224    0.183
       129  -9.6848    154.5904    212.4758   1.0765796591e+02   1.1804498375e+01    0.2138676    0.1875165  17.82 0.0006113294    1.324    0.245
       130  -8.8841    124.0568    215.5564   1.1338131798e+02   1.6137646511e+01    0.1586336    0.1401998  71.12 0.0004802743    1.165    0.142
       131  -9.2796     83.1110    215.5201   1.2052891738e+02   2.1986088738e+01    0.1645381    0.1582178  63.84 0.0006183906    1.450    0.311
       132 -10.2262     56.0029    216.6035   1.2524346543e+02   2.5211591362e+01    0.2019116    0.1224475 -86.11 0.0006134507    1.565    0.361
       133  -9.6376     31.1610    214.6692   1.2925544593e+02   2.8296967014e+01    0.1998301    0.1416782 -69.68 0.0009111803    1.690    0.408
       134  -9.7351    143.4579    214.5252   1.0986266599e+02   1.3287925695e+01    0.2378508    0.1739911  29.62 0.0007103903    1.484    0.326
       135  -8.8824    101.5835    214.7262   1.1723651966e+02   1.9571039541e+01     0.174455    0.1556989  14.77 0.0007578371    1.674    0.402
       136  -8.0508     90.7168    215.6685   1.1922222514e+02   2.0936286369e+01   0.09069292   0.08635565  11.28  0.000443873    1.612    0.380
       137  -9.4659    131.9560    213.8833   1.1180440667e+02   1.5180431668e+01    0.2114527    0.1396265  40.19 0.0005248901    1.342    0.255
       138  -9.2606     63.2700    213.1912   1.2376672476e+02   2.4907178096e+01    0.1759637    0.1563346  29.11 0.0007492418    1.693    0.409
       139  -8.6739    117.2517    212.7662   1.1427424573e+02   1.7591376130e+01    0.1430718    0.1198843  37.66 0.0004918919    1.320    0.242
       140  -8.4903    111.0396    213.3000   1.1542899175e+02   1.8429391276e+01    0.1576104    0.1182672  50.14 0.0005154142    1.112    0.100
       141  -9.2984     96.8893    212.4023   1.1783685740e+02   2.0608822290e+01    0.1780372    0.1531462 -79.37 0.0006079673    1.328    0.247
       142  -8.6693     41.0539    212.9530   1.2752045442e+02   2.7527908906e+01    0.1274873     0.119866 -74.03 0.0005249627    1.640    0.390
       143  -8.2071     74.4526    212.5140   1.2178062499e+02   2.3615444601e+01    0.1078823   0.08356065  64.73 0.0001116147    1.050    0.047
       144  -9.2795     17.5992    211.3624   1.3130618855e+02   3.0216200948e+01    0.1689481    0.1333906 -45.95 0.0008768764    2.324    0.570
       145 -10.4027    176.7962    208.8107   1.0329409524e+02   8.6745378343e+00    0.2607381    0.2190983   9.22 0.0008649548    1.334    0.251
       146  -9.0547    149.1645    210.4059   1.0834462260e+02   1.2974134658e+01    0.1798117    0.1598152  -0.38 0.0005028775    1.451    0.311
       147  -9.0721    146.1759    207.8145   1.0854168306e+02   1.3835156270e+01    0.1957369    0.1687743  33.90 0.0005186341    1.205    0.170
       148  -9.6546    149.5270    205.1321   1.0759197863e+02   1.3687918610e+01    0.2612678    0.2325713 -48.56   0.00188899    1.376    0.273
       149  -8.8619    125.1338    211.1141   1.1269196172e+02   1.6652700126e+01    0.1627652    0.1388648  36.07 0.0004147197    1.297    0.229
       150  -9.2720     25.2372    210.5235   1.3001606701e+02   2.9605912161e+01    0.1605618     0.133881 -79.66 0.0007335869    1.507    0.336
       151 -10.1867    161.2047    208.9050   1.0602590104e+02   1.1231059823e+01    0.2106023    0.1860917   6.78 0.0004710746    1.349    0.259
       152  -8.5835    140.1827    209.8431   1.0986453849e+02   1.4493892379e+01    0.1501754    0.1240162  32.59 0.0004532804    1.283    0.221
       153  -8.6820    106.7494    210.2738   1.1587502284e+02   1.9540034799e+01    0.1399286    0.1195416  38.75 0.0004542624    1.351    0.260
       154  -9.3486    134.7755    208.2168   1.1062878900e+02   1.5595991778e+01    0.1890002    0.1200878  41.95 0.0003817407    1.344    0.256
       155  -8.7230     78.2823    208.7962   1.2079638150e+02   2.3740967124e+01    0.1291795    0.1191208  66.82 0.0005086621    1.345    0.257
       156  -9.3657    114.0227    207.1417   1.1423471548e+02   1.8967366052e+01    0.3212019    0.1685475  30.59  0.001624417    2.578    0.612
       157  -9.2176     51.3409    213.0658   1.2579420424e+02   2.6348947015e+01     0.158884    0.1266753  51.40 0.0007361014    1.335    0.251
       158  -8.5224     72.8389    207.8530   1.2167922689e+02   2.4609029864e+01    0.1484508    0.1299548  62.22 0.0005421605    1.272    0.214
       159  -9.6410    183.4495    205.9516   1.0172893384e+02   7.9453054834e+00    0.2544017    0.1749364  15.80 0.0006791751    1.749    0.428
       160 -10.1612    186.8108    201.4724   1.0047326973e+02   7.9683204058e+00    0.2318645    0.2064053  -4.54 0.0002829893    1.253    0.202
       161 -10.1314    124.5250    205.9429   1.1220030055e+02   1.7554691382e+01    0.2829269    0.1392254  43.11  0.001549708    1.700    0.412
       162  -9.4335    120.1838    206.1871   1.1301402469e+02   1.8185318776e+01    0.1753024    0.1557747  77.60 0.0004183073    1.166    0.142
       163  -9.8178     46.6678    206.4860   1.2615844993e+02   2.8010357647e+01    0.1849461     0.158924  54.27 0.0005571716    1.391    0.281
       164  -8.5130     31.9830    206.9335   1.2869805024e+02   2.9530915665e+01    0.1296577    0.1177616 -69.54 0.0006995714    1.648    0.393
       165  -8.6861    104.0248    205.3607   1.1585006129e+02   2.0740290291e+01     0.160376    0.1185965  51.78 0.0004321953    1.123    0.109
       166  -9.3555     86.3093    204.9829   1.1901772487e+02   2.3310791495e+01    0.1902403    0.1417403  45.22  0.000524852    1.307    0.235
       167  -9.3134    139.0192    199.0495   1.0869294703e+02   1.6334660012e+01    0.1814195    0.1481584  54.95  0.001227788    1.053    0.050
       168  -9.1692    140.5197    195.5540   1.0794644401e+02   1.6640938046e+01    0.1809199    0.1619483  51.98 0.0006825647    1.079    0.073
       169  -9.8237      6.4395    203.9830   1.3280925377e+02   3.2518075461e+01    0.2030674    0.1424036  27.17  0.001200643    2.140    0.533
       170  -9.7028    179.0755    202.5110   1.0197900032e+02   9.1367134876e+00    0.2048923    0.1801826  16.05 0.0005599885    1.188    0.158
       171  -8.9259    110.0649    202.9024   1.1448280421e+02   2.0253548093e+01    0.1593556      0.13987  10.88 0.0006780639    1.670    0.401
       172  -9.8497    139.8712    203.3180   1.0909523911e+02   1.5532300031e+01    0.3009905    0.2372964 -86.47   0.00200798    1.533    0.348
       173  -9.3216     55.9270    202.1666   1.2422921715e+02   2.7690759576e+01    0.1634796    0.1386871 -88.02   0.00044012    1.305    0.234
       174  -9.0666     20.9535    202.4923   1.3032623372e+02   3.1420332382e+01    0.1631172    0.1169718 -75.50 0.0006849622    1.513    0.339
       175 -10.6095    164.6351    199.9321   1.0415953670e+02   1.1936618830e+01    0.3337721    0.2678508  61.84  0.001394848    1.322    0.244
       176  -8.5891    159.9912    201.0108   1.0514781532e+02   1.2561427739e+01    0.1772365    0.1329184  19.28 0.0004121461    1.599    0.375
       177  -9.0989    144.5989    200.8698   1.0791418653e+02   1.5138306944e+01    0.1949599    0.1413952  39.69 0.0005099183    1.234    0.190
       178 -10.2207    132.1294    199.7580   1.1005260673e+02   1.7337912071e+01    0.2812463    0.2143818  20.14 0.0004978906    1.761    0.432
       179  -9.8412     98.1836    200.4554   1.1639968728e+02   2.2413636743e+01    0.2149279    0.1708686  76.73  0.001033262    1.148    0.129
       180  -9.3077     69.2389    200.4073   1.2169583348e+02   2.6360612313e+01    0.1674155    0.1566916  85.60 0.0005230781    1.390    0.281
       181  -9.4103    156.5476    205.3182   1.0636246769e+02   1.2507725846e+01    0.2069852    0.1728821  33.85 0.0005428185    1.162    0.139
       182  -8.5593    155.0195    200.4954   1.0597154941e+02   1.3469142441e+01    0.1810583    0.1005729  42.91 0.0003939565    1.499    0.333
       183  -8.6948     41.4364    199.6867   1.2662249393e+02   2.9790661416e+01    0.1382253    0.1264753  33.05 0.0005641885    1.660    0.398
       184  -8.6261     80.6463    199.0757   1.1949185579e+02   2.5100528589e+01    0.1480325    0.1225309  82.62  0.000489446    1.147    0.128
       185  -8.2887     75.0104    198.9717   1.2051697531e+02   2.5867711117e+01    0.1342821    0.1036545  67.15 0.0003520684    1.001    0.001
       186  -8.9802     49.4886    198.5273   1.2511038592e+02   2.9091122928e+01     0.143733    0.1335342 -69.18 0.0005412773    1.561    0.359
       187 -10.3074    184.0484    194.6359   9.9894703963e+01   9.3607292294e+00    0.3368254    0.2591943  27.10  0.001546395    1.220    0.180
       188  -9.8148    185.6046    189.0935   9.8726415968e+01   9.8577939130e+00    0.2383661     0.219106   7.41  0.000890715    1.153    0.133
       189  -8.2025    103.8544    198.3871   1.1512610707e+02   2.1937656356e+01    0.1517758   0.09874185  37.72 0.0003848941    1.573    0.364
       190  -9.7527    176.3100    195.7373   1.0144251124e+02   1.0543173391e+01    0.2168639    0.1926786   9.57 0.0006179012    1.218    0.179
       191  -9.3418    170.1248    196.2166   1.0262422373e+02   1.1537907408e+01    0.2107309     0.178334  22.70 0.0004780555    1.214    0.176
       192  -9.0326    149.1203    196.8914   1.0654297052e+02   1.5000878502e+01    0.1807567    0.1535434  43.82 0.0005327111    1.061    0.057
       193  -8.8967    124.9267    196.5113   1.1097552202e+02   1.9015568149e+01    0.1794542    0.1015091  43.19 0.0006154875    1.525    0.344
       194  -8.6800     89.0383    195.9776   1.1763088347e+02   2.4492533661e+01    0.1487412    0.1406784  -1.14 0.0004729846    1.608    0.378
       195  -8.5147     60.8278    196.1219   1.2287023907e+02   2.8175855063e+01     0.132501    0.1191939  84.13 0.0004264153    1.318    0.241
       196  -8.5901     16.8280    195.1638   1.3066137680e+02   3.3117973446e+01     0.123265    0.1021184  88.16 0.0003829702    1.332    0.249
       197  -9.3855    133.0315    193.4951   1.0906635135e+02   1.8204688558e+01    0.1795752    0.1703045 -18.59 0.0003671371    1.357    0.263
       198  -9.2621    112.8157    193.9597   1.1293440573e+02   2.1340928215e+01    0.1637908    0.1496218  48.26 0.0004316066    1.227    0.185
       199  -8.4799    157.4189    192.7284   1.0441697798e+02   1.4234822888e+01    0.1454489    0.1185513 -28.12 0.0005445281    1.534    0.348
       200  -8.6768    152.0292    192.4974   1.0537963887e+02   1.5190773118e+01    0.1659905    0.1597316  50.25 0.0005061185    1.143    0.125
       201  -8.7784     36.1091    193.2014   1.2714541516e+02   3.1537431926e+01       0.1439    0.1242817  82.65 0.0005531058    1.305    0.234
       202  -9.3441    146.1727    191.3305   1.0630230290e+02   1.6368157838e+01    0.1774734    0.1681526 -27.70 0.0004277703    1.286    0.222
       203  -8.2706     26.5022    192.0328   1.2879242740e+02   3.2743649050e+01    0.1255762    0.0719005 -57.56  0.000655216    2.299    0.565
       204  -9.5593    161.9510    190.3823   1.0322893329e+02   1.3811284391e+01    0.1965038    0.1780193 -18.75 0.0003133055    1.311    0.237
       205  -7.8794     54.6516    194.6872   1.2388601705e+02   2.9179950289e+01   0.09255129   0.08568506 -43.25 0.0007046354    1.718    0.418
       206  -9.5751    172.6496    189.3373   1.0110420237e+02   1.2100733937e+01    0.2199028    0.1877407  22.37 0.0005637499    1.188    0.158
       207  -8.6809    139.9012    189.8780   1.0727507711e+02   1.7658692912e+01      0.17936    0.1535975  29.77 0.0004906867    1.280    0.219
       208  -8.0365     96.6945    190.6617   1.1561318323e+02   2.4339212245e+01    0.1031789   0.09425484 -10.43 0.0007040807    1.676    0.403
       209  -8.9748     64.0653    190.1453   1.2176006260e+02   2.8863585942e+01    0.1513589    0.1359145  73.39 0.0004317261    1.272    0.214
       210  -9.7223    179.0026    188.2181   9.9770951840e+01   1.1145784449e+01    0.2075693    0.1769841 -11.36 0.0005207481    1.345    0.257
       211  -9.3097    134.1635    187.1822   1.0798677722e+02   1.9064319626e+01     0.260689    0.2068169 -85.89  0.001419428    1.451    0.311
       212  -8.4403    134.4646    183.4526   1.0739832208e+02   1.9644145111e+01    0.1243271     0.107415  52.61 0.0001367037    1.031    0.030
       213  -8.3595     89.7908    188.4282   1.1668951466e+02   2.5736737477e+01    0.1452765    0.1040247  37.10 0.0004066969    1.537    0.349
       214  -9.2809    156.9964    186.5878   1.0356984507e+02   1.5259629970e+01     0.203658    0.1721023  -5.04 0.0006303788    1.502    0.334
       215  -8.8612    150.8606    185.7936   1.0460465770e+02   1.6452392027e+01    0.1812102    0.1538173  32.08 0.0005083124    1.199    0.166
       216  -8.8615    128.6139    185.8538   1.0886814914e+02   2.0209376196e+01    0.1966307    0.1517055  38.03 0.0005515801    1.298    0.229
       217  -8.6552     20.7743    186.2437   1.2948424578e+02   3.4371715242e+01    0.1250347     0.106781 -88.32 0.0004536382    1.358    0.264
       218 -12.8182    191.8576    214.6029   1.0156062726e+02   5.4726556290e+00     1.005737    0.9431968 -68.70  0.007350927    1.477    0.323
       219  -9.4296    166.6987    184.3581   1.0140672027e+02   1.3898704250e+01    0.2354371    0.1905328   9.14 0.0004838731    1.483    0.325
       220  -8.8191    189.9020    183.8653   9.7084541722e+01   9.8287783411e+00    0.1903489    0.1464554  21.95 0.0005356765    1.284    0.221
       221  -9.7016    173.4600    183.9827   1.0009329130e+02   1.2752251828e+01    0.1846744    0.1512562  39.82  0.000395205    1.051    0.048
       222  -8.0577     26.6694    184.6939   1.2831728024e+02   3.4084408296e+01   0.09128278    0.0768526 -60.60 0.0005910362    1.659    0.397
       223  -8.5363    140.0519    183.4805   1.0632326619e+02   1.8691872818e+01    0.1859383    0.1090681  42.55 0.0004680172    1.509    0.337
       224  -9.4221    197.5087    181.0880   9.5248927666e+01   8.8513330943e+00    0.2242921    0.1637449  21.48 0.0004780737    1.369    0.269
       225  -9.6757    183.7348    181.1780   9.7740493447e+01   1.1321836049e+01    0.2264922    0.1899153  17.03 0.0005804888    1.208    0.172
       226  -8.6660    154.9339    182.0029   1.0324713678e+02   1.6351213469e+01     0.184871    0.1464046  13.52 0.0004204857    1.589    0.370
       227  -9.8210    176.8401    179.2290   9.8675172449e+01   1.2859090534e+01    0.6737913    0.2262984  37.11  0.002464357    3.309    0.698
       228  -8.4330     54.8758    180.7286   1.2268694217e+02   3.1754427149e+01    0.1635041       0.1137 -35.50 0.0009439136    2.796    0.642
       229  -7.8715     46.6885    181.6489   1.2434235841e+02   3.2530423545e+01   0.09898099    0.0816962 -52.68 0.0007045237    1.722    0.419
       230  -8.4896    160.1821    179.7982   1.0189706945e+02   1.5773757385e+01    0.1650666    0.1393739  20.29 0.0004113194    1.300    0.231
       231  -8.2012    165.4245    179.4034   1.0083953610e+02   1.4896158658e+01    0.1266877    0.1095042  41.65 9.951663e-05    1.012    0.012
       232  -8.7541    145.7977    178.9101   1.0451987304e+02   1.8465771590e+01    0.1817852    0.1626085  25.94 0.0005357375    1.230    0.187
       233  -7.8911    167.6909    192.2766   1.0246598156e+02   1.2532134489e+01    0.1180251   0.08919937  66.13 0.0002641657    1.554    0.357
       234 -10.0142    190.6285    177.1598   9.5789490705e+01   1.0651966834e+01    0.2977831    0.2057402  38.31 0.0004352812    1.266    0.210
       235  -9.6528    192.9186    171.4937   9.4352687701e+01   1.1051420884e+01    0.2590075    0.1873235 -25.70 0.0006056781    1.540    0.351
       236  -9.2515    134.3461    177.3289   1.0651997401e+02   2.0719827150e+01    0.2666311    0.1940406  83.50  0.001155056    1.697    0.411
       237  -9.0317    169.4936    176.5221   9.9589293631e+01   1.4611748047e+01    0.2069725    0.1580559  12.96 0.0005599707    1.598    0.374
       238  -8.1950     26.6490    177.6854   1.2787071290e+02   3.5414849810e+01   0.09492024   0.07751382 -55.51 0.0007046555    1.729    0.422
       239  -7.9514      6.3553    177.3050   1.3162780881e+02   3.7352725904e+01   0.09055258    0.0711275 -60.99 0.0007040692    1.716    0.417
       240  -9.7213    197.7696    175.1878   9.4150967086e+01   9.6262757436e+00    0.2377916    0.1880272  16.39 0.0006681766    1.259    0.206
       241 -10.9195    175.6644    172.2488   9.7684941508e+01   1.4145278742e+01     0.470005    0.3976168  20.57  0.002916568    1.206    0.171
       242 -10.1094    178.8098    166.7500   9.6099654311e+01   1.4416821888e+01    0.3752352    0.2679667  22.38   0.00139556    1.568    0.362
       243  -9.2033    150.0789    175.7508   1.0318731617e+02   1.8240525501e+01    0.1941646    0.1870729 -70.29 0.0005014674    1.163    0.140
       244  -9.0034    101.0340    176.0085   1.1299860513e+02   2.6373601415e+01    0.1763166    0.1433367  69.45            0    1.071    0.066
       245  -9.2084    187.8009    170.9671   9.5193111941e+01   1.2082289592e+01    0.2413731    0.1693506  35.08 0.0004295792    1.297    0.229
       246  -9.8414    182.5312    174.1470   9.6738354063e+01   1.2583576001e+01    0.2984635    0.2286428   6.33 0.0006671313    1.554    0.356
       247  -9.1878    183.9686    169.7215   9.5675460095e+01   1.2986517866e+01    0.2087475    0.1862687 -20.07 0.0005252089    1.218    0.179
       248  -8.6863    140.0500    175.1199   1.0505507627e+02   2.0117756725e+01    0.1833293    0.1617672  28.43  0.000413844    1.250    0.200
       249  -9.6711    161.4460    173.8431   1.0067013749e+02   1.6507196449e+01    0.2350058    0.1787607  32.21 0.0004259602    1.303    0.233
       250  -8.9385    128.9443    172.8133   1.0691449730e+02   2.2443139336e+01     0.180542    0.1607387  34.03 0.0003724241    1.238    0.193
       251  -8.4177     23.8269    172.3793   1.2805809308e+02   3.6715337673e+01    0.1249455    0.1001372  32.36 0.0006558147    1.683    0.406
       252  -9.0367    201.0906    170.2032   9.2639842339e+01   9.7179355931e+00    0.2438214    0.1710354 -19.15 0.0009938122    1.603    0.376
       253  -9.9189    205.0738    167.3220   9.1386133392e+01   9.3827573631e+00    0.2726721    0.2106522   9.45  0.000386272    1.342    0.255
       254  -8.0442    107.4904    171.4782   1.1108099727e+02   2.6222950499e+01    0.1236387    0.1095972  65.14 0.0008094125    1.063    0.059
       255  -8.1877     89.7445    171.7099   1.1475400882e+02   2.8879268846e+01    0.1027182   0.09541288 -38.09 0.0002594795    1.486    0.327
       256  -8.2984    143.3728    169.7826   1.0354092775e+02   2.0460871252e+01    0.1631685    0.1225989 -38.51  0.000452303    1.584    0.368
       257  -8.9473    197.0997    168.7226   9.3080386681e+01   1.0674187970e+01    0.2162436     0.163602   4.55 0.0004986119    1.489    0.328
       258  -9.8175    199.5358    162.9798   9.1544834361e+01   1.1050394897e+01    0.3021656    0.2289067 -20.21 0.0007614749    1.421    0.296
       259  -8.3595    158.4630    169.0170   1.0042517930e+02   1.7851659242e+01    0.1733941    0.1304228 -42.12 0.0004699835    1.495    0.331
       260  -8.6464     94.7537    167.9522   1.1323722198e+02   2.8867092435e+01    0.2765816    0.1032751 -64.00  0.001176162    2.923    0.658
       261  -8.9066    169.8735    166.7985   9.7815688518e+01   1.6093590492e+01    0.1936743    0.1653733  22.57 0.0004768885    1.204    0.169
       262  -8.7602    150.1937    166.9167   1.0169892363e+02   1.9727720285e+01     0.169447    0.1489258  15.82 0.0004207291    1.310    0.236
       263  -8.5394    134.9400    167.9937   1.0494932858e+02   2.2273697404e+01    0.1896553    0.1567478   7.13 0.0004875177    1.660    0.397
       264  -8.4210      8.6913    167.6546   1.3068138254e+02   3.9005288803e+01   0.09674802   0.06953663 -61.57 0.0004800629    1.700    0.412
       265  -8.3987    165.2601    166.3402   9.8627177271e+01   1.7034441863e+01    0.1265908    0.1004846   4.89 0.0002778509    1.586    0.370
       266  -8.5200    127.8242    166.1768   1.0611383537e+02   2.3845838115e+01    0.1610458      0.14949  19.56 0.0003532845    1.293    0.227
       267  -9.7429    191.8931    163.1851   9.2982497641e+01   1.2478051494e+01    0.2509394    0.1961505 -13.16 0.0006892895    1.426    0.299
       268  -9.1836    184.8667    163.6952   9.4388092686e+01   1.3742747312e+01    0.2084545       0.1741   0.14 0.0006159605    1.311    0.237
       269  -9.1422    120.1575    163.3960   1.0726695334e+02   2.5678894111e+01    0.1917935    0.1741644 -55.62 0.0004967666    1.243    0.195
       270  -8.4285    159.5045    163.4769   9.9244559413e+01   1.8594359780e+01    0.1327368    0.1199002  41.70 0.0001339963    1.027    0.027
       271  -7.9284    111.3153    163.3031   1.0910926166e+02   2.7169276310e+01    0.1170219     0.103076  -2.80 0.0002848009    1.619    0.382
       272  -8.4769    172.5341    162.4996   9.6514200663e+01   1.6289649802e+01    0.1336744    0.1198211  32.66 0.0001327606    1.044    0.042
       273  -8.9245    183.8211    158.8185   9.3650920420e+01   1.4708001974e+01    0.2951621    0.1741028 -49.50  0.001425326    2.052    0.513
       274  -7.9611    146.7327    161.3238   1.0142805561e+02   2.1347838345e+01    0.1288119    0.1003448  82.79 0.0002265113    1.567    0.362
       275  -8.1684      9.3232    161.3061   1.3019164187e+02   4.0200220704e+01   0.09587368   0.07186163 -60.93 0.0004100247    1.643    0.391
       276  -8.9145    163.6427    160.0962   9.7808196207e+01   1.8386814181e+01    0.1754704     0.168402 -16.71 0.0004874081    1.136    0.120
       277  -8.3272    153.2533    160.0598   9.9880295631e+01   2.0358898618e+01    0.1547788    0.1158455 -44.67 0.0003680775    1.468    0.319
       278  -9.5298    176.6944    157.0919   9.4681645317e+01   1.6371337610e+01    0.2399268    0.1943212  25.30  0.000377126    1.253    0.202
       279  -8.6054    168.1389    157.8382   9.6496285716e+01   1.7906332805e+01     0.179772    0.1530956  16.16  0.000491553    1.278    0.217
       280  -8.1866    136.2541    157.9672   1.0300353549e+02   2.3876517593e+01    0.1571136    0.1142263 -54.50 0.0003817232    1.478    0.323
       281  -8.1443    191.6753    157.7172   9.1958891410e+01   1.3353475989e+01    0.1365114   0.09753366  17.50  0.000700085    1.597    0.374
       282  -9.6887    216.2324    154.6679   8.6919646506e+01   9.0461749340e+00    0.2481611    0.1979575  -5.43 0.0005122846    1.248    0.198
       283  -9.6986    197.2274    154.8905   9.0366681667e+01   1.2701603563e+01    0.2603435    0.2086262  -5.37 0.0004780521    1.343    0.255
       284  -8.4748    128.0556    155.7549   1.0435048073e+02   2.5764684784e+01    0.1823028    0.1605694  55.55 0.0003904845    1.052    0.050
       285  -8.1253     99.2944    156.3201   1.1064113914e+02   3.0474418634e+01    0.1164811    0.1023418 -22.92 0.0004131433    1.611    0.379
       286 -10.0028     24.5555    155.8249   1.2672119278e+02   3.9950381699e+01    0.1910249    0.1440465  53.73  0.001399462    1.320    0.242
       287  -9.6473     17.8344    155.1001   1.2806369647e+02   4.0713251739e+01    0.2114922    0.1045886 -89.04  0.001257222    1.683    0.406
       288  -9.2373    187.6340    153.6356   9.1904438491e+01   1.4782553034e+01    0.2900036    0.1640103 -30.72 0.0009800743    1.999    0.500
       289  -7.9400    113.3509    155.2913   1.0742942330e+02   2.8396389683e+01    0.1229092    0.1052085   2.06 0.0004637586    1.673    0.402
       290  -8.4142      5.6353    154.6943   1.3053510506e+02   4.1822769696e+01    0.0980331   0.07134638 -56.76 0.0007037348    1.742    0.426
       291  -9.2100    206.0181    152.5934   8.8299776199e+01   1.1323350612e+01    0.2308306    0.1738281  -2.54 0.0005426338    1.458    0.314
       292  -8.3778    192.5180    153.0195   9.0861530188e+01   1.3915122100e+01    0.1867892    0.1329513 -30.98 0.0005592454    1.495    0.331
       293  -8.5274    158.8451    158.2110   9.8415671317e+01   1.9624981733e+01    0.1781373    0.1512873  20.97 0.0004284325    1.290    0.225
       294  -8.0502    171.3142    152.2920   9.4795152798e+01   1.8224028040e+01    0.1361358    0.1035658  14.55 0.0002385381    1.594    0.373
       295  -9.5235    144.9914    151.3506   9.9981858235e+01   2.3487717816e+01     0.242222    0.2167259 -76.74 0.0003852337    1.199    0.166
       296  -9.2553    143.3967    147.4855   9.9588357348e+01   2.4511332172e+01    0.2511443    0.2060755 -40.04 0.0007216894    1.343    0.255
       297  -8.5308    157.4592    151.0244   9.7335721298e+01   2.1156726164e+01    0.1907373    0.1356423 -42.70 0.0004374054    1.518    0.341
       298  -8.0840    151.9997    151.2611   9.8504877758e+01   2.2168667587e+01    0.1692652    0.1108734  45.85 0.0002265354    1.420    0.296
       299 -10.7475    133.0967    147.1217   1.0173022420e+02   2.6512503064e+01    0.5533063    0.3080989 -58.06  0.002173953    2.008    0.502
       300 -10.2871    132.0663    140.2510   1.0065202940e+02   2.8046586647e+01    0.4460302     0.264898 -62.51  0.001649659    1.983    0.496
       301  -8.2359    107.8629    151.3801   1.0799724712e+02   3.0090413456e+01    0.1698104    0.1204769  34.52  0.000412032    1.589    0.371
       302  -8.5080    202.4956    149.9955   8.8399789631e+01   1.2403657191e+01     0.190014    0.1311858 -25.95 0.0007129397    1.528    0.345
       303  -7.8839    176.3341    150.3012   9.3409483718e+01   1.7565302005e+01     0.140246    0.1035969  14.97 0.0004316728    1.656    0.396
       304  -8.6131     54.3112    149.3460   1.1967100628e+02   3.8141837694e+01    0.1132892   0.08729872 -46.73 0.0007045792    1.708    0.415
       305  -9.1413      6.5043    149.4784   1.3003581864e+02   4.2810067988e+01    0.1088164   0.07992315  85.10 0.0006763302    1.032    0.031
       306  -8.8340    197.1097    148.2160   8.9018058049e+01   1.3747687641e+01    0.1991898    0.1652257  17.15 0.0003037343    1.194    0.163
       307  -8.9947    182.0049    148.1190   9.1860154445e+01   1.6793832961e+01    0.2014242    0.1827408  22.79 0.0003293371    1.058    0.054
       308  -8.7278    161.9931    147.4875   9.5713187273e+01   2.0897242958e+01     0.194278    0.1846021 -33.08 0.0003683134    1.125    0.111
       309  -8.3822    122.0368    148.4838   1.0438847794e+02   2.8245397117e+01    0.1938231     0.125184  44.46 0.0004245426    1.484    0.326
       310  -9.3011    190.7566    146.6383   8.9877391737e+01   1.5272064288e+01    0.2765006    0.1870766  36.22  0.001127861    1.420    0.296
       311  -8.4953    150.1352    146.8848   9.8049119508e+01   2.3329125310e+01    0.1814478    0.1592445  17.83 0.0003127226    1.288    0.224
       312  -8.4827     50.6638    147.6654   1.2029693531e+02   3.8923982631e+01    0.1129517   0.08709566 -45.30 0.0007052009    1.743    0.426
       313  -8.6266    176.1281    144.6475   9.2291414375e+01   1.8559230667e+01     0.191564    0.1660391  30.94  0.000530945    1.111    0.100
       314  -9.2843    208.2535    143.3818   8.5959675657e+01   1.2246455824e+01    0.2450429     0.187873   8.92 0.0005740314    1.387    0.279
       315  -8.5602    218.7199    143.1544   8.4066563290e+01   1.0190057430e+01    0.1833104     0.139898   8.74 0.0004584045    1.342    0.255
       316  -8.8697    200.2902    143.2760   8.7384169689e+01   1.3871221081e+01    0.1635827    0.1585052  87.53 0.0003197592    1.246    0.197
       317  -8.6838    171.8194    143.1849   9.2844543884e+01   1.9683107384e+01    0.1892117    0.1565882  18.78  0.000417488    1.314    0.239
       318  -9.6237    139.1483    141.2063   9.9283880966e+01   2.6518961276e+01    0.2558838    0.2303798  11.41 0.0004324717    1.311    0.237
       319  -7.9191     73.6458    142.6903   1.1442340463e+02   3.7089269748e+01    0.1183019   0.09813186 -31.86 0.0007043626    1.725    0.420
       320  -8.9484    214.0661    140.9340   8.4396767274e+01   1.1440123868e+01    0.2132785    0.1515198   9.79 0.0005536892    1.589    0.371
       321  -9.0128    155.6130    140.8998   9.5698306482e+01   2.3355540287e+01    0.2226091    0.1843598  31.59 0.0004744153    1.251    0.201
       322  -8.5672    147.7697    141.3995   9.7462108726e+01   2.4813030930e+01    0.1921875     0.126526  36.58 0.0005343718    1.584    0.369
       323  -9.3462    224.4122    138.5844   8.2095504904e+01   9.7095199180e+00     0.229854    0.1798223  -9.89 0.0005850121    1.245    0.197
       324  -8.1701    203.6234    139.7735   8.6014127745e+01   1.3732560535e+01    0.1425734   0.09670699  24.66 0.0003311063    1.605    0.377
       325  -8.3150    186.7776    139.0337   8.9014146139e+01   1.7319208132e+01    0.1719404    0.1146391 -37.02 0.0003268995    1.562    0.360
       326  -7.9623    181.5065    139.5268   9.0146024415e+01   1.8325790992e+01    0.1413866    0.1295211  22.82  0.000809517    1.051    0.049
       327  -8.7684    166.2763    138.7514   9.3034516687e+01   2.1590896020e+01    0.1836072    0.1582532   8.63  0.000440175    1.303    0.233
       328  -8.4473    151.9851    137.7006   9.5803622789e+01   2.4674474197e+01    0.1909208    0.1767469  51.39 0.0004139758    1.031    0.030
       329  -9.3107    218.9313    136.2602   8.2518936220e+01   1.1140887772e+01    0.2454487    0.1823377  -9.13 0.0004525215    1.392    0.282
       330  -8.6133    146.9972    136.7310   9.6673676160e+01   2.5850337253e+01    0.1893663    0.1746211  48.82 0.0002717214    1.045    0.043
       331 -10.1555     69.1155    136.1528   1.1455242055e+02   3.9110560705e+01    0.3576359    0.2053019  73.47  0.001376668    2.084    0.520
       332  -9.3281    208.2884    135.9978   8.4335712946e+01   1.3352728381e+01    0.2199916    0.1849183  32.80 0.0003907273    1.123    0.109
       333  -8.4434    143.1236    135.8504   9.7334141665e+01   2.6783484990e+01    0.1839064    0.1667657  -5.27 0.0004242452    1.295    0.228
       334  -8.4638    198.7040    134.7959   8.5818761198e+01   1.5526435219e+01    0.2092189     0.165258  -7.70 0.0005550929    1.363    0.267
       335  -9.1962    192.8935    134.9384   8.6941649968e+01   1.6717662170e+01    0.2076249    0.1889534   6.82 0.0004232503    1.071    0.067
       336  -8.5617    172.4628    135.0844   9.0981335970e+01   2.0964720309e+01    0.2011583    0.1401207 -37.43 0.0004194574    1.502    0.334
       337  -8.6085    187.8076    133.9342   8.7690467415e+01   1.7949121834e+01    0.2212517    0.1542431  -2.18 0.0005072287    1.925    0.481
       338  -8.9867    163.6370    133.6380   9.2477675846e+01   2.3054715862e+01    0.2363338    0.1678579 -28.81 0.0005672116    1.603    0.376
       339  -8.4587    155.8342    134.2091   9.4244257010e+01   2.4551002719e+01     0.188688    0.1655166   8.40 0.0003862076    1.306    0.234
       340  -9.4301    225.8601    131.8874   8.0357568031e+01   1.0367429960e+01    0.2690552    0.1768684  -8.24 0.0005298696    1.707    0.414
       341 -10.1321    136.4555    130.2420   9.7641493925e+01   2.9189942821e+01    0.3201815     0.222175 -42.01    0.0011099    1.530    0.346
       342 -11.3283    134.6990    122.9643   9.6465127949e+01   3.0993233910e+01    0.9228206    0.3580025 -54.29  0.003219466    3.064    0.674
       343 -10.0708    134.2864    113.5466   9.4400826711e+01   3.2984007918e+01     0.442007    0.2240681 -37.15  0.001123248    2.275    0.560
       344 -10.0606    133.8420    107.7533   9.3104255141e+01   3.4253690374e+01    0.4954265     0.214877 -44.69  0.001573402    2.286    0.562
       345  -7.7862     32.3113    131.3735   1.2275218865e+02   4.4380195031e+01    0.1172306   0.07756463 -50.77 0.0001770953    1.781    0.438
       346  -9.4311    179.3991    129.9633   8.8444069793e+01   2.0399122282e+01    0.2523851    0.1956502  35.74 0.0004026214    1.273    0.215
       347  -9.0861    160.7201    130.0367   9.2295456338e+01   2.4320095631e+01    0.1972221    0.1874677 -38.53 0.0005106897    1.089    0.081
       348  -8.6609    125.9989    130.0032   9.9975699851e+01   3.1243055076e+01     0.169619    0.1563997 -68.57 0.0005328222    1.078    0.072
       349  -7.8608    131.2815    129.3713   9.8631849919e+01   3.0367136297e+01     0.139359    0.1124866 -11.65 0.0003701299    1.698    0.411
       350  -8.6545    154.5613    128.5159   9.3271755919e+01   2.5881176966e+01    0.1407424    0.1371586  59.68 9.199911e-05    1.015    0.014
       351  -9.5877    221.3725    126.6096   7.9909680171e+01   1.2047483562e+01    0.2898053    0.2090813  18.71  0.001492443    1.479    0.324
       352  -8.4812    192.4864    127.4310   8.5311672569e+01   1.8032646326e+01    0.1443416    0.1317139  17.75 0.0001391971    1.052    0.050
       353  -8.2875    186.5007    127.4721   8.6474051046e+01   1.9308819385e+01    0.1447308    0.1337732  17.23 8.139681e-05    1.047    0.045
       354  -8.4537    171.8517    127.1634   8.9329148175e+01   2.2496990111e+01    0.1988011    0.1642281  20.14  0.000426382    1.323    0.244
       355  -7.9914    165.6491    126.7071   9.0508227721e+01   2.3897145246e+01    0.1482326    0.1120371  14.59 0.0007030327    1.676    0.404
       356  -8.2885    199.9915    124.9885   8.3331719980e+01   1.6819148899e+01    0.1667669    0.1551569  -1.77  0.000352165    1.034    0.033
       357  -9.1395    152.0091    124.4902   9.2920639912e+01   2.7175928296e+01    0.2243596    0.1904158 -43.61 0.0006052702    1.207    0.172
       358  -8.9495    124.4626    124.4622   9.9173383660e+01   3.2670448882e+01     0.139224    0.1333798  85.60 0.0001618756    1.016    0.016
       359  -8.1926    107.9977    123.9483   1.0300471586e+02   3.5778419957e+01    0.1606083    0.1491081  86.72 0.0009514108    1.013    0.013
       360  -9.3868    227.9000    123.3719   7.8061922481e+01   1.1164795351e+01    0.2472055    0.1853638 -13.60  0.000354128    1.303    0.233
       361  -8.6345    179.8482    121.8747   8.6474786410e+01   2.1707179835e+01    0.2222092    0.1875717  11.62 0.0005845178    1.290    0.225
       362  -8.8255    212.5078    120.8204   8.0085413926e+01   1.4783894342e+01    0.1953204    0.1358853 -26.43 0.0004794509    1.418    0.295
       363  -8.7610    188.0322    121.1372   8.4686826738e+01   2.0047550095e+01    0.2130912    0.1810399  15.96 0.0002804458    1.228    0.186
       364  -8.1475    117.3681    120.7985   1.0007907067e+02   3.4761779711e+01    0.1958727    0.1269775 -42.13 0.0005200761    1.664    0.399
       365  -8.4371    194.0490    119.0131   8.3022757959e+01   1.9084038807e+01    0.1712213      0.15389 -21.66 0.0003180194    1.102    0.093
       366  -9.7258    157.3070    117.7497   9.0192346422e+01   2.7342666772e+01    0.3169786    0.2018436 -28.99 0.0009334433    1.846    0.458
       367  -8.2227    173.7208    117.6895   8.6711295069e+01   2.3786977119e+01    0.1458332     0.114049   7.83 0.0003106595    1.562    0.360
       368  -9.0847    147.5766    116.2240   9.1979192905e+01   2.9703149628e+01    0.1977381    0.1399422 -31.92  0.000504314    1.573    0.364
       369  -8.9289    230.8021    114.8404   7.5569723992e+01   1.1779132593e+01    0.2076545    0.1706112   4.83 0.0003994838    1.184    0.156
       370  -9.2304    129.7603    114.2233   9.5631833596e+01   3.3754057590e+01    0.1957445    0.1739772   6.14 0.0009154758    1.357    0.263
       371  -8.4723     21.3348    114.3520   1.2360700173e+02   4.9115510864e+01    0.1187345   0.07405294 -50.33 0.0007045725    1.787    0.440
       372  -9.6749      6.7173    113.4039   1.2724036937e+02   5.0435797679e+01    0.2157286    0.1094614 -89.77  0.001246556    1.650    0.394
       373  -8.5744    185.7757    113.0361   8.3150883529e+01   2.1926747964e+01    0.1994923    0.1844624 -14.99 0.0002873741    1.071    0.066
       374 -12.3975    167.0929    245.7748   1.0957048370e+02   5.6374726350e+00     1.375468    0.5883892 -35.55  0.007425963    3.833    0.739
       375  -8.4704    194.5366    111.4822   8.1079545247e+01   2.0223218135e+01    0.1475795    0.1381317   7.20 9.731768e-05    1.030    0.029
       376  -8.1834      1.4727    109.4933   1.2822250861e+02   5.1636921970e+01    0.1130874   0.08355828 -79.61 0.0002776709    1.083    0.077
       377  -8.3357    114.3440    112.8288   9.9064566866e+01   3.7009685762e+01    0.2012548    0.1254851 -42.30 0.0004520147    1.694    0.410
       378  -8.9131    123.4526    107.8501   9.5645545629e+01   3.6322086953e+01    0.1999624    0.1351286 -35.91 0.0005577151    1.650    0.394
       379  -8.1146    190.2718    107.3034   8.0834194981e+01   2.1886413683e+01     0.147553    0.1132533  10.04 0.0002666305    1.535    0.349
       380  -8.9470    129.5891    106.7223   9.3871861317e+01   3.5332239190e+01    0.2310267     0.172869  73.02 0.0003163996    1.624    0.384
       381  -8.9850    160.9203    106.0009   8.6490518430e+01   2.8769153585e+01    0.2176345    0.2097483  -0.54 0.0003129547    1.056    0.053
       382  -8.3405    112.7074    105.6897   9.7818827155e+01   3.8838440945e+01    0.1384511    0.1141403 -14.49 0.0002124667    1.587    0.370
       383  -7.9398    165.6558    104.7168   8.5141486593e+01   2.7944549628e+01    0.1533769    0.1165987  16.26 0.0007015235    1.640    0.390
       384  -8.1241     65.6569    103.6927   1.1000805120e+02   4.6812663918e+01     0.129494   0.09729275 -33.89 0.0007043186    1.692    0.409
       385  -9.8257    119.7273    101.6456   9.5047645293e+01   3.8353899837e+01    0.2671847    0.1747882 -37.10 0.0008099693    1.659    0.397
       386  -8.2564    141.3031    100.3117   8.9439335632e+01   3.4181430292e+01    0.1483668    0.1193216   2.78 0.0003368169    1.611    0.379
       387  -8.8962    114.4195    130.3010   1.0273463541e+02   3.3302414382e+01    0.3257596    0.1319115 -55.19  0.001057955    2.536    0.606
       388  -8.9206     19.0303    100.0015   1.2251540326e+02   5.2506858217e+01     0.192121     0.116927  72.49  0.001133001    1.696    0.411
       389  -8.5206     89.9487     98.0014   1.0203653338e+02   4.4508704163e+01    0.2150381     0.160659  86.44 0.0005682931    1.613    0.380
       390 -13.1998    177.0453    239.0959   1.0721463220e+02   4.9119323894e+00     1.823283    0.8181096 -37.34   0.01025565    3.096    0.677
       391  -8.1393    168.3906     97.2901   8.2594362451e+01   2.8678846940e+01    0.1605536    0.1163562  18.69 0.0001606812    1.769    0.435
       392 -12.6086    208.9674    244.4320   1.0286400606e+02  -4.0090661294e-01     1.731315    0.8036647  53.09  0.004002137    2.761    0.638
       393 -10.6083      3.4715     91.0739   1.2585809641e+02   5.5570231816e+01    0.4022952    0.1450936 -87.30  0.001777075    2.860    0.650
       394  -7.9209    164.5278     92.4934   8.2099340344e+01   3.0450082939e+01    0.1538232    0.1446896   5.85  0.000148319    1.095    0.087
       395  -8.5555    127.9623     91.2551   9.0240012000e+01   3.8840212264e+01    0.1914479    0.1870164  37.43 0.0001799063    1.070    0.065
       396 -11.9025    204.6273    232.0701   1.0191511307e+02   1.4924742329e+00    0.6421103    0.4972104 -33.57 0.0005370131    1.668    0.401
       397 -11.8578    233.5386    245.1903   9.9243453785e+01  -3.9903652334e+00     0.801819    0.3878413  15.30  0.004399683    2.811    0.644
       398  -8.0828    151.2747     86.3218   8.3273712499e+01   3.4670614041e+01    0.1516641    0.1203398   3.70 0.0002684104    1.576    0.366
       399 -10.4365      9.7191     85.7610   1.2337096460e+02   5.6366504618e+01    0.2568549    0.1685245  61.99 0.0009394936    1.659    0.397
       400 -10.2496      2.4886     82.4941   1.2514339892e+02   5.7533562822e+01    0.2370748    0.1550196  80.20  0.001552652    1.457    0.314
       401  -8.5908     19.3299     80.3536   1.1960687159e+02   5.6914328382e+01    0.1264001   0.07123125 -47.01 0.0007046267    1.777    0.437
       402  -8.4637    158.3683     88.7135   8.2373135727e+01   3.2580707817e+01    0.2064117    0.1435729 -26.80 0.0003109228    1.548    0.354
       403  -7.9046    150.7117     77.2954   8.0735536096e+01   3.6482640623e+01    0.1515644    0.1202422 -71.72 0.0002009944    1.550    0.355
       404  -7.9289    140.2594     72.2991   8.1629020798e+01   3.9843448358e+01    0.1479401    0.1190858   2.88 0.0001830163    1.507    0.336
       405 -10.8201      1.8102     68.4414   1.2347758546e+02   6.0690717693e+01    0.5380098     0.106533 -66.89  0.001414244    3.031    0.670
       406  -9.5505     92.5067     69.5785   9.3645163986e+01   5.0233070557e+01    0.2599855    0.2306512 -46.50 0.0008694966    1.030    0.029
       407  -8.8417    170.5051     68.5242   7.3819167006e+01   3.3213810696e+01    0.2518415    0.1515495 -19.12 0.0006771577    1.965    0.491
       408  -9.2401     68.5533     63.8152   9.9465224439e+01   5.5313177927e+01    0.2303401    0.1985168  34.28  0.001004408    1.331    0.249
       409 -13.1227    196.8201    197.0301   9.8044460272e+01   6.8452478546e+00     1.886568     1.093111 -22.19   0.01021986    2.274    0.560
       410 -10.1739      5.7640     33.4988   1.1498158436e+02   6.8062646793e+01    0.4472237    0.2095053 -12.60  0.002223585    3.394    0.705
       411 -12.1140    191.5661    244.7300   1.0559868486e+02   2.1275424348e+00    0.2741165    0.2150263  14.80 0.0005858435    1.348    0.258
       412 -10.8666      2.2904     53.8392   1.2091954379e+02   6.3882059192e+01    0.5516298    0.2175373 -74.79   0.00187344    2.147    0.534
       413  -9.8068      2.0155     45.9497   1.1949757388e+02   6.5610023359e+01    0.2472479    0.1363741 -55.85 0.0003628733    1.357    0.263
       414 -10.1236      4.7144     41.6346   1.1745561834e+02   6.6397929599e+01    0.2303457    0.1704475 -60.02 0.0003008325    1.007    0.007
       415  -9.8531      9.9080     40.2995   1.1495359472e+02   6.6385405051e+01     0.244313    0.1572443 -47.37 0.0003986608    1.285    0.222
       416 -10.0609     16.1757     40.0624   1.1224128827e+02   6.6024085002e+01    0.4267553    0.1764013  37.22   0.00215101    3.070    0.674
       417  -8.0926    157.6756     59.6508   7.3638312108e+01   3.7887308224e+01    0.1642866    0.1190005  16.41 0.0007049036    1.750    0.429
       418  -8.6025    165.0000     58.0347   7.1604014420e+01   3.6313776185e+01    0.2543618   0.08653971 -31.59 0.0004703326    2.874    0.652
       419  -9.3760    146.7773     57.0177   7.5138587884e+01   4.1013392677e+01    0.2829061    0.2116458 -11.40 0.0007062073    1.526    0.345
       420  -9.6974    125.8597     55.9600   7.9794396132e+01   4.6122457620e+01    0.2288409    0.2159288  38.77 0.0002603172    1.098    0.089
       421 -10.0877     78.7707     52.9906   9.2562620658e+01   5.5978571874e+01    0.2284213     0.200278  55.63 0.0008394214    1.343    0.256
       422  -9.2618     11.4820     35.8715   1.1310018282e+02   6.7222525334e+01    0.2356471    0.1480761 -65.36 0.0008577262    1.331    0.249
       423 -11.9674    225.2171    243.6109   1.0027946997e+02  -2.6728479503e+00    0.7051316    0.2249776 -28.89  0.003520759    4.220    0.763
       424 -11.9645    216.3347    230.6882   9.9878702748e+01  -1.3826731745e-01    0.3324491    0.2398107   1.97 0.0005986624    1.492    0.330
       425  -9.3346    172.0783     49.9860   6.7611709933e+01   3.5752678300e+01    0.2184511    0.2137473  -5.51  0.001178073    1.009    0.009
       426  -8.5929    173.7040     34.0108   6.1998656416e+01   3.7572594418e+01    0.2075603    0.1843835 -18.24 0.0001574356    1.126    0.112
       427  -9.1508     25.8245     34.2057   1.0630807359e+02   6.6484503959e+01    0.1652236    0.1154025 -35.68 0.0003902198    1.307    0.235
       428  -8.8518     30.1660     31.2036   1.0336158983e+02   6.6693056227e+01    0.1879482    0.1379525 -37.93  0.001204637    1.153    0.133
       429 -10.6423      3.5657     27.7772   1.1440270285e+02   6.9370450757e+01    0.4045675    0.2741597 -10.47  0.002031972    1.806    0.446
       430  -9.6590      4.0595     23.6699   1.1293888531e+02   7.0182246952e+01    0.2332943    0.1534081 -44.00 0.0006109059    1.224    0.183
       431  -8.4435     70.3112     29.3009   8.6320569818e+01   6.1805745135e+01    0.1351294   0.09706371  -6.30 0.0003937901    1.606    0.377
       432  -9.4928     23.2070     27.8433   1.0527208895e+02   6.7993667824e+01     0.215398    0.1510909 -44.58 0.0006143152    1.110    0.099
       433  -8.8788    186.5178    245.5124   1.0648228733e+02   2.7919669660e+00    0.1447477    0.1204005  41.94 0.0005838167    1.188    0.159
       434  -9.3235     12.5572     27.5588   1.1011437993e+02   6.8868420538e+01    0.1976415    0.1644867 -73.47 0.0001315077    1.333    0.250
       435 -12.6727    234.7695    146.1424   8.2007065137e+01   6.6672774144e+00     1.973854    0.9503152 -10.00  0.007382343    3.472    0.712
       436  -8.4824     79.1298     22.2126   8.0058748567e+01   6.1428190863e+01    0.1746574    0.1556886 -49.76 0.0004866347    1.328    0.247
       437  -9.6841     28.9586     20.1253   9.9564851664e+01   6.8951567306e+01    0.3034177    0.2455115  34.70  0.001366533    1.576    0.365
       438  -9.4039    119.8813    248.8180   1.1734313356e+02   1.2064742504e+01    0.1914368    0.1713175  -7.55  0.001566226    1.796    0.443
       439 -10.5722    124.2111    246.9999   1.1649832061e+02   1.1697048202e+01    0.2211585    0.1783944  57.48 0.0004392971    1.127    0.113
       440  -9.3885    108.2963    249.1348   1.1918713951e+02   1.3608989640e+01    0.1692765    0.1104376  42.69 0.0005594962    1.313    0.238
       441  -8.0852     24.2815    249.3522   1.3186557891e+02   2.3561855106e+01   0.07383368   0.06486817 -88.81 0.0003573654    1.654    0.395
       442 -10.0117     31.6066    247.4241   1.3073141092e+02   2.3093884489e+01    0.1895948    0.1494204  38.90 0.0007341917    1.748    0.428
       443 -10.3773    132.9492    245.5516   1.1497564419e+02   1.0645255162e+01    0.2080735    0.1728264  35.84  0.000404412    1.315    0.240
       444 -10.1512    134.9170    239.1243   1.1402956939e+02   1.1193276305e+01    0.1890505    0.1791722  43.08 0.0004125379    1.318    0.241
       445 -10.0581      4.5076     16.5329   1.1033005386e+02   7.1580105773e+01    0.2774585    0.1821756  16.43  0.001034522    1.909    0.476
       446 -10.2779    139.4734    234.9655   1.1285682893e+02   1.1070692445e+01    0.2151982    0.1906225  19.19  0.000465597    1.437    0.304
       447  -9.1708     75.6755    246.4507   1.2406220711e+02   1.8210644266e+01    0.1293529    0.1167247 -63.93 0.0006867843    1.702    0.412
       448 -10.2037     80.3880    244.4226   1.2319518331e+02   1.7912773673e+01    0.2034496    0.1605472  49.58 0.0005239505    1.302    0.232
       449  -8.4570     34.4888     20.4804   9.7140803014e+01   6.8306774798e+01    0.1253192   0.09723438 -32.67 0.0001935963    1.047    0.045
       450  -8.8071     47.8004     18.2799   9.0214533641e+01   6.7070382882e+01    0.2413892    0.1342549 -22.88  0.000829462    2.016    0.504
       451  -9.3712     22.8329     15.8213   1.0068106585e+02   7.0338086712e+01    0.1949897    0.1318148 -41.64 0.0003929346    1.141    0.123
       452 -10.2808    113.3965    244.4626   1.1799122789e+02   1.3539493541e+01    0.1892574     0.188314 -34.28 0.0007284177    1.507    0.337
       453  -9.6233     41.3133    244.6597   1.2917679038e+02   2.2469239925e+01      0.16467    0.1282936  61.37 0.0007700901    1.268    0.212
       454 -10.6489    104.5639    241.6947   1.1916618077e+02   1.5130070072e+01    0.2148636    0.2041538  12.25 0.0006691503    1.620    0.383
       455 -10.0310     51.4023    240.7032   1.2744893681e+02   2.1937831056e+01    0.1760634    0.1516512 -86.91 0.0007575711    1.505    0.336
       456  -9.8963    133.6998    230.6284   1.1335690637e+02   1.2513336265e+01    0.2190976    0.1864663  11.46 0.0006874911    1.643    0.391
       457  -9.4445    138.8392    227.4693   1.1215547527e+02   1.2176606723e+01    0.2036903     0.157095  22.08 0.0005331118    1.641    0.391
       458 -10.3111    125.2856    240.1607   1.1569298908e+02   1.2447030702e+01    0.2043516    0.1731342  51.59 0.0003476112    1.172    0.147
       459  -9.9911    129.5340    235.3397   1.1453026311e+02   1.2483622751e+01    0.2585683    0.2012634  17.20 0.0008134025    1.853    0.460
       460 -10.2438    117.8057    238.9642   1.1679356109e+02   1.3672463640e+01    0.2096389    0.1877297 -43.54  0.001407848    1.635    0.389
