#   1 NUMBER                 Running object number                                     
#   2 MAG_AUTO               Kron-like elliptical aperture magnitude                    [mag]
#   3 X_IMAGE                Object position along x                                    [pixel]
#   4 Y_IMAGE                Object position along y                                    [pixel]
#   5 X_WORLD                Barycenter position along world x axis                     [deg]
#   6 Y_WORLD                Barycenter position along world y axis                     [deg]
#   7 A_WORLD                Profile RMS along major axis (world units)                 [deg]
#   8 B_WORLD                Profile RMS along minor axis (world units)                 [deg]
#   9 THETA_WORLD            Position angle (CCW/world-x)                               [deg]
#  10 FWHM_WORLD             FWHM assuming a gaussian core                              [deg]
#  11 ELONGATION             A_IMAGE/B_IMAGE                                           
#  12 ELLIPTICITY            1 - B_IMAGE/A_IMAGE                                       
         1 -12.1071    224.2279     26.1738   3.4366507018e+01   2.7333969812e+01    0.8991655    0.3080254 -38.76  0.002635331    2.533    0.605
         2 -10.5402    249.4141      7.7067   2.8766720865e+01   2.4360819363e+01     0.369309    0.2527611 -48.10  0.002155098    1.299    0.230
         3 -11.5434    238.4618     16.8180   3.1269311342e+01   2.5496545861e+01    0.7343146    0.5242525 -69.09  0.004955302    1.130    0.115
         4 -11.4280    249.8667     39.2650   3.4801049646e+01   2.0494662761e+01    0.8706303    0.2150197 -38.52  0.003022968    3.206    0.688
         5 -12.1475    248.4131     22.0707   3.1559378457e+01   2.2916469317e+01      1.01575    0.4750962 -34.88  0.003580272    2.120    0.528
         6 -11.3411    231.1728     15.3596   3.1530391722e+01   2.7145483073e+01    0.7365699     0.415254 -28.41  0.004139327    2.130    0.531
         7 -10.3212    136.1969     17.0271   4.3065613434e+01   4.8703463586e+01    0.3619239    0.2514054 -78.12  0.001609592    1.727    0.421
         8 -10.9914     87.8783     16.3948   5.3665318741e+01   5.9715504149e+01    0.3228794    0.3175827  77.09  0.001488259    1.255    0.203
         9  -9.0617     91.7758     12.3832   5.0994096516e+01   5.9287538323e+01    0.2278831    0.1209435  41.88 0.0008010327    1.652    0.395
        10 -10.3223    170.1575     17.6905   3.8172892545e+01   4.0532900716e+01    0.4716017    0.1618062  52.25  0.001874178    2.887    0.654
        11  -9.4956    156.9837     17.0631   3.9788454555e+01   4.3735076048e+01    0.3234852    0.1846297 -53.01  0.001620771    1.941    0.485
        12 -10.1314    121.8055     17.1362   4.5795474424e+01   5.2084334221e+01    0.3204372    0.1736304 -29.31  0.001595578    2.051    0.513
        13 -10.0893    193.3429     12.4979   3.4233454881e+01   3.5682629640e+01    0.2522055    0.2034949   7.80  0.001026441    1.844    0.458
        14 -12.1227    113.0990     12.5196   4.5993457723e+01   5.4540003961e+01    0.3476499    0.2502868 -23.33 0.0003155329    1.584    0.369
        15 -10.1182    113.3506      5.6131   4.3507723823e+01   5.5088342533e+01    0.3233682    0.1956579  37.33  0.001186435    1.658    0.397
        16  -9.5980    109.9208      3.7783   4.3539893380e+01   5.6020390770e+01    0.1919459    0.1750412  29.78 0.0003666388    1.150    0.131
        17 -11.0661    141.0623     12.5107   4.0856462373e+01   4.7985052692e+01    0.3403956    0.2697813 -11.30 0.0005419407    1.543    0.352
        18 -10.7432    101.3354     13.5999   4.9044253759e+01   5.7089805406e+01    0.2484173    0.1920558  36.73 0.0002523802    1.176    0.150
        19  -9.2430    100.2682      9.6880   4.7823299016e+01   5.7687311524e+01    0.1775084     0.170431  68.90 0.0001978787    1.183    0.155
        20  -9.5731     67.2443     12.7296   5.8626336899e+01   6.4195305050e+01    0.2904842    0.1431616 -14.09  0.001376158    2.495    0.599
        21 -11.3074    204.5329     11.9976   3.3047934849e+01   3.3220070692e+01    0.3949596    0.2107949 -76.77  0.001240361    1.941    0.485
        22  -9.3111     61.1795     12.4408   6.0683755942e+01   6.5337834357e+01    0.2547571    0.1643415  14.51  0.001452445    1.571    0.363
        23 -10.1040    129.0274     11.5258   4.2570757202e+01   5.0927718113e+01    0.2341589    0.1694554 -50.92 0.0007791581    1.595    0.373
        24  -9.4028    162.0008     10.7144   3.7338011937e+01   4.3170904902e+01    0.1808226    0.1425742  79.00 0.0003563225    1.097    0.088
        25  -8.9462     85.0035     10.7125   5.2174021982e+01   6.0875002249e+01    0.1747455    0.1428956  45.81 0.0008345997    1.096    0.087
        26  -9.3701     42.0215     11.3048   6.8060062687e+01   6.8633809216e+01    0.1696508    0.1257198  21.40 0.0003951161    1.134    0.118
        27  -9.8089     26.8222     10.6189   7.5187676485e+01   7.0804360617e+01    0.2967465    0.1680748  36.96  0.001156092    1.908    0.476
        28  -9.9289    240.0801      9.6848   2.9754423782e+01   2.5972491164e+01     0.307293    0.1891465 -88.91  0.001391623    1.445    0.308
        29 -11.2782    234.3240      3.4627   2.8929403055e+01   2.7794677996e+01    0.5769812    0.3387175 -67.07   0.00215259    1.429    0.300
        30 -11.9840    210.0657      9.3379   3.1969856570e+01   3.2283292920e+01    0.5475075    0.2837873  79.31  0.002976401    1.747    0.428
        31 -11.1481    202.4501      2.9867   3.1207747889e+01   3.4601159889e+01    0.3790873    0.1877803  83.43  0.001275549    1.842    0.457
        32 -10.9082    223.3966      6.3657   3.0279718761e+01   2.9741715546e+01    0.4840333    0.2776391 -46.42  0.002647385    1.554    0.356
        33 -10.6119    218.0541      3.7485   3.0135207037e+01   3.1140390051e+01    0.2497176    0.1952188 -84.17 0.0004493569    1.061    0.058
        34 -11.0953    186.3688      3.2930   3.2720531882e+01   3.8189155099e+01    0.3370455    0.2983204  59.56 0.0004443963    1.291    0.225
        35 -10.5698     32.4120      6.4503   7.0206210367e+01   7.0593512715e+01    0.2567709    0.1696712   3.30 0.0007264719    1.359    0.264
        36 -10.0144    138.8370      6.2618   3.9294625302e+01   4.9078852427e+01    0.2068076    0.1849547   5.43 0.0006359041    1.344    0.256
        37 -11.0852     65.6386      5.8488   5.6074691590e+01   6.5177544778e+01    0.4694318    0.2234728  38.66  0.001600291    1.793    0.442
        38  -9.9540     94.4724      5.3063   4.7524500163e+01   5.9336434536e+01    0.3634136    0.1883997  67.73  0.001715921    2.059    0.514
        39 -10.5402    241.9288      2.6964   2.8292478513e+01   2.6356596600e+01    0.4423507    0.2079248 -64.65  0.002493949    1.874    0.466
        40 -10.5263    183.0235      8.9781   3.4440903061e+01   3.8408821742e+01    0.3101668    0.1807782  66.46 0.0004823337    1.519    0.342
        41 -10.0233    169.5514      4.9901   3.4896441550e+01   4.1927405192e+01     0.270464    0.1163284  83.21  0.001166582    2.475    0.596
        42 -10.2714    149.3783      2.8322   3.6775231017e+01   4.6875437358e+01    0.3659557    0.1804366  45.54  0.001643662    2.155    0.536
        43  -8.6918    120.6763      3.7075   4.1475845941e+01   5.3554471623e+01    0.1330117   0.08014853  41.55 0.0002460495    1.615    0.381
        44  -8.9790     78.1363      2.8327   5.0819934500e+01   6.2985741133e+01    0.1674272    0.1538633  41.34 0.0003560807    1.177    0.151
        45  -9.0848    248.6071      1.9733   2.7751887346e+01   2.5131951916e+01    0.1868639   0.09781341 -56.12  0.000713004    1.514    0.339
        46  -9.2730    233.5387    174.2901   6.5002807391e+01   1.6335608645e+00    0.2564239    0.1148372 -42.93   0.00113368    2.086    0.521
        47  -9.4649    249.4797    250.0911   7.5805296637e+01  -1.1787821379e+01    0.2069801    0.1343386  10.03 0.0007722435    1.265    0.209
        48  -9.5532    249.2029    246.0212   7.5195500710e+01  -1.1242832778e+01      0.26149    0.1409844 -28.76 0.0009295475    1.651    0.394
        49  -9.1842    209.7637    250.3801   8.3036819590e+01  -6.9979222392e+00     0.173414   0.09430342  21.62 0.0009497646    1.655    0.396
        50  -8.8597    111.0041    250.0457   1.0306176505e+02   7.1781630466e+00    0.1863394    0.1245103  61.84  0.001038527    1.677    0.404
        51 -10.2592      3.6066    250.1451   1.2418902475e+02   2.0267462933e+01    0.2250344    0.1583548  49.10  0.001656639    1.257    0.204
        52 -10.8654      2.8534    242.9753   1.2401552932e+02   2.1726774274e+01    0.4281075    0.1625019  72.92  0.002162615    2.501    0.600
        53  -9.8415    225.9257    173.0132   6.6101626228e+01   3.0598608307e+00    0.3584906    0.1866819 -39.48   0.00152279    1.728    0.421
        54  -8.7873    250.7637    172.0164   6.1661670426e+01  -5.7845462263e-01    0.1713489   0.09073693 -37.04 0.0008513566    1.589    0.371
        55 -10.5685    245.4728    167.5855   6.1654295646e+01   9.3455288955e-01    0.4434994    0.2327709  23.96  0.002028176    2.656    0.623
        56  -9.2604    234.4685    164.4786   6.2878874143e+01   3.1750768126e+00    0.2419913    0.1116729 -47.75   0.00102917    2.318    0.569
        57  -9.3327    240.5880    163.7655   6.1701525376e+01   2.3285116557e+00    0.1872282    0.1101842 -44.54 0.0009189881    1.621    0.383
        58 -10.9931    246.1105    159.2520   5.9895522260e+01   2.2318387140e+00    0.5686245    0.1612977 -42.90  0.002057971    3.159    0.683
        59  -9.8586    250.6375    157.5223   5.8833527231e+01   1.8247187513e+00    0.3616319    0.1040262 -39.65    0.0013524    2.908    0.656
        60 -10.5542    250.0399    150.6635   5.7556329767e+01   3.0614347232e+00    0.4486075    0.1571361 -42.21   0.00183575    2.444    0.591
        61  -9.5553    226.9918    156.5426   6.2550433658e+01   5.8050049977e+00     0.283511    0.1720719 -26.44  0.001373871    1.669    0.401
        62  -8.3197    146.6527    157.2759   7.9662278496e+01   2.0763363081e+01    0.1540699    0.1224086  73.91 0.0004874567    1.631    0.387
        63 -10.0355    242.1740    152.9167   5.9251925029e+01   3.9288621600e+00    0.3064176    0.2063123 -46.80  0.001431017    1.455    0.313
        64 -11.5354    244.4398    147.8504   5.7859491758e+01   4.4288967731e+00    0.6505743    0.2833418 -34.11   0.00284985    2.097    0.523
        65  -8.9311    233.3620    152.8195   6.0684736293e+01   5.3924038172e+00    0.2031247    0.1108841 -30.93 0.0009466712    1.743    0.426
        66  -8.9231    221.4907    152.5342   6.2684689070e+01   7.4782390943e+00    0.1393026    0.1231644 -28.75 0.0008094777    1.026    0.026
        67  -9.5616    224.2937    145.8115   6.0766675893e+01   8.2075125957e+00    0.3283657    0.1766559 -36.81  0.001517296    1.666    0.400
        68  -9.3281    230.4022    140.6638   5.8635811131e+01   8.0546051364e+00    0.2756674    0.1152843 -43.16  0.001136155    2.125    0.529
        69  -9.7317    250.2197    140.1022   5.5396014490e+01   4.8061259936e+00    0.2452797    0.1532138 -35.01 0.0009967085    1.350    0.259
        70 -10.8830    248.8794    134.9069   5.4535869738e+01   5.9006130128e+00    0.3889702    0.2001983 -38.36   0.00126983    1.624    0.384
        71 -10.7509    248.5036    130.4802   5.3682670985e+01   6.7104260422e+00    0.2723849    0.2055189 -46.02 0.0009258001    1.194    0.162
        72 -11.7792    242.2976    134.9051   5.5526748930e+01   7.0044906348e+00    0.6335132    0.2501501 -36.71  0.002586146    2.239    0.553
        73 -10.2027    234.1240    134.6779   5.6759884873e+01   8.4600455796e+00     0.258015    0.1642337 -45.51   0.00132836    1.427    0.299
        74  -9.1197     65.4970    132.0076   9.7222914704e+01   4.1051249613e+01    0.2166221     0.136167 -59.94 0.0003785377    1.476    0.323
        75 -11.4252    241.1511    124.4628   5.3514908164e+01   8.9983418180e+00    0.4223343     0.241963 -51.75  0.002068647    1.772    0.436
        76  -9.5136    228.4935    124.9783   5.5581289394e+01   1.1195821342e+01    0.2235044    0.1212374 -39.63  0.001040157    1.611    0.379
        77 -11.3859     69.3448    122.6284   9.4079424827e+01   4.2884964141e+01    0.2597334    0.2443672 -58.31 0.0002852341    1.025    0.025
        78  -9.7537    243.5639    118.7148   5.1952991765e+01   9.5531232967e+00     0.190752    0.1072858 -47.01 0.0009424673    1.584    0.369
        79 -11.5787    242.6831     91.9079   4.6409137515e+01   1.4163272770e+01    0.5115525    0.2102752 -44.17  0.002265362    2.041    0.510
        80 -10.4023    249.6459     97.8969   4.6779731235e+01   1.1913032739e+01     0.292432    0.2284426 -32.75  0.001619983    1.249    0.199
        81 -12.3008    242.5814    104.6207   4.9116737659e+01   1.2098714369e+01    0.8079649    0.2409622 -40.15  0.003021837    2.792    0.642
        82 -10.5541    248.9033    117.7092   5.0988814708e+01   8.7878090878e+00    0.3573227    0.2590386  83.68  0.001961359    2.008    0.502
        83 -11.5888    248.1624    112.8804   5.0088698239e+01   9.7217266866e+00    0.5429985    0.3870085  50.15  0.003160744    1.672    0.402
        84 -12.1976    248.3400    105.8824   4.8608528733e+01   1.0847288465e+01     1.019101    0.3346325 -47.29  0.003906669    2.834    0.647
        85 -10.5854    236.2591    117.2620   5.2714361452e+01   1.1116600616e+01    0.2566967    0.1979391 -59.45 0.0009025317    1.359    0.264
        86 -10.6566    231.2116    116.0447   5.3213715195e+01   1.2263367481e+01    0.2818047    0.2215285 -78.92  0.001556556    1.594    0.373
        87  -8.7032    104.8287    111.6370   8.0257549020e+01   3.9626182456e+01    0.2106555    0.1430012  48.79 0.0004729787    1.586    0.370
        88  -8.9552     15.4831    112.0155   1.1005401106e+02   5.1177279397e+01    0.2002291     0.111536 -69.75 0.0006824437    1.531    0.347
        89  -8.9412    130.7667     98.4519   6.9281162971e+01   3.7216524513e+01    0.1940072    0.1487062  32.85 0.0009011475    1.385    0.278
        90  -8.9804     72.4812     95.5174   8.6484437251e+01   4.8969882037e+01    0.1483315    0.1344975 -26.61 0.0001466341    1.042    0.040
        91 -10.9705    236.6343     91.1731   4.7038833587e+01   1.5436307314e+01    0.3128103    0.2163571 -11.24  0.001542373    2.255    0.557
        92  -9.1767     18.9678     91.5119   1.0531558646e+02   5.5900424142e+01    0.1757889    0.1282856  15.16 0.0008806495    1.570    0.363
        93  -9.8462     38.3349     89.9508   9.7606410135e+01   5.4618736605e+01    0.2123462    0.1863208  -8.76 0.0002740314    1.179    0.152
        94  -9.5170     27.9334     89.1702   1.0141635380e+02   5.5761518806e+01    0.1943177    0.1754378  89.49 0.0008213707    1.296    0.228
        95 -11.8325    248.2825     86.0884   4.4494959834e+01   1.4042536126e+01    0.6489038    0.3621998 -62.69  0.003181272    2.093    0.522
        96 -11.7480    246.3033     78.3845   4.3124416228e+01   1.5611008827e+01      1.01367    0.4106877 -60.81  0.003483263    4.293    0.767
        97  -9.1464    188.9463     88.1107   5.3661472614e+01   2.6000784521e+01    0.2023926    0.1778022 -74.19  0.001104371    1.154    0.133
        98  -8.8503     54.6563     88.3309   9.1014333953e+01   5.3131176529e+01    0.1390254    0.1106651  72.60 0.0004045321    1.753    0.430
        99 -10.8330    236.4047     81.3391   4.4945223399e+01   1.7060497762e+01    0.3690915    0.1714148 -35.05  0.001665226    2.075    0.518
       100 -10.1103    230.0591     84.1789   4.6384960604e+01   1.7866663550e+01    0.3726115    0.2020772  62.32  0.001297301    2.077    0.518
       101 -10.7439    195.7204     82.1636   5.1015612305e+01   2.5511727191e+01    0.2393759    0.2239643  72.22 0.0002312586    1.108    0.097
       102  -8.8794     63.5150     82.4391   8.6067069144e+01   5.3246087592e+01    0.1429482    0.1281412 -21.97 5.467732e-05    1.023    0.022
       103  -9.5480     87.8937     82.1363   7.7331228039e+01   4.9324774948e+01    0.2692493    0.2498097  73.47  0.001481548    1.297    0.229
       104  -9.1385     32.2721     76.9597   9.6809632261e+01   5.8177295835e+01     0.229444    0.1547617  -9.70 0.0007079183    1.635    0.388
       105 -10.1623    234.6532     74.5920   4.3704051554e+01   1.8462721670e+01    0.3517286    0.1664515 -47.25  0.001247687    1.838    0.456
       106 -10.0466     21.2584     75.1792   1.0090517450e+02   5.9502321133e+01    0.3676676    0.1247303  33.72  0.001496492    3.352    0.702
       107 -10.2584    128.8190     70.9949   6.1735089252e+01   4.2979221724e+01    0.2813067    0.2316633 -29.49 0.0003490972    1.272    0.214
       108  -8.6901     80.5878     71.7780   7.6583458673e+01   5.2736540779e+01    0.1881173    0.1356444 -52.62 0.0003796534    1.550    0.355
       109 -10.0770     28.9486     71.5748   9.6786124336e+01   5.9670244614e+01    0.2364669    0.1672441 -49.79 0.0003328388    1.227    0.185
       110  -8.8664     37.2627     71.3719   9.3249166208e+01   5.8914532244e+01    0.1634059    0.1201944  31.16 0.0002659665    1.523    0.343
       111  -9.5517    113.8703     69.5755   6.5310723678e+01   4.6561835830e+01     0.284338    0.2030219 -77.80  0.001221338    2.280    0.561
       112  -8.4993     70.6776     70.6958   7.9807451425e+01   5.4622203339e+01    0.1465033     0.104198  -9.07  0.000382328    1.637    0.389
       113  -8.6625    138.0000     68.9722   5.8861671849e+01   4.1216121642e+01    0.2435396   0.08459325 -37.33 0.0008060458    2.968    0.663
       114 -11.8050    235.4769     67.0315   4.1975474997e+01   1.9449000520e+01    0.5383718    0.2480703  69.56  0.002458042    2.559    0.609
       115 -10.4287    238.7588     64.5557   4.1074496993e+01   1.9162122320e+01    0.2691757    0.1872398  87.88    0.0010264    1.561    0.360
       116 -10.2932    227.5359     66.2110   4.2738266329e+01   2.1190381031e+01    0.2812465    0.2115763 -28.99  0.001611347    1.494    0.331
       117 -10.9096    249.1626     64.9660   4.0038820267e+01   1.7079337617e+01    0.3959964    0.1819666 -54.91  0.001784226    2.086    0.521
       118  -8.5431    173.2714     66.6744   5.0899925793e+01   3.3259990221e+01    0.1465602     0.105649 -68.47 0.0002352266    1.578    0.366
       119  -9.2441     28.6919     65.9034   9.5351663791e+01   6.0917043730e+01    0.1735173     0.142434 -43.89  0.000229086    1.106    0.096
       120  -9.7001     15.2863     66.1665   1.0126129830e+02   6.1913079140e+01    0.2003611    0.1476783 -21.30 0.0003378289    1.288    0.224
       121  -9.4302      3.6622     65.6787   1.0621438331e+02   6.2687150279e+01    0.2179818    0.1036512 -38.48  0.001134232    1.779    0.438
       122 -10.3540    101.0440     62.9290   6.6914148569e+01   5.0463513124e+01    0.3987806    0.3095311 -70.37  0.001141278    1.830    0.453
       123  -9.0043    144.4990     64.4658   5.6023652638e+01   4.0447383704e+01    0.1451075    0.1394315  62.88 9.321945e-05    1.002    0.002
       124  -8.3100    118.6210     64.7135   6.2441999109e+01   4.6373232838e+01    0.1547552    0.1104024  20.35  0.000701535    1.729    0.422
       125 -11.3320     39.7200     60.4809   8.8943321001e+01   6.0925648439e+01    0.4292268    0.3429872  75.69  0.001246791    2.086    0.521
       126 -10.6231     34.5812     59.8196   9.0977107329e+01   6.1613552241e+01    0.2864698    0.2165724 -13.29 0.0006386697    1.252    0.201
       127 -10.1582    235.4953     60.9493   4.0669712136e+01   2.0344539520e+01     0.270099     0.133706 -43.71 0.0007934819    1.722    0.419
       128  -9.9299    134.5426     58.8598   5.6585525826e+01   4.3695688537e+01    0.5155009    0.2180087 -50.32  0.001788375    3.168    0.684
       129 -11.4031    243.7853     58.2227   3.9209226860e+01   1.9090804513e+01    0.3225797    0.2701508  77.47  0.001549819    1.283    0.220
       130  -9.6159    225.1925    248.9058   7.9927684134e+01  -8.7640711021e+00    0.2241882    0.1366897 -13.33  0.001341701    1.584    0.369
       131  -9.3372     49.7996    249.6291   1.1552390420e+02   1.5420769329e+01    0.1774696    0.0828527  44.89  0.000654451    1.708    0.415
       132 -11.8804    242.5827     51.9197   3.8027947460e+01   2.0215196638e+01    0.7883118    0.4884321  46.03  0.004287238    2.277    0.561
       133 -11.2282    239.4252     36.9094   3.5239841858e+01   2.2856096752e+01    0.8023612    0.3487298  49.13  0.003547198    3.484    0.713
       134 -11.0489    239.5387     31.0162   3.4029872654e+01   2.3580795595e+01    0.5376894    0.2628747  70.97   0.00289836    2.039    0.510
       135 -10.3329     12.5322    248.8837   1.2253321901e+02   1.9646010668e+01    0.2444792   0.09270252  50.01  0.001332304    1.990    0.498
       136 -10.8419    244.2428     42.2714   3.5897022436e+01   2.1196646707e+01    0.4219972    0.3339419 -25.25  0.002718126    1.615    0.381
       137 -10.0738     20.3728    248.8601   1.2109438434e+02   1.8855995396e+01     0.239674   0.09910401  53.51  0.001307905    1.911    0.477
       138 -10.3401    243.1431    245.8132   7.6213182541e+01  -1.0518896395e+01    0.3574541    0.1709874 -26.15  0.001661128    1.953    0.488
       139  -8.9277    174.3554     59.2219   4.8706981856e+01   3.4171600748e+01    0.1873912    0.1653124  60.31 0.0005341825    1.134    0.118
       140  -9.9462     25.4138     58.7857   9.4750991526e+01   6.2697307545e+01    0.1878981   0.09562023 -44.16 0.0007600323    1.627    0.385
       141  -9.0405    120.6028     56.8123   5.9363712258e+01   4.7236136127e+01    0.2457731     0.182107  41.63 0.0005672962    1.299    0.230
       142 -10.2382    192.7118     56.5245   4.5101190147e+01   3.0281234222e+01    0.2772108    0.1938146 -63.15 0.0006028068    1.461    0.316
       143  -9.7040    112.5638     55.3216   6.1015336390e+01   4.9272578852e+01    0.2886123    0.2480956  43.94  0.001200217    1.101    0.092
       144  -9.0015     64.0223     56.5151   7.7549643340e+01   5.8405972890e+01    0.1862627    0.1279443  41.79 0.0009658291    1.591    0.371
       145  -9.6546    250.5152     54.9397   3.7869110206e+01   1.8253997600e+01    0.1894584    0.1026553 -41.00 0.0007361264    1.585    0.369
       146 -10.2149    208.2964     55.0504   4.2601439227e+01   2.6971542286e+01    0.2257871    0.1789786  86.40 0.0003617472    1.228    0.186
       147 -10.3104    205.0561     51.4312   4.2162573685e+01   2.8212745721e+01    0.2969676    0.2453864  34.74 0.0004891783    1.593    0.372
       148  -9.2267    172.8962     52.1556   4.7048989332e+01   3.5568964935e+01    0.4040147    0.1455203 -43.91    0.0015017    2.770    0.639
       149 -10.7373    228.8930     51.2502   3.9304785754e+01   2.3083912406e+01    0.3118908    0.2220738  64.62   0.00185294    1.490    0.329
       150  -9.3565     10.1987     52.4066   9.9969615120e+01   6.5139464077e+01    0.1589774    0.1059147  26.40 0.0009575885    1.757    0.431
       151  -9.6346    120.1789     50.5423   5.7414317445e+01   4.8302632862e+01    0.2185636    0.1942472 -27.54 0.0003167836    1.191    0.160
       152  -9.8352     85.0499     50.9710   6.7885398769e+01   5.5680596674e+01    0.3090011    0.1876014  44.93  0.001495716    1.618    0.382
       153  -9.8739     79.5004     49.9129   6.9408942517e+01   5.6899750815e+01    0.3157918    0.2656383  12.39  0.001082329    1.113    0.102
       154  -9.1396     73.8660     49.2095   7.1168779172e+01   5.8035275099e+01    0.3514931     0.198827  -5.85  0.001341427    3.184    0.686
       155  -9.8710    192.6340     48.8604   4.3197274833e+01   3.1402441897e+01    0.2579543    0.1830419  78.35  0.000634774    1.393    0.282
       156  -8.6477     19.9843     47.4887   9.3794150726e+01   6.5417285843e+01    0.1685046    0.1133481  12.22 0.0005452221    1.522    0.343
       157  -9.3795    163.8912     46.0299   4.6879086347e+01   3.8589296244e+01    0.2116327     0.170334 -72.74 0.0005030058    1.298    0.230
       158  -9.2005    233.4928     45.4728   3.7586238653e+01   2.2929102021e+01    0.1262272    0.1036532 -66.07 0.0001359292    1.005    0.005
       159 -10.7229     32.1722     43.8905   8.6719178683e+01   6.4942548917e+01    0.5413345    0.2565747  29.41  0.001965174    2.166    0.538
       160  -9.0340    189.7970     44.1754   4.2415431477e+01   3.2705569226e+01    0.1756338    0.1611337  35.32  0.001069617    1.335    0.251
       161  -9.1215    134.8157     43.6606   5.1759648199e+01   4.5881183983e+01    0.3149172    0.1358043 -52.08  0.001094341    3.471    0.712
       162 -10.4374     96.1195     42.9992   6.1441906401e+01   5.4687834169e+01    0.4231961    0.2556075  -1.59  0.001789473    2.588    0.614
       163 -10.3141    223.5048     40.7644   3.7590829972e+01   2.5643740852e+01    0.2992652    0.2096893 -50.43  0.001788933    1.261    0.207
       164  -9.5530    185.6257     40.9374   4.2169339120e+01   3.4112107689e+01    0.3211372    0.1374215 -27.08  0.001276578    2.933    0.659
       165  -8.9411    128.1705     40.6952   5.2269502841e+01   4.7848973290e+01    0.2662434    0.1766614  15.95 0.0006751964    2.132    0.531
       166  -8.1006    139.2950     43.6753   5.0817612069e+01   4.4814941777e+01    0.1409687    0.1059097 -72.60 0.0003869362    1.622    0.383
       167  -8.9092     67.9596     42.0000   7.0632046576e+01   6.0229417763e+01    0.2100438   0.07105865  41.53 0.0004013267    2.848    0.649
       168  -9.8667    238.6784     44.1835   3.6807730475e+01   2.2049764763e+01    0.2049537    0.1478496 -84.94   0.00103543    1.325    0.245
       169  -9.6331      1.4367     40.0636   1.0076633161e+02   6.8094086133e+01    0.1731769   0.09405194 -53.91 0.0003120633    1.536    0.349
       170  -9.4446     61.4103     38.3934   7.1757207481e+01   6.1889720628e+01    0.2344791    0.2017942 -47.34 0.0008695944    1.494    0.331
       171  -9.7984     51.7738     38.3043   7.5702115204e+01   6.3402387728e+01    0.2290063    0.2159109  87.19  0.001130534    1.644    0.392
       172  -9.4064    232.6445     37.4065   3.5966613276e+01   2.4171174907e+01     0.215892    0.1108219  78.73 0.0006790164    2.042    0.510
       173 -10.3565    191.4108     36.7290   4.0341651790e+01   3.3312555787e+01    0.3465496    0.1969365  76.27 0.0008747291    1.756    0.431
       174  -9.9371    124.5774     35.2067   5.1270102937e+01   4.9402042320e+01    0.3527697     0.218958 -46.36  0.001021432    1.853    0.460
       175  -9.1825    113.2926     35.8190   5.4148747090e+01   5.1920636039e+01    0.2657694    0.1504225  34.25  0.001063505    1.970    0.492
       176  -9.0469      4.8227     33.2002   9.6803266584e+01   6.9206101544e+01    0.1755205     0.123152  63.16 0.0009634246    2.966    0.663
       177 -11.0164    211.7068     31.7913   3.6822019665e+01   2.9348512550e+01    0.3047416    0.2485913  64.25  0.001755673    1.320    0.242
       178  -8.9095    134.1556     32.1698   4.8247314610e+01   4.7519672390e+01    0.1994079    0.1705928  39.73 0.0004863854    1.174    0.148
       179  -9.7101     68.6990     31.7197   6.6242902266e+01   6.1618748915e+01    0.5443663    0.1584834  43.15  0.001878928    3.155    0.683
       180  -9.5072     67.2169     28.8256   6.5595523485e+01   6.2277821709e+01    0.2833426    0.1556267 -22.82  0.001101509    1.976    0.494
       181  -9.7052     20.1597     31.8198   8.8140390672e+01   6.8282560108e+01    0.1657658    0.1404487 -10.02 0.0004001849    1.147    0.128
       182  -8.7787     24.3527     30.7774   8.5559347022e+01   6.8055234774e+01    0.1721749   0.08933972 -34.45 0.0003310097    1.680    0.405
       183  -9.6433     12.7907     30.6018   9.1576509159e+01   6.9121926730e+01     0.208056    0.1684124  70.65  0.001280147    2.407    0.585
       184  -9.2454     84.8255     29.1016   5.9653995719e+01   5.8890455621e+01    0.1920929    0.1781078  46.89 0.0006730729    1.204    0.169
       185  -8.7245    197.2891     28.6204   3.7655782587e+01   3.2968882329e+01    0.1399968    0.0825287 -63.94 0.0007017272    1.737    0.424
       186  -8.7959    166.5679     28.4766   4.1581622666e+01   4.0187246705e+01    0.1330005    0.1175933  88.61 0.0007056215    1.031    0.030
       187  -9.1730    158.0924     28.2023   4.2788936459e+01   4.2251234377e+01    0.2061039    0.1704926  44.66 0.0007101376    1.290    0.225
       188  -9.5604    202.1867     27.0059   3.6731457547e+01   3.2052567264e+01    0.1926366    0.1489051  18.71  0.001089676    2.034    0.508
       189 -10.2828    192.8166     25.4182   3.7393168690e+01   3.4373042396e+01    0.3045516    0.2045689   5.62  0.001441135    2.734    0.634
       190  -9.3658    243.5326    225.4956   7.2741210960e+01  -7.8074627714e+00    0.2880357    0.1031249 -39.51  0.001317056    2.691    0.628
       191  -9.4137    136.8952     25.6926   4.5664577561e+01   4.7620401686e+01    0.2320985    0.1830693 -42.58 0.0004735253    1.391    0.281
       192  -8.7697    123.8414     25.8629   4.8312564498e+01   5.0686058773e+01    0.1743473    0.1516262 -67.63 0.0004223588    1.316    0.240
       193  -9.4345     37.9132     25.9232   7.6774048111e+01   6.7249446902e+01    0.1861661     0.148452  -2.94 0.0004133969    1.009    0.009
       194  -9.3277      8.2508     26.4285   9.2479172212e+01   7.0191662963e+01     0.141828   0.09962608  20.64  0.000655139    1.562    0.360
       195  -9.7851    142.1808     23.8756   4.4145863208e+01   4.6558814133e+01    0.3246996    0.1775574 -31.23  0.001585491    2.002    0.501
       196  -8.7378     63.8068     25.6794   6.5551787329e+01   6.3296571680e+01    0.1693579     0.108973  46.86 0.0003279144    1.617    0.382
       197  -8.8135    173.6801     24.6694   3.9563997304e+01   3.8932977840e+01    0.1310917   0.09474745  39.07 0.0007048422    1.691    0.409
       198  -8.5928      1.3555     23.8428   9.5413342516e+01   7.1095719319e+01    0.1617899   0.07585444 -41.59 0.0001624023    1.630    0.387
       199 -10.4564    157.2962     22.9039   4.1401583164e+01   4.3040540780e+01    0.2735509    0.1823409  72.72 0.0003066774    1.370    0.270
       200  -9.8998    161.9006     21.5229   4.0335842939e+01   4.2088730120e+01    0.2569036    0.1782082  67.91 0.0007512102    1.276    0.217
       201 -10.1304    199.0348     21.4618   3.5766278448e+01   3.3411165184e+01    0.2241299    0.1805711 -44.42  0.000571321    1.285    0.222
       202  -9.5648     78.0368     21.9371   5.8936415997e+01   6.1108105969e+01    0.1974204    0.1699253  26.91 0.0004830605    1.032    0.031
       203  -9.4518    103.5089     20.9332   5.1247050203e+01   5.5867021903e+01     0.246155     0.184813  75.03  0.001087214    1.552    0.356
       204 -10.5667     71.0508     19.9213   6.0441050346e+01   6.2686799573e+01    0.2371213    0.1946059 -24.93 0.0004279423    1.338    0.252
       205  -9.0217    128.0862     18.8482   4.5132532432e+01   5.0439865532e+01    0.3754677     0.174945  67.56  0.001322978    2.083    0.520
       206 -10.3855    133.0270     19.7132   4.4484670007e+01   4.9183150446e+01    0.2742967    0.2125366   3.25 0.0004708633    1.601    0.375
       207 -11.5643    247.8500    215.5862   7.0259457248e+01  -6.9275382487e+00    0.7133366    0.2527203 -36.52  0.003267188    2.505    0.601
       208  -9.9675    243.6437    236.5039   7.4591681461e+01  -9.3445754550e+00    0.2090448    0.1384468 -25.76 0.0006808854    1.340    0.254
       209 -10.4548    246.9500    239.9309   7.4585793376e+01  -1.0193636679e+01    0.3188764    0.2026606 -19.03  0.001337638    1.328    0.247
       210 -10.0725    249.1820    234.2366   7.3250368761e+01  -9.6977338382e+00    0.3135026    0.1839599 -31.64  0.001273654    1.550    0.355
       211 -11.2329    246.8885    228.8636   7.2735419818e+01  -8.6912001090e+00    0.6531762    0.3500757 -16.90  0.003592039    1.867    0.464
       212 -10.0781    233.1646    245.6396   7.7955744998e+01  -9.3064829612e+00    0.3475939    0.1761588 -25.23  0.001738098    1.902    0.474
       213  -8.7638     51.9854     18.5099   6.7109365912e+01   6.6201593530e+01    0.1501127     0.108746  62.13 0.0004480818    2.376    0.579
       214 -10.3681     23.9348     17.9354   8.0235180959e+01   7.0124284401e+01    0.3589866    0.1491341  30.42   0.00150405    2.338    0.572
       215  -8.9361     16.2897     18.3296   8.4600859905e+01   7.0851964817e+01    0.1224588   0.07050487 -16.76 0.0004994654    1.621    0.383
       216  -9.6793    195.3706     16.7236   3.5029001996e+01   3.4770319877e+01    0.2224336    0.1669829 -86.53  0.000640201    1.169    0.144
       217 -10.6749    225.3982    241.7722   7.8739835962e+01  -7.8118841662e+00    0.3619056    0.1810095 -27.08  0.001940016    1.975    0.494
       218  -9.9849     17.9532    240.9687   1.2112288457e+02   2.0658694273e+01    0.1999846    0.0982058  62.16  0.001140035    1.718    0.418
       219  -9.6222    214.5376    239.7803   8.0442182433e+01  -6.1143793162e+00      0.21752     0.106791 -33.13 0.0009351483    2.025    0.506
       220 -10.3711    230.8070    235.1663   7.6658161087e+01  -7.5730437688e+00    0.3827631    0.2194815 -34.56  0.002231964    1.689    0.408
       221 -10.6828      6.3920    235.9890   1.2304401596e+02   2.2787019041e+01    0.3169959    0.1254238  59.10  0.001674018    2.109    0.526
       222  -9.6548     39.9500     15.3167   7.0953702640e+01   6.8442457938e+01    0.1657554    0.1293949  11.56 0.0003617808    1.054    0.051
       223  -9.8140    205.2100    235.0513   8.1458050626e+01  -4.1378017672e+00    0.3412541    0.1403481 -45.31  0.001531514    2.841    0.648
       224 -10.4523    236.6337    228.3776   7.4457484728e+01  -7.3494792614e+00    0.4085846    0.2388048 -31.26  0.002401494    1.559    0.359
       225 -10.3843    228.8647    227.6579   7.5740727157e+01  -6.2408097104e+00    0.4873048      0.20894 -28.03  0.002267203    2.442    0.591
       226  -9.9777    216.2957    231.1022   7.8670357888e+01  -5.0686844297e+00    0.2093367    0.1374715 -14.57  0.001211608    1.474    0.321
       227  -9.0358    223.5895    225.2440   7.6299958772e+01  -5.1781573700e+00    0.1723127    0.1017147 -24.89 0.0005127924    1.604    0.377
       228 -11.1393    238.6617    218.9845   7.2464905375e+01  -6.2466158134e+00    0.5130178    0.2727577 -35.84  0.002074433    1.739    0.425
       229 -10.5675    227.3831    219.0456   7.4516198028e+01  -4.7536498798e+00    0.3467642    0.1958445 -25.04  0.001862148    1.690    0.408
       230  -9.1332    193.6628    220.3116   8.1272493821e+01  -9.0163733719e-02    0.1211243    0.1050865  61.91 0.0007045303    1.688    0.407
       231  -8.9387     80.4809     11.5633   5.3841069752e+01   6.1724232761e+01    0.1284495    0.1045161  33.20 5.517017e-05    1.027    0.027
       232  -9.6383    212.4869    219.4866   7.7402812086e+01  -2.7364503506e+00    0.1297054     0.107253  -0.53 8.885441e-05    1.005    0.005
       233  -8.0596     56.2482    216.7310   1.1142201477e+02   2.1471995443e+01    0.1258046   0.08317731  65.91 0.0006793233    1.440    0.306
       234 -10.0399    232.9266    212.2675   7.2297703067e+01  -4.4707926014e+00    0.3461248    0.1839481 -37.17  0.001528901    1.757    0.431
       235 -10.6921    213.5859    212.7695   7.5999766073e+01  -1.8121052700e+00    0.2306067    0.1733042 -16.02  0.001372002    1.205    0.170
       236  -9.1408    240.5871    209.2615   7.0390098537e+01  -5.0449527524e+00    0.1712461   0.09970782 -26.33  0.000677251    1.525    0.344
       237 -10.2720    240.0734    239.8453   7.5775233524e+01  -9.3659595543e+00    0.2726083    0.2073498 -15.01  0.001054406    1.151    0.131
       238  -8.3710    150.2825     10.3322   3.8817903883e+01   4.5993831439e+01    0.1279321   0.08859859  39.89 0.0007006847    1.612    0.380
       239  -8.8604    133.6586     10.6853   4.1501146885e+01   4.9911714725e+01    0.1374168   0.08437318  40.47 0.0007047686    1.705    0.414
       240  -8.1633    124.2530    205.7568   9.4162823431e+01   1.3949921748e+01    0.1306574    0.1032156  62.58            0    1.409    0.290
       241  -9.5107    235.4969    203.4861   7.0238418523e+01  -3.4584317067e+00    0.2506696    0.1101836 -38.04 0.0007943329    2.068    0.517
       242 -10.2905    250.0747    200.1480   6.7095583491e+01  -4.9192956033e+00    0.4421251    0.1534092 -37.55  0.001856073    2.502    0.600
       243 -11.0793    247.1212    193.4186   6.6347201653e+01  -3.4842314553e+00    0.4020309    0.2433905 -41.22  0.002247076    1.617    0.381
       244 -10.2610    242.5286    199.9310   6.8345160965e+01  -3.8721342400e+00     0.322673    0.1878716 -36.45  0.001511781    1.545    0.353
       245  -9.5252    229.2471    199.6494   7.0654868023e+01  -1.9578485233e+00    0.2344887     0.146316 -43.28  0.001259593    1.687    0.407
       246  -9.8167    231.3964    193.7842   6.9162681672e+01  -1.3130605244e+00    0.2513956    0.2105974 -23.82  0.001158325    1.124    0.110
       247 -11.0013    237.4318    187.7369   6.6939604684e+01  -1.2040589532e+00    0.3677012    0.2146169 -40.76  0.001449127    1.616    0.381
       248  -9.6861    249.5755    184.6325   6.4279977665e+01  -2.4382232925e+00    0.3292899    0.1544958 -46.20  0.001533289    2.331    0.571
       249 -11.0395    242.0360    180.0941   6.4674317945e+01  -6.2419269668e-01    0.4827331    0.2439686 -46.92   0.00228688    2.158    0.537
       250  -9.4024    215.4786    191.9651   7.1771628423e+01   1.4080119670e+00    0.1726985    0.1164831 -60.67  0.000771992    2.419    0.587
       251  -9.5444    224.2181    183.4914   6.8488580134e+01   1.5068812723e+00    0.2571909    0.1705776 -35.56  0.001100532    1.363    0.267
       252  -9.8775    226.2049    178.5931   6.7162072713e+01   2.0420759388e+00    0.2246931    0.1441538 -30.88  0.001130624    1.398    0.285
