#   1 NUMBER                 Running object number                                     
#   2 MAG_AUTO               Kron-like elliptical aperture magnitude                    [mag]
#   3 X_IMAGE                Object position along x                                    [pixel]
#   4 Y_IMAGE                Object position along y                                    [pixel]
#   5 X_WORLD                Barycenter position along world x axis                     [deg]
#   6 Y_WORLD                Barycenter position along world y axis                     [deg]
#   7 A_WORLD                Profile RMS along major axis (world units)                 [deg]
#   8 B_WORLD                Profile RMS along minor axis (world units)                 [deg]
#   9 THETA_WORLD            Position angle (CCW/world-x)                               [deg]
#  10 FWHM_WORLD             FWHM assuming a gaussian core                              [deg]
#  11 ELONGATION             A_IMAGE/B_IMAGE                                           
#  12 ELLIPTICITY            1 - B_IMAGE/A_IMAGE                                       
         1 -16.7602    236.1342     92.9168   4.9007363787e+01   1.4792619618e+01     6.451591     2.401866 -40.42   0.02655345    2.303    0.566
         2 -11.1372     24.1756     80.0065   1.0091388029e+02   5.8270130951e+01    0.3826434    0.1993373 -75.86  0.001702326    2.523    0.604
         3 -10.0207     40.7982     14.3742   7.0740418332e+01   6.8330620203e+01    0.1624315   0.09412628  26.80 0.0002913845    1.607    0.378
         4 -10.5331    145.0186    232.9712   9.4203257549e+01   5.0317596190e+00     0.209048    0.1521266  64.90   0.00113241    1.746    0.427
         5 -10.3407     72.6485    228.3397   1.0920953237e+02   1.6949565245e+01    0.2154276     0.126903  64.43 0.0009601981    1.712    0.416
         6 -10.0380    120.3207    227.6667   9.8764761491e+01   9.9564425988e+00    0.1386509   0.09481213  64.90 0.0005931048    1.700    0.412
         7 -10.4369     84.6715    227.3185   1.0650220073e+02   1.5458492304e+01    0.1401884   0.08591951  63.59 0.0007046903    1.683    0.406
         8 -10.8728    162.8223    224.8311   8.9238301836e+01   3.6646977023e+00    0.2666593    0.2035994 -41.43  0.001542631    1.428    0.300
         9  -9.9348     99.5078    225.5228   1.0304754594e+02   1.3624905801e+01    0.1341175    0.1153938  55.77 0.0002258865    1.016    0.016
        10 -10.9840    149.0024    223.2898   9.1927673186e+01   6.1840791402e+00    0.2543292    0.1729162 -87.92  0.001169361    2.623    0.619
        11 -10.1976    183.3931    223.1969   8.4747572894e+01   6.8618387152e-01    0.1699458    0.1246141 -54.38 0.0009467102    1.709    0.415
        12 -10.3262    114.5164    223.5060   9.9481473335e+01   1.1706938031e+01    0.1356881     0.118463  52.03 0.0008102454    1.031    0.030
        13 -10.6994    126.0261    220.6821   9.6548508672e+01   1.0433240782e+01    0.1945715    0.1594221  41.64 0.0004925558    1.094    0.086
        14 -11.1598    204.9763    217.9621   7.9616979255e+01  -1.7572892122e+00    0.1802965    0.1630805  79.95 0.0006963693    1.681    0.405
        15 -10.5608    143.8825    216.6536   9.2016695684e+01   8.2988535839e+00    0.2487937    0.2065029 -60.54  0.001345588    1.368    0.269
        16 -10.1004    111.6872    216.3514   9.9144463912e+01   1.3634062092e+01    0.1441208   0.09787459  67.98 0.0007045739    1.726    0.421
        17 -10.6555    199.1817    215.1492   8.0253352426e+01  -4.0933851944e-01     0.163631    0.1603342  60.68 0.0007143096    1.342    0.255
        18 -11.1225    185.9622    214.2901   8.2733828823e+01   1.8189422914e+00    0.2715984    0.1869528 -52.29  0.001275706    1.739    0.425
        19 -10.4101     76.6756    213.3505   1.0670977953e+02   1.9617546916e+01    0.1462769   0.08881789  66.50 0.0007048539    1.754    0.430
        20 -10.4966    177.4062    210.2460   8.3792297322e+01   3.9344043361e+00    0.1810501    0.1299976 -56.10 0.0009508565    1.697    0.411
        21 -10.8424    116.4492    209.8382   9.7139588142e+01   1.4241486441e+01    0.2756539    0.1955548  87.35  0.001367941    1.817    0.450
        22 -10.1393    148.3071    209.6603   8.9931780000e+01   8.9359975361e+00    0.1387876     0.106871  71.36 0.0003345817    1.683    0.406
        23 -10.2454    206.3149    208.6500   7.7730925239e+01  -4.2202500733e-01     0.119964      0.10652  87.57 0.0006262602    1.727    0.421
        24 -10.0710    139.3342    207.6627   9.1606084265e+01   1.0863926642e+01    0.1446553    0.1058731  69.21 0.0005601323    1.745    0.427
        25 -12.3427    186.0267    203.8142   8.0886464796e+01   3.6804668708e+00     0.454144    0.2583256 -51.25  0.002143482    2.035    0.509
        26 -10.7711    198.6769    204.3337   7.8442551335e+01   1.5213248482e+00    0.1922884    0.1657383  82.56   0.00105836    1.755    0.430
        27 -12.9416    164.6540    201.5449   8.4980240196e+01   7.7360346349e+00    0.8318096    0.4668609 -38.78  0.003822215    1.927    0.481
        28 -12.1219    162.5739    194.1029   8.4105364576e+01   9.5779901305e+00    0.5621418    0.4383291  75.44  0.002841139    1.777    0.437
        29 -10.0714    140.3313    200.6442   9.0230477846e+01   1.2145713489e+01    0.1479523    0.1088841  72.43 0.0007044383    1.788    0.441
        30 -11.1793    148.9181    197.4353   8.7737687263e+01   1.1311543673e+01    0.3934103    0.2096533 -64.15  0.001555007    2.714    0.632
        31 -10.9798     88.5033    198.5417   1.0209746187e+02   2.1213674588e+01    0.2570191    0.1329499 -78.08  0.001037554    2.526    0.604
        32 -11.6687    177.6016    197.8082   8.1548855591e+01   6.2239131438e+00    0.2605625    0.2177407 -85.30  0.001409257    1.683    0.406
        33 -11.5632    124.4385    197.3875   9.3369748164e+01   1.5593531174e+01    0.3230602    0.2634537  86.21  0.001535126    1.413    0.293
        34 -11.0718    112.8279    197.7137   9.6164260079e+01   1.7490935429e+01    0.2801425    0.1843446  84.34  0.001242086    2.144    0.534
        35 -10.2300    193.4985    196.0441   7.7956878242e+01   3.8513122066e+00    0.2053431    0.1298249 -42.41  0.001030093    1.587    0.370
        36  -9.9693    132.6690    195.3303   9.1104009061e+01   1.4614100312e+01    0.1495807    0.1094876  71.06 0.0007051869    1.718    0.418
        37 -11.2224    186.4234    193.7608   7.8969469316e+01   5.4738240025e+00    0.2583067    0.1321733 -48.82   0.00112801    2.107    0.525
        38 -11.6452    172.6833    190.8979   8.1320945543e+01   8.4244708836e+00    0.3007267    0.2213355 -60.05  0.001378787    1.635    0.389
        39 -11.2410    205.9214    190.9884   7.4564094424e+01   2.6986208371e+00    0.2424197    0.1790062 -42.99 0.0009906575    1.376    0.273
        40 -10.2205    179.4534    190.7154   7.9848808253e+01   7.2650849685e+00    0.2532248    0.1362013 -49.79  0.001046021    2.003    0.501
        41 -11.2824    138.9042    188.5676   8.8477927621e+01   1.4977372139e+01    0.4130649    0.2176434 -59.58  0.001694412    2.224    0.550
        42 -10.3832    192.5873    187.8092   7.6590288788e+01   5.5298700866e+00    0.1931081    0.1293067 -52.86 0.0009483343    1.710    0.415
        43 -10.7370    129.0194    187.7753   9.0672938974e+01   1.6918806225e+01    0.2715296    0.1922557 -72.50  0.001285399    1.702    0.413
        44 -10.6573     86.6771    188.3528   1.0111554535e+02   2.3878700139e+01     0.154356    0.1009803  70.11 0.0007047498    1.756    0.430
        45 -10.1615    217.4991    187.4898   7.1714511154e+01   1.4309860154e+00    0.1324428    0.1176444 -13.73 4.392405e-05    1.023    0.023
        46 -11.0760    165.1858    185.7115   8.1976817756e+01   1.0814185625e+01    0.4754994    0.2552871 -56.87  0.001968219    2.270    0.560
        47 -10.7102    155.8114    186.0659   8.4134211304e+01   1.2447903290e+01    0.3688252    0.1946549 -58.98  0.001480358    2.376    0.579
        48 -11.7657    120.1559    184.1221   9.2178579083e+01   1.9312654341e+01    0.6096916    0.2174771 -61.45  0.001906572    3.715    0.731
        49 -11.5900     95.4071    186.6383   9.8694125243e+01   2.2907773903e+01    0.3341879    0.2146169  74.57  0.001484985    1.986    0.497
        50 -10.5312    108.7960    185.3907   9.5179787979e+01   2.0984439111e+01    0.3095063    0.1697603  87.18 0.0009540026    4.290    0.767
        51 -10.9684    203.9229    184.1040   7.3632917949e+01   4.2744637859e+00    0.3307142    0.1872789 -51.05  0.001519602    2.017    0.504
        52 -10.6772     17.0831    185.1952   1.1770895664e+02   3.3347288810e+01    0.1825995    0.1540233 -63.77 0.0007437231    1.315    0.240
        53 -10.2414    183.0408    184.0294   7.7823696295e+01   7.9294588613e+00    0.2142733    0.1791585 -89.13 0.0009016964    1.667    0.400
        54 -11.6094    174.3134    182.6785   7.9410769466e+01   9.7696069148e+00     0.430405    0.2799439 -50.66  0.001575806    1.627    0.386
        55 -11.8895    147.6172    179.3408   8.4747822798e+01   1.5395900436e+01    0.4972424    0.2661484 -53.94  0.002075447    1.995    0.499
        56 -11.3165    137.9561    178.3712   8.6842359991e+01   1.7400664319e+01    0.3416497    0.2218895 -52.87  0.001410062    1.586    0.370
        57 -10.9674    192.3458    177.5682   7.4645518944e+01   7.5179159462e+00    0.2862449    0.2423387 -67.23   0.00116504    1.471    0.320
        58 -11.2371    183.0570    175.2170   7.6088530650e+01   9.6627667780e+00    0.3584776    0.2112403 -41.57  0.001641034    1.668    0.400
        59 -11.3075     77.7110    175.9962   1.0157617361e+02   2.8227044242e+01    0.3680333    0.1598837  49.61  0.001417366    2.426    0.588
        60  -9.9276    174.3102    174.6188   7.7827808301e+01   1.1404009656e+01    0.1476259    0.1168899 -88.62 0.0006509096    1.799    0.444
        61 -11.3304    177.3217    170.8761   7.6427352287e+01   1.1604053957e+01    0.3849206    0.2651744 -56.58  0.001318898    1.641    0.391
        62 -10.7989    134.6436    170.8797   8.6216039222e+01   1.9710596569e+01    0.3573419    0.1861257 -58.51  0.001406398    2.146    0.534
        63 -10.9610    205.9197    169.2519   7.0305225654e+01   6.6776771134e+00    0.3110976    0.1895275 -54.81  0.001196041    1.970    0.492
        64 -11.5539    121.4545    168.5643   8.9042735796e+01   2.2696984790e+01    0.5209796    0.3141287 -76.21  0.002026016    2.442    0.591
        65 -10.8440    168.0430    168.2260   7.7905135504e+01   1.3916318234e+01     0.338954    0.2101437 -51.32  0.001518649    1.675    0.403
        66 -10.7342    149.5005    168.6659   8.2223190493e+01   1.7385201186e+01    0.3102652    0.2188914 -62.56  0.001097086    1.615    0.381
        67 -10.5801    185.1644    166.6673   7.3913419944e+01   1.0979211933e+01    0.2605996    0.1933652 -53.06  0.001040751    1.433    0.302
        68 -11.3625    192.1615    163.6850   7.1864109695e+01   1.0258097097e+01    0.6222689    0.2220724 -45.86  0.002205271    2.752    0.637
        69 -11.9276    138.9110    163.3735   8.3688768293e+01   2.0613947200e+01    0.6378286    0.3366001 -59.02  0.002483821    2.178    0.541
        70 -12.3846    213.3200    163.6893   6.7783842103e+01   6.4028980596e+00    0.3210501    0.2364491 -59.99  0.001404782    1.678    0.404
        71 -10.6338    159.6542    163.0388   7.8720545884e+01   1.6650035392e+01    0.3962025    0.1797733 -54.11  0.001438361    2.495    0.599
        72 -10.7052     79.6987    163.6851   9.9123028540e+01   3.0977089137e+01    0.3048289    0.1728522 -88.09  0.001170106    2.558    0.609
        73 -11.9655    205.8154    161.6888   6.8776198317e+01   8.1217457050e+00    0.4046308    0.2391196 -48.75  0.001461926    1.720    0.419
        74 -12.2346    204.4554    154.3631   6.7501566185e+01   9.7695298419e+00    0.4217468    0.2200255 -37.72  0.001530314    1.834    0.455
        75 -11.2608    177.5432    159.5987   7.4041780002e+01   1.3880749399e+01    0.4345739    0.2589863 -51.87  0.001822271    1.763    0.433
        76 -10.7023    151.7408    160.0869   7.9937674596e+01   1.8851971756e+01    0.3849409    0.2012555 -57.67  0.001468644    2.241    0.554
        77 -10.7647     92.7937    160.2052   9.4983872187e+01   2.9755880224e+01    0.2652743    0.1524071  72.25 0.0009560237    2.828    0.646
        78 -11.7423    196.6465    156.8604   6.9538892436e+01   1.0755121615e+01    0.4621241    0.2827707 -51.06   0.00139922    1.707    0.414
        79 -10.3162    128.2481    158.6229   8.5369995307e+01   2.3763858490e+01    0.2894659    0.1908998 -65.65  0.001250884    1.739    0.425
        80 -11.1813    167.8731    156.3398   7.5453550263e+01   1.6470639278e+01    0.4972533    0.2114601 -50.27  0.001795247    2.453    0.592
        81 -10.7302    105.2870    157.5942   9.1140444146e+01   2.8254754223e+01    0.3444991    0.2277163 -89.56  0.001416418    2.145    0.534
        82 -10.5316    157.5504    155.2991   7.7567918680e+01   1.8756128681e+01    0.2970719    0.1472834 -52.03  0.001136362    2.110    0.526
        83 -11.1231    119.2158    154.6943   8.6887156050e+01   2.6410174588e+01    0.4420863    0.2500823 -69.54  0.001661562    2.397    0.583
        84 -10.5445     49.4985    154.9862   1.0608490891e+02   3.7320118915e+01    0.2071804    0.1100229  84.25 0.0008105017    2.578    0.612
        85 -10.4595    144.4337    153.7866   8.0346636486e+01   2.1716331743e+01    0.2975042    0.1495429 -53.43   0.00113431    2.079    0.519
        86 -10.7879     81.1748    154.0085   9.7062754632e+01   3.3174922751e+01    0.2541024    0.1652261  85.37  0.001083274    2.015    0.504
        87 -11.0102    133.0023    151.9068   8.2769107491e+01   2.4414272399e+01    0.4947801    0.2594919 -62.68  0.001812379    2.425    0.588
        88 -12.0776    200.3729    148.0962   6.6940498648e+01   1.1756531824e+01    0.6576371    0.2465118 -43.26  0.002410319    2.493    0.599
        89 -12.3577    190.2711    149.1314   6.9148862595e+01   1.3520604654e+01     0.656673    0.3338511 -48.39  0.002256701    1.961    0.490
        90 -11.8491    195.0043    142.8439   6.6832880244e+01   1.3839375900e+01    0.4743119    0.3450546  59.37  0.002333251    1.613    0.380
        91 -11.9631    160.2099    239.0952   9.1931251501e+01   1.5807665696e+00    0.2390308    0.1988195  53.01  0.001491146    1.340    0.253
        92 -11.3822     98.4225    126.9212   8.6604537803e+01   3.7010112519e+01    0.5997633    0.3191237 -72.44  0.002013322    3.100    0.677
        93 -10.8505     12.3987    128.6232   1.1330228457e+02   4.7557654912e+01    0.2620792    0.1040371 -88.48  0.000956983    3.322    0.699
        94 -11.2511    117.3266    124.1430   8.0590585452e+01   3.4064434179e+01    0.5295656    0.3027127 -68.96  0.001907564    2.589    0.614
        95 -11.3735    179.7762    123.5383   6.5464713689e+01   2.0881049629e+01    0.4894341    0.2830127 -37.48  0.002075771    1.750    0.429
        96 -10.9424     59.1816    124.1734   9.7998409087e+01   4.3892471230e+01    0.3776435    0.2174964  83.95  0.001414321    2.976    0.664
        97 -11.7049     43.2163    121.5450   1.0259662413e+02   4.6498495834e+01    0.7750587    0.3569381 -86.28  0.002427405    4.375    0.771
        98 -11.3906     55.6393    145.2191   1.0284700691e+02   3.9033612831e+01    0.4425811    0.2360159  77.74  0.001631406    3.047    0.672
        99 -10.8441    188.7545    123.1749   6.3586491714e+01   1.9035615732e+01    0.3846155    0.1971804 -47.53  0.001478568    1.883    0.469
       100 -11.3483     28.3819    122.0536   1.0743332959e+02   4.7873117936e+01    0.5607056    0.2536691  81.75  0.001736884    4.924    0.797
       101 -12.3599    203.0738    121.2235   6.0459040856e+01   1.6418100041e+01     0.329446    0.1944347 -46.25  0.001424192    1.575    0.365
       102 -10.8265    194.8943    121.0731   6.1923520136e+01   1.8151403497e+01    0.3817286    0.1848908 -50.56  0.001501002    2.120    0.528
       103 -11.0037    158.4225    120.2453   6.9281931753e+01   2.6218699195e+01    0.5098929    0.2558674 -49.41  0.001958736    2.005    0.501
       104 -12.3822    212.0642    128.8279   6.0579953549e+01   1.3167320118e+01    0.3612669    0.1950603 -44.45  0.001363904    1.688    0.407
       105 -10.9129    172.2973    119.8968   6.6148897380e+01   2.3248911580e+01    0.3832761    0.1979559 -45.32   0.00153145    1.865    0.464
       106 -11.9827    141.2865    116.7449   7.2481605281e+01   3.0726663158e+01    0.8079777    0.2786982 -49.73  0.002509394    3.042    0.671
       107 -11.3606    130.4411    117.7463   7.5492849270e+01   3.2833205971e+01    0.4738213    0.2533487 -63.25  0.001656885    2.652    0.623
       108 -10.3348    162.3933    149.7151   7.5244446922e+01   1.8999405163e+01    0.2994179    0.1437202 -50.65  0.001128318    2.142    0.533
       109 -10.5575      2.5134    116.5262   1.1484964900e+02   5.1163456770e+01    0.2827233   0.09661545  88.70 0.0008104784    5.755    0.826
       110 -10.9791    165.7637    142.7852   7.2939492898e+01   1.9806870644e+01    0.4590012    0.1918707 -50.11  0.001611302    2.479    0.597
       111 -11.4535    124.5147    141.8882   8.2771825138e+01   2.8443655379e+01     0.616466    0.3103133 -66.76  0.002014491    3.114    0.679
       112 -11.4200    193.0723    114.1776   6.0649392551e+01   1.9876560637e+01     0.474226    0.2158725 -41.54  0.001479118    2.063    0.515
       113 -11.1246    185.9998    114.7254   6.2123669367e+01   2.1298564622e+01       0.4157    0.2068661 -44.42  0.001518379    1.898    0.473
       114 -11.5569    108.5552    112.2518   8.0099809460e+01   3.8575438387e+01    0.7278737    0.3047347 -56.48  0.002426655    2.793    0.642
       115 -10.9223     87.8786    143.5659   9.3209579047e+01   3.4720456362e+01    0.3156847    0.2012423 -79.29  0.001326295    1.968    0.492
       116  -9.6557    153.2945    114.6532   6.9069895128e+01   2.8540202053e+01    0.1600606    0.1215105 -80.03  0.000383308    1.670    0.401
       117 -11.3488     92.0562    110.4086   8.4542118639e+01   4.2114475859e+01    0.7353773    0.2768197 -59.86  0.002218785    3.593    0.722
       118 -11.2530     78.5694    111.6159   8.9064859711e+01   4.4127988594e+01    0.5650404    0.3011138 -76.24  0.001854761    3.581    0.721
       119 -10.9431    182.0557    140.8394   6.8991281211e+01   1.6856879619e+01    0.3740628    0.2178537 -47.09   0.00132699    1.665    0.399
       120 -11.2402    174.8094    110.4518   6.3315471545e+01   2.4611719403e+01    0.4772843    0.2449539 -43.20   0.00191863    1.871    0.466
       121 -10.7469    167.5788    111.7064   6.5141095810e+01   2.5971851384e+01    0.3005632    0.1463857 -38.60  0.001135781    2.109    0.526
       122 -11.5367    159.1955    110.5844   6.6694309547e+01   2.8079120690e+01    0.4672252    0.2156928 -41.90   0.00173885    2.143    0.533
       123 -11.2817    121.8246    110.8878   7.6032831621e+01   3.6189420215e+01    0.4756261    0.2011825 -52.34  0.001632651    2.521    0.603
       124 -10.9438     13.9278    110.0987   1.1029029254e+02   5.1982657309e+01    0.3342157    0.1687781 -82.90  0.001544483    2.126    0.530
       125 -11.0649    182.7404    108.3012   6.1203717280e+01   2.3273442902e+01    0.3375027    0.1890502 -41.84  0.001327159    1.707    0.414
       126 -10.7743    133.1142    108.6940   7.2473500440e+01   3.4265721090e+01    0.2891605    0.2117149 -57.53  0.001322785    1.434    0.303
       127 -11.0355    203.3088    141.0102   6.4843405411e+01   1.2562895204e+01    0.2120394    0.1754459 -41.84 0.0006962417    1.120    0.107
       128 -11.2437    189.2048    106.9823   5.9652151625e+01   2.2101304886e+01    0.3709937    0.2003703 -42.02   0.00146574    1.748    0.428
       129 -10.7628    188.1755    156.7342   7.1210987339e+01   1.2401083489e+01    0.2654581    0.1894127 -50.76  0.001182451    1.427    0.299
       130 -11.7039     22.2645    101.4296   1.0600442780e+02   5.3442068887e+01    0.7104018    0.3542213  83.09  0.002613599    3.857    0.741
       131 -11.2443    166.7041    102.1381   6.2908783192e+01   2.8094755827e+01    0.5052366    0.1728398 -38.40  0.001595427    3.105    0.678
       132 -11.8590    149.9643    100.9073   6.6292085619e+01   3.2156629007e+01    0.7464481    0.2123772 -45.72  0.002179128    3.517    0.716
       133 -12.0526     44.8539    101.5221   9.8059877979e+01   5.1220456081e+01    0.6254522    0.3453191  78.28  0.002123564    4.291    0.767
       134 -10.2827    142.5395    148.2943   7.9617036638e+01   2.3347512684e+01    0.3025264    0.1508387 -53.90  0.001136619    2.112    0.527
       135 -11.2508    159.5534     99.7325   6.3821613371e+01   3.0205996002e+01    0.3816074    0.1439632 -44.08  0.001296509    2.586    0.613
       136 -11.1418    175.7197    100.9788   6.0768802549e+01   2.6272020274e+01    0.3268276    0.1732359 -41.45  0.001341604    1.827    0.453
       137 -12.1535    107.9578     96.7895   7.6146081298e+01   4.2164366511e+01    0.6897834    0.3107708 -55.61   0.00240611    2.686    0.628
       138 -10.5092     81.4150     98.6480   8.4871262460e+01   4.6701483851e+01    0.2972383    0.1381559 -64.87  0.000961073    3.418    0.707
       139 -11.5334    128.1860    100.6682   7.1612323183e+01   3.7067838851e+01    0.4625694    0.2216641 -43.24   0.00174781    2.088    0.521
       140 -11.0607     94.5957     95.4994   7.9812251851e+01   4.5055648445e+01    0.4384481    0.1416717 -48.43  0.001409552    3.024    0.669
       141 -11.5891     63.6622     95.9306   9.0142911083e+01   5.0111268099e+01    0.4325705    0.2765351 -88.44  0.001741751    2.803    0.643
       142 -11.6303    183.6039     95.7088   5.7930426683e+01   2.5486262570e+01    0.2896256    0.1403122 -37.08   0.00113647    2.103    0.524
       143 -12.1242    176.9489     92.4953   5.8378616925e+01   2.7605528996e+01    0.3885433     0.208736 -40.90  0.001404091    1.808    0.447
       144 -11.0014    164.6355     92.9887   6.0969559640e+01   3.0354521709e+01    0.3501004    0.1406247 -40.86  0.001240795    2.449    0.592
       145 -10.6318     39.3245    147.6599   1.0792078537e+02   4.0341375557e+01     0.146409   0.09424442  70.09 0.0007051139    1.727    0.421
       146 -11.5558    138.5121     90.8082   6.6275994052e+01   3.6801315210e+01    0.4855565    0.2409186 -47.67  0.001881017    2.059    0.514
       147 -10.6667    182.1265    150.1682   7.1044342388e+01   1.4923578089e+01    0.3385686    0.2017164 -48.45  0.001135356    1.662    0.398
       148 -10.6841    157.6676     90.5059   6.1788619906e+01   3.2447220080e+01    0.2736074    0.1389705 -41.01    0.0010811    1.956    0.489
       149 -11.8874    124.4230     88.4942   6.9207163258e+01   4.0420753706e+01    0.7137622    0.3101697 -37.74  0.002548831    2.517    0.603
       150 -11.2135     34.4869     88.9176   9.8997258538e+01   5.5292302030e+01    0.5147921    0.2214173 -73.01  0.001839724    3.532    0.717
       151 -10.9100      4.3950     90.6110   1.1054096105e+02   5.7210710292e+01    0.2474236    0.1043286 -85.51 0.0009604636    3.376    0.704
       152 -11.6239    139.5815    103.0001   6.9336644244e+01   3.4060874146e+01    0.5670744    0.2704611 -47.02  0.002135463    2.093    0.522
       153 -10.8593    150.8398     88.5383   6.2759850484e+01   3.4411371407e+01     0.265513     0.176529 -46.65  0.001200519    1.496    0.332
       154 -12.2033    198.0122    135.7461   6.4677416891e+01   1.4638091238e+01    0.6982865    0.2118178 -42.37  0.002269288    3.070    0.674
       155 -10.5138    163.6984     86.4518   5.9433198679e+01   3.1807751676e+01    0.2708321    0.1338329 -40.02  0.001067839    2.013    0.503
       156 -10.9212     86.0127     86.2932   7.9930163090e+01   4.8636547490e+01    0.2985546    0.1901707 -74.15  0.001174874    2.677    0.626
       157 -10.9759     23.3076    138.1830   1.1127679458e+02   4.4302298070e+01    0.3732806    0.1672539  78.12  0.001338456    3.604    0.723
       158 -11.2766    179.4958     84.9873   5.5981273815e+01   2.8394275185e+01    0.2313735    0.1391963 -42.55  0.001034121    1.602    0.376
       159 -11.1626     47.9068     83.8007   9.2688819580e+01   5.4970057053e+01     0.258846    0.1826571 -88.67  0.001249949    2.143    0.533
       160 -10.8538    175.5626    145.3353   7.1366849399e+01   1.7250548676e+01    0.2958693    0.1417557 -48.81  0.001134547    2.094    0.522
       161 -11.4413    158.4924     81.9906   5.9308933866e+01   3.3852996405e+01    0.3845689    0.1459101 -39.52  0.001323791    2.638    0.621
       162 -11.6405    140.5575     81.7582   6.3233449694e+01   3.8088377864e+01    0.3675753    0.1446223 -42.14  0.001294075    2.539    0.606
       163 -11.5488    104.0736     81.5228   7.2872983211e+01   4.6153042395e+01    0.5452977    0.2280741 -52.53  0.001880074    2.907    0.656
       164 -10.8948    172.1539    137.0249   7.0220941580e+01   1.9703382275e+01    0.4090429    0.2446959 -53.34  0.001732141    1.756    0.431
       165 -12.0020    154.8694    240.8920   9.3282373883e+01   2.0962918373e+00    0.2106477    0.1833392 -59.46  0.001354621    1.405    0.288
       166 -10.4978    138.4814    137.4835   7.8191316960e+01   2.6651952210e+01    0.2862281    0.1479932 -59.21  0.001033615    2.329    0.571
       167 -11.2116    174.5336     77.5220   5.4959790730e+01   3.0874766798e+01    0.3021846    0.1396842 -39.61  0.001195163    2.123    0.529
       168 -11.9922    148.6300    142.8774   7.6932813276e+01   2.3332841424e+01    0.8647009    0.3510982 -54.43  0.002841564    2.854    0.650
       169 -10.8593    167.4939     76.9667   5.6139650941e+01   3.2631302234e+01    0.2291011    0.1431237 -39.70  0.001036679    1.602    0.376
       170 -10.5111    192.5830    136.6086   6.5918188882e+01   1.5565026066e+01    0.2941193    0.1363867 -38.16   0.00113372    2.145    0.534
       171 -12.4675    189.7945     74.6373   5.1571551677e+01   2.7811322125e+01    0.4992071    0.2094684 -27.86  0.001638022    3.707    0.730
       172 -11.8977    184.1740     75.2024   5.2651934625e+01   2.9018260623e+01    0.3804329    0.1914852 -22.58   0.00129872    3.556    0.719
       173 -11.5338    127.8196     72.9196   6.3748690018e+01   4.2652677303e+01    0.5554743    0.2071031 -38.23  0.001925272    2.808    0.644
       174 -11.0817     82.1673     72.4712   7.7011721008e+01   5.2175469778e+01    0.2624217     0.192656 -85.05  0.001189099    2.283    0.562
       175 -10.7819    163.1008     70.3533   5.5195843025e+01   3.4816132466e+01    0.2797822    0.1790488 -22.38  0.001213952    2.087    0.521
       176 -11.1924     51.2103     69.1127   8.7256791926e+01   5.7708242758e+01    0.3980168    0.1896205 -64.87  0.001439388    3.629    0.724
       177 -10.8586    170.4955     70.0533   5.3722601731e+01   3.3107320974e+01    0.2212796    0.1418532 -37.78  0.001030169    1.590    0.371
       178 -11.1631    150.1570     78.9972   6.0267008203e+01   3.6361163166e+01    0.3669153    0.2158574 -40.39   0.00159539    1.714    0.417
       179 -10.6967    187.8764    134.7581   6.6430735800e+01   1.6899344927e+01    0.3399999     0.196727 -46.67  0.001392065    1.656    0.396
       180 -11.2889    140.5155     74.2410   6.1078961276e+01   3.9483443545e+01    0.3609029    0.1495067 -36.85  0.001300417    2.563    0.610
       181 -10.8013    162.5014    135.4738   7.1997646291e+01   2.2066594003e+01    0.3287072    0.1485795 -45.75  0.001208389    2.158    0.537
       182 -11.0305    138.5388     65.2896   5.8896058568e+01   4.1508266591e+01    0.2878408    0.1370714 -42.82  0.001148462    2.143    0.533
       183 -11.0901    179.2695    132.6447   6.7701141854e+01   1.9123133188e+01    0.4391753    0.2324507 -45.92  0.001583012    1.816    0.449
       184 -10.4181     37.3174     63.9814   9.1319507034e+01   6.0449220559e+01    0.1980145    0.1089939 -75.96 0.0007048454    4.290    0.767
       185 -10.9294    157.5501     75.6801   5.7771258850e+01   3.5212188119e+01    0.2801265    0.1476599 -34.23  0.001135023    2.066    0.516
       186 -12.5622    203.3106     66.0437   4.7405373326e+01   2.6125474373e+01    0.3267269     0.179505 -36.39  0.001277111    1.822    0.451
       187 -10.3480    112.4837    132.9856   8.4004847515e+01   3.2914464399e+01    0.2244309    0.1375263 -77.29 0.0008103757    2.570    0.611
       188 -11.2621    107.0352    144.9215   8.8119530354e+01   3.1041957875e+01    0.5433851    0.3166327  76.75  0.001753918    3.580    0.721
       189 -10.7539    175.6855     70.8124   5.2989464164e+01   3.1750399052e+01    0.2909427    0.1366365 -29.93  0.001090555    2.655    0.623
       190 -11.3174    142.9870    130.1015   7.5340071334e+01   2.7388959344e+01    0.5625966    0.2304534 -48.00  0.001946335    2.414    0.586
       191 -11.3208      7.4822     54.5540   1.0174703255e+02   6.4947243598e+01    0.5426379   0.04354968 -58.04  0.001672937    5.160    0.806
       192 -10.9757    146.9737     66.0311   5.7256220651e+01   3.9388972387e+01    0.3659838    0.2089971 -23.58  0.001474697    2.408    0.585
       193 -11.4358    131.4656    129.5849   7.8127219219e+01   2.9918460628e+01     0.645705    0.2734767 -55.08  0.002161573    2.665    0.625
       194 -10.3823     45.3042     49.3466   8.3156099011e+01   6.2315120225e+01    0.1357743   0.08877098 -15.72 0.0004426784    1.693    0.409
       195 -11.1305     83.1640    131.2448   9.2067301297e+01   3.8571297116e+01    0.4250328    0.2436733 -68.78  0.001692623    1.990    0.497
       196 -12.2606    204.5519    129.6815   6.2104831544e+01   1.4499578778e+01    0.3926545    0.2500086 -58.94  0.001774152    1.818    0.450
       197 -10.9312      4.6918     40.2578   9.9031083595e+01   6.7936166228e+01    0.3503905    0.1008942 -60.64  0.001398766    3.589    0.721
       198 -11.0187    193.0128    129.1313   6.4138695476e+01   1.6961934238e+01    0.3700936    0.2142818 -38.98  0.001301727    1.662    0.398
       199 -11.4017    168.5926    128.6045   6.9031259233e+01   2.2236022179e+01    0.4547673    0.2461177 -51.23  0.001823888    1.896    0.473
       200 -11.3520    152.7228    127.7162   7.2421088056e+01   2.5841735759e+01    0.6341674    0.2305032 -50.01  0.002028211    2.882    0.653
       201 -10.3949    186.5398    128.7580   6.5321312160e+01   1.8386692298e+01     0.280373    0.1411252 -39.51 0.0009599267    1.940    0.484
