#   1 NUMBER                 Running object number                                     
#   2 MAG_AUTO               Kron-like elliptical aperture magnitude                    [mag]
#   3 X_IMAGE                Object position along x                                    [pixel]
#   4 Y_IMAGE                Object position along y                                    [pixel]
#   5 X_WORLD                Barycenter position along world x axis                     [deg]
#   6 Y_WORLD                Barycenter position along world y axis                     [deg]
#   7 A_WORLD                Profile RMS along major axis (world units)                 [deg]
#   8 B_WORLD                Profile RMS along minor axis (world units)                 [deg]
#   9 THETA_WORLD            Position angle (CCW/world-x)                               [deg]
#  10 FWHM_WORLD             FWHM assuming a gaussian core                              [deg]
#  11 ELONGATION             A_IMAGE/B_IMAGE                                           
#  12 ELLIPTICITY            1 - B_IMAGE/A_IMAGE                                       
         1 -12.6995     91.1571     26.6666   3.2794823622e+01   5.7102682998e+01    0.3782183    0.2585647 -17.73 0.0004745602    1.525    0.344
         2 -11.6505     33.2220     23.0416   5.2159251050e+01   6.7144979296e+01    0.3846244    0.2601011 -44.60 0.0007293877    1.782    0.439
         3 -11.5075     32.5485     16.1326   4.9385787038e+01   6.8184475244e+01    0.4698717    0.2703576  46.83  0.002325404    2.652    0.623
         4 -11.5965    100.5434     21.7885   2.8418581882e+01   5.5696282722e+01     0.350017    0.3179511 -39.01  0.001238949    1.295    0.228
         5 -10.1355     96.1175     10.4852   2.5209353375e+01   5.7763230381e+01     0.333149    0.2482091 -37.42   0.00199521    1.590    0.371
         6 -11.6856     91.0111     10.1612   2.6363732701e+01   5.8864667014e+01    0.2164183    0.1916516  42.75  0.001430679    1.118    0.105
         7 -10.9396     36.4284     12.4774   4.5980565692e+01   6.8146573428e+01    0.2547447     0.196271  66.79  0.001428438    3.088    0.676
         8 -11.0161     35.5985      8.1551   4.4278299359e+01   6.8777296730e+01     0.210665    0.1546972  16.44  0.000233914    1.155    0.134
         9 -10.1250     24.7132     12.9528   5.1520082216e+01   6.9550809367e+01     0.195104    0.1450515 -37.39  0.001333551    1.568    0.362
        10 -10.3293    226.0975     11.4815   6.6625225604e+00   2.7474899924e+01    0.2074724    0.1350219 -61.78  0.001040731    1.369    0.270
        11  -9.9982    203.1293     11.6647   8.7737945604e+00   3.2628678782e+01    0.1735206      0.13854  80.11 0.0003077596    1.122    0.109
        12 -10.0779    135.9776     12.0072   1.7579545932e+01   4.8605912006e+01    0.2504787    0.1591429 -79.89  0.001220555    2.119    0.528
        13 -11.4963    125.9180     10.9274   1.9012132342e+01   5.1065931140e+01    0.2221996    0.1984014  58.33 0.0002891554    1.044    0.042
        14  -9.6568     61.7672     12.2710   3.6020365000e+01   6.4252460354e+01    0.1663715     0.144422  45.99 0.0003097169    1.394    0.283
        15 -12.2231     55.1398      9.7848   3.7251285726e+01   6.5637325447e+01    0.4020048    0.2096051  27.79  0.002143283    1.860    0.462
        16 -11.0565     43.7534     10.7157   4.2074063823e+01   6.7319679258e+01    0.4836204    0.2468406  -3.35  0.002296646    2.708    0.631
        17 -11.4246     39.4239      3.2951   4.0269624159e+01   6.8770793040e+01    0.2759728    0.1852576   5.63 0.0008518942    1.303    0.233
        18 -10.8679     49.4694      1.4291   3.5402333982e+01   6.7401268222e+01    0.1827412    0.1028884  48.07 5.549764e-05    1.834    0.455
        19 -11.3375     48.2624      4.8800   3.7520047973e+01   6.7258415400e+01    0.3281344     0.217568  21.35  0.001013254    1.295    0.228
        20 -10.4054     43.9724      4.0000   3.8768247366e+01   6.8016408310e+01    0.2518511    0.1309103  36.75 0.0007817143    1.709    0.415
        21  -9.8309    100.9883     11.2162   2.4320553207e+01   5.6653091225e+01    0.1783044    0.1433972  44.25            0    1.072    0.068
        22 -10.3840     80.0622     10.2752   2.9383031125e+01   6.1066552354e+01    0.2022933    0.1730821 -11.27 0.0004031108    1.233    0.189
        23  -9.5433    176.9826      9.9358   1.1150680435e+01   3.8964315344e+01    0.1460186    0.1329372 -87.05 0.0002876304    1.064    0.060
        24 -10.7948    116.4441      9.1886   2.0234098803e+01   5.3399446198e+01    0.2327538    0.2193361  21.88  0.001068015    1.122    0.109
        25  -9.5462    188.5267      9.5654   9.7580364083e+00   3.6255198307e+01    0.1272972    0.1094792  85.29 8.739846e-05    1.023    0.023
        26  -9.6984     20.3638      9.5627   5.2009514765e+01   7.0488611109e+01    0.2514007   0.09571059  25.92  0.001238883    2.756    0.637
        27  -9.8431     14.1645      8.6605   5.4680247090e+01   7.1259966384e+01    0.3526573    0.0939998  29.74  0.001411055    3.817    0.738
        28 -10.3345      7.7170      8.3680   5.7902835612e+01   7.1908025919e+01    0.1967738    0.1399404 -50.38 0.0006416357    2.040    0.510
        29 -10.3621      3.2400      6.3760   5.9378800845e+01   7.2569479676e+01    0.2717019    0.1266349   9.14 0.0009376501    2.391    0.582
        30 -12.8170     29.5664      5.1172   4.5470349837e+01   6.9933121713e+01     0.310792     0.227494   6.35  0.000395428    1.084    0.078
        31 -10.6251     29.0823      1.0000   4.3607741967e+01   7.0457261472e+01     0.249835   0.05616783  40.38 0.0008862453    4.282    0.766
        32 -10.3460     62.0373      6.3711   3.3276749395e+01   6.4801538195e+01    0.2016652    0.1408593   5.33  0.000474051    1.344    0.256
        33 -10.7230     70.7300      5.1055   2.9930854315e+01   6.3334804588e+01    0.2126285    0.1504026  27.76 0.0001826712    1.205    0.170
        34 -11.0129    193.9420      4.8448   8.0386487724e+00   3.5442174884e+01    0.1933275    0.1668471  88.45 0.0003082094    1.037    0.036
        35 -10.7652     80.8766      5.0707   2.6980991531e+01   6.1375514707e+01    0.2203895    0.1624104  37.66 0.0003849893    1.134    0.118
        36  -9.6904     80.1050      1.6207   2.5742644507e+01   6.1815652065e+01    0.2018255    0.1335723  30.46 0.0007521118    1.331    0.249
        37 -10.2613     66.0350      5.4951   3.1570922329e+01   6.4167285435e+01    0.1741574    0.1067108  48.32 0.0005318884    1.533    0.348
        38 -11.8688     19.9232      2.6387   4.8798438246e+01   7.1405510854e+01    0.3234064    0.1790527  -3.28  0.001230713    1.885    0.470
        39  -9.5782    224.7298      2.9488   4.9421325183e+00   2.8664829055e+01    0.1598608    0.1340998 -63.44 0.0004462586    1.116    0.104
        40 -11.0389    204.8632      2.6106   6.4968322855e+00   3.3135528918e+01    0.2107502    0.1767274 -73.15 0.0001327798    1.068    0.063
        41 -10.6173    148.5804      2.3605   1.2658669132e+01   4.6442549091e+01    0.2282175    0.1819233  59.30 0.0004859319    1.108    0.098
        42  -9.8545     12.3634      2.2533   5.2450234347e+01   7.2276302512e+01    0.2189986    0.1729122  60.43  0.001302235    3.532    0.717
        43 -10.6386    245.3155      1.5326   3.1955322257e+00   2.4452579538e+01    0.1707622     0.124765  89.14 0.0004885364    1.208    0.172
        44  -9.9498    210.7009      1.9728   5.8509133284e+00   3.1873126460e+01    0.1614106    0.1353377 -70.75 0.0002273357    1.075    0.070
        45  -9.1650    120.2764      2.7106   1.7258613740e+01   5.3058030578e+01    0.1172565   0.09381413 -71.82 0.0002098475    1.518    0.341
        46  -9.2661      1.4081      2.4966   5.8524877088e+01   7.3256372559e+01    0.1104306   0.07488295 -16.30 0.0001055273    1.084    0.077
        47 -12.4407      1.7993    104.8385   8.6649592242e+01   5.3473596151e+01      0.31201    0.1735082 -56.65 0.0007445038    1.410    0.291
        48  -9.5181    110.0175    250.8028   7.9132031504e+01   8.4446272370e+00    0.1635733   0.08008243  40.45 0.0004499143    1.697    0.411
        49 -11.6704     24.4090    249.2270   9.4638519301e+01   1.9970237618e+01    0.3170079    0.1801848  55.78  0.002132663    1.366    0.268
        50 -11.6470     17.2866    248.6765   9.5809589756e+01   2.0834636607e+01    0.4246759    0.2236585  21.56  0.002224554    3.642    0.725
        51 -11.2095      1.5201    233.7116   9.7689762520e+01   2.5213375074e+01    0.5755143    0.1288394 -84.75  0.002045266    5.573    0.821
        52 -11.8631     10.1493    244.8535   9.6800962407e+01   2.2274414782e+01    0.2767582    0.1370278 -73.67  0.001770998    1.892    0.471
        53 -11.4532      3.4194    248.4808   9.8086055899e+01   2.2275837389e+01    0.4319345    0.2124277  53.37  0.002897126    1.557    0.358
        54 -12.2795      5.1679    243.2987   9.7551745234e+01   2.3057287638e+01     0.416667    0.2343276  71.55  0.002873402    1.373    0.272
        55 -11.0259      6.0653    113.2303   8.6549099759e+01   5.1289924368e+01      0.34072    0.1337044 -49.86  0.001629324    2.186    0.543
        56 -11.0046      2.8114    111.8574   8.7322669683e+01   5.1807644535e+01    0.2054986    0.1871323 -77.86 0.0002922582    1.158    0.136
        57  -9.2972    128.0811    112.1953   5.0101872215e+01   3.4495618410e+01    0.1941864    0.1209307  42.43 0.0005129757    1.638    0.389
        58  -9.6143     40.4383    112.4716   7.5946783313e+01   4.8592660103e+01    0.1342912    0.1139781 -55.50 0.0001810222    1.026    0.026
        59 -10.3689     13.4258    108.9326   8.3695393631e+01   5.1788019123e+01    0.1972786    0.1022296 -68.90   0.00102247    1.609    0.378
        60 -10.0751     51.8444    107.8289   7.1408993883e+01   4.8396934757e+01    0.1782503    0.1547468 -89.85 0.0003294603    1.294    0.227
        61  -9.0290     95.2691    107.7139   5.8017952234e+01   4.1905121576e+01    0.1404028    0.1169602 -89.89 0.0002320212    1.500    0.333
        62 -10.8680     89.3498    105.3305   5.9155550591e+01   4.3477504756e+01    0.2638295    0.2494473 -34.91  0.000394242    1.010    0.010
        63  -9.5098    249.6976    105.6596   2.4777678011e+01   9.3603523956e+00    0.1309144    0.1012229  -3.59 0.0007038435    1.673    0.402
        64 -10.0089     38.8279    104.8643   7.4940941849e+01   5.0538021972e+01    0.1953669    0.1555575 -44.84 0.0003680798    1.142    0.124
        65 -10.9575    108.9617    103.2449   5.2885179295e+01   4.0321623983e+01    0.2676293    0.2310171 -38.59 0.0002155978    1.126    0.112
        66 -10.3504    112.8095    102.1455   5.1507572266e+01   3.9795069200e+01    0.2396999    0.2057695  54.23 0.0003197152    1.249    0.200
        67 -10.3944    103.8198    101.5569   5.3890157171e+01   4.1681444104e+01    0.2932571    0.2292409  -0.95 0.0007348278    1.595    0.373
        68 -10.6372     18.3977     93.9830   7.9497025129e+01   5.4849042679e+01    0.3165114    0.2493186 -83.07  0.001566383    1.366    0.268
        69 -11.6328     20.8271     98.5515   7.9557532764e+01   5.3623864186e+01    0.4524085    0.3241042  39.35  0.002742974    1.673    0.402
        70  -9.6354    139.6968     98.2985   4.3393141193e+01   3.4862915945e+01    0.1523208    0.1228965 -82.73 0.0001815863    1.585    0.369
        71  -9.7673    107.4947     96.5162   5.1438043205e+01   4.2045461734e+01    0.2749765    0.1363076 -34.76  0.001028744    2.292    0.564
        72 -10.6764     37.9460     97.4901   7.3670095278e+01   5.2324542796e+01     0.174092    0.1315074  21.48  0.000455788    1.525    0.344
        73 -11.6603     66.6534     92.1276   6.2805603000e+01   5.0005080152e+01    0.3979211      0.21852 -51.50  0.001063501    1.683    0.406
        74  -9.9280    217.9837     98.3379   2.7774560077e+01   1.7025177039e+01    0.1905574    0.1818597  70.77 0.0005268548    1.121    0.108
        75  -9.3041    125.3938     92.8840   4.5495877219e+01   3.9093361856e+01    0.1998376    0.1419375 -27.88 0.0002899091    1.540    0.351
        76  -9.4647    119.3246     93.7280   4.7356158071e+01   4.0214708561e+01    0.1474966    0.1214982  87.13 0.0002167657    1.577    0.366
        77 -10.7245     93.6111     92.5951   5.4405398965e+01   4.5502847411e+01    0.3127302    0.2588186  19.97 0.0007367563    1.295    0.228
        78 -11.3822     74.6271     92.9961   6.0446951876e+01   4.8620170242e+01    0.2336821    0.2038443  27.99 0.0003156024    1.218    0.179
        79 -10.0626    105.8317     91.8481   5.0582871312e+01   4.3346440003e+01    0.2033628    0.1792493 -70.74 0.0005164114    1.315    0.240
        80 -11.8828     58.0731     91.2256   6.5418698207e+01   5.1387370352e+01    0.3243536    0.2805984 -15.50 0.0009815913    1.184    0.156
        81 -10.9072    145.7429     91.0536   3.9907534012e+01   3.4909925630e+01    0.2495631    0.2164519  51.39 0.0006808756    1.160    0.138
        82  -9.4008      7.5662     91.2109   8.2623215529e+01   5.6213250018e+01    0.1677914   0.08495785 -54.07 0.0004974179    1.517    0.341
        83  -9.7397      1.4371     89.7414   8.4424586824e+01   5.6895122503e+01    0.1738645   0.08230904 -56.70 0.0005607104    1.568    0.362
        84 -12.3608     31.1171     87.3587   7.3737363438e+01   5.5267322840e+01    0.2322694    0.1936077 -46.84 0.0003852775    1.004    0.004
        85 -13.7153     65.3100     81.9639   6.0439446621e+01   5.2381729616e+01    0.4723463    0.4296741 -48.04 0.0008159098    1.135    0.119
        86 -10.2593     54.7663     84.8889   6.4868198825e+01   5.3199861327e+01    0.1926892    0.1571555 -33.46 0.0003037361    1.117    0.105
        87  -9.2343      7.3201     84.3171   8.1443189426e+01   5.7758657770e+01    0.1294738   0.06994126 -40.84  0.000704142    1.660    0.398
        88  -9.6966    124.7978     81.1898   4.2214954878e+01   4.1495531025e+01    0.1958321    0.1694364   5.71 0.0003122536    1.263    0.209
        89  -9.7307     11.6524     80.6701   7.9184584083e+01   5.8283453108e+01    0.1338225   0.07068232 -37.97 0.0007049441    1.761    0.432
        90 -10.3225     47.7811     78.7418   6.5647471716e+01   5.5377146604e+01    0.3423764    0.2220071  -3.07   0.00172211    1.992    0.498
        91 -11.6912     74.9878     76.7110   5.5623280212e+01   5.1977780525e+01    0.2367895    0.1876769 -40.46 0.0002452186    1.187    0.157
        92 -11.6267     10.9306     73.3564   7.7878420093e+01   5.9908271152e+01    0.4080941       0.2985  55.37  0.001805378    1.906    0.475
        93 -11.9828      5.0653     73.2246   8.0039865143e+01   6.0296855110e+01    0.2572245    0.2145435 -31.79 0.0003021281    1.178    0.151
        94 -10.4922      1.7282     70.3435   8.0686009937e+01   6.1093456385e+01    0.2270116     0.137112 -53.53 0.0005111434    1.253    0.202
        95  -9.9119     41.1448     74.6060   6.6913293748e+01   5.7007189454e+01    0.1718266    0.1191054   4.41 0.0005739938    1.668    0.401
        96 -10.0229     34.6889     73.7081   6.9058442450e+01   5.7873545633e+01     0.205465    0.1282167 -39.75  0.001127533    1.388    0.280
        97 -10.1177    176.6548     76.8268   2.9416855892e+01   3.0170225150e+01    0.2670655     0.197158  48.37  0.001310298    1.383    0.277
        98  -9.2041    105.5539     71.6192   4.4512514372e+01   4.7348807078e+01    0.1400547    0.1371004  24.80 0.0001216545    1.086    0.079
        99 -10.7515     91.9943     85.2204   5.2755933460e+01   4.7331302892e+01      0.22998    0.1929605 -37.95 0.0002679337    1.139    0.122
       100 -12.1590     81.1538     66.8502   5.0454268832e+01   5.2849055939e+01    0.3012463    0.2411664 -22.09 0.0002636116    1.207    0.172
       101  -9.1810    154.2619     67.2963   3.1146568510e+01   3.7121995880e+01    0.1422591    0.1142751  16.46 0.0001766996    1.506    0.336
       102 -11.7688     16.2959     65.2077   7.3867990170e+01   6.1243101448e+01     0.350443    0.2799927 -35.41 0.0005202927    1.067    0.063
       103 -11.5920     11.6817     59.6210   7.4261741660e+01   6.2710754976e+01    0.2312703    0.1822277 -31.42 0.0002964446    1.107    0.096
       104  -9.4011    104.9869     66.4840   4.3018018288e+01   4.8385054707e+01    0.1950331    0.1301912  72.12 0.0008096384    2.477    0.596
       105  -9.1525    166.5028     64.4684   2.7898481937e+01   3.4625482440e+01    0.1442088    0.1399405  72.67 0.0008097883    1.015    0.015
       106  -9.5513     59.4788     64.5948   5.7182203992e+01   5.6708074881e+01    0.1334097    0.1163782 -16.73 3.141489e-05    1.023    0.022
       107 -10.3178     52.0000     63.9747   5.9723516003e+01   5.7847955532e+01    0.2031492    0.1393764 -18.89  0.000362199    1.528    0.346
       108  -8.9766    128.5141     63.5600   3.5828603587e+01   4.3773595096e+01    0.1449226    0.1387068  30.79 9.896037e-05    1.007    0.007
       109 -10.0124     86.6321     62.8352   4.7350705105e+01   5.2598939395e+01    0.2332325    0.1799514  21.94 0.0005584534    1.325    0.245
       110 -10.6232      6.3871     62.5908   7.7137278516e+01   6.2446254188e+01    0.3274801    0.1466328  30.30  0.001721169    2.681    0.627
       111  -9.8578     37.7040     59.8154   6.3874043313e+01   6.0368708396e+01    0.2100693    0.1276411 -32.58 0.0009803631    1.499    0.333
       112  -9.9951     41.8757     58.7143   6.1892683548e+01   6.0110245846e+01    0.2022983    0.1866103 -29.80  0.001348279    1.179    0.151
       113 -10.8233     20.7957     58.6715   7.0297987238e+01   6.2213390554e+01    0.3652915    0.1406228 -44.65  0.001735965    2.051    0.512
       114 -11.9591     77.8593     58.0750   4.8582882428e+01   5.5000341606e+01    0.2388965    0.2022124 -24.61 0.0003079376    1.110    0.099
       115 -10.6511     58.2023     58.9645   5.5786688917e+01   5.7947879260e+01     0.206182    0.1734465  15.57 0.0003452203    1.191    0.160
       116  -9.0051    115.7051     58.7206   3.7518016694e+01   4.7421868779e+01    0.1433085    0.1076338  16.73 0.0002106838    1.533    0.348
       117  -9.3231    120.9885     57.7903   3.5848729203e+01   4.6402899484e+01    0.1846914    0.1118128  50.38            0    1.599    0.375
       118 -12.1536    105.1661     52.0736   3.8128725224e+01   5.0731134307e+01    0.2945908    0.2668698 -58.54 0.0003431692    1.319    0.242
       119  -9.7272     99.8183     55.0391   4.0671402220e+01   5.1367997736e+01    0.2375597    0.1570693  -4.74  0.001080503    2.008    0.502
       120 -10.2669     86.6745     54.5606   4.4490801120e+01   5.4010626200e+01    0.2684208    0.2073457  -0.60   0.00083669    1.374    0.272
       121 -10.6800     83.5482     51.0680   4.4247811586e+01   5.5160716281e+01    0.3640591    0.2354329  26.43  0.001825018    1.635    0.389
       122 -11.1784     78.3205     50.0612   4.5592092089e+01   5.6267880550e+01    0.2412702    0.2003763  36.41 0.0002964013    1.236    0.191
       123 -10.0284    182.1903     54.2403   2.2323881956e+01   3.2367713483e+01    0.1968549    0.1853086  56.38 0.0004065908    1.108    0.097
       124  -9.6746     34.6391     54.7345   6.3478984679e+01   6.1672317270e+01    0.1291365   0.08256584 -17.59 0.0001646825    1.640    0.390
       125 -10.8565    115.3085     52.8028   3.5652566280e+01   4.8437754767e+01    0.2801203    0.2172909  37.07 0.0006621125    1.244    0.196
       126 -12.5565     62.0290     49.6570   5.1124157550e+01   5.9028584548e+01    0.3031999     0.216638 -34.03 0.0004799024    1.307    0.235
       127 -10.2967      4.0336     51.5072   7.5283759283e+01   6.4811150603e+01     0.148415     0.107501   1.54 0.0007072706    1.507    0.337
       128 -10.3370    138.3168     50.1432   2.9321927439e+01   4.3561936752e+01    0.2277611    0.1831935  43.11 0.0004187125    1.203    0.169
       129  -9.2273    237.7090     49.3009   1.3830208749e+01   2.0316323778e+01    0.1337489   0.08449455 -63.86 0.0002771674    1.565    0.361
       130  -9.2374    155.5050     47.4992   2.5043917751e+01   3.9808126690e+01    0.1432581    0.1314629 -86.14 -0.0002633667    1.118    0.105
       131 -10.3900     17.1129     46.3473   6.8125267655e+01   6.4887275746e+01    0.2309325    0.1206354 -38.00 0.0005633616    1.561    0.359
       132  -9.6344    221.5098     44.9769   1.4640120812e+01   2.4443569704e+01    0.1883368    0.1204478 -39.10 -7.155479e-05    1.487    0.327
       133  -9.1237     30.3013     45.3287   6.2117671508e+01   6.3858518335e+01     0.129349   0.07785738 -21.98 0.0007032044    1.644    0.392
       134  -9.9892      2.1503     45.5598   7.4455436253e+01   6.6071484802e+01    0.1492746     0.105022   4.95  0.001013099    1.554    0.356
       135 -11.6502    108.9883     40.9562   3.3222036417e+01   5.1532049252e+01    0.4161363    0.3150665  56.05  0.001281351    1.347    0.257
       136 -10.8838    103.8736     41.2781   3.4694782803e+01   5.2585741515e+01    0.3463008    0.2339734 -11.79  0.001281494    1.700    0.412
       137 -12.3667     85.8348     42.2825   4.0313614115e+01   5.6083690831e+01    0.3766666    0.2330813 -27.87  0.000952251    1.629    0.386
       138 -11.4239     91.9359     40.7547   3.7891805685e+01   5.5114199329e+01    0.3970578    0.2604631 -33.57  0.001308113    1.563    0.360
       139 -11.2876     38.4082     41.6237   5.7381341553e+01   6.3604166116e+01    0.2483768    0.2240335  18.43 -4.660952e-05    1.315    0.240
       140  -9.6886     37.5015     36.0231   5.5632915484e+01   6.4640878447e+01    0.2604075   0.08532745 -33.06 0.0009861911    3.425    0.708
       141 -10.3382     27.4611     42.4931   6.2337807332e+01   6.4651674232e+01    0.2505212    0.1124018  26.89  0.001268146    2.381    0.580
       142 -10.5119    183.7158     40.7933   1.8477797706e+01   3.3844617628e+01    0.3850636     0.219212  82.12  0.001297033    2.067    0.516
       143 -11.5302    141.5887     40.9885   2.5755469238e+01   4.4041738348e+01     0.264038    0.1919581  64.60 0.0001316516    1.349    0.259
       144 -10.7812    116.2004     39.2825   3.0821310606e+01   5.0165472446e+01    0.3151031     0.199478 -44.56  0.001028475    1.814    0.449
       145 -10.0402     61.8784     40.9613   4.7930876870e+01   6.0464328461e+01     0.191719    0.1483865  -1.99  0.001143055    1.213    0.176
       146 -10.1443     81.1878     38.8331   4.0483316955e+01   5.7457948315e+01    0.1817409    0.1700363  -2.32 0.0002707753    1.139    0.122
       147  -9.3330     52.7240     39.3659   5.0765793309e+01   6.2093008210e+01    0.1139447    0.1008816 -61.67 0.0007007181    1.673    0.402
       148 -10.1307     19.6147     39.2263   6.4635910425e+01   6.5967933419e+01    0.2371477    0.1577018   9.09  0.001501912    1.549    0.354
       149  -9.4907      2.3139     39.6411   7.2633057800e+01   6.7173776091e+01   0.09986969     0.087421  85.56 0.0007043263    1.748    0.428
       150 -11.2624    121.7461     36.9064   2.8693044802e+01   4.9218819979e+01    0.3245163    0.2581685 -21.52  0.001152401    1.339    0.253
       151  -9.8457    219.0365     36.0204   1.2837458127e+01   2.6169473798e+01    0.2195038    0.1348616 -65.77  0.001130216    1.667    0.400
       152  -9.7438    150.6665     35.9993   2.2478534712e+01   4.2491438259e+01    0.1773624    0.1752942  41.77 0.0003699097    1.076    0.071
       153 -11.3197     67.4033     35.7240   4.3903700921e+01   6.0349122033e+01     0.321775    0.2092658  42.81 0.0001975868    1.591    0.371
       154 -11.4015    111.8462     33.4524   2.9850083017e+01   5.1881792615e+01    0.4327468    0.2768256 -57.86  0.002015961    2.320    0.569
       155 -10.0501     22.9151     34.9400   6.1598392911e+01   6.6403298641e+01    0.1774258    0.1359659 -28.09 0.0004361595    1.071    0.066
       156 -10.4439      6.4277     34.7017   6.9128290048e+01   6.7804562509e+01    0.1872214    0.1504822 -22.09 0.0006053792    1.103    0.094
       157  -9.1572    103.6093     36.2701   3.2965316752e+01   5.3314779591e+01    0.1312734    0.1074605 -87.95 0.0006987858    1.718    0.418
       158 -10.9370    117.3085     30.9234   2.7661642174e+01   5.0965998671e+01    0.3798011     0.202913 -36.46 0.0009974003    2.011    0.503
       159  -9.2133    161.5082    249.4616   6.9029497261e+01   7.0484989509e-01     0.124196    0.1023019  32.83 2.507438e-05    1.004    0.004
       160 -12.5842     10.5288     29.6945   6.5404695394e+01   6.8371261664e+01    0.2857699    0.1918494  26.09  0.001907797    1.735    0.424
       161 -10.7097     80.6086     27.8183   3.6377877989e+01   5.9038213576e+01     0.324133    0.2103901 -12.10   0.00174039    1.649    0.393
       162  -9.5070    154.5487     29.5619   1.9861870304e+01   4.2321395937e+01     0.135648    0.1237975  76.25 7.104494e-05    1.042    0.040
       163 -10.3888    135.7856     29.1254   2.3126695179e+01   4.6884197420e+01    0.1883413    0.1768512  89.47   0.00035377    1.135    0.119
       164  -9.7244     69.2348     28.9688   4.0557933774e+01   6.0966588926e+01    0.1735198    0.1467969   7.94 0.0004079968    1.006    0.006
       165  -9.4544     40.1273     29.6434   5.1966193286e+01   6.5308395320e+01    0.1744333    0.1003601  20.12 0.0009542449    1.791    0.442
       166 -12.3141    216.9442     25.6772   1.0668246393e+01   2.7909725608e+01    0.2837634    0.2054198  85.96 0.0003302059    1.283    0.221
       167 -11.9527    213.0204     23.9368   1.0664770394e+01   2.9004937616e+01    0.2735271    0.1961686 -67.00 0.0002918875    1.300    0.231
       168 -10.2134     98.9286     30.1871   3.1984948888e+01   5.5073389722e+01    0.1877604    0.1861608 -70.13 0.0007369443    1.223    0.182
       169  -9.5748    186.6228     25.7519   1.4116742582e+01   3.4984102387e+01    0.1832278    0.1125057 -44.38  0.000938998    1.627    0.385
       170 -10.8530    182.9988     25.5714   1.4533621634e+01   3.5875000079e+01    0.2172823    0.2059012 -50.64 0.0002225455    1.150    0.130
       171 -10.0485     59.7232     25.5609   4.2517819483e+01   6.3017758427e+01    0.2001853    0.1499447 -46.68  0.001005411    1.811    0.448
       172 -10.5522     31.7270    248.0117   9.3307811950e+01   1.9380261080e+01    0.1840276     0.156076 -55.21 0.0008756509    1.709    0.415
       173  -9.9377    229.9472    247.5232   5.6030444457e+01  -9.2120213708e+00    0.1671605    0.1321159  -1.52 0.0004931156    1.111    0.100
       174 -10.4744    102.9654     17.9778   2.6390862782e+01   5.5573612580e+01    0.1988119      0.16274  33.10 0.0003224176    1.092    0.084
       175  -9.8469     52.9251     23.6553   4.4262364953e+01   6.4342679764e+01    0.1711007    0.1366368  16.85 0.0004982501    1.113    0.101
       176 -11.0123    131.1227     21.7494   2.1626883957e+01   4.8796542830e+01     0.346673    0.2147468  34.43  0.001214547    1.746    0.427
       177  -9.9015     47.6946     23.1429   4.6096985719e+01   6.5193159056e+01    0.1680576      0.13043 -10.34 0.0005435202    1.104    0.094
       178  -9.4749     21.7511     21.9581   5.6949631338e+01   6.8594128174e+01    0.1612027    0.1195487 -17.23  0.001111242    1.051    0.049
       179  -9.6322    224.5878     21.5048   8.9875029094e+00   2.6687645037e+01    0.1260977    0.1038798 -70.86 4.488122e-05    1.033    0.032
       180  -9.4700    123.2842     21.6961   2.3173710712e+01   5.0630916550e+01    0.1265604    0.1013264 -70.36 0.0002555573    1.559    0.358
       181  -9.8640    113.3131     20.9668   2.5068010716e+01   5.2980804292e+01    0.1857548    0.1682901  28.99  0.001163879    1.056    0.053
       182  -9.3304     64.4071     21.2009   3.8992517782e+01   6.2782984542e+01    0.1570912    0.1109484 -32.02 0.0006146779    1.514    0.339
       183  -9.5314    131.3009    247.6752   7.4648548263e+01   5.7208189429e+00    0.1234624   0.08606955  63.96 0.0005820883    1.635    0.388
       184  -9.0681     26.6331     21.6834   5.4549680104e+01   6.8111384844e+01    0.1257697   0.07410045  -8.28 0.0007038283    1.777    0.437
       185 -10.0644     15.7817     21.1680   5.9485690482e+01   6.9298811014e+01    0.1662466    0.1389816 -21.38  0.001233418    1.219    0.179
       186 -10.5060    163.4940     20.0978   1.5704515147e+01   4.1193922557e+01    0.2262761    0.1724463  69.57 0.0004182301    1.180    0.152
       187  -9.3509    197.6881     19.6595   1.1269285796e+01   3.3041627774e+01    0.1274804   0.09458013  38.76 0.0007046022    1.696    0.410
       188  -9.6564     77.4972     18.7329   3.3658262193e+01   6.0695770866e+01    0.1625193    0.1140693 -35.94 0.0009338048    1.639    0.390
       189 -10.1254     70.1934     18.1517   3.5736232486e+01   6.2116789993e+01    0.1880982    0.1487826  15.42  0.001073016    1.095    0.087
       190 -10.3243     43.7544     18.4112   4.5610719491e+01   6.6382542925e+01     0.272561    0.1026117  36.36  0.001269762    2.563    0.610
       191 -10.4407    147.9822     16.7668   1.7082690821e+01   4.5284534395e+01    0.1868817    0.1841661 -69.38 0.0002792502    1.121    0.108
       192 -10.2665    214.5000     16.1642   8.7274255838e+00   2.9546891436e+01     0.212056    0.1568219  84.03 0.0003745141    1.215    0.177
       193 -10.5593     14.8803     15.6797   5.7557239186e+01   7.0205009188e+01    0.2550357    0.1571835   2.33  0.001289741    1.553    0.356
       194  -9.8608    153.2754     12.6265   1.5028800424e+01   4.4411491523e+01    0.2244834    0.1410632  57.65 0.0006471263    1.398    0.285
       195  -9.3897    116.4024    247.2393   7.7495019403e+01   8.0935341056e+00    0.1566422    0.1147319 -81.46 0.0009499135    1.679    0.404
       196  -9.8574    147.5034    243.4725   7.0928162791e+01   3.8644801642e+00    0.1261654    0.1061405  34.81 9.966567e-05    1.033    0.032
       197 -10.4085     37.9675    241.8696   9.1797236626e+01   1.9812081825e+01    0.2810309    0.1067494  65.95  0.001263718    3.049    0.672
       198  -9.3765    220.2627    241.3332   5.6754681057e+01  -7.0558179946e+00    0.1206455   0.07887866   1.26 0.0001946067    1.577    0.366
       199  -9.2562    117.6916    238.7129   7.6217846105e+01   9.3954643053e+00    0.1161679    0.0957263   8.91 0.0002387175    1.573    0.364
       200 -10.3351     31.4369    232.8164   9.2349458771e+01   2.2302636106e+01    0.2959989    0.1096909  37.47  0.001501653    2.487    0.598
       201 -10.8561     55.7174    231.1908   8.7654738875e+01   1.9714374778e+01    0.2405418    0.2161887  11.31  0.001659329    1.632    0.387
       202  -9.4962    185.4633     12.4618   1.0828498123e+01   3.6692200371e+01    0.1299642    0.1106634 -86.27 3.968671e-05    1.048    0.046
       203 -11.5525      6.9035    228.1659   9.6466941752e+01   2.5772706725e+01    0.3807791     0.145503  65.62  0.001965307    2.439    0.590
       204 -11.5269      2.5204    220.8667   9.6841807695e+01   2.7627310400e+01    0.4012778    0.1658643  85.48   0.00214111    2.238    0.553
       205  -9.5865    207.3158    222.3534   5.5958037158e+01  -2.4106296653e+00    0.1347923   0.08892397   1.99  0.000704619    1.739    0.425
       206  -9.6337      7.1647    222.1419   9.6080161024e+01   2.6937341594e+01    0.1599323   0.09544076  69.07  0.000474122    1.340    0.254
       207  -9.3207    210.2362    215.9635   5.4283399053e+01  -1.9009678133e+00    0.1568667    0.1030267 -34.87 0.0005720194    1.564    0.361
       208  -9.4085     16.3619    213.2955   9.3819975238e+01   2.7836085432e+01    0.1023176   0.08313549 -49.50 0.0007031749    1.709    0.415
       209  -9.0757      8.2965    201.7152   9.4592510268e+01   3.1032189724e+01    0.1176839   0.06635682  67.91 0.0004724656    1.546    0.353
       210  -9.7573    237.6359    186.6346   4.3751032153e+01  -1.7414890546e+00    0.1955677    0.1340056  -2.69 0.0006113138    1.573    0.364
       211  -9.6569      1.3866    170.2401   9.3730604409e+01   3.8494116017e+01    0.1667566   0.08900325 -88.43  0.000443411    1.586    0.369
       212  -9.1424    229.4852    165.5143   4.0906580170e+01   3.0652666436e+00    0.1369228    0.1208635 -15.05 0.0008103205    1.009    0.008
       213  -9.9097    213.0814    155.2965   4.1708651430e+01   7.8648732288e+00    0.1899994    0.1817132   1.93 0.0007270632    1.079    0.073
       214 -10.7457      7.3230    153.8330   9.0927372878e+01   4.1770917432e+01    0.1869263    0.1633231  88.02 0.0006326783    1.124    0.111
       215 -10.3266     23.5317    148.4223   8.6305702460e+01   4.1679912593e+01    0.2914745    0.1618109 -52.60  0.001544156    1.731    0.422
       216 -11.2995      3.8287    145.1710   9.0928562787e+01   4.4030468028e+01    0.2822488    0.2570972  82.11  0.001536936    1.189    0.159
       217  -9.5128    206.5389    145.4690   4.0768348009e+01   1.0942347472e+01    0.1448452    0.1346475 -20.45 0.0001317788    1.002    0.002
       218  -9.8277     32.0061    141.0090   8.3109943267e+01   4.2643442617e+01    0.1862311    0.1324905 -45.70  0.001062989    1.475    0.322
       219  -9.8216     54.2333    140.0001   7.6873561213e+01   4.0433103232e+01    0.1828976    0.1608454 -67.79 0.0003100209    1.022    0.022
       220 -10.2324     69.0437    135.9661   7.2009999948e+01   3.9454196762e+01    0.2102879    0.1883079 -58.29 0.0003605555    1.050    0.048
       221  -9.8574     70.4902    130.5214   7.0532381244e+01   4.0557915057e+01    0.2450229    0.1157758 -48.45 0.0007622552    2.006    0.501
       222  -9.8247      2.2605    130.9967   8.9831677141e+01   4.7419361042e+01    0.1582354   0.08422736 -72.86 0.0002897934    1.480    0.324
       223  -9.7832     43.7967    129.8662   7.8099623527e+01   4.4090926917e+01    0.1757301    0.1418408  85.26 0.0002205619    1.300    0.231
       224  -9.2051     86.2950     10.2731   2.7649820250e+01   5.9822401416e+01    0.1286108   0.08056784  28.71            0    1.522    0.343
       225  -9.6702     11.6842    128.7156   8.7004428709e+01   4.7298597241e+01    0.1230455   0.07867051 -45.89 0.0002459257    1.582    0.368
       226 -10.8625    246.9425    127.2897   2.9869986606e+01   6.3396879550e+00      0.18331     0.172497  -8.30 0.0009159936    1.121    0.108
       227 -10.5093     74.9447    126.4889   6.8415023540e+01   4.0872048707e+01    0.2551066     0.185267 -50.71  0.001300236    1.279    0.218
       228 -10.6391     44.8137    125.8497   7.7106321380e+01   4.4941536199e+01    0.1847899    0.1499716  84.68 0.0007925456    1.321    0.243
       229 -13.2947     83.0975    119.7858   6.4554081126e+01   4.1196397071e+01     0.375318     0.343613 -45.91 0.0006301789    1.041    0.039
       230 -10.1267     74.9495    121.9557   6.7437058740e+01   4.1948243627e+01    0.2118557    0.1962891 -51.62   0.00029841    1.021    0.021
       231 -11.0356     24.7089    120.7376   8.2158442980e+01   4.8139322075e+01    0.2722192     0.194543  42.21 0.0009798843    1.608    0.378
       232 -10.6235     10.0179    121.0428   8.6467340359e+01   4.9212279563e+01    0.1886322    0.1553724 -70.86 0.0003175265    1.027    0.026
       233 -10.1199     92.6817    117.8948   6.1317549333e+01   4.0040527419e+01    0.2075415    0.1815085 -56.85 0.0003990199    1.111    0.100
       234 -10.8005     15.3311    117.8164   8.4472725805e+01   4.9581364918e+01    0.3010074   0.08412866 -50.02  0.001172661    3.043    0.671
       235 -10.6621     27.0587    116.9824   8.0852796706e+01   4.8820468510e+01    0.1899358    0.1599427 -63.79 0.0003217677    1.007    0.007
       236 -10.8079     69.9288    115.4446   6.7490556154e+01   4.4221243201e+01    0.3638593    0.2251095  34.43  0.001742585    1.754    0.430
       237 -11.1070     25.1430    111.6957   8.0543074396e+01   5.0228808106e+01    0.3878654    0.2100488 -35.72  0.001699019    2.115    0.527
