#   1 NUMBER                 Running object number                                     
#   2 MAG_AUTO               Kron-like elliptical aperture magnitude                    [mag]
#   3 X_IMAGE                Object position along x                                    [pixel]
#   4 Y_IMAGE                Object position along y                                    [pixel]
#   5 X_WORLD                Barycenter position along world x axis                     [deg]
#   6 Y_WORLD                Barycenter position along world y axis                     [deg]
#   7 A_WORLD                Profile RMS along major axis (world units)                 [deg]
#   8 B_WORLD                Profile RMS along minor axis (world units)                 [deg]
#   9 THETA_WORLD            Position angle (CCW/world-x)                               [deg]
#  10 FWHM_WORLD             FWHM assuming a gaussian core                              [deg]
#  11 ELONGATION             A_IMAGE/B_IMAGE                                           
#  12 ELLIPTICITY            1 - B_IMAGE/A_IMAGE                                       
         1 -10.4496     27.4519      3.0767   3.3254153864e+01   7.6519425013e+01    0.3996935     0.274498  69.29  0.001861978    3.060    0.673
         2 -11.1315      4.7026      2.9643   5.5112277714e+01   7.9404332882e+01    0.5996974    0.2875665 -26.04  0.002694894    2.268    0.559
         3 -11.8329      3.0631     22.0411   6.6324904097e+01   7.5510289959e+01     0.965669    0.3026082 -36.40  0.003758156    3.085    0.676
         4 -10.9212     20.0111      2.7461   3.9217989294e+01   7.7716430858e+01    0.5885059    0.3283108 -18.94  0.002839172    2.240    0.554
         5 -11.9962     14.5353     18.0609   5.4315896589e+01   7.5542522761e+01     0.413362    0.3346826  -1.49  0.001062641    1.166    0.142
         6 -12.6696     10.9450     10.8246   5.3544898740e+01   7.7334989322e+01    0.6225137    0.4718551 -18.48  0.001843773    1.193    0.162
         7 -11.9277      3.4338     10.9605   6.1194155130e+01   7.7890974531e+01    0.5206391    0.2573809 -37.52  0.002267393    1.788    0.441
         8 -10.8427    223.5968      4.2668   3.5226357502e+02   2.8640255806e+01    0.3771304    0.3657885 -88.99  0.001716105    1.327    0.247
         9 -11.1584    230.4619      1.4625   3.5130580371e+02   2.7493449927e+01     0.404505    0.1518265  81.93  0.001461693    2.723    0.633
        10 -13.0605    249.3278     20.7380   3.5459553872e+02   2.1855074807e+01    0.5544562    0.4223017 -50.57  0.002086667    1.014    0.014
        11 -12.3783    249.4580      8.2969   3.5196172567e+02   2.3115509010e+01    0.8274541    0.2423387 -26.89  0.003580444    3.196    0.687
        12 -13.8207    242.4011      4.8069   3.5152428964e+02   2.4801478858e+01     1.147586     1.075149  48.65  0.008823574    1.504    0.335
        13 -12.9227     28.5739     19.9915   4.4048244957e+01   7.3503743379e+01    0.3086224    0.2650509   6.40 0.0004809163    1.079    0.073
        14 -12.1422    216.8417     15.9794   3.5541938865e+02   2.8886151683e+01    0.5675381    0.2185043  61.05  0.002221439    2.857    0.650
        15 -10.8081     26.8044     13.2068   4.1161249695e+01   7.4989764088e+01    0.2435886     0.165925 -26.85 0.0006327693    1.460    0.315
        16 -10.7493    145.5301     12.4076   7.1656869247e-01   4.6672473682e+01    0.2789125    0.1342802 -27.19  0.001200493    2.155    0.536
        17 -11.8414     75.5674     10.6627   1.4019914315e+01   6.5371476683e+01    0.6061231    0.2832215  52.17  0.002200118    1.858    0.462
        18 -10.5817    178.0053     12.0351   3.5725860784e+02   3.8325543260e+01    0.2024092    0.1775185 -72.46 0.0003330868    1.042    0.041
        19  -9.6974    139.6911     10.9879   9.5126806746e-01   4.8373965611e+01    0.1903371    0.1772036 -68.65 0.0004061619    1.090    0.082
        20  -9.7453     90.2229      9.6041   9.2730112426e+00   6.1764698420e+01    0.2201607     0.179036 -41.62 0.0004713876    1.344    0.256
        21 -11.3253    155.2080      8.4754   3.5830544450e+02   4.4499959406e+01    0.5496591    0.2153611  75.33  0.002151089    2.338    0.572
        22 -13.0569     65.3220     11.6678   1.8260585067e+01   6.7714601447e+01    0.3022598    0.2679446  37.28 0.0004996971    1.026    0.025
        23 -11.7299     82.1738      6.9007   9.9860400995e+00   6.4103525323e+01    0.2321551    0.2078422  55.37 0.0002724413    1.003    0.003
        24  -9.4522    101.4604      5.9365   4.9919342812e+00   5.9149892056e+01    0.2070044   0.09405312 -47.92 0.0008087193    2.556    0.609
        25  -9.9366     68.0610      5.6340   1.3630517191e+01   6.7734150025e+01    0.1957843    0.1560065  54.27 0.0003602541    1.128    0.113
        26 -10.6954     58.4521      4.9408   1.6841505231e+01   7.0066843908e+01    0.2913029    0.2212996 -76.42 0.0005737672    1.861    0.463
        27  -9.8870     35.7692      6.1409   2.9664088564e+01   7.4632705745e+01    0.3290028    0.1425037  32.72  0.001341595    2.622    0.619
        28 -11.7724    179.1837      3.6878   3.5476515865e+02   3.8847364359e+01     0.345388    0.2341435  72.07 0.0004351401    1.441    0.306
        29 -10.9638    164.3548      4.5309   3.5618951874e+02   4.2498778691e+01    0.2302276    0.1835946 -49.35 0.0002568518    1.186    0.157
        30 -10.0512     97.5118      3.1224   4.4529660827e+00   6.0446253149e+01    0.2441679    0.1807327  65.31 0.0006852412    1.188    0.158
        31 -10.2232    159.6862      3.8947   3.5640046292e+02   4.3759607325e+01    0.1848366    0.1546378 -55.61  0.000362237    1.128    0.113
        32  -9.6377     91.2551      2.0437   5.2296584234e+00   6.2189027719e+01    0.1814178    0.1708784  58.33 0.0003295077    1.067    0.063
        33 -10.6675     32.8622      1.6817   2.8176312440e+01   7.5769921031e+01    0.2661351    0.1630783  42.84 0.0007030325    1.522    0.343
        34  -9.4662    121.7633      1.3603   3.5967214957e+02   5.4072279811e+01    0.1935319    0.1120919  64.95 0.0001350028    1.517    0.341
        35  -9.8748     73.6771      1.4041   9.3229036722e+00   6.6755183882e+01    0.2488341    0.1254365  68.65  0.001092652    1.906    0.475
        36 -10.8416     60.4546    241.0903   7.3302616776e+01   1.7288256287e+01      0.25021    0.1352902  30.33  0.001439823    1.485    0.327
        37 -11.4088    248.3890    249.8415   3.8037288808e+01  -6.0391979230e+00    0.2981714    0.2070546  12.98  0.002488816    1.265    0.209
        38 -11.9231    249.5017    246.0026   3.7334942881e+01  -5.7733304170e+00    0.3094844    0.2066178 -14.68  0.002524024    1.288    0.223
        39 -13.0854    226.3019    245.3751   4.0871332948e+01  -3.4077331496e+00    0.6493251    0.3252102 -11.60  0.004019948    2.041    0.510
        40 -10.6201    150.1945    250.0485   5.5234770823e+01   4.8137984474e+00    0.2442819    0.1191428  12.70  0.001177438    2.613    0.617
        41 -10.9588    125.4989    249.4778   6.0144195529e+01   7.9779028361e+00    0.2433174     0.128178  20.77  0.001338099    1.755    0.430
        42  -9.3352    102.9764    251.0000   6.4964810805e+01   1.0550472220e+01    0.1992688   0.05149456  31.01 0.0007424329    2.881    0.653
        43 -11.1305     72.9419    249.9234   7.1214807050e+01   1.4331051560e+01    0.4032789    0.1591732  25.63  0.001391071    2.299    0.565
        44 -11.2701     72.8029    244.8202   7.0880979638e+01   1.5207998607e+01    0.2746983    0.2109624  39.59  0.001065818    1.027    0.026
        45 -12.9613     74.5146    239.6159   7.0121403975e+01   1.5904698605e+01    0.5491287    0.4525879  30.23  0.002820844    1.151    0.131
        46 -12.5658     21.8365    248.8059   8.1862339419e+01   1.9964649907e+01    0.6500322    0.2058745  29.18  0.003222091    2.391    0.582
        47 -10.9574     12.2441    249.5780   8.3831212010e+01   2.0719950384e+01    0.3719338    0.0813479  40.58  0.001819871    2.363    0.577
        48 -12.0291     26.4749    242.4847   8.0676405732e+01   2.0641730866e+01    0.5649843    0.1525991  50.47  0.002639891    2.593    0.614
        49 -12.9138     31.9558    235.6035   7.9220837436e+01   2.1358352494e+01      1.07658    0.2135885  51.65  0.004119901    3.767    0.735
        50 -10.4628    192.9962    227.0965   4.4015061521e+01   2.5332686331e+00    0.1833714    0.1365612   5.09  0.001248147    1.072    0.067
        51 -11.8093     32.8082    242.0168   7.9316439495e+01   2.0097046640e+01    0.2897821    0.1813905  36.61 0.0008699112    1.222    0.182
        52 -10.7421      3.1934    226.2482   8.5150423020e+01   2.5806650980e+01    0.1746094     0.139269  89.70 0.0007148715    1.387    0.279
        53 -10.3466     78.9064    223.7391   6.7819695268e+01   1.8243900476e+01     0.273002    0.1811904   9.18  0.001218374    1.890    0.471
        54  -9.4478    225.6515    223.7091   3.7827352810e+01  -9.3394623738e-01    0.1156066   0.06572003   2.41 0.0007027526    1.666    0.400
        55  -9.1323    104.6867    223.7016   6.1890796408e+01   1.4877212040e+01    0.1216514   0.09083915   1.34 0.0004310368    1.605    0.377
        56  -9.0332    207.3447    222.3189   4.0727571996e+01   1.3791091481e+00    0.1216251   0.07095949   1.74 0.0004992639    1.724    0.420
        57  -9.3791     15.6628    222.2755   8.2295618201e+01   2.5488915034e+01    0.1286574   0.05943521  50.67 0.0003883772    1.609    0.378
        58  -9.0885    140.6872    221.6676   5.3675843263e+01   1.0270573090e+01    0.1268526    0.0869427   0.05 0.0006395447    1.679    0.404
        59 -10.5733     41.8182    220.6272   7.6235619719e+01   2.3210564440e+01    0.1842884   0.08202223  38.86 0.0005790198    1.661    0.398
        60 -10.6655     50.7238    217.9636   7.3977114857e+01   2.2757022804e+01    0.1751103    0.1453423  57.87  0.001166216    1.106    0.096
        61  -9.4373     55.9992    216.9578   7.2654298608e+01   2.2351457161e+01    0.1463213    0.1170619  46.95 0.0009388214    1.017    0.016
        62  -9.0588    197.4527    224.4946   4.2819378518e+01   2.3163049554e+00    0.1175888   0.08803878   7.31 0.0001974785    1.024    0.024
        63 -11.1282     40.3171    237.4398   7.7485864749e+01   2.0156965119e+01    0.3258547    0.1404376  46.85  0.001145916    1.716    0.417
        64  -9.3154    204.5315    216.5421   4.0341665259e+01   2.4625617297e+00     0.118891   0.08840343   4.83 0.0001707361    1.050    0.048
        65 -10.1323     23.9292    216.0309   8.0166032155e+01   2.5964239690e+01    0.1837215    0.1338047  51.51 0.0003080103    1.055    0.052
        66  -9.3436     62.7165    212.3394   7.0681331511e+01   2.2481910475e+01    0.1351444   0.07839262  56.43 0.0003286948    1.630    0.386
        67  -9.4138    106.5368    210.9975   6.0010623230e+01   1.6944334471e+01    0.1736034    0.1321982 -58.43  0.001027982    1.584    0.369
        68 -10.2457      5.0238    210.4619   8.4348681855e+01   2.8806754513e+01    0.2138548    0.1569028 -88.85 0.0007221025    1.405    0.288
        69 -10.5393      3.8974    205.4172   8.4472684985e+01   2.9950387443e+01    0.3519571    0.2287662 -52.84  0.002115694    2.082    0.520
        70 -11.2023    218.2507    207.8758   3.6585331271e+01   1.8670801169e+00    0.4455853    0.2252266 -10.38  0.002259651    2.484    0.597
        71  -9.3497    193.5341    210.4874   4.1398178886e+01   4.6947580593e+00     0.121745   0.09510335   6.76 0.0002910284    1.011    0.011
        72 -10.7024     11.2419    209.0710   8.2860485794e+01   2.8565177824e+01    0.2786367    0.1912808  60.26  0.001067359    1.165    0.141
        73  -9.7805    201.6567    208.1411   3.9534798693e+01   3.9454803939e+00    0.1690592   0.09368679 -24.12 0.0009467586    1.806    0.446
        74  -9.6925    247.5182    206.0742   3.1618710751e+01  -1.3453660611e+00    0.1634505   0.08639108 -27.92  0.001043394    1.623    0.384
        75  -8.8911    123.7228    206.2256   5.5384562076e+01   1.5351418999e+01    0.1233459    0.0876779  47.72            0    1.426    0.299
        76 -10.2998    238.2950    200.9105   3.2187235649e+01   3.1197464194e-01    0.1584837     0.112671 -11.25 0.0004317178    1.099    0.090
        77  -9.0070    120.3371    200.2935   5.5362126542e+01   1.6957021415e+01    0.1342902   0.09806912   0.83 0.0007027134    1.646    0.392
        78  -8.9678    132.6977    199.2703   5.2328893081e+01   1.5281888854e+01    0.1281053   0.09505771  52.57 0.0001635431    1.531    0.347
        79  -9.4804    177.4167    198.2103   4.2528412603e+01   8.7440717760e+00      0.15945    0.1204831 -48.03  0.000947715    1.698    0.411
        80  -9.4713     50.7447    197.5666   7.2470795315e+01   2.7022369604e+01    0.1978371   0.09494623  40.43 0.0009485505    1.663    0.399
        81  -9.3457    134.8396    196.5675   5.1432826038e+01   1.5449720150e+01    0.1770784    0.1111336  41.19 0.0009077152    1.474    0.321
        82  -8.7720     40.2754    196.7040   7.5093986493e+01   2.8388937724e+01    0.1348596   0.07753845  56.04 0.0006942623    1.528    0.346
        83  -9.5892    209.7062    193.0342   3.5592950412e+01   4.9467827613e+00    0.1622354    0.1254859  -8.91 0.0002954496    1.089    0.082
        84 -11.2970     15.4692    192.2694   8.1185124772e+01   3.1817548790e+01    0.3243561    0.2676786  20.00   0.00127136    1.379    0.275
        85  -9.0283     62.0000    192.0241   6.9058702159e+01   2.6880368370e+01    0.2044329    0.0761217 -70.10 0.0008087787    2.987    0.665
        86 -11.2625    244.2083    188.9911   2.9281122277e+01   1.0599386474e+00    0.2434767    0.2231282  55.69   0.00180061    2.040    0.510
        87 -10.6662     15.5584    181.9777   8.0693876930e+01   3.4147370839e+01    0.4125721    0.1845558  55.66  0.001988918    1.894    0.472
        88 -10.8426     29.0542    180.8993   7.6997990671e+01   3.3146842505e+01    0.4548508    0.1720254  33.81  0.002003694    2.131    0.531
        89  -9.6022     23.9502    180.7937   7.8377795933e+01   3.3663979744e+01    0.1856345    0.1421002  42.26 0.0004677047    1.154    0.133
        90 -10.1342     62.0098    184.8381   6.8346342263e+01   2.8493039073e+01    0.2210162    0.1947211  84.66 0.0007847885    1.174    0.149
        91  -9.4392    217.2957    174.3803   3.0973019536e+01   6.5149296856e+00    0.1308037   0.08132347  -4.99  9.61804e-05    1.756    0.431
        92 -10.1170    242.2192    173.2560   2.6821165543e+01   3.2865334015e+00    0.1762088   0.07585612 -40.40 0.0008801146    2.410    0.585
        93 -10.6129    239.9876    162.9991   2.5277771313e+01   4.9261925212e+00    0.1467524    0.1151331 -12.55 0.0007872779    1.003    0.003
        94  -9.1496      7.5175    163.4702   8.2055320974e+01   3.9192372631e+01    0.1306032      0.10806  64.81 0.0001120775    1.001    0.001
        95  -9.3298     56.3331    162.6852   6.7553584081e+01   3.4475491169e+01    0.1558214   0.09297565  58.30 0.0007046296    1.685    0.407
        96 -11.7240     17.3381    159.8673   7.8996766595e+01   3.9297797127e+01    0.3224662     0.273626  89.37  0.001141624    1.137    0.120
        97  -8.8064    117.2781    161.7300   5.0031657983e+01   2.5340657549e+01    0.1409108    0.1097628  63.26 0.0002084825    1.488    0.328
        98 -10.9055    250.5477    155.2500   2.2327371187e+01   4.5291351383e+00    0.2934135    0.0937788 -31.52  0.001305752    2.657    0.624
        99 -10.7373    234.9652    151.4822   2.3837981013e+01   7.1973724789e+00     0.248396    0.1073445  35.50  0.001176439    2.618    0.618
       100  -9.8191    222.2785    151.1472   2.5722473189e+01   9.1372011564e+00     0.207281    0.1732728  84.33  0.001234581    2.124    0.529
       101 -11.4532     13.7705    148.0051   7.9348356440e+01   4.2566887464e+01    0.2211538     0.187643  58.45 0.0002572769    1.062    0.058
       102 -10.5340    233.8324    146.9061   2.3113609709e+01   8.0027868610e+00    0.1900159    0.1375762 -13.39 0.0005474488    1.244    0.196
       103  -9.3613     41.4443    150.5313   7.0782166238e+01   3.9312831066e+01    0.1428412    0.1251983  64.97 0.0001238456    1.022    0.022
       104  -9.5403     17.0723    142.9955   7.7953023481e+01   4.3591034957e+01    0.2373127     0.126916  58.45  0.001113326    1.755    0.430
       105 -11.2963    239.7128    140.5145   2.1006198514e+01   8.0237843990e+00    0.2267516    0.1755576 -21.01 0.0004833727    1.047    0.045
       106  -9.5374    189.4759    140.0864   2.9118729387e+01   1.6374276232e+01    0.2007913    0.1265054 -36.73 0.0005653903    1.502    0.334
       107  -9.4156    207.6334    136.1931   2.5053722146e+01   1.3802500706e+01    0.1834792    0.1115403 -25.78 0.0001058008    1.593    0.372
       108 -12.0126     37.6363    135.3351   7.0327957082e+01   4.3685785173e+01    0.2780538    0.2341009  80.58  0.000317834    1.112    0.100
       109 -10.2910     36.4666    131.0497   7.0219750084e+01   4.4945126500e+01    0.2646158    0.2101804  63.13  0.001026208    1.197    0.165
       110  -9.9047     47.0548    133.6593   6.6861705170e+01   4.3062715925e+01    0.1956212    0.1782242  43.73 0.0004152274    1.096    0.087
       111  -9.6276     16.2845    134.5862   7.7581924949e+01   4.5838987700e+01    0.1634251    0.1331592   2.53 0.0004788166    1.468    0.319
       112  -9.8511     53.0259    133.0353   6.4709470703e+01   4.2485934352e+01    0.2242522    0.1697067 -33.49 0.0003858519    1.608    0.378
       113  -9.3147    128.5252    132.4806   4.1122491444e+01   2.9696088097e+01    0.1519262    0.1469587  34.80 0.0002521766    1.007    0.007
       114 -11.9265      4.9127    130.0519   8.1156353388e+01   4.7804500788e+01    0.2410091    0.2099312  77.26 0.0003122189    1.011    0.011
       115 -10.4666    217.0628    129.3239   2.2064664645e+01   1.3254444857e+01    0.2221459    0.1583422 -22.20 0.0004252503    1.295    0.228
       116 -10.2929     73.6465    129.2583   5.7026454719e+01   4.0520731376e+01    0.2714782    0.2587928 -33.97 0.0007386059    1.154    0.133
       117 -11.5099    241.7301    134.4782   1.9528082730e+01   8.5583091603e+00    0.2377051    0.1825679 -24.68 0.0006405261    1.055    0.052
       118 -10.6159     55.9035    126.8480   6.2731904786e+01   4.3742595767e+01    0.2247687    0.1934282 -34.84 0.0005033321    1.326    0.246
       119  -9.5100     24.6594    126.6808   7.3933580458e+01   4.7242737002e+01    0.1454772   0.09886611 -40.63 0.0007049644    1.714    0.417
       120 -10.1482     82.5180    124.4734   5.3108128758e+01   4.0287764247e+01    0.2978466    0.1533365 -59.46 0.0007490613    1.997    0.499
       121  -9.7495    250.6967    124.3250   1.6328502980e+01   8.6046137649e+00    0.1149117   0.08170509 -50.28 0.0003395173    1.640    0.390
       122  -9.8336    229.4913    124.5007   1.9191537766e+01   1.1894110839e+01    0.1269615    0.1059982 -23.61 2.482165e-05    1.001    0.001
       123 -10.3811     68.1853    121.6852   5.7458414190e+01   4.3335569652e+01    0.2598381     0.202458 -81.06 0.0006644866    1.355    0.262
       124  -9.6553     10.1937    122.2189   7.8766832284e+01   4.9529022691e+01    0.1959525     0.136338  59.81 0.0003256272    1.353    0.261
       125  -9.8054     61.2104    121.2381   5.9858359210e+01   4.4489477382e+01    0.2136083    0.2031731 -25.52 0.0005723247    1.168    0.144
       126 -10.1921     55.9779    120.3928   6.1603232696e+01   4.5444572570e+01     0.365721    0.2015043  51.74  0.001043524    1.932    0.483
       127  -9.0305     35.4677    121.4639   6.9356018221e+01   4.7611945711e+01    0.1432164    0.1332527  85.47  0.000224435    1.020    0.020
       128 -10.1993    248.2375    118.7440   1.5510704551e+01   9.7286633126e+00     0.172701   0.08987781  35.49 0.0008978765    2.477    0.596
       129  -9.6135    120.1872    117.6050   3.9884659267e+01   3.4722149737e+01    0.2278972    0.1466264  30.68 0.0008803563    1.735    0.424
       130  -9.7190     73.5305    116.9764   5.4614117280e+01   4.3713138588e+01    0.2127663    0.1897499 -74.05 8.188724e-05    1.126    0.112
       131 -10.0312     70.5294    113.5445   5.4954741090e+01   4.5089554175e+01    0.3111455    0.1957333  67.86  0.001245699    2.095    0.523
       132  -9.9616     15.9970    115.5019   7.6022727437e+01   5.0920807532e+01    0.2029139    0.1724626 -89.51 0.0003838767    1.062    0.058
       133 -11.2547    247.5025    111.5067   1.4120666686e+01   1.0826092430e+01    0.2192392    0.1214045  51.51  0.001229827    2.231    0.552
       134  -9.9366     55.2432    110.7517   6.0087186744e+01   4.8110086280e+01    0.1984529     0.171736 -28.29 0.0003086528    1.311    0.237
       135 -11.4278     12.5309    109.3512   7.6777187080e+01   5.2805307041e+01    0.4232828    0.3411083  65.13  0.001706295    1.190    0.160
       136 -10.5720     31.7942    108.5626   6.8965185213e+01   5.1459733627e+01    0.3400206    0.1952823 -70.62  0.001543839    1.624    0.384
       137 -11.0432     61.9763    107.8426   5.6910968466e+01   4.7911579392e+01    0.2831785    0.2247268 -43.87  0.001359207    1.336    0.252
       138  -9.8108     44.9990    107.8033   6.3543246575e+01   5.0224047348e+01    0.3790895    0.1711586 -40.54  0.001334277    2.888    0.654
       139 -10.0745     20.2628    108.3810   7.3585613075e+01   5.2516277121e+01    0.2608728    0.1395173  11.96  0.001149519    2.176    0.540
       140 -11.1027     75.3842    104.5306   5.1120095475e+01   4.6604012926e+01    0.3662079    0.2752253  68.93 0.0006644599    1.550    0.355
       141  -9.8105    110.8999    105.8381   3.9567368883e+01   3.9365980333e+01    0.3634568    0.1148392  38.36 0.0008513451    3.525    0.716
       142  -9.6573      3.9877    104.5674   7.9774145179e+01   5.4571777815e+01    0.1937828    0.1326042  16.04  0.001036318    1.630    0.387
       143 -10.2455    105.9891    103.0635   4.0325498489e+01   4.1046401857e+01    0.2306581    0.2240822  63.33  0.001198688    1.008    0.008
       144  -8.9501     42.2735    103.6765   6.3894907600e+01   5.1657028103e+01    0.1520127    0.1065651  67.41 0.0002859869    1.577    0.366
       145 -10.3206     92.1757    101.3739   4.4365722104e+01   4.4272285438e+01    0.3102371    0.2678586  88.76  0.001142361    1.284    0.221
       146  -9.3900     36.4802    102.4847   6.6077998355e+01   5.2624138363e+01     0.144931    0.1364643 -80.72 0.0001716857    1.012    0.012
       147  -9.7510     71.2808    101.3478   5.1874180111e+01   4.8119051387e+01    0.1587185    0.1190409 -27.29  0.000561833    1.643    0.391
       148 -10.8235    249.3445     98.5554   1.1219739269e+01   1.2281997781e+01    0.2270645    0.1572594 -37.83 0.0008361342    1.176    0.150
       149  -9.9962     76.5154     98.2652   4.9126174718e+01   4.7994530191e+01    0.3165048    0.2079827 -38.65 0.0009242126    1.729    0.422
       150 -10.3213     62.4362     98.6817   5.4661872613e+01   5.0240006917e+01    0.3015163    0.1522995 -65.61  0.001146596    2.119    0.528
       151 -10.0097     10.1319     98.9848   7.6729478286e+01   5.5730082058e+01    0.2024399    0.1606947  67.41  0.000297671    1.233    0.189
       152  -9.4960     33.6308     98.1904   6.6541314395e+01   5.4077229315e+01    0.2247754     0.115319 -57.94 0.0009528828    1.792    0.442
       153 -10.3838     14.8497     97.2712   7.4518455885e+01   5.5896348149e+01    0.2815476    0.1346252 -50.56 0.0008883941    2.040    0.510
       154  -9.7732     52.1402     97.0902   5.8481544033e+01   5.2162986913e+01    0.2203141    0.1901132 -37.94 0.0002723307    1.229    0.186
       155  -9.7733      2.3373     96.0908   7.9776671191e+01   5.6900359044e+01    0.1909667    0.1527613 -86.04  0.000434142    1.106    0.096
       156  -9.5288     99.4678     95.4796   4.0302425696e+01   4.4188823021e+01    0.1589267    0.1531326  73.35 9.074164e-05    1.032    0.031
       157  -9.7460     93.5955     94.1852   4.1896508959e+01   4.5712405069e+01    0.2171067     0.148687 -39.51 0.0002755418    1.583    0.368
       158  -9.9207     35.1254     90.4813   6.4457805219e+01   5.5990393617e+01    0.1982071    0.1433827  25.59 0.0003017311    1.449    0.310
       159  -9.1092     74.2887     89.3237   4.7552463375e+01   5.0629910492e+01    0.1568878    0.1219497 -20.33  0.000267207    1.607    0.378
       160 -10.1575     22.6914     89.0022   6.9857571832e+01   5.7543387000e+01    0.2047925    0.1743965 -77.21 0.0006838493    1.093    0.085
       161 -11.7675     57.1780     90.9329   5.4920780653e+01   5.3053679694e+01    0.3334063    0.2967613 -45.90  0.000562383    1.135    0.119
       162 -11.0451    249.8204     86.4782   8.6303354048e+00   1.3810826753e+01    0.2626633      0.15982 -53.31  0.001511827    1.712    0.416
       163 -10.1402     31.0000     86.9629   6.5653860437e+01   5.7348413914e+01    0.2395638   0.07758569 -68.72 0.0007962653    2.900    0.655
       164 -11.3053    184.8328     85.3000   1.6889388334e+01   2.6667083189e+01    0.2425011    0.2137181 -40.07 0.0002620653    1.058    0.055
       165  -9.9453      8.3813     85.2800   7.5989730693e+01   5.9484510259e+01    0.2408156    0.1624631  85.57  0.001248392    1.446    0.308
       166 -10.6256    239.9269     84.4994   9.2577744715e+00   1.5774675027e+01    0.1604063    0.1247989  61.41 0.0006112016    1.564    0.360
       167 -10.0712     45.0011     83.9721   5.8537694500e+01   5.6557006524e+01    0.4044057     0.181569  26.59  0.001552341    2.335    0.572
       168  -9.4916    173.6574     82.7635   1.8137882947e+01   2.9618282942e+01    0.2054238    0.1254858 -44.28 0.0006381148    1.559    0.358
       169 -10.3313     64.9490     81.5620   4.9096345734e+01   5.4193144891e+01    0.4005925    0.2150898 -67.63  0.001499744    2.348    0.574
       170  -9.8280     74.8126     82.4568   4.5337538047e+01   5.2215058564e+01    0.2166893    0.1516939  24.04 0.0004301203    1.642    0.391
       171 -10.7825     18.0390     81.3555   7.0812699120e+01   5.9935995529e+01    0.4188263    0.2526194  29.56  0.001685751    1.730    0.422
       172 -10.5250    120.1921     79.7703   2.9241803584e+01   4.2962091343e+01    0.3075996    0.2638635  27.34 0.0007755042    1.303    0.233
       173 -10.1653     39.6976     79.5605   5.9937693918e+01   5.8360704616e+01    0.2405156    0.1714892  85.13 0.0005933426    1.684    0.406
       174  -9.7994      2.3587     79.3773   7.8196490241e+01   6.1319353422e+01    0.4017487     0.104165 -54.75  0.001432412    3.086    0.676
       175 -10.9235    109.3984     85.9932   3.4337438945e+01   4.4162403763e+01    0.2834996    0.2276074  48.42 0.0001777568    1.224    0.183
       176 -11.5829     88.1830     77.2703   3.8625256384e+01   5.0766882357e+01    0.2871879      0.26578 -59.32 -0.000275831    1.103    0.093
       177 -10.2595    100.0988     76.7884   3.4353770945e+01   4.8268564304e+01    0.2395992    0.2158272  83.87 0.0006367978    1.193    0.162
       178  -9.7909    211.9052     76.1563   1.0641191150e+01   2.2292183213e+01    0.1979714    0.1564922 -51.46 0.0004441291    1.172    0.147
       179 -10.3984    168.4142     74.5295   1.6793115451e+01   3.2233927054e+01    0.4131833    0.2125237 -46.90  0.001562521    1.928    0.481
       180  -9.6816     84.9533     73.7452   3.8638812505e+01   5.2240012218e+01    0.2191495    0.1961496  49.14 0.0003750523    1.105    0.095
       181  -8.5866     76.6458     74.3149   4.2027660284e+01   5.3793812737e+01    0.1619105    0.1224516  76.50 0.0007045623    1.739    0.425
       182 -10.9248      6.7737     73.3908   7.5257107876e+01   6.2702401308e+01    0.3430751    0.1985373 -17.34  0.001170476    2.004    0.501
       183 -10.1884    160.0257     71.7051   1.7527044916e+01   3.4731175663e+01    0.2406513    0.2039085 -40.65 0.0003265849    1.155    0.134
       184 -11.2575    102.9364     69.8252   3.1081092722e+01   4.9084818111e+01    0.4071999    0.2339315 -41.77  0.001318823    1.789    0.441
       185 -13.2448     16.1943     67.3288   6.9238739063e+01   6.3746364045e+01    0.4161439    0.3306708 -82.61  0.000967342    1.249    0.199
       186  -9.4504    207.1217     73.1886   1.0527466572e+01   2.3719108213e+01    0.1842863    0.1423661 -59.76 0.0004267627    1.293    0.227
       187 -11.7651     92.9078     68.8436   3.4077811867e+01   5.1586644763e+01    0.5237261    0.3197362 -59.72  0.002008181    2.023    0.506
       188 -10.8082     70.1693     69.4183   4.3027772293e+01   5.6172143686e+01    0.3230572    0.2493102 -38.42  0.001070268    1.346    0.257
       189 -10.2193     44.9983     70.8378   5.5034286584e+01   5.9920195609e+01     0.209393    0.2036133 -49.31 0.0003872419    1.014    0.014
       190 -11.1328     50.3471     68.0803   5.1580405970e+01   5.9844819526e+01    0.3329741    0.2579299 -35.54 0.0008572572    1.338    0.253
       191 -11.1457      6.3412     67.7302   7.4674641316e+01   6.4198668693e+01    0.2850284    0.2257116   1.26 0.0002769314    1.397    0.284
       192 -11.6359      3.3350     61.9283   7.5475413382e+01   6.5821652372e+01    0.5328498    0.2690099 -55.82 0.0005615765    1.684    0.406
       193 -13.3527     11.4336     47.0558   6.7536085957e+01   6.9172336002e+01    0.7493913    0.5327469  35.69  0.001340732    1.565    0.361
       194 -11.6604     10.5212     59.8641   7.0973896396e+01   6.6015708490e+01    0.5292115    0.3808402 -15.01  0.001781942    1.495    0.331
       195 -11.4244      2.6518     53.2187   7.4481076405e+01   6.8061378139e+01      0.42837     0.363471 -26.99  0.001895169    1.188    0.158
       196 -11.2555     12.9843     53.2776   6.8074719917e+01   6.7535229459e+01    0.4941269    0.2354849 -33.79  0.001460846    2.229    0.551
       197 -10.7837    129.3908     66.2235   2.2430401599e+01   4.3322488130e+01    0.4325443     0.274421  37.60  0.001025371    1.857    0.461
       198 -11.6154     29.6949     63.9812   6.1051805889e+01   6.3461468788e+01    0.6890035    0.2402196 -45.13  0.002433344    2.889    0.654
       199 -11.5138     28.4785     61.0000   6.0909944924e+01   6.4333987453e+01    0.7234208     0.308779  25.08  0.002947401    2.387    0.581
       200 -10.4351    155.0169     63.9738   1.6162361403e+01   3.7260101541e+01     0.243638     0.212875  73.96 0.0003359077    1.140    0.123
       201 -10.9392    159.4445     64.8110   1.5588481226e+01   3.6020836741e+01    0.2740628    0.2387863  45.38 0.0006270448    1.244    0.196
       202 -10.0812    161.7208     61.6892   1.4242204967e+01   3.5959116141e+01    0.2188421    0.2072882 -15.66 0.0002706637    1.178    0.151
       203 -12.3167    122.7443     63.6258   2.3229030965e+01   4.5465761519e+01    0.3569469    0.3206488 -44.56 0.0002066926    1.136    0.119
       204 -10.5952    108.2547     64.2103   2.7467884528e+01   4.8938245481e+01    0.4248716    0.2541525  55.19  0.001104268    1.664    0.399
       205  -9.9752     81.5324     64.9721   3.6858887895e+01   5.4892286821e+01    0.2377903    0.2054224  44.31  0.000386783    1.137    0.121
       206 -11.5448     46.2307     61.1779   5.1380515184e+01   6.2117586121e+01    0.3962913    0.2654473 -43.30 0.0002246113    1.472    0.321
       207  -9.8291    209.8069     63.0273   7.6747472826e+00   2.4604809596e+01    0.2120873    0.1513975 -53.01  0.001069414    1.290    0.225
       208  -9.6142    246.6581     61.6932   3.6176348910e+00   1.7563858717e+01    0.1120754   0.09020013   7.64 0.0007042662    1.687    0.407
       209  -9.7282    150.6232     60.7528   1.6009310535e+01   3.8893674705e+01    0.2119607    0.1877304 -16.53 0.0003979411    1.283    0.221
       210  -9.7996     90.1634     60.9894   3.2185929378e+01   5.3834445451e+01    0.2804664    0.1913238  60.12 0.0006756077    1.611    0.379
       211 -10.2346    189.0668     59.9653   9.5066352543e+00   2.9645406978e+01    0.2072189    0.1833891 -58.09 0.0003377789    1.029    0.028
       212 -10.6233    167.5431     59.3254   1.2548386157e+01   3.4888795506e+01    0.3189156    0.2300753 -52.11  0.000522813    1.346    0.257
       213 -10.5387    135.3564     58.5336   1.8466502112e+01   4.3156356869e+01    0.3616195    0.2591502 -81.62  0.001551442    1.723    0.420
       214  -9.9114    114.9549     60.0730   2.4066266334e+01   4.8067519667e+01    0.2274961      0.21618  56.86            0    1.038    0.036
       215 -13.5448    149.6549     51.2216   1.3154984379e+01   4.0648056333e+01     0.419515    0.3763134 -43.53 0.0007805392    1.125    0.111
       216  -9.6022    110.1674     56.8224   2.4230025620e+01   4.9854644106e+01     0.233182    0.2059018 -86.90 0.0004922678    1.211    0.174
       217 -11.4864    115.7659     55.0764   2.2038989309e+01   4.8758888726e+01     0.294414    0.2515552  70.80 0.0005349177    1.168    0.144
       218 -10.9849     88.8509     55.0963   3.0385119908e+01   5.5304562690e+01    0.2934018    0.2543808 -45.91 0.0008405076    1.192    0.161
       219  -9.7779     80.2859     55.8481   3.3874837010e+01   5.7069786392e+01    0.4024064    0.2456883  12.21  0.001342558    3.432    0.709
       220 -11.0050    105.2008     52.5812   2.4079170383e+01   5.1852774102e+01    0.2948107    0.2572251 -60.77 0.0003322858    1.213    0.175
       221  -9.8428     97.9198     52.6585   2.6355692379e+01   5.3624371066e+01    0.2153517     0.190365  55.38 0.0003521824    1.092    0.084
       222 -11.1436     54.7445     48.8410   4.2361527105e+01   6.3566797949e+01    0.4265335     0.277913  40.96 0.0005586783    1.540    0.351
       223 -10.6935     39.0870     52.7670   5.2290746762e+01   6.5099603566e+01    0.3787915    0.2176031 -33.91  0.000966402    1.967    0.492
       224 -10.1264     39.3722     48.4520   5.0517070258e+01   6.6058201537e+01     0.388339    0.2220683 -15.51  0.001495501    2.845    0.649
       225 -10.5542      8.0316     51.5088   7.0781295101e+01   6.8257881522e+01    0.3214682    0.2082676  57.12  0.001102884    1.865    0.464
       226  -9.2708    134.2868     51.6572   1.6362215065e+01   4.4563074116e+01    0.1601935    0.1128201 -67.31 0.0004053848    1.644    0.392
       227  -9.5358     76.1324     51.1787   3.3634322382e+01   5.8901834518e+01    0.1987732    0.1784281  80.89 0.0006469647    1.270    0.213
       228 -10.6746    248.8284     46.3648   1.2265635587e-01   1.9050992178e+01    0.3195421    0.2350898 -24.53  0.002083393    1.386    0.278
       229 -11.6862    245.7764     41.4835   3.5928819138e+02   2.0189528395e+01    0.4052387    0.2792227 -48.00  0.001615089    1.145    0.126
       230 -12.0202    247.4670     35.8260   3.5794280841e+02   2.0532403376e+01    0.3393428     0.225329 -61.03  0.001980835    1.355    0.262
       231 -10.9968    180.1933     47.1135   7.1354733598e+00   3.3572235303e+01     0.239043    0.2014116 -66.29 0.0002379006    1.103    0.094
       232 -12.0592     44.6742     43.4991   4.5464351875e+01   6.6378246955e+01    0.6063591    0.3965669 -62.68 0.0007355075    1.851    0.460
       233 -11.1156    121.6579     46.7586   1.7480607826e+01   4.8633264665e+01    0.2853132    0.2356926  79.37  0.000243968    1.229    0.186
       234 -10.1354     78.6764     46.9362   3.0831395480e+01   5.9166518194e+01    0.2574869    0.1963252  36.16 0.0005197272    1.321    0.243
       235 -10.0934    226.7348     45.9846   1.8236373968e+00   2.3338353155e+01    0.1646623   0.09474496 -33.82 0.0007906029    1.494    0.331
       236 -11.3340    143.0564     43.1051   1.1680735507e+01   4.3571597627e+01    0.5239096    0.3667408  23.23  0.002333949    2.037    0.509
       237  -9.8168     59.1732     33.6147   3.3148392800e+01   6.5745412735e+01    0.2143581    0.1744819  31.68 0.0005995256    1.188    0.158
       238 -11.5606     52.6784     43.2438   4.1007555903e+01   6.5104712197e+01    0.6329494    0.4026085  15.52  0.002106328    2.077    0.519
       239  -9.6082    237.4856     44.5254   5.9020428199e-01   2.1394954050e+01     0.123672   0.09937712 -47.46 3.566478e-05    1.013    0.012
       240 -10.4348    127.0351     43.2577   1.4958078247e+01   4.7767102907e+01    0.2545772    0.2096296 -51.19 0.0002345046    1.234    0.190
       241 -10.8105    108.0834     42.5237   1.9312612996e+01   5.2820251892e+01    0.3096847    0.2523058  52.27 0.0002848287    1.176    0.150
       242 -10.0017     72.9368     43.2537   3.1535213115e+01   6.1114037599e+01     0.209952    0.1891745  43.15 0.0003500167    1.075    0.070
       243 -10.9473     16.4967     41.8549   6.2622691469e+01   7.0078157830e+01    0.3959819    0.1996915 -60.82   0.00185581    1.792    0.442
       244 -10.2791     56.2073     36.8321   3.6207417657e+01   6.5729568757e+01    0.3216105    0.2238064 -15.66  0.001122905    1.806    0.446
       245 -10.3832    221.1612     41.1696   1.1685964571e+00   2.5078790894e+01    0.1917506    0.1227502 -52.47  0.001077248    1.346    0.257
       246  -9.7901    118.7244     40.3715   1.5769019963e+01   5.0386797659e+01    0.2898194    0.1696296 -43.63  0.001239495    1.762    0.433
       247  -9.8730     90.0976     41.5397   2.4345586611e+01   5.7475721336e+01    0.2931687    0.1468016  59.14  0.001123872    2.102    0.524
       248  -9.6457     68.4922     41.4929   3.2633132045e+01   6.2389685597e+01    0.1466994    0.1403045  24.38  0.000810597    1.006    0.006
       249 -11.4862    225.2219     39.0339   3.1657960835e-01   2.4498660781e+01     0.322023    0.1598132 -20.80  0.001231243    2.415    0.586
       250  -9.8807    203.7657     40.0011   2.4967866595e+00   2.8993415935e+01    0.1870072    0.1535888 -47.86 0.0002005993    1.069    0.065
       251  -9.9571    148.2070     39.6751   9.6183094763e+00   4.2704981943e+01    0.2619338    0.1838124 -49.22 0.0009213984    1.402    0.287
       252  -9.4004     97.8984     39.2794   2.0891249078e+01   5.5922990498e+01    0.5215944    0.2844816 -30.55  0.002149938    2.017    0.504
       253 -10.3080     92.1635     34.3341   2.0500620897e+01   5.8127934972e+01    0.3430574    0.3054353  17.31  0.001839924    1.223    0.182
       254 -11.5521     83.4772     38.6184   2.5357492748e+01   5.9548529095e+01     0.400821    0.3103463 -11.41 0.0008259852    1.549    0.355
       255 -11.2677     87.5274     33.9608   2.1832534212e+01   5.9328586467e+01     0.357203    0.2675545  39.27 0.0005185462    1.340    0.254
       256 -10.6165    233.2236     39.3799   3.5975780500e+02   2.2845017869e+01    0.1998751    0.1429344 -78.09 0.0007743227    1.437    0.304
       257  -9.2194    167.6930     39.2759   6.5179082300e+00   3.7731581015e+01    0.1481852   0.09913526 -66.19 0.0003210333    1.549    0.355
       258  -8.8773     64.3299     39.2794   3.3468769438e+01   6.3665358741e+01    0.1480104    0.1118038  11.08 0.0006999146    1.601    0.375
       259 -11.2163     27.7424     37.5453   5.3358645659e+01   6.9985089804e+01    0.2358515    0.2324859   4.99 0.0002094627    1.140    0.123
       260 -10.9826     23.7135     34.9419   5.5041246778e+01   7.1009497318e+01    0.4768742    0.2797041 -36.74  0.002345828    1.670    0.401
       261  -9.6834    214.0267     36.0046   5.3239239906e-01   2.7223678180e+01    0.1589755    0.1279781 -48.53 0.0009793795    1.055    0.052
       262 -10.4333    129.4918     35.0712   1.1431399810e+01   4.8294482352e+01    0.3051858    0.2498931 -12.80  0.001239739    1.448    0.309
       263  -9.4328    108.1667     36.6496   1.6911241888e+01   5.3701254198e+01     0.208063    0.1270024  50.14 0.0002582865    1.568    0.362
       264 -10.7592    240.0800     34.5858   3.5817359704e+02   2.2069746751e+01    0.2184865    0.1287917 -44.33 0.0006805287    1.319    0.242
       265  -9.8732     63.9022     34.8324   3.1524298743e+01   6.4562926311e+01    0.2117067    0.1854303  12.38 0.0003633107    1.167    0.143
       266  -9.3882    140.9912     33.6789   8.8030634080e+00   4.5419435478e+01    0.2008183    0.1745184  78.38 0.0004788207    1.079    0.073
       267 -10.0658     34.2183     33.3725   4.7201970154e+01   7.0061747414e+01    0.2293454    0.1741533 -31.91 0.0008922857    1.276    0.216
       268 -10.9607    209.1900     33.1519   2.4275893287e-01   2.8624038286e+01    0.1809288    0.1730333 -55.94 0.0006179275    1.186    0.157
       269  -9.9418     76.4327     33.4633   2.5580414406e+01   6.2043423298e+01    0.2922373    0.1392751  52.27 0.0007662773    2.007    0.502
       270 -11.6353      7.8876     30.1495   6.5113911620e+01   7.3407317362e+01    0.4274609    0.2741052 -68.04  0.001459423    1.542    0.351
       271 -10.7307     11.9929     29.0098   6.1426450734e+01   7.3393559953e+01    0.2491764    0.1881215 -24.15 0.0008421356    1.241    0.194
       272 -11.2447      9.5053     24.9914   6.1873647757e+01   7.4470413241e+01    0.4102708    0.2528564   0.12  0.001746197    1.697    0.411
       273 -10.7625    196.2103     31.9205   1.1174893839e+00   3.1717575780e+01    0.2173669    0.1809162 -84.29 0.0004423867    1.151    0.131
       274 -10.5054     18.1404     31.2619   5.7568462101e+01   7.2379321959e+01    0.4281517    0.2435122   0.11  0.002035947    2.068    0.517
       275  -9.8958    162.6242     29.7294   4.2509891380e+00   4.0245824861e+01    0.2610603    0.1397243 -22.93  0.001035972    2.128    0.530
       276 -12.6246    231.8005     26.9213   3.5701018288e+02   2.4570946786e+01    0.3715907     0.279325 -74.19  0.001019542    1.263    0.208
       277 -10.9355    198.6315     28.5177   3.5998766859e+02   3.1560388700e+01     0.300242    0.1803069 -72.34   0.00136577    1.697    0.411
       278  -9.3008    126.1320     28.8561   9.7581800057e+00   5.0015387787e+01    0.2140914    0.1605742  46.20  0.001056357    1.395    0.283
       279  -9.9878     49.0331     28.3593   3.5670569040e+01   6.8636788619e+01    0.2189057    0.1793486 -17.57  0.000407502    1.249    0.199
       280 -10.8200    111.9134     27.2599   1.2116991110e+01   5.4018708124e+01    0.2923618     0.279768  17.32 0.0007471446    1.156    0.135
       281  -9.5761     79.9914     27.8268   2.1513193839e+01   6.2081136974e+01    0.2637917    0.1539309  31.62  0.001092958    2.106    0.525
       282  -9.2860    176.7381     26.9993   1.7408854271e+00   3.6997354628e+01    0.1692349    0.1137853 -33.34 0.0003786636    1.458    0.314
       283  -9.2375    118.5148     27.4949   1.0766171238e+01   5.2229053180e+01     0.148894    0.1371132  65.96 0.0008100665    1.045    0.043
       284 -11.6920    214.1355     26.0790   3.5807468722e+02   2.8363767261e+01    0.2777086    0.1745507  88.02  0.001548665    1.636    0.389
       285  -9.9232     69.7644     25.5299   2.4235887666e+01   6.4812957779e+01    0.2718111    0.1758122  43.20  0.001298565    1.459    0.315
       286 -10.5849     69.5011     21.6780   2.2286990282e+01   6.5436176270e+01    0.3744646    0.2425437  55.74  0.001811053    1.490    0.329
       287 -10.0099     54.9808     24.9631   3.0653970575e+01   6.8076215141e+01    0.2013018    0.1855759  16.28 -0.002661949    1.007    0.007
       288 -10.3678    160.2036    249.5857   5.3226485565e+01   3.6444322332e+00    0.1667618   0.08513781  21.41  0.000942555    1.657    0.396
       289 -10.1992     51.9427    250.0000   7.5657038455e+01   1.6683019004e+01    0.1964462   0.05045468  29.19  0.000806037    2.967    0.663
       290 -11.8231    219.5697    245.2966   4.1965080670e+01  -2.6912061741e+00    0.3385348    0.1411362 -22.72  0.001873564    2.622    0.619
       291 -10.0579    141.6516    247.6764   5.6663060964e+01   6.2082065733e+00    0.1201266    0.0768082   4.26 0.0007049303    1.746    0.427
       292 -11.5530    156.8331    245.5187   5.3389984338e+01   4.6049678099e+00    0.2275597    0.1533963   1.26  0.001223848    1.521    0.342
       293 -10.4492     53.1454    245.1879   7.5132047217e+01   1.7384601903e+01    0.1726569    0.1014984  49.54  0.001073145    1.350    0.259
       294 -10.9785      2.4622     15.5012   6.4297449441e+01   7.6981868083e+01    0.2528763    0.2147525 -14.18  0.001330901    1.115    0.104
       295 -10.6430     48.6543    244.3414   7.6046087404e+01   1.8023426495e+01    0.1844467    0.1089816  56.58 0.0007202288    1.475    0.322
       296 -10.8206     45.2183    244.4103   7.6784238382e+01   1.8380304977e+01    0.2376251     0.107149  32.47 0.0006954713    1.662    0.398
       297 -10.3784    204.2050    250.5657   4.5283572409e+01  -1.6080524875e+00    0.1993713   0.08057696  31.92  0.001131248    2.045    0.511
       298 -10.9622    197.6290    243.9962   4.5553638928e+01  -1.1394730810e-01    0.2072522    0.1200714   8.80  0.001077662    1.546    0.353
       299 -11.4598    177.3942    243.8925   4.9235057258e+01   2.2882958338e+00    0.3670368    0.1280309  29.26  0.001786093    2.309    0.567
       300 -10.6523      4.4098    243.6913   8.5275737387e+01   2.2455124206e+01    0.1971296    0.1250841  44.66 0.0005281194    1.112    0.101
       301  -9.4467     51.4310     22.7079   3.1218182453e+01   6.9150629352e+01    0.1869069    0.1298658 -21.37 0.0007029969    1.584    0.369
       302 -11.0100     34.0784     22.6046   4.1655965956e+01   7.2209804719e+01    0.2504217    0.2050489   6.39 0.0001623594    1.183    0.155
       303 -10.5491    149.1471    243.3593   5.4653179690e+01   5.8715376115e+00    0.2716737    0.0820161  34.66  0.001199614    2.521    0.603
       304  -9.5546    156.4989     21.5175   2.4106798675e+00   4.2803189689e+01    0.2071888    0.1274797  88.37 0.0003724128    1.630    0.386
       305 -10.4727     99.6765     21.6285   1.2617300855e+01   5.7955633256e+01    0.3091708     0.278641 -66.23  0.001719926    1.178    0.151
       306  -9.7004    152.6117     23.8475   3.6791131246e+00   4.3557140138e+01    0.2044396    0.1167471 -43.23 8.776242e-05    1.677    0.404
       307 -10.5561    193.1372     20.8652   3.5842856380e+02   3.3717416964e+01    0.2138178    0.1758651 -61.87 0.0002831804    1.032    0.031
       308 -10.4673    219.0056     25.6699   3.5761095359e+02   2.7361678261e+01    0.1759973    0.1431141 -67.61 0.0004950488    1.100    0.091
       309 -11.1750    229.4718     16.4756   3.5476334641e+02   2.6181623614e+01    0.1979976    0.1021454 -31.59 6.149302e-05    1.701    0.412
       310 -10.2228     43.9644     19.7200   3.3641513671e+01   7.1056708577e+01    0.4844976    0.1704216  46.94  0.001780061    2.976    0.664
       311 -10.7690    210.9579     19.0064   3.5655868675e+02   2.9846011909e+01    0.2077747    0.1785472  71.51 0.0006452103    1.325    0.245
       312 -10.8810    132.8607    241.1904   5.7722014772e+01   8.2754121201e+00    0.3176767    0.1619395  17.32  0.001574373    2.124    0.529
       313  -9.2646    165.6216     16.6914   3.5983250540e+02   4.0967143544e+01     0.142917   0.09770846  43.44 0.0007027157    1.787    0.440
       314 -10.1435    131.9308     16.0441   3.8970514532e+00   4.9947954126e+01    0.2112012    0.1924929 -88.36 0.0003051445    1.022    0.021
       315 -10.2630    169.4157     15.1704   3.5897948977e+02   4.0158995317e+01    0.1958319    0.1100619 -42.50 0.0005463319    1.627    0.385
       316 -10.3132    137.1427     14.8592   2.6921557858e+00   4.8668101699e+01    0.2157196    0.1749575 -69.01 0.0002672572    1.185    0.156
       317 -10.0255     53.1003     14.4937   2.5419712795e+01   7.0058638931e+01    0.3630417    0.1254407  49.99  0.001351236    2.689    0.628
       318 -11.5856     19.0382    241.6768   8.2209623969e+01   2.1500463672e+01    0.3247895     0.108218  27.40  0.001579981    2.463    0.594
       319 -10.0369    116.0035    241.2487   6.1271110670e+01   1.0441560213e+01    0.1750645    0.1316976  29.96  0.001163553    1.016    0.016
       320 -11.1885     89.0036    240.6148   6.7031931468e+01   1.3965656610e+01    0.1955376    0.1630742 -25.01  0.001340208    1.574    0.365
       321 -10.1979    102.0149    243.9765   6.4524642948e+01   1.1784120157e+01    0.1971634    0.1152168  50.64  0.001137414    1.722    0.419
       322 -12.3421    182.9256    249.0801   4.8880569475e+01   9.8358935685e-01    0.5911506     0.246008  28.00  0.003269647    1.881    0.468
       323  -9.2355    193.2955     16.2872   3.5718122133e+02   3.4177420048e+01    0.1193655   0.09909226  41.70 0.0006967791    1.548    0.354
       324 -10.7051     20.0913    237.4039   8.1845714046e+01   2.2183540983e+01    0.3932989    0.1243344  35.65  0.001595531    2.073    0.518
       325 -11.5899     13.0769    237.6185   8.3336748883e+01   2.2793182237e+01    0.3418436    0.1149334  36.71  0.001554519    1.951    0.487
       326  -9.9815    187.8041     16.0907   3.5757524537e+02   3.5507971531e+01    0.2039638    0.1528324 -60.98 0.0003195522    1.157    0.135
       327 -10.9616      3.8445    238.1111   8.5273712177e+01   2.3516237792e+01    0.2047457    0.1361225  86.78 0.0007224211    1.556    0.358
       328 -10.0241    196.3216    238.0811   4.4974905811e+01   7.4828018862e-01    0.1548136    0.1185153   1.72 0.0006833606    1.106    0.096
       329  -9.7230     52.2888    238.5787   7.4930965467e+01   1.8655944144e+01    0.2449753   0.07872555  34.02  0.001140773    2.155    0.536
       330 -10.2748     83.5091    248.1968   6.8840740970e+01   1.3368552493e+01    0.2504989    0.1020037  41.98 0.0008629354    1.855    0.461
       331 -11.1877    188.9867    245.0361   4.7245207614e+01   7.6466606028e-01    0.2872216    0.1535065  12.11  0.001304882    1.789    0.441
       332 -11.5525    183.6115    234.6183   4.6823693134e+01   2.7206596402e+00    0.3967353    0.1701138  35.18  0.001494743    2.024    0.506
       333 -10.7109    161.0767    234.8853   5.1208027881e+01   5.5388741453e+00    0.2259267    0.1333943  22.24  0.001184887    1.392    0.282
       334 -10.8637    156.3011    234.9540   5.2170825229e+01   6.1481778300e+00    0.1592198    0.1302978   9.42 0.0003668608    1.108    0.098
       335  -9.8354     54.9955    232.1912   7.3934356997e+01   1.9525754551e+01     0.184093    0.1070543  59.34  0.001064265    1.618    0.382
       336 -10.3185     11.7669    231.5447   8.3441311491e+01   2.4047500384e+01    0.2518052    0.1150772  27.60  0.001401662    1.883    0.469
       337 -10.9915    248.2009    228.4427   3.4988091754e+01  -3.8717848018e+00    0.1912599    0.1133071 -19.60  0.001132988    1.391    0.281
       338  -9.3846    117.6739    229.2751   5.9610450798e+01   1.2168541385e+01    0.1245915   0.07994319  48.47 0.0002072403    1.586    0.369
       339  -9.5408     59.4455    229.4858   7.2747494529e+01   1.9521848271e+01    0.1244424   0.09512733  44.30 0.0001878833    1.017    0.017
