#   1 NUMBER                 Running object number                                     
#   2 MAG_AUTO               Kron-like elliptical aperture magnitude                    [mag]
#   3 X_IMAGE                Object position along x                                    [pixel]
#   4 Y_IMAGE                Object position along y                                    [pixel]
#   5 X_WORLD                Barycenter position along world x axis                     [deg]
#   6 Y_WORLD                Barycenter position along world y axis                     [deg]
#   7 A_WORLD                Profile RMS along major axis (world units)                 [deg]
#   8 B_WORLD                Profile RMS along minor axis (world units)                 [deg]
#   9 THETA_WORLD            Position angle (CCW/world-x)                               [deg]
#  10 FWHM_WORLD             FWHM assuming a gaussian core                              [deg]
#  11 ELONGATION             A_IMAGE/B_IMAGE                                           
#  12 ELLIPTICITY            1 - B_IMAGE/A_IMAGE                                       
         1  -9.8642    231.7900      2.7318   5.4716063905e+01   2.7565211531e+01    0.3183297    0.1723286 -86.64 0.0009328468    1.631    0.387
         2 -11.2847    225.3211     23.2842   5.9421812966e+01   2.6644358901e+01    0.6409668    0.4686796 -71.51  0.003554605    1.178    0.151
         3 -10.0683    240.7041      2.3203   5.3953885099e+01   2.5696659979e+01    0.4097417    0.2108576  74.52  0.002367976    1.667    0.400
         4 -11.1838    248.7151     32.1747   5.8982347722e+01   2.0405431444e+01    0.7395893    0.3604183 -45.35  0.003907389    1.823    0.451
         5 -10.3858    250.1255     19.6380   5.6462900553e+01   2.1704962680e+01    0.5397271     0.178865 -38.80  0.002138203    2.814    0.645
         6 -10.8333    244.5011     22.1481   5.7414662024e+01   2.2580882508e+01    0.3996839    0.3113296 -55.69  0.002003066    1.237    0.192
         7 -11.4913    238.4186     18.2675   5.7188509597e+01   2.4360544527e+01    0.8986945    0.4610727  80.17  0.004828687    1.761    0.432
         8 -10.9098    246.1458     13.4870   5.5627186533e+01   2.3280211498e+01    0.6283319    0.2044659  66.64  0.002885684    2.714    0.632
         9 -10.9651    249.0700      5.5443   5.3933937998e+01   2.3585061732e+01    0.6002444    0.3195294 -38.04   0.00351112    1.996    0.499
        10 -10.1315    233.0611     10.8057   5.6185327019e+01   2.6397675167e+01    0.2855857    0.2396262  39.79 0.0008012056    1.808    0.447
        11 -10.6128    238.1651      8.3753   5.5294071742e+01   2.5567600485e+01    0.4756885    0.2271809 -68.24  0.001800199    2.036    0.509
        12  -9.2294    174.2586     26.7458   6.6426917685e+01   3.8302016313e+01    0.2433734    0.1497711 -46.44  0.001256422    1.743    0.426
        13 -10.0296    219.6317     16.4963   5.8561888369e+01   2.8736800784e+01    0.4787493    0.2448121  88.21  0.002384274    1.927    0.481
        14 -10.3828    221.7017     13.1733   5.7672305074e+01   2.8648374901e+01    0.3884943    0.2183468 -85.58  0.002089918    1.677    0.404
        15  -9.3820    198.1799     10.3816   5.9428383058e+01   3.4367387555e+01     0.349952    0.1797081 -29.97  0.001784918    2.334    0.572
        16  -9.7276    199.9345     15.3906   6.0371245779e+01   3.3418485172e+01    0.2727644    0.2100529  86.38  0.000941397    1.073    0.068
        17  -8.9046    201.6846     11.6901   5.9347534572e+01   3.3408742737e+01    0.1882291    0.1624694  71.89 0.0006719346    1.203    0.169
        18 -10.6328     67.7471     11.6510   8.5233031828e+01   6.3114168025e+01    0.3826953    0.2063448  -3.99  0.002006664    2.252    0.556
        19  -8.9764    168.2835     11.8103   6.3412780712e+01   4.1335955010e+01    0.3031731    0.1162072 -46.66   0.00126988    2.999    0.667
        20  -9.6144    193.0753     11.1508   6.0166829544e+01   3.5488648736e+01    0.2184521    0.1681283 -69.65 0.0004894856    1.239    0.193
        21  -9.1041     58.4765     11.9402   8.8524911604e+01   6.4617871165e+01    0.1646482    0.1048311 -21.04 0.0007428825    1.573    0.364
        22 -10.5048    212.9913      8.5134   5.7519340622e+01   3.1136143563e+01    0.4313761    0.3051938 -49.94  0.002706623    1.423    0.297
        23 -10.2346    155.2175      9.7240   6.4731770875e+01   4.4655709875e+01    0.2961277    0.1849945 -24.64  0.001630676    1.958    0.489
        24  -9.2739     84.5046     10.4395   7.9653100939e+01   6.0176924288e+01    0.2150104    0.1162625 -20.78 0.0009016374    2.035    0.509
        25 -10.0190    222.7984      6.3781   5.6184279445e+01   2.9152631107e+01    0.3978328    0.1973882  64.45  0.001587317    1.831    0.454
        26  -8.8295    220.5718      3.2177   5.5737569145e+01   2.9984929472e+01     0.190557    0.1241806 -29.73 0.0006254191    1.957    0.489
        27  -9.1949    206.4977      6.5324   5.7722502565e+01   3.2833977173e+01    0.2280314    0.1188014 -34.13  0.001208977    2.158    0.537
        28  -9.0684    171.2564      5.6445   6.1446515551e+01   4.1210764332e+01    0.2160317    0.1403923 -46.54  0.001100292    1.692    0.409
        29  -9.5638    116.5127      6.5299   7.0556692404e+01   5.3865275418e+01    0.1273607    0.1029634  49.30 0.0001388583    1.015    0.015
        30  -8.9622    102.5174      7.0378   7.3785441557e+01   5.6840881564e+01    0.1682736    0.1203763 -17.58  0.001034124    1.600    0.375
        31  -8.9298     60.5220      5.4865   8.5104104025e+01   6.4908243948e+01    0.1174737   0.09079446  20.73 0.0002097395    1.006    0.006
        32 -10.2492     63.8838      2.3473   8.2663398466e+01   6.4619226848e+01    0.2570221    0.1885751  27.09 0.0008637541    1.061    0.057
        33  -9.0186    183.3232      2.7927   5.9307811693e+01   3.8614638720e+01    0.2245722   0.09186792 -39.94  0.001063918    2.544    0.607
        34  -8.5804    194.6419      2.3258   5.7983442160e+01   3.6003514832e+01    0.1350269   0.07770652 -72.73 -1.58902e-05    1.778    0.438
        35  -8.8919    190.1346      2.1661   5.8417703637e+01   3.7072192734e+01    0.1884965    0.1465864  63.82 0.0008562919    1.244    0.196
        36  -8.8083    187.4970     11.0174   6.0777065203e+01   3.6823871727e+01    0.2325151    0.1438315  53.80  0.001275849    1.614    0.381
        37  -9.9276    186.6662    213.3113   1.0831617230e+02   8.5239353425e-01    0.3115222    0.2329287 -60.15  0.001484736    1.713    0.416
        38  -9.2407    210.2705    249.9819   1.0989904346e+02  -9.2072734183e+00    0.2681342    0.1423216  22.83  0.001315953    1.983    0.496
        39  -9.0783    132.4668    213.9777   1.2027144829e+02   1.0816903341e+01    0.2026401    0.1420698 -56.29 0.0005305724    1.550    0.355
        40  -9.3345    207.0785    208.9462   1.0328071329e+02  -2.0529720198e+00    0.3710169    0.1852263  59.82  0.001115221    5.295    0.811
        41  -8.6257     86.3381    208.6602   1.2983443371e+02   1.9932250964e+01    0.1504244   0.09375147  70.57 0.0006903246    1.762    0.432
        42 -10.1792    124.0026    205.9973   1.2090266095e+02   1.4078469436e+01      0.20645    0.1864237  60.87            0    1.009    0.009
        43  -9.6427    235.9013    203.9492   9.6704863273e+01  -6.1217792849e+00     0.242084    0.2212325  24.61  0.001126588    1.209    0.173
        44  -9.4603    193.4823    202.5466   1.0486204227e+02   1.5974887049e+00    0.2465302    0.1365356 -54.93  0.001028744    2.349    0.574
        45 -10.6135    248.2418    194.3621   9.2585634875e+01  -6.5317096484e+00    0.4941322    0.3951651 -68.94  0.002752976    2.010    0.503
        46  -9.8284    218.1588    201.8720   9.9706249815e+01  -2.7638727148e+00    0.1980685    0.1948263  66.26  0.001025851    1.277    0.217
        47 -10.3158    230.6484    195.4932   9.6040523341e+01  -3.8178169096e+00    0.4632131    0.2295433 -33.40  0.001382974    2.007    0.502
        48  -8.4708     16.4641    201.5329   1.4399728863e+02   3.0577098699e+01    0.1214014   0.09249926  85.27 0.0002081158    1.003    0.003
        49  -9.1046    241.4011    200.0906   9.4939737562e+01  -6.3776996047e+00    0.2825967    0.2064175  17.07   0.00106142    1.385    0.278
        50  -8.7949    164.4660    200.5039   1.1076262148e+02   7.5591082027e+00    0.1467697     0.137711  35.99 0.0001244126    1.004    0.004
        51  -8.7700    203.4339    197.8005   1.0187158222e+02   6.3053499720e-01     0.197539      0.12999 -27.55 0.0009385071    1.651    0.394
        52  -9.2139    249.7136    201.6602   9.3741464714e+01  -7.9439990157e+00    0.2356751    0.1705551 -39.29 0.0008341057    1.399    0.285
        53  -8.5294    176.3171    197.6559   1.0760375234e+02   5.8311489918e+00    0.1473979    0.1172411  80.92 0.0005358341    1.718    0.418
        54  -9.2925    184.4629    196.0084   1.0551424530e+02   4.5770283065e+00    0.2209246     0.143573 -42.37 0.0006535337    1.600    0.375
        55 -11.0943    237.7845    190.1469   9.3646307073e+01  -4.1099670304e+00    0.7107555    0.2740545 -43.09  0.002850849    2.554    0.608
        56  -8.7742    223.9847    191.6915   9.6558531266e+01  -1.9914386442e+00    0.1931977    0.1770155   8.20 0.0006181282    1.058    0.055
        57  -8.1283    214.6934    191.7115   9.8384150916e+01  -3.2130545684e-01    0.1419498    0.1048464   1.37 0.0002943075    1.572    0.364
        58  -9.7081    249.6572    184.9663   9.0479230350e+01  -5.1981702248e+00    0.3388337    0.2247644 -47.54  0.001800037    1.638    0.389
        59  -9.8975    224.7918    184.6773   9.4986942962e+01  -8.7594078381e-01    0.3831319    0.2381878 -48.02   0.00117965    1.733    0.423
        60  -8.9156    230.6868    180.3447   9.2984016207e+01  -1.1533382916e+00    0.1795375    0.1462073  55.14 0.0007472299    1.498    0.332
        61 -10.1587    226.5896    179.5067   9.3584862324e+01  -2.6192398258e-01    0.3412431    0.3033566  -6.66  0.001329937    1.067    0.063
        62  -8.8010    203.6376    184.2916   9.9115526526e+01   3.1525912762e+00    0.1426035    0.1173784  81.13 0.0007027957    1.701    0.412
        63 -10.3519    242.1646    180.2558   9.0861770838e+01  -3.1441093722e+00    0.4884498    0.2478599 -44.57  0.002226874    1.950    0.487
        64  -9.0821    245.6409    178.3313   8.9853518360e+01  -3.4008648236e+00    0.2507652    0.1892136  72.69  0.001280235    2.204    0.546
        65  -9.3924    235.8663    180.7157   9.2098783154e+01  -2.1361145599e+00    0.3133757    0.1670367 -49.15  0.001343206    2.108    0.526
        66  -8.7246    210.3076    182.6553   9.7421119474e+01   2.1873156858e+00    0.1405771    0.1168801 -82.62 0.0007043502    1.696    0.410
        67  -9.0071    219.4934    178.8416   9.4812779741e+01   1.1710886351e+00    0.2680643    0.1858756  58.77  0.001222309    1.881    0.468
        68  -9.6372    157.6217    178.9292   1.0812845057e+02   1.3525551105e+01    0.3154989    0.2164383 -22.02  0.001329006    2.036    0.509
        69  -8.9108    152.2133    178.3683   1.0928187286e+02   1.4755511757e+01    0.2155742     0.138426  51.10 0.0004583397    1.580    0.367
        70  -9.1782    198.0000    176.9832   9.8768868648e+01   5.6932891874e+00    0.2435744   0.08308374 -43.35 0.0008000307    2.926    0.658
        71  -9.8747    233.4396    174.5840   9.1287209676e+01  -6.0852029188e-01    0.3973959    0.2155679 -44.20  0.001809617    1.795    0.443
        72 -10.3558    225.0541    171.9319   9.2302884783e+01   1.4182258310e+00    0.5571418    0.3099869 -52.22  0.002403216    2.112    0.527
        73  -8.8289    184.2297    171.0119   1.0045046445e+02   9.7195931529e+00    0.2009331    0.1256606 -43.73 0.0005629684    1.611    0.379
        74  -9.1792    237.3441    170.1064   8.9648115331e+01  -5.0227237750e-01    0.2236176    0.1560508 -27.61 0.0009890079    1.391    0.281
        75 -10.5381    212.4900    169.0595   9.4133588970e+01   4.3779452492e+00    0.4765479    0.2042194 -42.90  0.001422512    2.263    0.558
        76  -9.1006    169.8703    169.3130   1.0329612928e+02   1.3086602061e+01     0.271822     0.210456 -55.96  0.001292013    1.377    0.274
        77  -9.4715    147.2735    168.1128   1.0835289579e+02   1.8089099484e+01    0.2789927    0.2207054  52.85 0.0004451275    1.263    0.208
        78  -9.3602    248.7367    167.0625   8.7017903481e+01  -1.9662856496e+00    0.2464744     0.176526  80.21  0.001153701    2.621    0.618
        79  -9.6986    193.2967    166.5221   9.7528935992e+01   8.7687664138e+00    0.2805152    0.2478935 -48.57  0.001473304    1.156    0.135
        80  -9.3484    234.1253    164.4689   8.9052131183e+01   1.1100505154e+00    0.2848892    0.1717694 -53.80  0.001269479    1.949    0.487
        81  -9.2580    240.5233    163.0499   8.7612298330e+01   1.9853794682e-01    0.2166861    0.1254076 -37.75 0.0007241744    1.575    0.365
        82 -10.8089    245.8268    158.4393   8.5731548046e+01   7.3538843424e-02    0.4039671    0.3448954 -10.09  0.001984171    1.203    0.169
        83  -8.7424    250.5354    158.5253   8.4955411106e+01  -7.7592201583e-01    0.2001257    0.1163161 -46.53 0.0006663043    1.652    0.395
        84  -9.0907     46.6276    162.2040   1.3292853685e+02   3.6510395091e+01    0.1902312    0.1061499 -58.90 0.0004509402    1.593    0.372
        85  -8.6507    236.7711    158.9928   8.7422692153e+01   1.6253048281e+00    0.1912277    0.1075388 -39.61 0.0008719179    1.626    0.385
        86  -9.5866    226.5739    156.9971   8.8843714282e+01   3.9355973009e+00    0.3017024    0.2194699  11.26  0.001212616    1.806    0.446
        87  -9.5184    233.0572    152.5179   8.6703875578e+01   3.5256543294e+00    0.2933813     0.232639 -30.87  0.001354689    1.195    0.163
        88  -9.1649    229.0302    152.5024   8.7424501431e+01   4.3074057193e+00    0.2296224    0.1835037 -38.91 0.0005146926    1.158    0.137
        89 -10.1589    229.8038    148.2131   8.6355971735e+01   4.9658168947e+00    0.3367512    0.2194549 -56.07  0.001298153    1.733    0.423
        90  -9.5769    221.9239    153.4206   8.8934226072e+01   5.5333842848e+00    0.3675546     0.195544 -53.72  0.001188045    2.217    0.549
        91 -10.6110    249.7917    150.8531   8.3485051778e+01   7.1877607977e-01    0.8457348    0.3705761 -53.51  0.003135562    3.086    0.676
        92 -10.0795    242.6089    153.1702   8.5175729363e+01   1.6086239969e+00    0.3052699    0.2628129 -45.03  0.001010238    1.120    0.107
        93 -11.1581    244.0621    148.6911   8.3983406373e+01   2.1536826500e+00    0.5953625    0.3263485 -35.81  0.001980794    1.698    0.411
        94  -9.7556    197.1029    149.8517   9.3034246906e+01   1.1397752980e+01    0.2373013    0.2110291 -74.97 0.0007354199    1.258    0.205
        95  -8.5039     35.5228    150.5067   1.3413986432e+02   4.0560922228e+01    0.1323397    0.1107859 -78.39  5.63665e-05    1.027    0.027
        96  -9.6782    234.7057    147.5994   8.5355014296e+01   4.1256813822e+00    0.2451301    0.1654133 -57.80  0.001044104    1.706    0.414
        97  -9.9874    223.9464    146.3773   8.7016834390e+01   6.4814491008e+00     0.368753    0.2703798 -33.19  0.001485457    1.328    0.247
        98  -9.2269    217.1519    147.5828   8.8549843092e+01   7.6313836812e+00    0.3603415    0.1419542  44.61  0.001301916    2.697    0.629
        99  -9.1363    111.9843    147.2863   1.1288848694e+02   3.0103656692e+01    0.2188927    0.2046571  56.63  0.001084617    1.074    0.069
       100  -8.7926     17.2425    146.9990   1.3839167113e+02   4.3086479092e+01    0.1701613   0.08713367 -70.47 0.0008760704    1.577    0.366
       101 -10.3625    230.4360    141.2123   8.4717650026e+01   6.1625015043e+00    0.4044401    0.2410253 -45.67   0.00109762    1.571    0.363
       102  -8.8588      9.4988    141.9951   1.3976316416e+02   4.4860026313e+01    0.1684148    0.0870534  82.33 0.0004416443    2.296    0.564
       103 -11.4348    242.0282    133.2620   8.1028273434e+01   5.3555238777e+00    0.5807486    0.4708341 -39.53  0.002871239    1.115    0.103
       104  -9.6846    250.1818    140.1957   8.1188895540e+01   2.5547941189e+00    0.2565244    0.2112414 -37.27  0.000932851    1.079    0.073
       105 -10.2714    249.1187    134.9315   8.0247609540e+01   3.6976570072e+00     0.417111    0.2296874 -44.42  0.001207204    1.614    0.380
       106 -10.2211    248.7143    130.7365   7.9422771881e+01   4.5280652629e+00    0.3273309    0.2500351  80.45  0.001451671    1.706    0.414
       107 -10.0987    225.0162    138.6007   8.5105419854e+01   7.7546739132e+00    0.4387853    0.2227512 -30.17  0.001709224    2.347    0.574
       108  -9.7087    218.9967    138.8292   8.6252377122e+01   8.9553341309e+00    0.2376444    0.1734483  84.86  0.001078716    1.974    0.493
       109 -10.5789    233.3564    134.9445   8.2839342855e+01   6.7563985541e+00    0.3293597    0.2934866 -70.95  0.001870855    1.206    0.171
       110  -9.1513     53.0194    135.9401   1.2704426361e+02   4.2136405283e+01    0.2134544    0.1510588 -34.54 0.0005774968    1.622    0.384
       111  -9.2009    209.8157    137.8310   8.7757896823e+01   1.1096444114e+01    0.2121155     0.179083 -73.32  0.001077667    1.341    0.254
       112  -9.4529    169.8798    134.6040   9.5394214700e+01   2.0679810469e+01    0.2528197    0.2194409 -27.48 0.0005218034    1.244    0.196
       113  -9.3373    221.3789    129.7025   8.3766276762e+01   1.0218288373e+01    0.2618166    0.1807098  64.21 0.0008709551    1.705    0.414
       114  -9.0579     86.2788    129.3241   1.1610634728e+02   3.9010586298e+01    0.1488604    0.1116942 -26.99 0.0003021899    1.588    0.370
       115  -9.6220    193.3067    127.8166   8.8694959311e+01   1.6769029589e+01    0.2198553    0.1993991  75.22 0.0008015831    1.154    0.134
       116  -9.7200    206.3216    126.9046   8.5907898836e+01   1.4029481402e+01    0.2439826    0.2112733  76.57  0.000574219    1.259    0.206
       117  -9.8027    212.5989    124.5232   8.4176512535e+01   1.3112269115e+01     0.428472    0.3184451  14.63   0.00195496    1.957    0.489
       118  -8.8667    113.8733    126.8629   1.0768867347e+02   3.4596583451e+01    0.2101379    0.1837464 -87.09 0.0004807218    1.274    0.215
       119  -9.0938    244.1014    119.5619   7.7750123058e+01   7.4368277383e+00    0.3326679    0.2025525 -68.14  0.001449731    2.310    0.567
       120  -9.2630    229.0585    124.9757   8.1368936308e+01   9.5036362275e+00    0.2290092    0.2135877 -48.49 0.0009897936    1.023    0.022
       121  -9.3342    188.5725    123.6990   8.8679638379e+01   1.8693473805e+01    0.3073682    0.1506689 -38.31  0.001144974    2.105    0.525
       122  -9.1270    161.1235    124.3521   9.4909441435e+01   2.4907218558e+01    0.2251974    0.1989316  58.99 0.0006371175    1.140    0.123
       123  -9.4125    221.8322    120.8845   8.1689211231e+01   1.1805190010e+01    0.2674433    0.2468098   7.49  0.001253455    1.266    0.210
       124  -8.2991    124.7574    120.0107   1.0300435612e+02   3.3952211470e+01    0.1949798    0.1316939 -47.69 0.0002435997    1.473    0.321
       125 -10.7115    241.4634    124.6126   7.9252894876e+01   7.0461053107e+00    0.4000962    0.3590088 -79.77  0.001744628    1.192    0.161
       126 -10.5619    235.7601    115.8425   7.8244522618e+01   9.8031580002e+00    0.5766243    0.2013678 -49.86  0.001956715    3.074    0.675
       127 -10.7697    230.1498    116.0583   7.9197292713e+01   1.0936103610e+01     0.479984    0.3108453  63.91  0.002287095    1.774    0.436
       128 -11.9352    241.7788    104.9328   7.4938695072e+01   1.0519732209e+01     1.357071    0.4811862 -47.99  0.005006223    2.674    0.626
       129 -10.2092    237.6977     84.0768   7.0986477253e+01   1.4980108369e+01    0.5478699    0.3084313 -73.49  0.002303631    2.507    0.601
       130 -11.9966    246.8586     98.2934   7.2784366917e+01   1.0636305348e+01     1.153077    0.5111209  56.56  0.004987719    2.466    0.595
       131 -11.4316    235.6283     73.5826   6.8982149334e+01   1.7158036309e+01     1.020102    0.4577329 -54.09  0.004275639    2.267    0.559
       132 -10.8663    242.9560     93.2625   7.2249065387e+01   1.2306765532e+01    0.4480439    0.2651043 -42.52  0.002211188    1.529    0.346
       133 -10.7655    247.4617     86.8154   7.0266362064e+01   1.2460504406e+01    0.4980785    0.3911397  54.65  0.002885899    1.462    0.316
       134 -10.8852    245.2913     81.2944   6.9380308648e+01   1.3827758105e+01    0.6002319    0.3562121  63.25  0.003051094    1.785    0.440
       135 -10.4531    243.0739     76.6485   6.8678828738e+01   1.5055250360e+01    0.4127262    0.2512254 -50.19  0.001205452    1.456    0.313
       136 -11.4706    247.7158    112.0404   7.5594434336e+01   8.0611889192e+00    0.7705302    0.3820702 -43.63  0.003486395    1.768    0.434
       137 -10.8177    248.7616    106.5211   7.4267805115e+01   8.8232600350e+00     0.520171    0.3201492 -48.84  0.002616595    1.441    0.306
       138 -10.7355    213.0955    115.5070   8.1993953189e+01   1.4743561372e+01    0.5432314    0.3549296  20.85  0.002159744    2.690    0.628
       139  -9.7730    218.4616    115.4305   8.1028753705e+01   1.3571158141e+01    0.3678362    0.1514968  55.68  0.001347919    2.669    0.625
       140  -8.7668    203.6480    115.8077   8.3800962346e+01   1.6814759960e+01    0.2193132    0.1327724 -49.90 0.0005119492    1.637    0.389
       141  -8.5487     52.4155    113.4896   1.2284386700e+02   4.7543285817e+01    0.1362018    0.1191164 -54.05  0.000134311    1.023    0.023
       142  -9.9939     15.1372    112.1396   1.3406202246e+02   5.1344733791e+01    0.2078941    0.1627933 -58.76 0.0004338165    1.029    0.028
       143  -9.9603    104.6506    111.9921   1.0657724615e+02   3.9795367077e+01    0.2699434     0.219451  26.95 0.0004552926    1.318    0.241
       144  -9.9733    235.9293    107.8669   7.6460955323e+01   1.1213263389e+01    0.2460013    0.1958373  69.32 0.0008176142    1.362    0.266
       145  -9.7039    214.7243    107.7088   7.9889015713e+01   1.5855399507e+01    0.3196103    0.1938339  65.38  0.001398494    1.890    0.471
       146 -10.6329    221.5346    101.6808   7.7349597473e+01   1.5445042331e+01    0.5640243    0.1568473 -47.86  0.001682888    3.767    0.735
       147  -8.5586    195.6807    103.3194   8.2290058569e+01   2.1075492416e+01    0.1586083    0.1160141 -77.12 0.0004901767    1.664    0.399
       148  -9.7915    130.0927     98.1544   9.5751431083e+01   3.7522684669e+01    0.2561175    0.2253846 -36.39 0.0006342604    1.159    0.137
       149 -10.3602    230.8201     94.2356   7.4212120739e+01   1.4728845310e+01    0.3757626    0.2535302 -46.21  0.001384745    1.356    0.262
       150  -9.8134    226.2216     85.9878   7.3044053013e+01   1.7173901127e+01     0.392701    0.2473589 -29.41  0.001830122    1.901    0.474
       151  -8.5997    232.6658     85.3214   7.1960916608e+01   1.5862556934e+01    0.2307467    0.1753589 -62.38 0.0006929145    1.227    0.185
       152  -9.6819    231.1781     82.3770   7.1519035772e+01   1.6686543370e+01    0.3160888    0.2255639  62.23  0.001231032    1.450    0.310
       153 -10.5787    237.1059     89.7646   7.2309554533e+01   1.4143659952e+01    0.4301801    0.3160124 -85.46  0.001607314    1.495    0.331
       154  -9.2624    176.2210     87.4157   8.2064130101e+01   2.8728279462e+01    0.2157292    0.1430076  68.96 0.0006195242    1.657    0.396
       155  -8.8268    134.9852     83.4899   9.0327019361e+01   3.9296061394e+01     0.200509    0.1341104  76.76 0.0005619702    2.236    0.553
       156  -9.1879    195.4455     78.1482   7.6104635591e+01   2.5697766097e+01    0.4578363    0.1842521 -56.05  0.001422037    3.708    0.730
       157  -9.1945    175.2133     77.1975   7.9575471825e+01   3.0790978082e+01    0.2164563    0.1736455 -78.64  0.001075901    1.365    0.267
       158  -8.9954    224.3622     75.6713   7.0982794217e+01   1.9327003726e+01     0.265832    0.1539921 -67.53 0.0008052318    2.070    0.517
       159  -9.8680    226.9437     73.4678   7.0125671362e+01   1.9104805919e+01    0.3676191    0.2537463 -68.53  0.001895361    1.468    0.319
       160  -8.4847    126.4624     76.5094   9.0477484228e+01   4.2499499792e+01    0.1478222    0.1411771  30.96 0.0001786086    1.008    0.008
       161  -9.0953    249.7744     71.1064   6.6694284254e+01   1.4532166211e+01    0.2230024    0.1685462  36.82  0.001223496    1.975    0.494
       162  -9.4195    241.8567     68.7299   6.7151997576e+01   1.6581404475e+01    0.2978947    0.2006568  63.83  0.001627403    1.536    0.349
       163 -10.8816    225.9352     66.5591   6.8720028040e+01   2.0439719722e+01    0.4982332    0.3280596  87.01  0.002322802    1.637    0.389
       164  -9.3952    238.7048     65.0251   6.6751770369e+01   1.7842408382e+01    0.2536015    0.2174125  43.91  0.001205775    1.532    0.347
       165  -8.8613    153.9642     66.4789   8.0987804990e+01   3.7779952693e+01     0.210971    0.1286098  81.71 0.0008096307    2.507    0.601
       166  -9.2198    227.0988     60.7457   6.7277977382e+01   2.1079679917e+01    0.3653093    0.1293242 -52.23  0.001328162    3.030    0.670
       167  -9.8736    250.0867     65.8249   6.5571357292e+01   1.5291782386e+01    0.2960812    0.1672114 -47.30 0.0008170971    1.545    0.353
       168  -9.4920    206.8479     60.5314   7.0003330152e+01   2.5819503119e+01    0.2919535    0.1605359 -54.14  0.001316224    1.862    0.463
       169  -9.4433    236.1577     60.2721   6.6047824602e+01   1.9130628472e+01    0.4198387     0.172912  69.23  0.001736139    2.623    0.619
       170  -9.8198    171.5865     59.3922   7.5515070629e+01   3.4583625590e+01    0.3410031    0.2047863  52.80  0.001508992    1.571    0.364
       171  -8.9459    126.5862     58.7432   8.5041497619e+01   4.5446542811e+01    0.1901862    0.1345492 -47.04  0.000573785    1.591    0.371
       172  -9.6234    213.9027     57.4948   6.8294397350e+01   2.4615332969e+01     0.332379    0.2257471  66.67  0.001325158    1.404    0.288
       173  -9.5676    250.3541     54.8593   6.3313128301e+01   1.6891822466e+01    0.2941574     0.145038 -43.60  0.001017327    1.809    0.447
       174 -10.5092    228.5905     52.3332   6.5251217746e+01   2.2002526233e+01    0.3796849    0.3592019  22.42  0.002287751    1.475    0.322
       175 -10.5757    236.9904     53.8050   6.4576840665e+01   1.9916231764e+01    0.7365073    0.2516067  68.56  0.002821977    3.149    0.682
       176 -10.4634    244.4488     51.3887   6.3242455385e+01   1.8651532438e+01    0.4323253    0.2669846 -76.96  0.001817036    1.647    0.393
       177  -9.4940    238.6163     38.4267   6.1205671066e+01   2.1737089701e+01    0.2900542    0.2057699 -88.31  0.001454886    1.252    0.202
       178  -9.5651    249.9906     48.5171   6.2079176413e+01   1.7889812079e+01    0.2903877    0.2176229 -45.87  0.001548563    1.322    0.243
       179 -10.9592    244.1831     42.0935   6.1382564794e+01   2.0028843669e+01    0.5541922    0.3671104 -83.64  0.003031333    1.406    0.289
       180 -10.9013    200.0650     54.5759   6.9574128084e+01   2.8342888327e+01    0.3862622     0.265738  29.49  0.001806262    2.272    0.560
       181  -9.7720    197.9791     51.9895   6.9255086633e+01   2.9225614951e+01    0.2616026    0.1847444  76.65  0.001362721    1.341    0.254
       182  -8.6608    207.5494     53.9320   6.8344755104e+01   2.6646928988e+01    0.1943361    0.1316383 -41.19 0.0004807963    1.511    0.338
       183  -9.0888    163.4666     53.0570   7.5305263331e+01   3.7524664158e+01    0.2102994    0.1427194 -36.26  0.001033284    1.598    0.374
       184  -8.8074    162.5001     46.0057   7.3535121954e+01   3.8755379688e+01    0.1997608    0.1067867 -57.44 0.0008097647    2.471    0.595
       185  -9.1595    238.1405     45.3293   6.2676076097e+01   2.0886024719e+01    0.1831949    0.1423451 -89.01  0.001115066    1.135    0.119
       186  -9.2246    233.2698     43.7742   6.2882371989e+01   2.2178710878e+01    0.3030601     0.191283  39.40  0.001466778    2.601    0.616
       187 -10.1957    190.2907     42.8783   6.8150931671e+01   3.2370437037e+01    0.3637588    0.2789799  17.30  0.001889237    1.980    0.495
       188  -9.6358    219.3976     42.8004   6.4266848410e+01   2.5458614890e+01     0.251842    0.1787414 -48.90 0.0008359214    1.362    0.266
       189  -9.7841    216.5721     41.2264   6.4257295341e+01   2.6329150525e+01    0.3591293    0.2464516  31.31  0.001764191    2.459    0.593
       190  -9.6368    177.6777     42.1523   6.9900423241e+01   3.5550893694e+01    0.3228492    0.2026134 -77.48   0.00148821    1.992    0.498
       191 -11.0902    200.9835     38.4273   6.5584395330e+01   3.0384801676e+01    0.4637504    0.2657448 -20.13   0.00208052    2.694    0.629
       192  -8.5926    134.3256     42.6483   7.8235253005e+01   4.5970514682e+01    0.1413251    0.1065274 -76.52 5.294906e-05    1.760    0.432
       193  -9.0128    165.5031     40.0102   7.1354190463e+01   3.8817566283e+01    0.1976133     0.136713 -37.97  0.001024101    1.580    0.367
       194  -9.0243    209.0567     39.5111   6.4796135973e+01   2.8321462115e+01    0.1953257     0.118935  69.49 0.0004195987    1.492    0.330
       195 -10.9476    185.5410     37.5764   6.7526218350e+01   3.4228631556e+01    0.4295439    0.2002451 -46.35  0.001890021    2.234    0.552
       196  -9.2938     61.2485     38.4721   9.7993999425e+01   6.0936058675e+01    0.2271333    0.1539069 -28.53 0.0008231737    1.414    0.293
       197  -9.2417    233.4813    247.7055   1.0510826012e+02  -1.2376766679e+01    0.2592568    0.1824122  63.13  0.001294218    3.200    0.688
       198  -9.0468    176.2057    248.1384   1.1634921156e+02  -3.3666905384e+00    0.1801678    0.1447566  53.47  0.001078558    1.349    0.259
       199  -8.8167    249.0430    246.5287   1.0205666390e+02  -1.4399359351e+01    0.1747924     0.137142  -9.66 0.0006860729    1.131    0.116
       200  -8.9708    186.8919    247.1201   1.1404189193e+02  -4.9967662183e+00    0.1878208    0.1640146  44.63 0.0005348853    1.225    0.184
       201  -9.8214    191.6324    245.3628   1.1281233058e+02  -5.5068257534e+00    0.3162141    0.1971282  23.50  0.001664462    1.602    0.376
       202 -10.0154    225.1400    242.7832   1.0583767035e+02  -1.0450893395e+01    0.3257041    0.2410427 -37.78  0.001854355    1.545    0.353
       203  -9.3816    202.5997    242.0924   1.1009407880e+02  -6.7995256111e+00    0.2595394    0.1684304  27.93  0.001210522    1.375    0.273
       204 -10.0838    240.0212    240.3574   1.0263175809e+02  -1.2303242557e+01    0.2860645    0.2103152  34.38  0.001165895    1.397    0.284
       205  -9.2776    246.7073    240.3013   1.0139924477e+02  -1.3242258804e+01    0.2168716    0.1459077 -27.82  0.001074205    1.432    0.302
       206  -8.6412    243.6509    237.1577   1.0140405735e+02  -1.2375794779e+01    0.1795117    0.1582534   2.12  0.001212761    1.203    0.168
       207  -9.3197    214.9493    240.4732   1.0739968404e+02  -8.5347549055e+00    0.2396246    0.1853704 -28.03  0.001201146    1.355    0.262
       208  -9.7842    236.5170     30.6295   5.9828665253e+01   2.3230865340e+01       0.2795    0.2074965 -51.86  0.001225672    1.283    0.221
       209 -10.5180    227.4811     33.4976   6.1342446935e+01   2.4865447630e+01    0.5446348    0.2331747 -47.61  0.002545203    2.143    0.533
       210  -9.2741    232.2202     32.6516   6.0672242413e+01   2.3915925101e+01    0.3623819    0.1709465  88.24  0.001165701    2.495    0.599
       211  -9.8332    241.9301     34.2360   6.0027993329e+01   2.1580356716e+01    0.3001353    0.1792983 -68.11   0.00117397    1.547    0.354
       212  -9.1467    161.9897     38.1373   7.1451824070e+01   3.9916535278e+01    0.2529854    0.1743762  22.56   0.00114911    2.065    0.516
       213  -9.2586    221.6109     31.3334   6.1511542669e+01   2.6477808196e+01    0.2985502    0.2006178 -55.58  0.001710815    1.381    0.276
       214  -9.2166    208.7310     31.3595   6.2979799011e+01   2.9460732971e+01    0.2065501    0.1189104  74.24 0.0005121814    1.568    0.362
       215  -9.9130    213.0972     31.2406   6.2442856194e+01   2.8454109386e+01    0.3611372    0.1987594 -60.50  0.001790772    1.848    0.459
       216  -9.8425    216.2920     30.3553   6.1885190695e+01   2.7825063818e+01    0.3810012    0.2142945  42.16  0.001755007    2.721    0.633
       217 -10.0906    199.3339     31.3433   6.4129446954e+01   3.1690026323e+01    0.2376153    0.1648881  30.82  0.001200716    2.226    0.551
       218 -10.7715    201.5950     27.3899   6.2927845204e+01   3.1638858930e+01    0.3361252    0.2087865 -21.76  0.001424248    2.264    0.558
       219  -8.7378    190.4810     34.4843   6.6056247878e+01   3.3424369975e+01    0.1369839    0.1168509  85.95 0.0008101531    1.011    0.011
       220  -8.4618    182.5744    239.7636   1.1373221963e+02  -3.0720797795e+00    0.1657393    0.1304277 -58.56 0.0009470065    1.657    0.396
       221  -9.4109    143.5291     25.3054   7.1124722997e+01   4.5879033220e+01    0.3873816   0.07567045  56.32  0.001238463    3.588    0.721
       222  -8.9473    199.5692     20.6909   6.1624005776e+01   3.2910058270e+01    0.1666262    0.1115192 -52.28 0.0006480678    1.494    0.331
       223  -9.4552    118.4495     25.7546   7.6450155006e+01   5.1614323711e+01    0.1695662    0.1252881  -0.87 0.0009476104    1.598    0.374
       224  -9.9242    230.9852    236.8806   1.0370760492e+02  -1.0478109698e+01     0.274445    0.1759195 -35.42  0.001088767    1.625    0.385
       225 -10.6207    205.8562    235.5931   1.0834688009e+02  -6.3148824206e+00     0.393259    0.3671615 -46.23  0.002167991    1.369    0.270
       226  -9.1027     68.1434     17.8154   8.7579237466e+01   6.2416723785e+01    0.1713749    0.1182533  15.98  0.000451341    1.319    0.242
       227  -8.7119     73.4138     17.1849   8.5602144319e+01   6.1570856070e+01    0.1522192    0.1090046 -32.38 0.0008687246    1.631    0.387
       228  -9.8337    219.4090    235.8251   1.0573270331e+02  -8.5363129193e+00    0.2944421    0.2401076  29.36  0.001857728    1.175    0.149
       229  -9.0095    244.8055    231.5718   1.0020007801e+02  -1.1749882116e+01    0.2170348    0.1530011 -46.09 0.0007720661    1.855    0.461
       230  -9.6065    237.9871    231.5515   1.0145243744e+02  -1.0747910010e+01    0.3866617    0.2071803  52.54  0.001699536    3.285    0.696
       231  -8.6870    162.7351     15.5773   6.5194079654e+01   4.2294780511e+01    0.1924661    0.1112283  78.61 0.0009533935    1.686    0.407
       232  -8.7431    173.2162     14.5567   6.3445655964e+01   3.9877902645e+01    0.1812317    0.1014637  59.09 0.0006197112    1.534    0.348
       233  -9.2948    215.9408    231.3166   1.0561473098e+02  -7.2874554606e+00    0.2645157    0.1467106 -14.92  0.001163145    2.623    0.619
       234 -10.7828    229.5115    226.6906   1.0216999307e+02  -8.7278044301e+00    0.6033289    0.2318598 -40.43  0.002606889    2.691    0.628
       235 -10.1087    227.4562    219.4885   1.0124394780e+02  -7.2757436406e+00    0.3935562    0.2255125 -17.01  0.001853695    2.176    0.540
       236 -10.1909    248.2170    227.4022   9.8828333941e+01  -1.1641240054e+01    0.3125618    0.1753976 -31.32  0.001176395    1.686    0.407
       237  -9.3746    243.7198    225.5765   9.9315418149e+01  -1.0718813863e+01    0.3095741    0.1388453 -41.86  0.001460306    2.391    0.582
       238 -10.7629    238.6570    220.2644   9.9274671414e+01  -9.1568583072e+00    0.3895693    0.3291582 -50.10  0.001750362    1.599    0.375
       239  -9.2736    224.2718    225.3827   1.0293525827e+02  -7.6970279679e+00     0.237828    0.1479371 -25.52  0.001258359    1.658    0.397
       240  -8.8918    190.4404    226.2280   1.0983847975e+02  -2.1377855585e+00    0.1767044    0.1329772 -55.91 0.0009497865    1.689    0.408
       241  -9.0258     99.2530    226.2604   1.2931007295e+02   1.4006659241e+01    0.1904725    0.1362011  67.04 0.0009476821    1.342    0.255
       242 -10.8914    208.5127    223.9630   1.0576934663e+02  -4.8739545442e+00     0.387364    0.2564571  24.58  0.002052622    1.461    0.316
       243  -8.4087    156.3079    223.3333   1.1655361271e+02   4.5503712572e+00    0.1391197    0.1082945   1.84  0.000330658    1.670    0.401
       244  -9.7636    193.4789    219.5102   1.0802025517e+02  -1.5001274617e+00    0.2812105    0.2477286  59.97  0.001534294    1.371    0.270
       245 -11.2001    247.1748    214.8030   9.6695520127e+01  -9.6125236395e+00    0.6240916    0.3531723 -37.77  0.003327437    1.718    0.418
       246  -8.6266    159.9795    218.7743   1.1499926881e+02   4.7561481460e+00    0.1981588    0.1075067  40.10 0.0008674277    1.666    0.400
       247  -8.4983     56.0110    216.9418   1.3734189643e+02   2.2518070978e+01    0.1507242    0.1212739  81.28 0.0009431576    1.033    0.032
       248 -11.1530    213.9965    214.5423   1.0294792834e+02  -4.2283393016e+00    0.3777971    0.2605694 -54.03  0.001942698    1.913    0.477
       249  -8.6299    109.4474    216.5301   1.2578044859e+02   1.4367644840e+01    0.1417891     0.122186  65.63 0.0001769857    1.039    0.037
       250 -10.1038    232.5913    213.1024   9.9074018688e+01  -7.0783234596e+00    0.3650405    0.2384694 -33.05   0.00126746    1.480    0.324
