#   1 NUMBER                 Running object number                                     
#   2 MAG_AUTO               Kron-like elliptical aperture magnitude                    [mag]
#   3 X_IMAGE                Object position along x                                    [pixel]
#   4 Y_IMAGE                Object position along y                                    [pixel]
#   5 X_WORLD                Barycenter position along world x axis                     [deg]
#   6 Y_WORLD                Barycenter position along world y axis                     [deg]
#   7 A_WORLD                Profile RMS along major axis (world units)                 [deg]
#   8 B_WORLD                Profile RMS along minor axis (world units)                 [deg]
#   9 THETA_WORLD            Position angle (CCW/world-x)                               [deg]
#  10 FWHM_WORLD             FWHM assuming a gaussian core                              [deg]
#  11 ELONGATION             A_IMAGE/B_IMAGE                                           
#  12 ELLIPTICITY            1 - B_IMAGE/A_IMAGE                                       
         1 -13.5772    182.6383     89.7974   9.2554598315e+01   2.6569908732e+01     5.945047     2.452958 -49.19    0.0191197    3.144    0.682
         2 -14.0228    245.3492     92.6057   8.2715242697e+01   1.1530410166e+01     3.448131      1.27542 -31.36    0.0130421    2.449    0.592
         3 -15.1165    237.7476     63.8158   7.6530394303e+01   1.7357646802e+01     3.455586     2.359417 -69.16   0.01672727    1.822    0.451
         4 -12.8270    172.4699     55.0173   8.4238288935e+01   3.4741144711e+01     1.514228     1.039798  73.51  0.006857564    1.693    0.409
         5 -14.0424    203.0168     58.4848   8.0046929563e+01   2.6502574887e+01     2.542937     1.572484 -72.28   0.01028125    2.393    0.582
         6 -13.7282    135.9268     37.9902   8.6009978634e+01   4.6248745846e+01     9.873853     1.641423  59.77   0.01880455    9.660    0.896
         7 -12.9461    240.0496     14.1020   6.3756533304e+01   2.2962784147e+01    0.6238911    0.2944022 -56.77  0.002591019    2.245    0.555
         8 -12.0226    237.3710      3.6426   6.1436665215e+01   2.4661915097e+01    0.6230966    0.2200519 -50.50  0.002490513    2.811    0.644
         9 -12.2732    247.0036      3.6118   6.0691542702e+01   2.2443999434e+01    0.5185631    0.4079696  49.35  0.002137752    1.492    0.330
        10 -10.4114    222.9805     15.4483   6.5679079414e+01   2.6896773549e+01    0.4029515    0.1846419 -47.96  0.001289604    2.157    0.536
        11 -11.2911    217.2411      8.1555   6.4327093704e+01   2.9053534546e+01    0.6182138    0.2036756 -49.35  0.001797984    3.324    0.699
        12 -13.5752     13.6337      6.2332   1.1409180989e+02   7.1641556095e+01     1.683557     0.733075  23.50  0.009468685    2.615    0.618
        13 -12.1179    119.5006      9.0392   7.8681003789e+01   5.3498492000e+01    0.7434972    0.5916877  19.27  0.002961693    1.209    0.173
        14 -11.2119    113.7682      2.5597   7.7285983005e+01   5.5405011921e+01    0.6555351    0.2060967  59.53  0.002484982    2.812    0.644
        15  -8.7230    251.0000     11.8716   6.2315427854e+01   2.0689495950e+01    0.1946052   0.06758563 -26.95 0.0007167781    2.766    0.638
        16 -10.7192    139.6443      4.5806   7.3146712364e+01   4.9052130986e+01    0.4133556    0.2371182 -17.12   0.00198165    1.863    0.463
        17 -11.0139    135.2459      9.9929   7.5918159401e+01   4.9646919388e+01    0.3998271    0.1845185  57.47  0.001729128    1.918    0.479
        18 -10.6240     58.7422      7.0335   9.4877107456e+01   6.5871064385e+01    0.3904102    0.2915656 -72.18  0.001961335    3.335    0.700
        19 -10.6446    146.0834      6.9751   7.2925769413e+01   4.7240620789e+01    0.3804605    0.2510436  45.74  0.001940927    1.402    0.287
        20 -10.3745    172.7192      2.9754   6.7736147658e+01   4.0816336580e+01    0.4775845    0.3278619 -49.82  0.001953479    1.576    0.366
        21  -8.5891    153.9729      5.8264   7.1276016774e+01   4.5354914681e+01      0.25734    0.1240491  42.29  0.001089054    2.084    0.520
        22 -12.0235     92.4249      2.7387   8.2378627670e+01   6.0062849741e+01     1.161055     0.367934  58.80  0.004378244    3.298    0.697
        23  -8.0937    230.6154      4.2349   6.2130391818e+01   2.6198267547e+01    0.1369298   0.08513772 -68.82 0.0006912046    1.634    0.388
        24  -9.3014    182.6374      2.6641   6.6435104717e+01   3.8300877367e+01    0.3795434    0.2038692 -78.61   0.00159726    2.403    0.584
        25 -14.0478    215.7128     39.8113   7.3026844731e+01   2.5856248533e+01       2.0549     1.093678  58.78  0.009175423    1.851    0.460
        26  -9.2824    190.3046      2.7452   6.5590860875e+01   3.6334164354e+01    0.5235401    0.1300958 -34.97  0.001813236    3.453    0.710
        27 -10.0465    160.2588    127.7316   1.0721392497e+02   2.4680764691e+01    0.3459165    0.2838471   6.68  0.001727865    1.451    0.311
        28 -10.2368    196.0125    128.7984   1.0005988236e+02   1.6623918706e+01    0.2546066    0.2073234 -31.01 0.0004758374    1.218    0.179
        29 -12.1636      5.9122    213.3396   1.5115614583e+02   3.0500318981e+01    0.4732915    0.3102351 -54.23  0.002814955    2.289    0.563
        30 -11.0581    201.7823    125.7961   9.8226279138e+01   1.5869377880e+01    0.4450475    0.3157079 -67.97  0.001419569    2.148    0.535
        31 -11.5590    205.1257    122.1534   9.6708459954e+01   1.5748310045e+01    0.5254343     0.357497  46.17   0.00217622    1.475    0.322
        32  -9.4176    136.7271    126.8315   1.1236040047e+02   2.9812192865e+01    0.2608499    0.2223958 -85.07 0.0003717509    1.350    0.259
        33  -8.5677    128.6928    124.0510   1.1362487312e+02   3.2003436304e+01    0.1958025    0.1814163 -47.77 0.0002960645    1.071    0.066
        34 -10.1887    140.9706    121.4105   1.1007242967e+02   3.0051480117e+01    0.4496389     0.295305  88.79  0.001691013    2.911    0.656
        35 -12.1203    246.2880    212.2446   1.0819358600e+02  -4.9810897942e+00    0.8570523    0.6853837   9.89  0.004653133    1.060    0.057
        36 -11.0747    167.6721    113.7842   1.0212609196e+02   2.5719954820e+01    0.4994586    0.4302917 -17.15  0.001193068    1.224    0.183
        37 -10.5491    134.7737    107.2232   1.0797663163e+02   3.4253791344e+01    0.7254843    0.1863434 -44.69  0.002070819    3.829    0.739
        38 -10.1240    142.9340    100.7022   1.0426165516e+02   3.3807034165e+01    0.4152755    0.2527282 -16.43  0.001542355    2.645    0.622
        39  -9.7485    148.2586     96.2148   1.0176396959e+02   3.3495922839e+01    0.4672735    0.3111348  -3.83  0.001602186    2.417    0.586
        40  -8.4532    119.3735    110.6767   1.1269782033e+02   3.6659523216e+01    0.1541889    0.1161363  87.18 0.0007030362    1.816    0.449
        41 -10.2039    220.2959     91.8647   8.6355100431e+01   1.7253425854e+01    0.3140114    0.2465153  84.64 0.0007209249    1.630    0.386
        42 -10.5872    226.0366     98.2467   8.7062814053e+01   1.4943513516e+01    0.3041347    0.2867991  37.20  0.001185037    1.111    0.100
        43  -9.4400    222.7590     96.0115   8.7024045302e+01   1.6036921735e+01     0.320017    0.2046475 -31.78  0.001490625    1.475    0.322
        44  -9.7943    170.8956     97.5959   9.7118903736e+01   2.7990618733e+01    0.3577628    0.2826282 -84.71  0.001023089    1.688    0.407
        45  -9.0383    134.6614     93.4671   1.0425255640e+02   3.7046673979e+01     0.283018     0.217144 -70.32 0.0007585022    1.661    0.398
        46  -9.5072    157.1854     88.7824   9.7609814973e+01   3.2840160217e+01    0.3170373     0.274037 -19.04  0.001607344    1.193    0.162
        47 -10.3480    160.2180     85.7844   9.6069611863e+01   3.2670845228e+01    0.4016893    0.3176963 -31.83  0.001068884    1.255    0.203
        48  -8.2324     14.6905    152.2874   1.4545228773e+02   4.1640639949e+01    0.1142531   0.06745653  71.78 0.0002010531    1.575    0.365
        49 -10.1446    142.2236     84.5691   9.9830751185e+01   3.7085591852e+01    0.3210529    0.2776043 -47.72 0.0005634192    1.180    0.152
        50  -9.1892    222.5071     81.3741   8.3262305754e+01   1.8357354918e+01    0.3117271    0.1368053 -32.06  0.001091898    2.135    0.532
        51  -8.6426    202.7996     80.5446   8.6259157337e+01   2.3203916767e+01    0.1980041    0.1485841  76.62 0.0007245548    1.603    0.376
        52 -11.5064    156.8807     75.3654   9.3698874793e+01   3.5319561048e+01    0.3757218    0.2802765 -21.73 0.0006669915    1.424    0.298
        53 -10.6642    181.8820     66.7501   8.6050923740e+01   3.0572270555e+01    0.3536086    0.2794726 -47.31 0.0003628336    1.307    0.235
        54  -9.5808     90.7241     64.5325   1.0742237126e+02   5.1446656635e+01    0.6375796    0.3140134 -61.40  0.001960543    4.722    0.788
        55  -9.6066    144.6103     59.8204   9.1527282992e+01   4.0890048610e+01    0.4567593      0.26929 -57.55  0.001600643    2.421    0.587
        56  -8.1587     72.6046     58.4567   1.1113613767e+02   5.5601515724e+01    0.1343231    0.1171016 -34.83  0.000188706    1.053    0.050
        57  -8.6708    135.2479     48.0169   8.9694583937e+01   4.4968655038e+01     0.205169     0.183204 -12.16 0.0003324277    1.103    0.093
        58  -9.0796    242.9117     39.9430   6.9871747627e+01   1.9308278304e+01    0.2009586    0.1707788 -57.74  0.000535142    1.111    0.100
        59  -8.9726    246.2453     36.3918   6.8641790397e+01   1.8978611690e+01    0.2072138    0.1920864 -57.87 0.0004446277    1.031    0.030
        60  -8.2151    243.5122     33.5278   6.8212998806e+01   1.9953349227e+01    0.1840223    0.1705889 -56.68  0.001139904    1.027    0.027
        61  -9.6090    235.8835     32.9831   6.8868936749e+01   2.1802363411e+01    0.3385428    0.1764991 -58.63 0.0009324235    2.201    0.546
        62 -14.0582    243.7259    142.0968   9.4634191993e+01   4.5681358259e+00     3.704858     1.948707 -43.95   0.01666382    2.195    0.544
        63  -9.0205    249.9780     31.2871   6.7026855264e+01   1.8742060972e+01    0.1721526    0.1566743 -77.91 0.0002935366    1.088    0.081
        64 -11.9378    224.7804     30.7470   6.9502290177e+01   2.4736281112e+01     0.591534    0.3485734  34.10  0.001541641    2.308    0.567
        65  -7.4142    243.3343     29.2476   6.7172403095e+01   2.0502529936e+01    0.1270144   0.09821501  38.85 0.0001519704    1.554    0.357
        66  -9.0411    162.2318     27.9180   7.7371149045e+01   4.0975836130e+01     0.206219    0.1851886 -50.01 0.0002746136    1.185    0.156
        67 -10.4484    144.5682     24.7802   7.9511473320e+01   4.5799150977e+01    0.4280493    0.2945184 -57.34  0.002032704    1.832    0.454
        68  -9.6367    179.2003     24.4010   7.3541954969e+01   3.7013078961e+01    0.4576619    0.3310201  48.78  0.002325572    1.355    0.262
        69 -10.4591     98.4836     24.8037   9.0261183931e+01   5.6379660873e+01    0.3224996    0.1847306  54.57  0.001538321    1.883    0.469
        70  -8.9847    210.2014     22.4789   6.8932355500e+01   2.9298987724e+01    0.1919988    0.1832033 -76.18  0.001152302    1.015    0.015
        71 -10.4138    215.5082     20.3371   6.7752194350e+01   2.8210165350e+01    0.3835289    0.1831641 -47.26  0.001356891    2.103    0.525
        72  -8.3421    248.8504     18.3322   6.4017893046e+01   2.0478062454e+01    0.2296182    0.1000188 -58.99 0.0006493367    2.650    0.623
        73 -14.0338     39.2383    190.2666   1.4382841789e+02   3.1471169453e+01      1.27293     1.110061   3.16  0.003126985    1.929    0.482
        74 -13.2850     51.3099    179.6231   1.4049213156e+02   3.2215320111e+01    0.9689824    0.7364719  68.21  0.002971746    1.137    0.120
        75  -9.8478    186.8653    192.2011   1.1509104328e+02   7.8995949196e+00    0.2023018    0.1790459  32.60 0.0003275676    1.031    0.030
        76 -10.0051    232.7203     17.7068   6.5316116394e+01   2.4303360730e+01    0.2398846    0.1662564 -49.11 0.0005148308    1.348    0.258
        77  -9.3038    193.1326    195.2578   1.1446172392e+02   6.2906077110e+00    0.5981375    0.2927625 -60.75  0.001569119    9.056    0.890
        78  -8.9920    101.0149    176.0089   1.2973890682e+02   2.6060459253e+01    0.1741677    0.1552591  73.38            0    1.017    0.016
        79  -9.1112    203.3846     17.5854   6.8357575414e+01   3.1551678626e+01    0.3175948    0.1788627 -56.66  0.001421858    1.978    0.494
        80  -9.7139    234.5117    173.9569   1.0296947476e+02   1.7817896144e+00    0.2373782    0.1801306  52.48 0.0009996847    1.592    0.372
        81  -8.5154    151.2572     13.6498   7.4401736689e+01   4.5312090145e+01    0.1405634    0.1025851 -54.97 0.0004753481    1.602    0.376
        82 -10.2658     63.3794    164.1913   1.3621436481e+02   3.3932584923e+01      0.67487    0.3167651  60.90  0.003110986    2.522    0.604
        83 -10.8292     67.1884    171.1014   1.3625726719e+02   3.1985210129e+01    0.3078727      0.21581  65.10  0.001205957    1.334    0.250
        84  -9.7396    216.4273    168.9187   1.0513461668e+02   5.8740761298e+00     0.325674    0.2314654  65.75 0.0009151743    2.094    0.522
        85  -8.7631    211.6174    166.2754   1.0546856810e+02   7.2028277506e+00    0.2632198    0.1767128  61.13 0.0008279665    2.009    0.502
        86  -9.1920     66.0489    245.7524   1.4351071502e+02   1.8397966545e+01    0.1597643    0.1204679  75.93 0.0004390274    1.133    0.118
        87  -8.2247    189.0000     13.1224   6.8790333744e+01   3.5685352609e+01    0.2139508   0.07949172 -22.92 0.0007872098    2.838    0.648
        88 -10.1833     69.5142    145.4974   1.3221439762e+02   3.7171411108e+01    0.3495486    0.2672427 -89.63  0.001228103    1.258    0.205
        89 -10.2714     66.3982    144.1926   1.3275430884e+02   3.7872637657e+01    0.4153455    0.2573448 -77.93  0.001522361    1.616    0.381
        90  -9.9945     90.9999    241.0012   1.3906433858e+02   1.5853363029e+01    0.1369661    0.1012216  58.27 0.0005511197    1.036    0.035
        91  -8.9463    192.0772    144.1389   1.0440784950e+02   1.4804129407e+01    0.2146549    0.2024415  22.22 0.0004506828    1.027    0.026
        92  -9.5476    132.0938    139.8396   1.1634051497e+02   2.8041073278e+01    0.4822189    0.2562546 -62.40  0.001812597    2.507    0.601
        93  -8.8814    159.3034    142.4229   1.1080619715e+02   2.2033869370e+01    0.2698463    0.1325972 -44.26  0.001089597    2.095    0.523
        94  -8.5031     43.9768    224.3306   1.4558548751e+02   2.4627295955e+01    0.1441669    0.1047381  61.92 0.0004268909    1.118    0.105
        95 -12.8944      9.6821    217.4011   1.5075698686e+02   2.9431262840e+01      0.72246    0.5091107 -86.88  0.004472548    1.259    0.206
