#   1 NUMBER                 Running object number                                     
#   2 MAG_AUTO               Kron-like elliptical aperture magnitude                    [mag]
#   3 X_IMAGE                Object position along x                                    [pixel]
#   4 Y_IMAGE                Object position along y                                    [pixel]
#   5 X_WORLD                Barycenter position along world x axis                     [deg]
#   6 Y_WORLD                Barycenter position along world y axis                     [deg]
#   7 A_WORLD                Profile RMS along major axis (world units)                 [deg]
#   8 B_WORLD                Profile RMS along minor axis (world units)                 [deg]
#   9 THETA_WORLD            Position angle (CCW/world-x)                               [deg]
#  10 FWHM_WORLD             FWHM assuming a gaussian core                              [deg]
#  11 ELONGATION             A_IMAGE/B_IMAGE                                           
#  12 ELLIPTICITY            1 - B_IMAGE/A_IMAGE                                       
         1 -10.3982     24.6536     16.8769   2.9172206276e+02   7.4226216882e+00   0.01977586   0.01570399  39.55 0.0009427027    1.250    0.200
         2  -9.4150     31.4779     11.0245   2.9160516127e+02   7.4467693224e+00   0.02138133   0.01180029 -39.61  0.001395912    2.044    0.511
         3 -10.1958      9.4509     19.6373   2.9191785639e+02   7.4853945808e+00   0.02875884   0.01536624  18.33  0.001337291    2.124    0.529
         4  -8.4435    134.6199     13.2094   2.9040941791e+02   6.7809359234e+00   0.01414698  0.007520914 -31.99 0.0009418525    2.565    0.610
         5  -9.1537    136.9994      8.9945   2.9035496694e+02   6.8139131006e+00   0.02205709  0.009709852 -56.41  0.001884298    2.208    0.547
         6  -9.6617     63.9603     14.3518   2.9124496552e+02   7.2075408441e+00   0.02133807   0.01441836  -5.18 0.0009059834    1.909    0.476
         7  -8.7599    146.8822     14.1658   2.9027181610e+02   6.6936404939e+00  0.009896795  0.009284292 -11.73 0.0004845381    1.082    0.076
         8  -9.0866     74.4918     12.7620   2.9111142564e+02   7.1601745538e+00   0.01937139   0.01104596 -57.37  0.001866208    1.744    0.427
         9  -8.6208     97.3604     12.0700   2.9083890236e+02   7.0258633599e+00   0.01321258   0.01039806  -5.56 0.0007563161    1.439    0.305
        10  -8.6590    157.3797     11.1650   2.9012996139e+02   6.6621937232e+00  0.009709255  0.006481396 -77.80 0.0009529237    1.814    0.449
        11  -8.0607    106.1724     11.0389   2.9072910214e+02   6.9827323087e+00      0.01039  0.008842681 -29.29 0.0005509688    1.234    0.190
        12 -10.5985     19.9932      8.7778   2.9172583331e+02   7.5433996164e+00   0.01842857   0.01346202  14.04 0.0004654827    1.461    0.316
        13  -8.3967      1.8714      7.9342   2.9193327996e+02   7.6651064122e+00    0.0144809  0.009764917 -76.21   0.00145714    1.751    0.429
        14  -8.6738    128.4105      7.7898   2.9044799818e+02   6.8811053502e+00  0.009395396   0.00598588 -48.49 0.0005627244    1.580    0.367
        15  -7.5149     39.5250      8.5053   2.9149487065e+02   7.4254830778e+00  0.006595499  0.006463035  17.68  0.000810122    1.009    0.009
        16  -8.8208     56.4309      5.0121   2.9127450249e+02   7.3602558922e+00   0.02159576   0.01161656 -29.30  0.001662856    2.668    0.625
        17  -8.8214     79.9801     12.7298   2.9104685633e+02   7.1264395674e+00   0.01618326    0.0116429  43.93  0.001320519    1.415    0.293
        18 -10.0696     49.0956      4.6325   2.9135818511e+02   7.4100761562e+00   0.01354331   0.01124988 -34.51 0.0003710682    1.254    0.203
        19  -8.3607     12.8121      5.3723   2.9178871993e+02   7.6264966621e+00    0.0135473  0.007722848 -35.04  0.001221481    2.114    0.527
        20  -9.0681    110.8810      4.1290   2.9063035695e+02   7.0318070880e+00   0.01736247    0.0108623 -74.42  0.001084825    1.913    0.477
        21  -8.5430     68.5468      4.2784   2.9112773676e+02   7.2933596072e+00    0.0162593  0.006060615 -57.26   0.00127906    2.575    0.612
        22  -8.9963    125.2002      3.8969   2.9046107072e+02   6.9452615370e+00   0.01112043  0.009438884  23.51 0.0005747302    1.163    0.140
        23  -8.3941    153.9138      3.0845   2.9011957441e+02   6.7754512536e+00   0.01049287  0.007598516 -26.17 0.0003716901    1.598    0.374
        24  -8.1606    104.4992      2.9995   2.9069804973e+02   7.0843433652e+00   0.01049033  0.006567219 -59.81  0.001041891    1.618    0.382
        25  -8.4680    182.0525      2.0500   2.8978363212e+02   6.6115053797e+00   0.01004683  0.009519658  33.58 0.0004084592    1.044    0.042
        26  -8.4976    142.5067      2.2135   2.9024768635e+02   6.8564796984e+00   0.01850154   0.01014179  15.55  0.001210212    2.180    0.541
        27  -7.8153      3.0183      1.3542   2.9187844678e+02   7.7326796772e+00  0.009742158  0.006197957  27.16 0.0003307512    1.547    0.353
        28  -8.2882    248.3485    233.0326   2.9046274315e+02   3.5756592924e+00  0.009209856  0.008570803 -54.96 0.0004125112    1.091    0.083
        29  -9.9478    210.0081    249.9534   2.9101605562e+02   3.6222447918e+00   0.02900567  0.008629759  38.08  0.002062988    3.109    0.678
        30  -9.9687    200.5353    249.0606   2.9112099411e+02   3.6913443742e+00   0.02022755   0.01420711  -5.47  0.001310181    1.772    0.436
        31  -9.3453    184.9540    249.7915   2.9130741757e+02   3.7799873444e+00   0.02004489   0.01056097   0.59  0.001459169    3.513    0.715
        32  -9.5944    152.4216    249.3232   2.9168430209e+02   3.9876061523e+00   0.02779754   0.01188817  17.14  0.002031218    3.198    0.687
        33  -7.9423    123.8009    250.4016   2.9202532205e+02   4.1531610115e+00  0.009261784  0.006390968  11.43   0.00054797    1.623    0.384
        34  -7.5565    204.2049    231.2197   2.9096635980e+02   3.8712033904e+00   0.01156934  0.006500164 -23.83 0.0009400673    2.718    0.632
        35  -7.9322    195.1372    229.1279   2.9105908766e+02   3.9514196103e+00   0.01027754  0.008771037 -20.79 0.0006243659    1.252    0.202
        36  -7.3643    175.2940    228.2831   2.9128546897e+02   4.0845110974e+00  0.006722053   0.00503204 -23.04  0.000178946    1.538    0.350
        37  -8.7571    246.5215    225.4879   2.9043670579e+02   3.6727197873e+00   0.01902913    0.0122827  -4.40  0.001778594    2.105    0.525
        38  -8.0283    236.9872    225.9386   2.9055073580e+02   3.7270134684e+00   0.01133538  0.007689281 -27.61  0.001125686    1.760    0.432
        39  -8.0233    187.5079    226.4363   2.9113128266e+02   4.0294929709e+00  0.006631504  0.006402515   0.97 5.170417e-05    1.027    0.026
        40  -7.8569     70.5233    225.9507   2.9249514243e+02   4.7617945788e+00  0.009714445  0.004909824 -38.50 0.0008070219    2.375    0.579
        41  -7.3328    223.6531    224.6905   2.9069846325e+02   3.8242611190e+00  0.007102774  0.005021805 -22.03 0.0007044731    1.706    0.414
        42  -7.2655    200.3606    223.2692   2.9096138388e+02   3.9854705383e+00  0.006927385   0.00505146 -17.15 0.0006660155    1.647    0.393
        43  -7.6136     51.4984    221.5553   2.9269014084e+02   4.9296829338e+00  0.006677946  0.006361443 -10.00 0.0001587761    1.056    0.053
        44  -8.3381    182.5114    219.9210   2.9114878427e+02   4.1346314162e+00   0.01247435    0.0093296   1.71 0.0008521521    1.534    0.348
        45  -7.8488    130.0943    220.3180   2.9176359336e+02   4.4561064986e+00  0.009604127  0.008514418  24.51 0.0008502579    1.109    0.098
        46  -7.7137     41.0033    220.2340   2.9280462304e+02   5.0097064021e+00  0.009003303  0.005490442  27.49 0.0003950543    1.612    0.380
        47  -7.6722    173.5951    219.1532   2.9124809789e+02   4.1988457295e+00  0.009424849  0.005859701 -47.05 0.0005089084    1.634    0.388
        48  -7.3883    239.7138    218.3098   2.9047105751e+02   3.7966649618e+00  0.006756298  0.005073357  63.89 0.0003261652    1.574    0.365
        49  -7.7773    227.1714    217.7821   2.9061406908e+02   3.8808162094e+00  0.009533275  0.007671538 -24.19 0.0007733531    1.363    0.266
        50  -7.2925     95.4708    218.5181   2.9215702234e+02   4.6915877187e+00  0.006605328  0.006463817   6.52 0.0002849321    1.005    0.005
        51  -7.5602    105.8163    217.5952   2.9203030949e+02   4.6378654786e+00  0.009574988  0.005858588  39.34 0.0004662801    1.609    0.378
        52  -7.6143    203.7928    216.3722   2.9087806672e+02   4.0424629283e+00  0.009335963  0.006309746  11.67 0.0004445618    1.673    0.402
        53  -8.3830    193.5807    215.5435   2.9099209045e+02   4.1154692579e+00    0.0145354  0.009757974 -15.25  0.001013249    1.946    0.486
        54  -7.8092     83.8477    215.1260   2.9227170097e+02   4.8022836743e+00    0.0094381   0.00778343 -22.45 0.0008075534    1.318    0.241
        55  -8.3280    122.2317    213.1515   2.9181062202e+02   4.5864429403e+00   0.01462929  0.009460097   6.62  0.001103688    1.900    0.474
        56  -8.5669    248.5460    211.6613   2.9032630377e+02   3.8171174660e+00   0.01366035  0.009825761 -14.01 0.0009286503    1.703    0.413
        57  -7.9031    232.3533    211.5151   2.9051427847e+02   3.9197096539e+00   0.01193727  0.007263024 -40.33  0.001146809    1.787    0.440
        58  -7.4321    169.4259    212.2707   2.9125365536e+02   4.3030124649e+00  0.007164029  0.004976971 -16.11 0.0004220463    1.811    0.448
        59  -8.1563    186.3337    210.3526   2.9104415922e+02   4.2195765503e+00   0.01046495  0.007501646 -21.89 0.0006882396    1.666    0.400
        60  -7.8848     54.5210    210.5561   2.9258609228e+02   5.0360759221e+00  0.006648107   0.00638585  -6.59 0.0001373684    1.041    0.039
        61  -8.0403    162.8046    208.0700   2.9130467402e+02   4.3919568989e+00   0.01240638  0.008355323 -11.57 0.0007003099    1.946    0.486
        62  -7.8332    246.5187    205.4225   2.9031077597e+02   3.9006055110e+00   0.01378312  0.006453205 -59.09  0.001194143    2.127    0.530
        63  -9.3151    124.0127    205.9825   2.9174491839e+02   4.6568903082e+00  0.009385235  0.009154158  14.25            0    1.004    0.004
        64  -8.3508    227.5877    202.4679   2.9051309387e+02   4.0521742383e+00   0.03470486  0.008641466 -43.15  0.001704433    6.946    0.856
        65  -7.9056    215.9179    205.4989   2.9066831520e+02   4.0904667562e+00   0.01006685  0.006552701  24.47  0.001011481    1.542    0.351
        66  -7.8558    205.5183    204.9732   2.9078641254e+02   4.1612290270e+00   0.01007321  0.004821064 -39.30 0.0008100034    2.525    0.604
        67  -8.2097    117.5421    205.0480   2.9181470704e+02   4.7077196504e+00    0.0125995  0.009299978   4.43 0.0008456173    1.544    0.352
        68  -7.3135    148.6478    204.7126   2.9144904169e+02   4.5181838192e+00  0.007000687  0.005044746 -19.74 0.0005387758    1.667    0.400
        69  -7.4088     86.3157    204.6889   2.9217756841e+02   4.9056762062e+00  0.006944612  0.005026587  61.42 0.0003162307    1.637    0.389
        70  -8.1666    250.4771    199.7079   2.9022871518e+02   3.9408194327e+00   0.01664376  0.006130715 -57.62  0.001299428    2.612    0.617
        71  -7.9135    196.1380    200.3253   2.9086677195e+02   4.2724693009e+00   0.01084335  0.008291393  -0.20  0.001163315    1.491    0.329
        72  -8.2404    243.5102    198.3093   2.9030119897e+02   4.0001451189e+00    0.0155975  0.004951137 -51.39  0.001053282    2.982    0.665
        73  -7.4714     48.0178    205.5077   2.9263061781e+02   5.1337892295e+00  0.009742864  0.005779725  -4.97  0.000810059    2.589    0.614
        74  -8.2030    165.9337    197.7376   2.9120333891e+02   4.4899279479e+00   0.01033945  0.008857701  -5.60 0.0007119973    1.249    0.199
        75  -8.3726    192.8385    194.8010   2.9087063917e+02   4.3557920237e+00   0.01860946  0.007707504 -49.73  0.001524935    2.389    0.581
        76  -7.7097    236.8515    194.6000   2.9035559078e+02   4.0837897941e+00   0.01665486  0.006173434 -46.74  0.001256652    2.834    0.647
        77  -7.3837    124.4709    193.4944   2.9166134282e+02   4.7960356045e+00  0.006626023  0.006450099  -3.41 0.0002495331    1.019    0.018
        78  -7.1007    133.3704    192.2712   2.9154963703e+02   4.7546220681e+00  0.006977711  0.005044019 -17.15 0.0004215926    1.673    0.402
        79  -7.3997     90.5085    192.4516   2.9205196173e+02   5.0188292372e+00  0.006611398  0.006441782  26.65 0.0008085725    1.017    0.017
        80  -8.0558    246.3199    190.3138   2.9021819669e+02   4.0734237328e+00  0.007011744  0.005019247 -23.88 0.0002931074    1.652    0.395
        81  -7.5923    224.7841    189.4389   2.9046400303e+02   4.2176466114e+00  0.009044481  0.006411011   8.39 0.0005735403    1.604    0.376
        82  -7.5459     64.6881    189.6549   2.9233650283e+02   5.2108074300e+00  0.007144588  0.004956537 -26.66 0.0007046217    1.708    0.414
        83  -7.3306    148.7064    185.6628   2.9132894238e+02   4.7343727347e+00  0.007023829  0.004964777 -27.48   0.00070273    1.646    0.393
        84  -8.5769    191.0499    189.0248   2.9085527965e+02   4.4325686172e+00  0.009760104  0.009678019  26.30 0.0003209073    1.023    0.022
        85  -7.6987    130.4398    182.7834   2.9152443227e+02   4.8807107629e+00  0.009411575  0.005928668 -46.69  0.000674837    1.615    0.381
        86  -7.3817    249.7420    182.3431   2.9012819187e+02   4.1425908080e+00  0.006708357  0.005108253  69.96 0.0002788211    1.589    0.371
        87  -7.4507    183.6462    180.6695   2.9088932069e+02   4.5736301874e+00  0.007247628  0.004982733 -23.32 0.0007045968    1.780    0.438
        88  -7.9715     96.0474    178.7352   2.9190129109e+02   5.1404298920e+00   0.01372201  0.008028764   0.37  0.001159705    2.542    0.607
        89  -7.8194    172.8014    177.9080   2.9099869740e+02   4.6725494773e+00  0.009066525  0.005189911 -58.73 0.0008553527    1.750    0.429
        90  -7.5543     46.4870    175.5555   2.9246129795e+02   5.4839768157e+00  0.006679431  0.006358278 -10.44 0.0002212757    1.057    0.054
        91  -7.3240    205.6710    174.6841   2.9059448124e+02   4.5044057915e+00  0.007064358  0.005017682 -23.50 0.0005985716    1.678    0.404
        92  -8.0509    148.5840    174.4870   2.9126027941e+02   4.8621737123e+00   0.01200335  0.006589566  11.94 0.0008256002    2.350    0.575
        93  -8.2071    184.0222    171.8136   2.9082933272e+02   4.6719214847e+00   0.01164927  0.007619073 -15.19  0.001090932    2.059    0.514
        94  -7.5277     14.7833    170.3788   2.9280004380e+02   5.7391065471e+00  0.009697352  0.006369448  13.68 0.0009537904    1.703    0.413
        95  -8.1126    177.0259    167.7975   2.9088586523e+02   4.7611399997e+00   0.01142483  0.007513008 -13.53  0.001073262    2.044    0.511
        96  -7.4492    199.4873    166.4636   2.9061506790e+02   4.6363427053e+00  0.006712538  0.006355576 -13.70 5.469119e-05    1.067    0.063
        97  -7.9725    168.4272    164.0593   2.9096288682e+02   4.8571740074e+00   0.01442851  0.007736135 -18.46  0.001048246    3.513    0.715
        98  -7.5742    123.3043    162.3281   2.9147962246e+02   5.1576289612e+00  0.007023651  0.004987934 -26.12 0.0007034978    1.649    0.394
        99  -7.5568    159.6209    160.5763   2.9104395895e+02   4.9515909641e+00   0.01371454  0.004302313 -47.79 0.0009501826    3.286    0.696
       100  -7.8470    204.8314    159.3728   2.9050809546e+02   4.6835845741e+00  0.009639278  0.006341222  13.08 0.0009453763    1.716    0.417
       101  -7.5874    107.0161    151.7837   2.9160404469e+02   5.3787485931e+00  0.009046222  0.005327519  28.12  0.000753133    1.663    0.399
       102  -7.9158    133.2234    147.5857   2.9127110230e+02   5.2635273011e+00  0.009427279  0.006428676  11.63 0.0009439578    1.650    0.394
       103  -7.2864    214.6748    146.3137   2.9031104141e+02   4.7705374304e+00  0.007007591  0.005017308  61.17 0.0007042015    1.664    0.399
       104  -9.4521     66.9436    144.4627   2.9202718234e+02   5.7107818539e+00   0.02363983   0.01572914  58.91  0.002218385    1.828    0.453
       105  -8.9332    135.8825    136.1550   2.9116823412e+02   5.3769042747e+00   0.01030789   0.01006177  21.11 0.0002676433    1.010    0.010
       106  -7.6152    107.3099    137.3791   2.9151024608e+02   5.5406807121e+00   0.01281832  0.006524798  21.81 0.0007983693    2.116    0.528
       107  -7.4894     55.4523    135.0183   2.9210256004e+02   5.8894351376e+00  0.009769506  0.004874568 -38.76 0.0006626378    2.404    0.584
       108  -8.4092      5.0285    134.0193   2.9268694808e+02   6.2129829153e+00   0.01540906   0.00908873  -4.33  0.001146418    2.612    0.617
       109  -7.4929     40.3534    140.2763   2.9231232439e+02   5.9232149403e+00  0.006938678  0.005045276 -18.54 0.0005094521    1.646    0.392
       110  -8.6058     23.7167    129.9436   2.9244249907e+02   6.1437299941e+00   0.02411497   0.01279663 -11.19  0.001672182    3.982    0.749
       111  -7.1569    143.7066    126.6595   2.9101706389e+02   5.4361188899e+00  0.007039298  0.004958972 -27.64 0.0007028489    1.653    0.395
       112  -9.6875     13.5160    119.6669   2.9249767322e+02   6.3237042106e+00   0.02190231   0.01570204 -29.61  0.002299439    1.583    0.368
       113 -10.1370    245.9639    115.3219   2.8975069355e+02   4.9271090435e+00    0.0183801   0.01210278  21.00 0.0009349689    1.572    0.364
       114  -8.0797     59.9927    114.0061   2.9191765524e+02   6.1001758078e+00   0.01200452  0.007098346  -1.99  0.001013438    2.543    0.607
       115  -8.9069      2.4468    109.5438   2.9256401393e+02   6.5072570388e+00   0.02046123   0.01084677 -30.58  0.001680417    2.665    0.625
       116  -8.1164    133.9239    106.5981   2.9100546226e+02   5.7249718461e+00   0.01219538  0.008758735 -44.72 0.0007478422    1.423    0.297
       117  -8.0088    124.1368    107.2905   2.9112436269e+02   5.7780134877e+00   0.01059544  0.008188196   2.56 0.0006141283    1.447    0.309
       118  -7.4654     34.3612    107.6949   2.9217839576e+02   6.3307906033e+00  0.007160126  0.004927099  58.77 0.0005889304    1.731    0.422
       119  -9.1769     14.7250    105.1125   2.9239234486e+02   6.4817029503e+00   0.02542485   0.01450793 -12.75  0.002037929    2.959    0.662
       120  -7.3701    109.3738    106.3212   2.9129109521e+02   5.8808535193e+00  0.007275284  0.004979074 -21.95 0.0002556511    1.810    0.448
       121  -7.8390     34.4919    113.5233   2.9221339458e+02   6.2637200664e+00  0.006612255  0.006456497  31.44 0.0008100646    1.023    0.023
       122  -7.3879     94.0480    103.0000   2.9144969356e+02   6.0138581146e+00   0.01119685   0.00374311  27.99 0.0008018315    2.938    0.660
       123  -8.7455    243.4905     97.5037   2.8966735243e+02   5.1447948230e+00  0.006615764  0.006467151   6.56 -3.133623e-06    1.006    0.006
       124  -7.9736    129.8255     97.3997   2.9099560790e+02   5.8549910102e+00  0.009662808  0.006367467  10.17 0.0008062393    1.768    0.434
       125  -9.5803      8.7693     96.5305   2.9240838770e+02   6.6161035804e+00   0.02199569   0.01040606  19.34  0.001807821    2.471    0.595
       126  -7.9888    248.9939     96.0000   2.8959362816e+02   5.1274646616e+00   0.01117387  0.003742991  28.18 0.0008009613    2.932    0.659
       127  -8.5888     44.2987     91.8502   2.9196256506e+02   6.4493228975e+00   0.01820407   0.01100163 -21.02  0.001610063    2.356    0.576
       128  -7.3092     53.2953     92.6851   2.9186236520e+02   6.3840600886e+00  0.006831905   0.00506111  63.31 0.0004912876    1.602    0.376
       129  -8.7849     20.4853     91.6721   2.9224058578e+02   6.5988400634e+00    0.0129867   0.01045565 -41.86  0.001470476    1.270    0.212
       130  -8.0150    109.4236     91.3833   2.9119665055e+02   6.0502796061e+00   0.01336063  0.006358683  10.00 0.0009190714    3.485    0.713
       131  -8.3955     96.7723     90.2212   2.9133751317e+02   6.1421399251e+00   0.01754743  0.009991735 -11.91  0.001388865    3.004    0.667
       132  -7.8719      1.5001     89.4944   2.9244952468e+02   6.7410312296e+00  0.006625049  0.006445622  -2.11 -0.0001026397    1.017    0.017
       133  -8.5913     67.1344     85.8390   2.9165721239e+02   6.3760086580e+00   0.01985031  0.008970171  20.78  0.001598961    2.537    0.606
       134  -9.3879     35.8182     82.1446   2.9200107545e+02   6.6121760441e+00   0.03249291   0.01679005 -25.16  0.002430131    3.341    0.701
       135  -7.4708    127.5161     83.5016   2.9093525093e+02   6.0272478990e+00  0.006693108  0.006387339 -13.16 0.0008098826    1.054    0.051
       136  -7.8434    184.2958     78.0048   2.9023624785e+02   5.7357881257e+00  0.009146157  0.008622533 -53.61 0.0005990998    1.076    0.071
       137  -8.1849     88.7370     78.5839   2.9135851167e+02   6.3242923662e+00   0.01300863  0.006622978  21.93  0.001133831    2.111    0.526
       138  -8.8310     48.5132     77.0576   2.9182032334e+02   6.5913018691e+00    0.0155176   0.01311169 -24.68  0.001242851    1.261    0.207
       139  -9.3783      8.4382     76.8441   2.9228886702e+02   6.8419027085e+00   0.01958859    0.0132541 -21.40  0.001629081    1.852    0.460
       140  -9.8674     23.8983     73.2173   2.9208481798e+02   6.7874455844e+00   0.04533061   0.02291872 -21.82   0.00309856    4.079    0.755
       141  -7.9482     23.4766     69.4958   2.9206640927e+02   6.8323419304e+00   0.01105079   0.01070836  23.18 0.0006412694    1.016    0.015
       142  -7.6632     75.1887     74.6164   2.9149233190e+02   6.4535229816e+00  0.009357697  0.006356796  12.54 0.0006188718    1.643    0.391
       143  -9.0214     44.0298     67.6135   2.9181358581e+02   6.7264005714e+00   0.02328483   0.01346983  -3.16  0.001928105    2.734    0.634
       144  -8.2731     80.6448     67.8884   2.9138610751e+02   6.4960690454e+00   0.01362032  0.009567183 -33.69 0.0006527065    1.581    0.367
       145  -8.3492     84.2364     63.8764   2.9131879607e+02   6.5193285426e+00   0.01779755   0.01031908   3.77  0.001526047    2.468    0.595
       146  -8.6762     61.7788     66.9951   2.9160161888e+02   6.6233450604e+00   0.01504984  0.008307435 -45.76 0.0008858569    1.871    0.466
       147  -9.5621     65.2088     61.1909   2.9152493623e+02   6.6679917053e+00   0.02070066   0.01659029 -23.88  0.002323563    1.371    0.271
       148  -9.6429     17.4733     62.6617   2.9209392902e+02   6.9471496074e+00   0.02879984   0.01439978 -39.33  0.001838576    2.359    0.576
       149  -7.7036    147.9678     63.5166   2.9057006476e+02   6.1268221628e+00    0.0101714  0.006565563  23.44 0.0009470817    1.569    0.363
       150  -8.7885     51.3053     60.5869   2.9168414505e+02   6.7611132331e+00   0.01945639    0.0141528  60.75  0.001944758    1.618    0.382
       151  -9.1082     33.4968     60.5201   2.9189255493e+02   6.8722595988e+00   0.01890307   0.01344995  49.87   0.00157529    1.508    0.337
       152 -10.4331     38.9291     57.2728   2.9180845294e+02   6.8754879236e+00   0.01528965   0.01249093 -20.65 0.0001748065    1.341    0.254
       153  -7.1498    122.3465     61.3244   2.9085626004e+02   6.3112997115e+00  0.007181641  0.004995776 -23.20 0.0002646427    1.743    0.426
       154  -9.4551      2.5503     55.3974   2.9222339893e+02   7.1219922580e+00    0.0285185   0.01594139 -41.62  0.002653416    1.947    0.486
       155  -7.2464    111.4865     58.4872   2.9096561283e+02   6.4111046242e+00  0.006755617  0.006318071 -17.01  0.000617845    1.088    0.081
       156  -7.9615     99.4468     54.3469   2.9108061937e+02   6.5330100087e+00   0.01241859  0.006208106 -55.94  0.001114336    1.960    0.490
       157  -7.7878    197.5289     53.9074   2.8992967385e+02   5.9266810284e+00  0.009188512  0.006639191 -63.19 6.925158e-05    1.431    0.301
       158  -7.8150    118.5243     51.4814   2.9083907766e+02   6.4468546959e+00   0.00660247  0.006466055  16.04 2.897177e-05    1.006    0.006
       159  -9.2614     75.3425     50.1148   2.9133650850e+02   6.7308704054e+00   0.01359055   0.01158554   3.22 0.0003880752    1.235    0.191
       160 -10.3199     45.3303     49.0511   2.9168172690e+02   6.9291916279e+00    0.0137602   0.01210393 -10.90 0.0005431082    1.199    0.166
       161  -9.8096     10.2817     47.3879   2.9208241852e+02   7.1651531092e+00   0.02949217   0.01888083 -21.23  0.002264631    2.068    0.516
       162  -8.1893    106.8092     48.1345   2.9095525936e+02   6.5577569918e+00  0.009295992    0.0089325  75.96 0.0003529449    1.094    0.086
       163  -9.6697     23.8377     47.2589   2.9192256777e+02   7.0827170631e+00   0.03251571   0.01515054  15.81  0.002225995    2.846    0.649
       164  -9.2428     30.0908     44.9482   2.9183469705e+02   7.0702332266e+00   0.02225337   0.01273524   0.32  0.001848477    2.690    0.628
       165  -8.8949      2.0912     45.6356   2.9216752125e+02   7.2357138804e+00   0.01306468   0.01291165  -1.26  0.001060872    1.013    0.013
       166 -10.1087     83.1750     40.1707   2.9118213370e+02   6.7951248325e+00   0.01809813    0.0122107 -31.42            0    1.712    0.416
       167  -8.0271     92.2189     42.8065   2.9109270966e+02   6.7089877630e+00  0.009466941  0.007683024 -26.66 0.0006747337    1.333    0.250
       168  -7.5974     96.6374     42.2887   2.9103766398e+02   6.6873934505e+00  0.007099471  0.004910695  57.46 0.0002068052    1.694    0.410
       169  -8.3178     38.1694     42.3567   2.9172364884e+02   7.0496075225e+00  0.009960341  0.005729961  37.45 0.0006292166    1.688    0.408
       170  -8.7295      3.6818     40.5279   2.9211679156e+02   7.2838875767e+00   0.01140094  0.006168897 -61.60 0.0006703812    1.893    0.472
       171  -7.5099    123.4769     40.5003   2.9071192096e+02   6.5406804625e+00  0.006773545  0.006295084 -18.14 0.0008083635    1.098    0.090
       172  -9.6281     18.0392     38.2519   2.9193402366e+02   7.2209045042e+00   0.02125021    0.0117098 -25.65  0.001742035    2.739    0.635
       173  -9.1710     91.5418     37.0932   2.9106468818e+02   6.7780592561e+00   0.01607167   0.01203808  10.99  0.001117631    1.445    0.308
       174  -9.0894     96.1056     33.2077   2.9098673577e+02   6.7937882908e+00   0.01675629   0.01034537 -42.02 0.0003196308    1.721    0.419
       175  -8.3549     69.5503     36.5299   2.9131896992e+02   6.9210931995e+00    0.0184219  0.009021172 -32.45  0.001415509    3.012    0.668
       176  -8.0070    106.7890     36.5383   2.9088249536e+02   6.6895273915e+00    0.0148865  0.009314085 -27.48  0.001393669    2.031    0.508
       177  -9.2609     54.6936     36.6213   2.9149377285e+02   7.0122687089e+00   0.01549982   0.01223088  14.46 0.0008784812    1.316    0.240
       178  -8.6245     37.8461     35.4540   2.9168405580e+02   7.1299934663e+00   0.01916033   0.01171066  -3.08  0.001697523    2.359    0.576
       179  -9.1714      6.7054     34.6999   2.9204471065e+02   7.3313690875e+00   0.01899552   0.01562979  11.00  0.002176657    1.264    0.209
       180  -7.3423    143.6981     34.2724   2.9043584944e+02   6.4853795740e+00  0.006700422  0.004993859  58.75 0.0002040494    1.534    0.348
       181  -7.9992     76.7048     34.1066   2.9121983311e+02   6.9041699393e+00   0.01061812  0.008602038 -88.48  0.001181506    1.430    0.301
       182  -7.9228     81.8240     32.3961   2.9114904721e+02   6.8917816031e+00  0.009264154  0.006355925  10.58 0.0004011383    1.651    0.394
       183  -7.3713    155.5537     31.0059   2.9027644759e+02   6.4485205875e+00    0.0094728  0.006585858 -61.58  0.000343679    1.474    0.322
       184  -7.9986    127.8269     30.4454   2.9059762720e+02   6.6277057222e+00   0.01067935  0.008518902 -32.80 0.0002618997    1.334    0.250
       185  -7.4721    105.2629     31.6119   2.9086935986e+02   6.7549398661e+00  0.006898703  0.005080871  71.07  0.000631801    1.696    0.410
       186  -9.3662      1.6723     29.9930   2.9207422059e+02   7.4159411603e+00   0.01695189  0.009838822 -66.74  0.001265727    1.877    0.467
       187  -8.2253    112.6240     29.8056   2.9077171942e+02   6.7296308356e+00   0.01376508  0.008766851   2.95  0.001287439    2.038    0.509
       188 -10.1436     72.3598     25.7714   2.9121832789e+02   7.0257753669e+00   0.02243185   0.01425869  17.13 0.0008758152    1.710    0.415
       189  -7.6205    183.9760     27.5281   2.8992187176e+02   6.3105872549e+00  0.008842793  0.005680131  -9.41 0.0003420779    2.167    0.539
       190  -8.5240    153.7375     26.8488   2.9027150639e+02   6.5070126515e+00   0.01181852  0.006520437 -25.10 0.0009441405    2.782    0.641
       191  -8.2129     61.7071     27.0178   2.9135110637e+02   7.0777712366e+00   0.01245778  0.009550733  28.88 0.0005276895    1.275    0.216
       192  -8.5358     57.2339     25.3796   2.9139326799e+02   7.1241292300e+00   0.01307183  0.009635922  34.96 0.0007972736    1.323    0.244
       193  -8.6835     60.1670     22.8392   2.9134287918e+02   7.1347615379e+00   0.01008595  0.009393967 -22.89 0.0002551673    1.092    0.084
       194 -10.9187     48.2133     25.5245   2.9149999616e+02   7.1784471368e+00   0.01405036   0.01245227  12.58 0.0004085225    1.138    0.121
       195  -7.2654    108.6623     24.3354   2.9078369087e+02   6.8163684264e+00  0.007155967  0.004992441  61.88 -0.0003459394    1.749    0.428
       196  -8.5105     27.1643     22.7015   2.9172921947e+02   7.3409573736e+00   0.02095217  0.008171879 -40.00  0.001473725    3.442    0.710
       197  -8.0590     73.8577    247.3860   2.9259002689e+02   4.4973243662e+00   0.00957955  0.006356633  11.55 0.0009420045    1.720    0.418
       198  -8.2841     32.5018    247.3325   2.9307305856e+02   4.7540594168e+00   0.01217417  0.006107247  27.72  0.001082149    1.959    0.490
       199  -9.2577     83.9873     21.9423   2.9105787631e+02   6.9969920134e+00   0.02119667   0.01340624   9.04  0.001075413    1.916    0.478
       200  -8.9947    146.1317     20.7694   2.9032224256e+02   6.6234126174e+00   0.01686965  0.009333277 -47.42  0.001005446    1.837    0.456
       201  -7.9865    131.4019     21.4136   2.9049883206e+02   6.7079173515e+00   0.01264539  0.007840835 -10.03  0.001101394    2.357    0.576
       202  -8.3151     92.3409     20.5189   2.9095097030e+02   6.9612123826e+00   0.01349168   0.01088837  51.78   0.00109056    1.312    0.238
       203  -8.0761     45.4846     20.2856   2.9149905564e+02   7.2548370035e+00   0.01184826  0.009037978 -39.48 0.0008740325    1.365    0.267
       204  -8.8852    249.2475    245.7999   2.9053235155e+02   3.4250808702e+00   0.01200467  0.008219564 -64.08 0.0009003714    1.523    0.343
       205  -8.3115    116.8458     20.1409   2.9066136120e+02   6.8130227812e+00  0.009329261  0.007454057 -36.16 0.0003739078    1.311    0.237
       206  -7.6772    161.7746     19.0088   2.9012797694e+02   6.5458097813e+00  0.008523677  0.005521993 -60.88 0.0003963428    1.575    0.365
       207  -8.4555    127.8163     16.9561   2.9051274458e+02   6.7808287398e+00  0.009965426  0.008679112 -24.13 0.0003048536    1.207    0.171
       208  -8.1989    243.1888    244.2644   2.9059336570e+02   3.4802565203e+00   0.01365186  0.007960515 -38.65  0.001272731    1.931    0.482
       209  -8.0106    218.8018    245.1566   2.9088339835e+02   3.6219926865e+00  0.009640225  0.007781869 -28.07  0.001075148    1.338    0.252
       210  -9.5829    192.7265    244.1360   2.9118127497e+02   3.7958911458e+00   0.01448013   0.01090726   8.98 0.0008982553    1.453    0.312
       211  -8.5359     50.4272     15.2045   2.9140909781e+02   7.2818494390e+00   0.01301553  0.009637482  -8.87  0.000805565    1.610    0.379
       212  -9.6703    158.2489    244.8262   2.9158811048e+02   4.0024969231e+00   0.02048624  0.009634551  19.49  0.001401585    2.491    0.599
       213  -8.4088    233.8066    243.3754   2.9069720544e+02   3.5487898018e+00  0.009627553  0.006345323  12.95 0.0005388557    1.712    0.416
       214  -8.7793    176.2280    243.5799   2.9137038151e+02   3.9048556859e+00  0.009651043  0.006448286  11.86 0.0009541685    1.697    0.411
       215  -8.2924     88.8805     12.9070   2.9094360032e+02   7.0691038668e+00   0.01053412  0.009002029 -16.95 0.0006819321    1.255    0.203
       216  -7.4920    133.0000    242.9780   2.9187144087e+02   4.1804228481e+00   0.01054817  0.003811131 -61.14 0.0004014462    2.818    0.645
       217  -7.9657     95.5513    243.5404   2.9231249445e+02   4.4065270835e+00  0.006626548  0.006400392  -9.87  0.000147557    1.034    0.033
       218  -9.4432    170.4753    239.8102   2.9141394105e+02   3.9834789764e+00   0.01604143  0.009619018 -35.14 0.0009214124    1.959    0.489
       219  -8.8607    249.3750    238.9534   2.9048792034e+02   3.5020299112e+00   0.01669949  0.009970895 -53.80  0.001391118    1.657    0.397
       220  -7.4671     25.9560    240.7703   2.9310867139e+02   4.8692054374e+00  0.008939065  0.005483628  26.28 0.0006963207    1.617    0.382
       221  -7.1613    214.6566    239.6618   2.9089731630e+02   3.7102208934e+00  0.007243865  0.004972127 -24.27 0.0007049229    1.772    0.436
       222  -8.0295    182.9704    238.9704   2.9126279649e+02   3.9152934294e+00   0.01424792  0.007026878  62.76 0.0009545277    4.096    0.756
       223  -7.6515    121.6592     14.6802   2.9057054386e+02   6.8450016686e+00   0.00712912  0.005004661 -23.09 0.0007049841    1.716    0.417
       224  -7.9626    121.7826    239.3706   2.9197992550e+02   4.2911135602e+00  0.009666146  0.006345836  13.90 0.0009498235    1.701    0.412
       225  -9.1359    242.3608    236.7234   2.9055572310e+02   3.5710514335e+00   0.01622941   0.01117565 -37.92 0.0009545572    1.567    0.362
       226  -8.2087    224.5390    238.5099   2.9077479842e+02   3.6617681999e+00  0.006591776  0.006471757  21.14 0.0002288798    1.012    0.012
       227  -7.8547     79.2355    238.5353   2.9247190882e+02   4.5646467164e+00  0.009497724  0.006486551  10.43  0.000903956    1.665    0.399
       228  -8.2448    195.6700    236.0607   2.9109632035e+02   3.8693283233e+00  0.009402448  0.008887962 -36.70 0.0006435742    1.066    0.062
       229  -9.7522    188.8918    234.5489   2.9116596824e+02   3.9286926980e+00   0.01621835   0.01174902  38.95  0.001372404    1.362    0.266
       230  -7.5374    138.0146    234.9926   2.9176289936e+02   4.2400498945e+00  0.008047279  0.007767725  18.65  0.000765676    1.015    0.015
       231  -8.1686     90.4127    235.3836   2.9232158010e+02   4.5311684096e+00   0.01309489  0.006361628  10.01  0.000954848    3.268    0.694
       232  -8.2919    161.9300    234.2025   2.9147861149e+02   4.1003603589e+00    0.0118567  0.009036444  -4.20 0.0006807936    1.518    0.341
       233  -8.1065      6.4307    234.1184   2.9329549935e+02   5.0656053359e+00   0.01129607  0.009110283   7.42 0.0006335863    1.324    0.245
