#   1 NUMBER                 Running object number                                     
#   2 MAG_AUTO               Kron-like elliptical aperture magnitude                    [mag]
#   3 X_IMAGE                Object position along x                                    [pixel]
#   4 Y_IMAGE                Object position along y                                    [pixel]
#   5 X_WORLD                Barycenter position along world x axis                     [deg]
#   6 Y_WORLD                Barycenter position along world y axis                     [deg]
#   7 A_WORLD                Profile RMS along major axis (world units)                 [deg]
#   8 B_WORLD                Profile RMS along minor axis (world units)                 [deg]
#   9 THETA_WORLD            Position angle (CCW/world-x)                               [deg]
#  10 FWHM_WORLD             FWHM assuming a gaussian core                              [deg]
#  11 ELONGATION             A_IMAGE/B_IMAGE                                           
#  12 ELLIPTICITY            1 - B_IMAGE/A_IMAGE                                       
         1 -12.3032    248.6964     53.2952   5.5330352294e+00   2.2614075122e+01    0.7975652    0.1398837 -43.48   0.00354344    3.520    0.716
         2 -13.7108    243.1695     11.6692   3.5906054707e+02   2.8208751616e+01     1.813634    0.7186396 -53.01   0.01208775    1.728    0.421
         3 -10.7053     21.7805     14.2268   4.1180428735e+01   7.2390335659e+01    0.4170292    0.2064863  26.60  0.002049074    2.082    0.520
         4 -10.5116     15.7592      8.3770   4.2003465810e+01   7.4097973090e+01    0.3144385    0.1954179   8.37  0.001752089    1.924    0.480
         5  -9.0594    161.9830      8.4764   3.6247231469e+00   4.3289571568e+01    0.1701082   0.07360191 -78.41 0.0008098658    2.529    0.605
         6 -10.1932     25.0211      8.0281   3.6009971304e+01   7.2675987420e+01    0.1942489    0.1567625  31.83  0.001314106    1.024    0.023
         7 -11.1235      8.9377      7.4534   4.6369035015e+01   7.5178398390e+01    0.3585459     0.230152  17.76  0.002198295    1.387    0.279
         8 -11.1753      9.1631     16.1620   5.0685582104e+01   7.3853092896e+01    0.4496123    0.2941913  -5.63  0.002632583    1.646    0.393
         9  -9.0624    144.1468      4.9638   4.4543752485e+00   4.7403370571e+01    0.2041341   0.09742194 -60.89  0.001085466    2.053    0.513
        10 -10.1374     18.9422      2.6921   3.6733308779e+01   7.4323634183e+01    0.3143914    0.1720066  30.32  0.001763161    1.647    0.393
        11  -8.9577    128.4809      1.9806   5.3511147731e+00   5.1102985569e+01    0.1647357   0.07145089 -56.14 0.0008084599    2.407    0.585
        12  -8.8572     65.4689      2.4918   1.6801550494e+01   6.5213563848e+01    0.2723852   0.09955095  62.56     0.001223    2.208    0.547
        13 -10.0884     10.2243      1.6494   4.2097128919e+01   7.5781918980e+01    0.4794021    0.1112819  37.60  0.001820695    3.574    0.720
        14  -9.9064    172.0022      6.1748   2.2845863814e+00   4.1472390933e+01     0.196597   0.09225663 -73.10  0.001074657    2.018    0.505
        15 -10.1469      2.0451      3.9354   4.9897866865e+01   7.6533917166e+01    0.3378552    0.1984071 -40.19  0.002064835    1.876    0.467
        16  -8.6492     53.9882      1.7479   1.9941822315e+01   6.7749449876e+01    0.1663051    0.0851525  58.26 0.0006966662    1.559    0.359
        17  -8.9969    232.5353    213.2233   3.3187301948e+01   1.2326171289e+00    0.2585221   0.08105648 -42.19  0.001284242    2.490    0.598
        18 -11.2075    224.5562    242.8591   3.8639825184e+01  -2.3678979867e+00    0.7364811     0.243522 -46.54  0.003684774    3.000    0.667
        19 -11.2955    234.1082    245.6850   3.7540375987e+01  -3.5041812302e+00    0.6509535    0.2726314 -29.93  0.003912749    1.958    0.489
        20 -11.2021    241.8867    237.2740   3.5226397451e+01  -2.9542745431e+00    0.5386544    0.1896561 -33.53  0.002915914    2.262    0.558
        21 -10.8543    247.3092    226.7296   3.2981787348e+01  -1.9340459072e+00    0.4524886    0.1993115 -33.34  0.002171461    1.720    0.418
        22 -11.0690    243.2204    245.4143   3.6140554310e+01  -4.1444520279e+00    0.5769451    0.2120004 -32.59  0.003374327    2.134    0.531
        23  -9.8733    248.1342    233.8635   3.3855828828e+01  -2.9666205288e+00    0.2415205    0.1554046 -26.84  0.001526481    1.103    0.093
        24  -9.9343    248.8985    249.8678   3.5912733692e+01  -5.1275505509e+00    0.2612697      0.15921   1.52   0.00139704    1.506    0.336
        25 -10.8652    249.1980    240.8314   3.4656946433e+01  -3.9726495897e+00    0.5506157    0.1712294 -42.38  0.003025891    2.558    0.609
        26  -9.9273    200.4851    249.5202   4.3575049562e+01  -1.3172459379e+00    0.3305824    0.1586791   1.82  0.001750329    2.472    0.595
        27  -9.4047    236.6527    206.7546   3.1628720806e+01   1.8146931412e+00    0.2996813    0.1380711 -47.97  0.001722259    2.103    0.525
        28  -9.4105    247.0321    206.1280   3.0074688216e+01   9.7959877599e-01    0.2687595    0.1156103 -38.85  0.001366806    1.733    0.423
        29  -9.5534    250.2994    200.5787   2.8820845545e+01   1.4875725796e+00    0.3317908    0.1019316 -40.05   0.00171312    2.408    0.585
        30  -9.5075    227.0356    205.1239   3.2808003143e+01   2.9619240419e+00    0.3687798    0.1118672 -36.75  0.001673107    2.875    0.652
        31  -9.0238     14.3324    204.6764   8.3055472206e+01   2.7762360404e+01    0.1523226   0.08529163  52.39 0.0007050461    1.705    0.413
        32  -8.9080    243.5393    199.7173   2.9611629696e+01   2.2195765337e+00    0.2110525   0.07638623 -39.73  0.001141088    2.084    0.520
        33  -9.0541    237.3058    196.1821   2.9953544392e+01   3.3276009241e+00    0.2292805   0.06867496 -38.90  0.001080663    2.646    0.622
        34  -9.7130     20.0162    195.0201   8.0722835896e+01   2.9726223518e+01    0.2684875    0.1239581  67.85  0.001034022    2.635    0.620
        35  -9.7796    246.2711    191.8342   2.8063692864e+01   3.1213538544e+00    0.2795816    0.1334301 -37.52  0.001745338    1.578    0.366
        36  -8.9056    249.7268    184.3770   2.6487362405e+01   3.8867313753e+00     0.199201    0.1019131 -47.44  0.001251576    1.722    0.419
        37  -9.8765      5.7480    171.0014   8.3341844496e+01   3.7130543525e+01    0.1882751    0.1156975 -79.60 0.0008923232    1.591    0.372
        38  -8.6130    251.0000    157.0261   2.2129484266e+01   7.7932127161e+00    0.1823896   0.04590029 -43.51  0.000803711    2.951    0.661
        39  -9.9678      8.7880    151.1805   8.0691201660e+01   4.2255616456e+01    0.2709307    0.1099205  54.40 0.0009592324    2.891    0.654
        40  -8.8681     21.0000    143.0150   7.5391416257e+01   4.3525710526e+01     0.242489   0.08150235 -72.29 0.0008024127    2.942    0.660
        41  -9.5489    248.6201    135.3020   1.8963249858e+01   1.1285532773e+01    0.2165332   0.07679544 -46.07  0.001054206    2.147    0.534
        42 -10.2208      7.0000    126.9980   7.8910318281e+01   4.8925236745e+01    0.3515608    0.1548691 -87.13   0.00131442    2.648    0.622
        43 -10.5653    249.0011    119.5021   1.6368870790e+01   1.3561951136e+01    0.2107858    0.1216777 -35.62  0.001315944    1.588    0.370
        44 -12.1073    248.0927    104.2488   1.3968852793e+01   1.5878251314e+01    0.5674233    0.2401225 -56.85  0.003019117    2.495    0.599
        45 -12.7973    247.7578     76.3579   9.4004566148e+00   1.9780890610e+01    0.7463563    0.4047324 -30.57  0.004438711    2.450    0.592
        46 -11.5981    249.5958     88.3693   1.1221504087e+01   1.7898745027e+01    0.5832819    0.1814145 -37.46  0.002673825    3.280    0.695
        47  -9.3921      3.0033     96.5254   7.6753698547e+01   5.7182248809e+01    0.3290067    0.1791389 -81.40  0.001473821    2.017    0.504
        48 -10.1900    166.8228    248.6450   4.9757640495e+01   1.9334193556e+00    0.2718065    0.1504702 -22.00  0.001506857    1.819    0.450
        49  -9.1888     16.5120     56.9930   6.1246935965e+01   6.5470713723e+01    0.1983349   0.08755219 -36.73 0.0007631179    2.519    0.603
        50  -9.6213      2.6549     53.0047   6.8481491101e+01   6.7519701592e+01    0.3194385    0.1807776 -42.10  0.001657432    1.632    0.387
        51 -10.5955     12.3953     40.7141   5.8557259686e+01   6.9189357791e+01    0.5377783    0.2033206 -37.54  0.002161184    3.049    0.672
        52  -9.4132      1.2782     38.5835   6.5278454907e+01   7.0609598324e+01     0.325998   0.07187455 -55.03   0.00121514    3.619    0.724
        53 -10.2217    151.2463    249.5347   5.3055312470e+01   3.3479875511e+00    0.2995329    0.1073708  21.69  0.001306911    2.636    0.621
        54  -9.1009     34.6763     16.6786   3.5147953651e+01   6.9911675974e+01    0.1279297   0.08570154  18.89 0.0005623683    1.679    0.404
        55 -10.6779    142.2373    248.2506   5.4802387571e+01   4.5035124035e+00    0.3536844    0.2003208   6.62  0.001871103    1.778    0.437
        56  -9.6968    124.9773    250.0000   5.8826754037e+01   6.0241247673e+00     0.213243   0.06232785  24.84 0.0007024406    2.976    0.664
        57 -11.1079    193.0770    244.8477   4.4253925194e+01   4.3347144748e-02    0.4771051    0.2223077 -12.78  0.002258205    2.933    0.659
        58  -9.5711     98.4963    244.4895   6.4359623956e+01   9.9710065478e+00    0.1318044    0.1122236  14.55 0.0003512054    1.005    0.005
        59 -10.3607    177.5024    243.1266   4.6918917044e+01   1.7835674858e+00    0.2473134    0.1347669   1.90  0.001340993    1.979    0.495
        60 -10.8571    232.0237    235.1849   3.6412052841e+01  -1.8915542078e+00    0.3689777    0.2134349 -17.83  0.002529246    1.501    0.334
        61 -10.6457    236.7279    227.8213   3.4668126255e+01  -1.2373821327e+00    0.4051544    0.1704453 -37.61  0.001824736    1.818    0.450
        62 -10.7616    211.6140    244.3713   4.0959692528e+01  -1.5156868690e+00    0.3169956    0.1518251 -32.23  0.001914567    1.726    0.421
        63 -10.8447    219.0339    246.1359   3.9977088495e+01  -2.3835283945e+00    0.3681687     0.149944 -39.60  0.002136297    2.011    0.503
        64  -9.4863    230.0874    227.6203   3.5640894329e+01  -6.5505906617e-01    0.2225592    0.1193065 -33.48  0.001463012    1.440    0.305
        65 -10.2246    239.8590    220.0789   3.3105843701e+01  -3.9952497660e-01    0.2828064     0.176739 -31.76  0.001914224    1.190    0.159
        66  -9.5398    227.4716    218.8614   3.4778912887e+01   8.5338637565e-01    0.2765124    0.1283156 -27.52  0.001566508    2.017    0.504
        67 -10.7310    248.3080    214.4612   3.1104071307e+01  -3.1098740249e-01    0.4580741    0.1918849 -40.95  0.002794755    1.818    0.450
