#   1 NUMBER                 Running object number                                     
#   2 MAG_AUTO               Kron-like elliptical aperture magnitude                    [mag]
#   3 X_IMAGE                Object position along x                                    [pixel]
#   4 Y_IMAGE                Object position along y                                    [pixel]
#   5 X_WORLD                Barycenter position along world x axis                     [deg]
#   6 Y_WORLD                Barycenter position along world y axis                     [deg]
#   7 A_WORLD                Profile RMS along major axis (world units)                 [deg]
#   8 B_WORLD                Profile RMS along minor axis (world units)                 [deg]
#   9 THETA_WORLD            Position angle (CCW/world-x)                               [deg]
#  10 FWHM_WORLD             FWHM assuming a gaussian core                              [deg]
#  11 ELONGATION             A_IMAGE/B_IMAGE                                           
#  12 ELLIPTICITY            1 - B_IMAGE/A_IMAGE                                       
         1 -12.4104    185.7821     19.9083   6.7767329365e+01   3.5875172155e+01    0.4023724    0.1920208 -33.68  0.001715805    2.123    0.529
         2  99.0000    199.7339     13.5484   6.4244743930e+01   3.2890115182e+01    0.5805958    0.1534279 -35.89  0.002036009    3.294    0.696
         3  99.0000    195.9047     10.7907   6.3917683931e+01   3.4167346732e+01    0.4543944    0.2062874 -14.00  0.001772144    3.091    0.677
         4 -10.2178    177.5250      8.7955   6.5560330750e+01   3.9194820314e+01    0.1520275   0.08281966  50.28 0.0006729731    1.770    0.435
         5 -10.7553     38.6924      2.4139   9.9302507493e+01   7.0607879550e+01    0.2088728    0.1197774 -11.05  0.001178138    1.737    0.424
         6 -13.6377     59.4095    170.5771   1.3647640805e+02   3.3377814225e+01    0.4987376    0.3994747 -85.15 0.0009542719    1.121    0.108
         7  99.0000    179.5967     76.5797   8.5581843109e+01   2.9575342608e+01     6.356096     2.512012 -40.33   0.01615413    2.532    0.605
         8 -14.5000    160.7198     69.6635   8.7474469964e+01   3.5595980486e+01     1.555468    0.9618766  45.05  0.002857667    1.596    0.374
         9 -17.7440    244.0731    122.8111   8.5984176149e+01   6.7839806507e+00     13.16795     4.172256 -34.26   0.04675247    2.904    0.656
        10 -11.5477    136.0000    129.9787   1.1015134805e+02   2.9507056413e+01    0.8912343    0.1997139 -48.16    0.0023006    4.752    0.790
        11 -11.9146    134.9602    120.7603   1.0820218179e+02   3.1710828215e+01    0.7151576    0.2414623 -46.68  0.001970296    3.046    0.672
        12 -13.3411    134.5894    108.3103   1.0511099657e+02   3.4445255832e+01     1.242497    0.3721916 -45.21  0.003692148    3.406    0.706
        13 -11.4994    165.3110    133.9476   1.0401725330e+02   2.2253807569e+01    0.2144563    0.2054364 -28.20 0.0005329825    1.085    0.078
        14  -9.8555    149.3167    130.6544   1.0701031884e+02   2.6487136548e+01    0.1591386    0.1238002  88.99 0.0007048406    1.721    0.419
        15 -11.2385    154.0236    126.0075   1.0475194173e+02   2.6400543284e+01    0.2423185    0.2322955  44.77 0.0006524349    1.011    0.011
        16 -10.0059    131.3193    124.2938   1.1000213387e+02   3.1722854497e+01    0.1526845    0.1229265   3.21 0.0003712485    1.608    0.378
        17  -9.9585    101.1106    135.5190   1.2048204124e+02   3.5053682100e+01    0.2057373    0.1406172  40.31 0.0004193564    1.472    0.320
        18 -12.2250    153.9483    109.5220   1.0055782329e+02   2.9780258796e+01    0.3813147    0.2719142  66.77  0.001152889    1.690    0.408
        19 -12.1643    121.3577    112.6801   1.0978204735e+02   3.6330863728e+01     0.386017    0.2860245  56.70  0.001782954    1.443    0.307
        20 -12.1154    118.4901    110.5261   1.1001940258e+02   3.7389585365e+01    0.4063034    0.3042268  51.42  0.001569265    1.367    0.269
        21 -10.1079    111.9649    113.2353   1.1251157192e+02   3.8091049747e+01    0.2093319    0.1936304  45.85   0.00054176    1.085    0.078
        22 -12.0385    126.9090    105.6331   1.0644015980e+02   3.6687241960e+01    0.4422274    0.2178003 -49.11  0.001676744    2.114    0.527
        23 -11.4572    112.5419    104.5074   1.1012415736e+02   3.9906297461e+01    0.3977084    0.3224281 -77.82  0.001629758    1.481    0.325
        24 -13.0648    120.6950    101.1213   1.0692451719e+02   3.8971543739e+01    0.8701119    0.6651207  16.54   0.00404553    1.623    0.384
        25 -14.5210     65.7035    165.4947   1.3438497195e+02   3.3678013805e+01    0.8773174    0.6039986  48.95  0.003241384    1.376    0.273
        26 -11.2280    113.3131     95.1142   1.0735205474e+02   4.1782214733e+01    0.2550861    0.2070629  27.63 0.0005170481    1.319    0.242
        27 -11.2983    116.7003     89.6988   1.0482992506e+02   4.2220852385e+01    0.3552732    0.2284441 -71.59 0.0009188455    2.603    0.616
        28  99.0000    160.8660     32.1687   7.5484642280e+01   4.1081941982e+01      9.35951     5.761109  57.74   0.04296523    1.471    0.320
        29 -12.4546    136.6805     89.8620   9.9406571644e+01   3.7762821659e+01     0.457702    0.3465857  62.70  0.001509987    1.474    0.322
        30 -12.0034    126.4946     80.9242   9.9447376493e+01   4.1855310466e+01    0.3716983    0.2453575 -41.58  0.001048548    1.532    0.347
        31 -11.1789    139.0902    104.1288   1.0281647184e+02   3.4311906879e+01    0.3495315    0.2668738 -21.11 0.0008563179    1.549    0.354
        32 -11.8676    223.5048     79.5840   7.8697035499e+01   1.8101160343e+01    0.2471524    0.2440609 -63.19 0.0005626063    1.027    0.026
        33 -11.5541    142.8245     79.8127   9.4816309709e+01   3.8249019862e+01    0.3015227    0.2263482  38.64 0.0006898355    1.342    0.255
        34 -12.0087    141.4841     76.4900   9.4128357136e+01   3.9189572657e+01    0.3459699     0.306573 -42.07 0.0007922855    1.166    0.142
        35 -10.5266    207.5733     78.6089   8.1007675605e+01   2.2140316519e+01    0.2620808    0.1494039 -22.79 0.0008437142    2.048    0.512
        36  -9.5682    217.8557     76.3258   7.8730218038e+01   1.9967214739e+01    0.3571991    0.2094733  77.07  0.001449223    2.281    0.562
        37 -14.0840     71.1743    158.9745   1.3219300738e+02   3.4390550718e+01    0.8833667    0.4747284  52.24  0.001901604    1.844    0.458
        38 -12.0631    189.4675     62.8974   7.9767761057e+01   2.9225573372e+01    0.6844522    0.6341588  28.94  0.002546131    1.147    0.128
        39 -10.3014    204.8247     64.6574   7.7675117007e+01   2.5001652654e+01    0.1973446    0.1737443  84.82 0.0007426203    1.163    0.140
        40 -12.8826    144.3617    100.5838   1.0049561563e+02   3.3826372537e+01    0.6163754    0.4729785  60.23  0.001266988    1.397    0.284
        41  -8.9587    205.1166     57.0716   7.5545383503e+01   2.6049508858e+01    0.4688859    0.2428301 -72.71  0.001471328    3.895    0.743
        42 -12.5660    200.5342     53.5177   7.5267297276e+01   2.7740114845e+01    0.3134569    0.2773622  69.03 0.0008711057    1.098    0.089
        43 -11.3381    203.3112     51.3545   7.4240897884e+01   2.7328839884e+01    0.2467733    0.2242371  43.84 0.0007005199    1.166    0.143
        44 -12.6326     79.7818     56.6897   1.0597561734e+02   5.5856086880e+01    0.4630624     0.178623  34.96  0.001731101    2.895    0.655
        45 -10.5290    216.3873     50.1575   7.2047293129e+01   2.4165880758e+01    0.1757282    0.1255031 -47.75 0.0005363621    1.369    0.270
        46 -12.8675    186.6077     45.0013   7.5035373132e+01   3.2576091632e+01    0.4622245    0.2279263 -43.31  0.001849104    2.098    0.523
        47 -13.7825     68.4563    144.9957   1.3082398444e+02   3.7948812366e+01     2.910804     1.281378  59.82  0.008245332    3.333    0.700
        48 -13.0756    172.2247    153.8209   1.0696301201e+02   1.6858819971e+01    0.7778863    0.4455995  59.19  0.003121294    2.200    0.545
        49 -11.7533    208.0693     36.1369   6.9395445163e+01   2.8130428963e+01    0.3342391    0.1808237 -47.68  0.001464881    1.873    0.466
        50 -12.6062    168.0781    148.3081   1.0667993745e+02   1.8813316955e+01    0.5425074    0.3483964  72.48  0.002099711    2.600    0.615
        51 -11.3049    133.4142    144.4550   1.1402582768e+02   2.6928259782e+01     1.096668    0.2524515 -54.15  0.002391039    7.299    0.863
        52 -11.0993    201.5583     34.6600   6.9852361990e+01   2.9999569075e+01    0.1972138    0.1359334 -50.76 0.0006723258    1.473    0.321
        53 -10.7464    143.8303    145.7310   1.1175911806e+02   2.4513124105e+01    0.2905197    0.2033908 -78.39  0.001243058    2.089    0.521
        54 -11.4579    163.0118    140.5647   1.0608796809e+02   2.1446680683e+01    0.2658187    0.2184505 -67.16 0.0006826092    1.455    0.313
        55 -10.6037    169.5520    228.0269   1.2075666290e+02   4.6893623899e+00    0.2916409    0.1459387  51.01  0.001214026    1.981    0.495
        56 -15.8852     24.1979    192.6053   1.4600349025e+02   3.2708525222e+01     2.287803     1.593145  38.81   0.01591014    1.567    0.362
        57 -11.5901    192.4253    194.4153   1.1077797293e+02   5.6985197764e+00    0.8871161      0.46695 -62.93  0.002575318    6.970    0.857
        58 -12.1938    131.6113     96.6485   1.0270301998e+02   3.7542544549e+01    0.3720807     0.354058  42.85 0.0007348863    1.039    0.037
        59 -14.0868     46.7366    174.2714   1.3974911745e+02   3.4114175874e+01     1.958889    0.9782383  58.62   0.01015438    1.949    0.487
