#   1 NUMBER                 Running object number                                     
#   2 MAG_AUTO               Kron-like elliptical aperture magnitude                    [mag]
#   3 X_IMAGE                Object position along x                                    [pixel]
#   4 Y_IMAGE                Object position along y                                    [pixel]
#   5 X_WORLD                Barycenter position along world x axis                     [deg]
#   6 Y_WORLD                Barycenter position along world y axis                     [deg]
#   7 A_WORLD                Profile RMS along major axis (world units)                 [deg]
#   8 B_WORLD                Profile RMS along minor axis (world units)                 [deg]
#   9 THETA_WORLD            Position angle (CCW/world-x)                               [deg]
#  10 FWHM_WORLD             FWHM assuming a gaussian core                              [deg]
#  11 ELONGATION             A_IMAGE/B_IMAGE                                           
#  12 ELLIPTICITY            1 - B_IMAGE/A_IMAGE                                       
         1 -15.8115    197.2844    113.0333   7.8711508231e+01   1.9346600695e+01     14.66456     8.469037 -78.13   0.05075859    3.456    0.711
         2 -12.4953    207.1975     14.9153   5.5557208298e+01   3.2347507651e+01     1.582705    0.8721223 -19.95  0.007890617    3.228    0.690
         3 -13.9819    214.5130     18.5571   5.5586487659e+01   3.0379119843e+01     1.396369     1.016367  50.86  0.004155798    1.774    0.436
         4 -15.6312    214.2699     71.9547   6.6762953313e+01   2.3036545637e+01     7.151001     3.476744 -77.89   0.01995369    4.639    0.784
         5 -15.7066    222.1774     62.5839   6.3738253633e+01   2.2826503286e+01     3.987207     2.162732  84.90   0.01864694    2.258    0.557
         6 -14.6740    230.1089     27.1781   5.5808009247e+01   2.6093988366e+01     1.146928    0.8531442 -50.29  0.007709672    1.340    0.254
         7 -14.4055    249.9587     24.6799   5.3660123346e+01   2.2464935376e+01    0.6443923    0.3096952 -42.50  0.002414621    1.959    0.489
         8 -15.4333    240.6466     45.4054   5.8274294902e+01   2.1547225767e+01     1.538346    0.9658412 -74.32  0.005176862    1.454    0.312
         9 -15.4529    248.1245      7.3453   5.0797780047e+01   2.4881714493e+01     1.409444     1.294965 -48.87  0.007786491    1.589    0.371
        10 -15.9221    245.4235     34.3032   5.5763064568e+01   2.2109238250e+01     2.944193    0.4501141  61.29   0.01012136    5.440    0.816
        11  -9.4402    171.8348     16.0513   5.9731618363e+01   4.0003653281e+01    0.2277776    0.1692956 -24.89  0.001035898    1.724    0.420
        12 -10.0273    164.7170     14.3396   6.0244126249e+01   4.1773925310e+01     0.281656    0.2647349  35.41  0.001474615    1.324    0.245
        13  -9.9570     92.4595     12.4685   7.2748866930e+01   5.7554877554e+01    0.3116776    0.2278897 -70.78    0.0018225    2.219    0.549
        14 -10.0270    113.3681      2.6385   6.5115755221e+01   5.4076230693e+01     0.335764    0.1068297  59.33  0.001504514    2.379    0.580
        15 -10.0330    118.6475      3.1426   6.4306575830e+01   5.2919103230e+01    0.2604479     0.154177  37.05 0.0008762247    1.739    0.425
        16 -10.1159    115.8016     12.4199   6.7628948974e+01   5.2758140351e+01    0.2647131    0.1952099  63.83 0.0009937314    1.214    0.176
        17 -11.7947    120.2411      8.9488   6.5740591001e+01   5.2108585070e+01    0.4307544    0.3615437  59.32  0.001505662    1.031    0.030
        18  -9.3399    128.8449     10.6442   6.4699655460e+01   5.0100174938e+01    0.1719622    0.1640971  13.61 0.0006454395    1.230    0.187
        19  -9.7435    128.9157      6.3578   6.3468810084e+01   5.0450130850e+01    0.1937391    0.1736956 -51.63 0.0004912959    1.314    0.239
        20  -8.9263    184.0659      8.4269   5.6555762420e+01   3.8056558480e+01    0.1808254    0.1324392 -71.81 0.0003765036    1.278    0.218
        21  -8.8590    187.9642      6.4021   5.5702245656e+01   3.7402184071e+01    0.2897938     0.145845 -38.29   0.00161753    2.125    0.529
        22 -10.3882    142.4870      6.9411   6.1487588205e+01   4.7422352754e+01    0.2988259    0.2059199  54.97  0.001241302    1.268    0.211
        23 -12.3536    217.0284      4.6431   5.2659237701e+01   3.1383606063e+01    0.2587983    0.1921821 -38.24 0.0004931687    1.625    0.385
        24 -10.8931    210.0599      4.4142   5.3204163992e+01   3.2861678834e+01    0.3345768    0.2221038 -52.43  0.001745634    1.449    0.310
        25  -9.2439    182.0049      3.6459   5.5724841342e+01   3.8971103529e+01    0.2484837    0.1656245 -66.57  0.001401419    1.468    0.319
        26  -8.6921     79.5302      3.8966   7.2982635593e+01   6.0753952179e+01    0.1542964    0.1094442 -14.00  0.001026087    1.575    0.365
        27  -8.9592    171.9510      2.6242   5.6592414916e+01   4.1275191266e+01    0.2017203    0.1361063 -61.74 0.0005020457    1.523    0.344
        28  -9.5947    137.4665      1.4477   6.0766748645e+01   4.8981634381e+01    0.2423043   0.09689289  66.51 0.0007057425    2.037    0.509
        29 -11.1176    159.9185    128.9755   9.0151803769e+01   2.4172042791e+01    0.5088231    0.4199016  -8.64  0.002432936    1.540    0.351
        30  -8.8057    229.3383    250.3269   1.0023719143e+02  -1.2175830218e+01    0.1292928   0.08082283  -3.73  0.000705166    1.728    0.421
        31  -8.3524     95.9865    131.7741   1.0738700001e+02   3.6421372807e+01    0.1903587    0.1275729  37.04 0.0004175435    1.574    0.365
        32 -11.6040    219.3930    126.8447   7.7915387590e+01   1.2069458625e+01    0.7734642    0.4740137  85.88  0.003032633    3.057    0.673
        33  -9.9867     36.8090    214.6163   1.3594562118e+02   2.4361023082e+01    0.3370081    0.1383212  23.14  0.001273243    4.115    0.757
        34 -10.1102    152.4132    127.6272   9.1565491112e+01   2.6094323683e+01    0.3712202    0.2871112  28.96  0.001149728    1.507    0.336
        35  -8.5646    173.0194    211.0000   1.0461830885e+02   3.4726300575e+00    0.2434522   0.07904855  38.75 0.0008144941    3.027    0.670
        36  -8.5131    158.0046    167.3014   9.9320495814e+01   1.5879531122e+01    0.2060924    0.1983642  54.62 0.0002263529    1.070    0.066
        37 -11.3952     25.1466    165.2888   1.3315787101e+02   3.7579680402e+01    0.4429006    0.2519051 -82.09  0.002201249    1.679    0.405
        38 -10.8166    158.6852    115.2352   8.7073194794e+01   2.7397049850e+01    0.5082067     0.328827 -68.67 0.0007414971    2.079    0.519
        39  -9.7163    140.6733    121.5496   9.2899467154e+01   2.9968358049e+01    0.3366364    0.2242098 -79.95  0.001231913    2.411    0.585
        40 -11.0297    167.3316    114.8499   8.5077187497e+01   2.5559426393e+01    0.5441439    0.4863252 -22.21  0.001982315    1.261    0.207
        41 -10.0978    174.0870    114.2085   8.3495824491e+01   2.4192352788e+01    0.4814877    0.3117589 -77.99  0.001906694    2.375    0.579
        42 -10.7210    134.8695    109.0770   9.1164818906e+01   3.3915960368e+01     1.157197    0.2746082 -44.37  0.003117898    4.172    0.760
        43  -9.9465    133.5573     97.7759   8.8503791981e+01   3.6526352834e+01    0.4227473    0.2742974  57.98  0.001736713    1.688    0.407
        44 -12.4740     68.4506    145.1502   1.1816022452e+02   3.7505089162e+01     1.308347     1.208032 -19.62  0.004897894    1.205    0.170
        45 -10.2578    120.6922    110.9209   9.5322661568e+01   3.6501228026e+01     0.336543    0.2775188  37.41  0.001616571    1.248    0.199
        46 -12.4434     43.9590    162.5010   1.2789961366e+02   3.6279854403e+01    0.6461699    0.4595273  21.91   0.00121741    1.733    0.423
        47  -8.8220    141.3209    105.1835   8.8561794478e+01   3.3327131685e+01    0.2335431    0.1875781 -25.95 0.0006588439    1.407    0.289
        48 -10.0437    147.2278    101.9746   8.6324416312e+01   3.2674978936e+01    0.3439857    0.3033914  -4.76  0.001204025    1.346    0.257
        49 -12.9844     51.0287    158.1032   1.2532359945e+02   3.6545734463e+01     1.108459    0.9232025  45.72    0.0029376    1.310    0.237
        50 -11.8265    171.8583     88.2291   7.7547114279e+01   2.9728958710e+01    0.7582381    0.5548098  14.14  0.003409288    2.233    0.552
        51 -10.3467    157.3264     96.0132   8.2508786182e+01   3.1580475945e+01    0.4566836    0.3190627  33.52  0.002092398    1.735    0.424
        52 -12.3690     57.1303    154.1175   1.2298812586e+02   3.6783268732e+01    0.7342172    0.4762935 -77.78  0.001659252    1.625    0.385
        53 -10.1688    205.0911    164.2720   8.8565410179e+01   7.2966763998e+00    0.2576995    0.2392483 -56.66 0.0003473212    1.111    0.100
        54 -11.2211      3.9497     92.7553   1.2813800719e+02   5.6366301525e+01    0.4661643    0.2240381 -78.87  0.002087714    2.892    0.654
        55 -10.4382    140.8306     91.8722   8.5153692630e+01   3.6082700611e+01    0.3224134    0.2923675 -70.64 0.0008296313    1.152    0.132
        56  -9.7717    195.4848    158.6417   8.9273604806e+01   1.0317531846e+01    0.2786018    0.2203462  80.50 0.0008975056    1.671    0.402
        57 -11.9112    155.0781     86.3422   8.0481094219e+01   3.3905725458e+01    0.5203719     0.446488 -67.98 0.0007646981    1.209    0.173
        58  -9.1502     23.4800    202.4990   1.3763425034e+02   2.8699197000e+01    0.2391696    0.1228146  32.60  0.001217299    2.186    0.543
        59  -8.5500     75.2962     84.6588   1.0149067668e+02   5.0352059790e+01    0.1321411    0.1125167 -88.81 0.0005834104    1.661    0.398
        60 -10.7869      5.6774     82.9876   1.2555974520e+02   5.8343431726e+01    0.2289774    0.1337176 -29.96  0.001223993    1.615    0.381
        61  -9.3040    139.5588     78.5881   8.1835232423e+01   3.8804847715e+01    0.2583397    0.2190873  46.01 0.0005993653    1.160    0.138
        62  -9.1762    159.5097    158.5317   9.7065934773e+01   1.7589873183e+01    0.2804129    0.2163361 -85.58  0.001029458    1.696    0.410
        63  -8.1158    110.6388     79.2279   8.9284380628e+01   4.4906458577e+01    0.1380858    0.1106865  73.04 0.0002009648    1.577    0.366
        64 -10.0218    159.2806     75.5341   7.6783084606e+01   3.4845697340e+01    0.2914927    0.2313492  49.80 0.0008807934    1.261    0.207
        65 -11.0817    151.1671     71.4612   7.7358730555e+01   3.7387977837e+01    0.3476905    0.2493135 -63.00 0.0008645766    1.606    0.377
        66 -13.6059    187.1097     77.3659   7.2130757273e+01   2.8157973152e+01     2.180312     1.070896  45.81   0.00905556    2.384    0.581
        67 -10.5105    109.1630     75.5025   8.8593581304e+01   4.5872968872e+01    0.4752518    0.3210613   8.76  0.002116672    2.182    0.542
        68  -8.9154     84.5102     77.4839   9.6432296122e+01   5.0183912920e+01      0.13938     0.126947  -3.18 -9.412229e-05    1.023    0.023
        69  -9.8507      2.0000     70.0070   1.2402733613e+02   6.1199311194e+01    0.1954624   0.05445896 -59.44 0.0008061308    2.968    0.663
        70 -10.8147     11.2297     68.2385   1.2003192932e+02   6.0961487561e+01    0.3132268    0.1031712 -50.31  0.001455359    2.250    0.556
        71 -10.1824    183.6223     64.4084   6.9602020272e+01   3.1057015900e+01    0.3073175    0.1999088 -57.59 0.0007539815    1.573    0.364
        72 -10.9007    203.9193    152.5156   8.6281566954e+01   9.9490818102e+00    0.3951066    0.3728099  71.55  0.001591275    1.168    0.144
        73 -10.7469    105.8492     60.3190   8.4903665235e+01   4.9065744907e+01    0.4628717    0.1852949 -44.65  0.001800741    2.860    0.650
        74  -9.9484    194.5022    197.9941   9.7582567825e+01   2.3307750314e+00    0.3972128    0.2467957 -66.78  0.001621322    2.677    0.626
        75 -10.8976    191.8673    152.2271   8.8610488923e+01   1.2396051346e+01    0.5374321    0.3220674 -62.52  0.002176886    2.150    0.535
        76  -8.6362     72.5481     58.1548   9.4216241094e+01   5.5559002017e+01    0.1817176    0.1226602 -37.32  0.000990369    1.492    0.330
        77  -9.8910      6.7567     54.5267   1.1814109263e+02   6.3839089034e+01    0.2315076   0.09723052 -65.88 0.0008947005    4.512    0.778
        78  -9.9886    191.3773    192.1805   9.7088113819e+01   4.0648101341e+00    0.7151308    0.3842717 -67.81  0.002152233    4.845    0.794
        79 -10.7934      6.1244     43.1479   1.1502069565e+02   6.5864447985e+01    0.2147855    0.1437077  -3.87  0.001464533    1.384    0.278
        80  -9.5111    248.4084    181.5518   8.4215345020e+01  -3.4035660259e+00    0.2325657    0.1815212 -84.74 0.0007847291    2.157    0.536
        81  -8.9893    204.9333    189.9841   9.3878091334e+01   2.1062450672e+00    0.2182367    0.1794776  89.44 0.0009174334    1.766    0.434
        82 -12.5432     12.7983    182.3428   1.3804893071e+02   3.4564698638e+01    0.7068877    0.4316817  48.23  0.003130903    1.711    0.415
        83 -13.0106     14.6810    177.3327   1.3710040971e+02   3.5605271443e+01    0.8705379    0.5563666  52.10  0.004420164    1.641    0.391
        84  -9.4377    200.7144    173.5984   9.1388503343e+01   6.1907257672e+00    0.2757213    0.1711397 -34.59  0.001104925    1.615    0.381
        85 -11.0329    213.9411    167.5280   8.7543933927e+01   4.9984156536e+00    0.6805549     0.372048  65.40   0.00236635    3.916    0.745
        86 -10.4202    110.1220     28.8305   7.3937294492e+01   5.2342393626e+01    0.1857744    0.1677914  72.33  0.001013387    1.216    0.178
        87  -8.6227     91.5461    168.5497   1.1627247229e+02   2.8030300294e+01    0.1502113    0.1411325 -70.36 0.0001431762    1.025    0.024
        88 -10.9681    179.4518     23.8528   6.0589321454e+01   3.7450423500e+01     0.464001    0.3431879  75.55  0.002267299    1.153    0.133
        89  -8.2899     90.9280    153.0798   1.1343769166e+02   3.2030284099e+01    0.1718305    0.1597996 -69.17 0.0002838849    1.020    0.020
        90  -9.0119    159.7399     21.0531   6.2595299143e+01   4.2206560030e+01    0.1617829    0.1473032  74.69  0.000183297    1.102    0.092
        91  -8.6427    195.5481     19.9164   5.7803886766e+01   3.4314678120e+01    0.1905333    0.1337691  79.79 0.0007642658    1.202    0.168
        92  -9.0385    247.1902    242.1472   9.5584638071e+01  -1.3245792020e+01    0.1448949     0.130009 -14.44 0.0002574892    1.303    0.232
        93  -9.9522    189.3072     15.6032   5.7556388146e+01   3.6161954371e+01    0.1984654     0.172248  76.69 0.0004049279    1.168    0.143
        94 -10.0933    134.2116    147.9545   1.0082714706e+02   2.5227794025e+01    0.7092925    0.2739093 -56.06   0.00219806    3.033    0.670
        95  -8.4590    177.3447     13.8775   5.8546524164e+01   3.8995520349e+01    0.1345885    0.1169171 -10.26 0.0003750475    1.599    0.375
        96  -9.8589    133.0000    141.9993   9.9766376011e+01   2.6885601702e+01    0.8024458    0.2006641 -53.97  0.001841451    5.448    0.816
        97 -10.6097    225.1799    147.2654   8.1268922101e+01   6.9662244823e+00    0.6190487     0.387628  88.82  0.002292952    3.683    0.728
        98 -10.0306    151.6939    150.1546   9.7031520361e+01   2.1128436535e+01    0.2689858    0.2433584  36.59 0.0008409653    1.159    0.137
        99 -12.9885    170.6197     73.6179   7.4114216071e+01   3.2558048178e+01     1.176982    0.6698075 -29.91 0.0009753933    2.169    0.539
       100 -10.5411    198.9293    144.5660   8.5514609295e+01   1.2589399311e+01    0.3297651    0.2255666 -67.98  0.001470484    1.849    0.459
       101  -9.8214    192.2740    144.1363   8.6736613117e+01   1.4030901600e+01    0.2619333       0.2189  61.56 0.0004090858    1.319    0.242
       102 -11.0693    156.4733    139.7847   9.3512382929e+01   2.2501503535e+01    0.9062539    0.5223352 -79.64  0.002468975    4.972    0.799
       103 -10.4180    152.0610    143.2633   9.5363522708e+01   2.2640445771e+01    0.4764268    0.3081211 -83.66  0.001709354    2.788    0.641
       104 -12.0340    189.0021    138.6897   8.6172111649e+01   1.5858810623e+01    0.6526949    0.4983942  29.53  0.001667414    1.577    0.366
       105 -11.3990    190.8688    132.2359   8.4332347454e+01   1.6823367787e+01    0.5243516    0.3474725  61.72  0.001808114    1.763    0.433
       106 -10.1017    141.3593    229.0004   1.1467250389e+02   5.2717329777e+00    0.2437673    0.2383537 -79.39   0.00028074    1.091    0.084
       107 -10.3510    166.3022    136.2061   9.0427139317e+01   2.1205048944e+01    0.4287488    0.2292079 -47.30  0.001195944    1.801    0.445
       108 -11.3902    124.2903    103.7296   9.2468741381e+01   3.7288226525e+01    0.7425417    0.5825133  84.81  0.003512757    1.677    0.404
       109 -11.7326    135.1604    124.5107   9.5014355555e+01   3.0479379308e+01     1.424587    0.6001719 -58.52  0.004260852    3.529    0.717
       110 -10.6840    129.2170    115.5349   9.4272898066e+01   3.3725122975e+01    0.5305092    0.3372983 -71.97  0.001485824    2.428    0.588
