#   1 NUMBER                 Running object number                                     
#   2 MAG_AUTO               Kron-like elliptical aperture magnitude                    [mag]
#   3 X_IMAGE                Object position along x                                    [pixel]
#   4 Y_IMAGE                Object position along y                                    [pixel]
#   5 X_WORLD                Barycenter position along world x axis                     [deg]
#   6 Y_WORLD                Barycenter position along world y axis                     [deg]
#   7 A_WORLD                Profile RMS along major axis (world units)                 [deg]
#   8 B_WORLD                Profile RMS along minor axis (world units)                 [deg]
#   9 THETA_WORLD            Position angle (CCW/world-x)                               [deg]
#  10 FWHM_WORLD             FWHM assuming a gaussian core                              [deg]
#  11 ELONGATION             A_IMAGE/B_IMAGE                                           
#  12 ELLIPTICITY            1 - B_IMAGE/A_IMAGE                                       
         1 -13.9096      7.5903     13.5706   1.2118470008e+02   7.2100805028e+01     2.285476    0.7634646 -44.06   0.01187142    2.150    0.535
         2 -13.6928    200.3003     14.2582   6.5798432610e+01   3.3140472760e+01     1.361047     1.067482 -80.67  0.004783218    1.219    0.180
         3 -13.3901    205.3490      8.0434   6.3543519115e+01   3.2491069970e+01      1.36572    0.6122649  54.01  0.001384508    2.247    0.555
         4 -13.6577    191.6918     26.5931   7.0401219814e+01   3.3986287504e+01     1.507624     1.342834 -13.91  0.008479887    1.275    0.215
         5 -11.0420     88.5255    248.9952   1.3876421277e+02   1.4333632670e+01    0.2467771    0.2380714 -18.95  0.001969325    1.715    0.417
         6 -11.8081    139.8072    250.0829   1.2997139074e+02   6.4468341432e+00     0.664301    0.1320437  45.15  0.002427883    3.736    0.732
         7 -11.3992    139.1512    245.8794   1.2961994469e+02   7.1588360110e+00    0.2257318    0.1722679  71.77  0.001541013    1.427    0.299
         8 -12.1785    109.1075    248.7164   1.3519551539e+02   1.1381840749e+01    0.7016324    0.2022182  51.32  0.003001906    2.981    0.665
         9 -11.4911     97.8271    249.4887   1.3721434722e+02   1.2923909240e+01    0.3987989    0.2189097  45.44  0.001856349    1.428    0.300
        10 -11.0379    101.4185    246.2089   1.3630088899e+02   1.2917320416e+01    0.2417775    0.1673596  82.13  0.001135219    1.507    0.337
        11 -11.2195     65.5728    250.1823   1.4270522683e+02   1.7255487056e+01    0.3264398    0.1220237  43.18  0.001801077    2.104    0.525
        12 -14.7693     33.3308    246.9791   1.4772614396e+02   2.1706620691e+01     8.733809     2.978243  31.13   0.03320799    6.618    0.849
        13 -15.5858      3.3453    231.7658   1.5175922867e+02   2.7435048551e+01      11.5723    0.3941026 -75.42   0.03690491    8.908    0.888
        14 -12.1257     81.6392    242.0006   1.3937486691e+02   1.6441068299e+01    0.6660874    0.2989161  74.04  0.003160503    3.130    0.681
        15 -14.7431     50.6194    221.2355   1.4323724509e+02   2.4190393131e+01     1.860307     1.339199 -85.83  0.009464761    1.300    0.231
        16 -10.3887     33.4922    228.8514   1.4671166296e+02   2.4822865255e+01    0.2022334    0.1303343  71.77 0.0006822143    1.139    0.122
        17 -11.4313     80.8841    247.4677   1.3994202550e+02   1.5646363251e+01    0.3943411    0.2134034  79.05  0.002361979    2.034    0.508
        18  -9.9732    198.5075    246.4818   1.1925869098e+02  -2.4602462406e+00    0.1175593   0.08988293  34.63 2.199125e-05    1.036    0.034
        19 -11.2792    126.2082    249.9937   1.3234141073e+02   8.5841661346e+00    0.3571961    0.1244098  42.97  0.001560878    2.192    0.544
        20  -9.4820     94.4182    216.4156   1.3465895768e+02   1.9064401082e+01    0.2640496    0.1358244  67.52 0.0009894966    2.212    0.548
        21  -8.9939    152.7102    212.9538   1.2288841352e+02   1.0016589630e+01    0.1671804     0.148706  52.98 0.0003520349    1.079    0.073
        22 -10.2616    192.7366    194.3960   1.1211331549e+02   5.7044879181e+00    0.7884372    0.3773247 -61.63  0.001863461   10.500    0.905
        23 -11.5212     68.4925    196.7953   1.3773570469e+02   2.6598232750e+01    0.3279046    0.2300789 -49.40  0.001504522    1.951    0.487
        24 -11.6009     73.6254    189.4080   1.3590128977e+02   2.7394270373e+01    0.2532963    0.2211664 -65.99 0.0006924241    1.361    0.265
        25 -10.9656     82.5519    176.9542   1.3248987900e+02   2.8717561791e+01    0.2389677    0.2053054 -83.92 0.0004378285    1.130    0.115
        26 -13.2592     69.9444    174.7189   1.3499703370e+02   3.1012022559e+01     0.457814    0.2716489 -47.37  0.001647781    2.226    0.551
        27 -13.5513     46.1473    231.5649   1.4472777923e+02   2.2864751898e+01     1.104054     0.230207  44.39  0.001939811    3.163    0.684
        28 -12.1865     58.3907    132.8232   1.3204172322e+02   4.2001793463e+01     1.926065    0.6068347 -75.66   0.00424629    9.126    0.890
        29 -12.8006     67.3435    144.0036   1.3145913182e+02   3.8242987669e+01     1.042667    0.5845929  84.64   0.00458205    2.335    0.572
        30  -9.9622    101.2165    151.5426   1.2430043758e+02   3.1314952293e+01    0.2901128    0.2806226  58.59 0.0007335835    1.165    0.141
        31  -9.1760    103.9817    147.0711   1.2282218779e+02   3.1840288276e+01    0.2953818    0.1803771 -40.52  0.001327834    2.057    0.514
        32 -11.9198     90.0063    150.9410   1.2693338668e+02   3.3302999004e+01    0.2676235    0.2487454 -49.06 0.0004902378    1.269    0.212
        33 -11.5917     43.4290    149.4380   1.3807960969e+02   3.9946840659e+01    0.3104182    0.2620413   7.75  0.002002272    1.739    0.425
        34 -14.2394     10.2177    207.0634   1.4952057625e+02   3.1277725363e+01     2.273941      1.64263 -40.87   0.01371152    2.642    0.621
        35 -12.0071     29.0229    138.6390   1.4034151848e+02   4.3874196589e+01    0.3848187    0.1747291  49.18  0.001966502    2.249    0.555
        36  -9.7325    111.5374    136.7712   1.1893999916e+02   3.2800595491e+01    0.3262566    0.2448059 -18.10   0.00133538    2.039    0.510
        37 -10.4661     99.1727    133.9425   1.2153209673e+02   3.5655921440e+01    0.2799366    0.2230473 -38.31 0.0004875171    1.467    0.319
        38  -8.6876    192.2413    143.9834   1.0206522719e+02   1.4406116285e+01    0.1816259    0.1246988 -38.52 0.0003639813    1.496    0.332
        39 -10.9935     50.3521    129.8027   1.3370511500e+02   4.3673222728e+01    0.2489276    0.2000035  69.62 0.0006302922    1.228    0.185
        40  -9.4916    108.1023    123.6923   1.1703962227e+02   3.6395981040e+01    0.1932717    0.1801624  51.40 0.0003174958    1.110    0.099
        41 -11.0012    168.1998    113.1709   9.9708712618e+01   2.5757729827e+01    0.3762366    0.3188406  89.86 0.0007900202    1.379    0.275
        42 -12.2473     88.8198    167.5504   1.2978922534e+02   2.9793765901e+01     1.426928    0.5627682  54.60   0.00550688    2.874    0.652
        43 -10.1408     42.4978    108.9192   1.3254298300e+02   4.9393996242e+01    0.2067778    0.1080448 -64.74  0.001037821    1.606    0.377
        44 -11.1929    249.3905    248.5243   1.1107660153e+02  -1.0299818416e+01    0.2470013    0.2120724 -20.49  0.001961687    1.565    0.361
        45 -10.7345    238.3529    248.8111   1.1290230386e+02  -8.7623181707e+00    0.1612834    0.1146158  29.96  0.001155898    1.127    0.113
        46 -10.2958    163.0687    248.8127   1.2574104244e+02   2.9155702360e+00    0.1821024    0.1653164  50.05 0.0009233022    1.206    0.171
