#   1 NUMBER                 Running object number                                     
#   2 MAG_AUTO               Kron-like elliptical aperture magnitude                    [mag]
#   3 X_IMAGE                Object position along x                                    [pixel]
#   4 Y_IMAGE                Object position along y                                    [pixel]
#   5 X_WORLD                Barycenter position along world x axis                     [deg]
#   6 Y_WORLD                Barycenter position along world y axis                     [deg]
#   7 A_WORLD                Profile RMS along major axis (world units)                 [deg]
#   8 B_WORLD                Profile RMS along minor axis (world units)                 [deg]
#   9 THETA_WORLD            Position angle (CCW/world-x)                               [deg]
#  10 FWHM_WORLD             FWHM assuming a gaussian core                              [deg]
#  11 ELONGATION             A_IMAGE/B_IMAGE                                           
#  12 ELLIPTICITY            1 - B_IMAGE/A_IMAGE                                       
         1 -11.7983    219.8920     77.7352   5.2707693638e+01   2.0291421112e+01     4.095609     1.146515 -50.62  0.009786782    6.472    0.845
         2 -13.3496    242.3340    117.7364   5.8824676042e+01   8.9488234714e+00     6.192125     1.141115 -36.44   0.01684417    4.814    0.792
         3 -12.1756    219.1903     34.3396   4.2080996149e+01   2.6752132754e+01     1.764078    0.6495992 -52.73  0.006670071    3.000    0.667
         4 -11.9124    223.6002     60.7033   4.7992484954e+01   2.2097153336e+01      1.05775    0.9254317 -75.06  0.004970958    1.104    0.095
         5 -12.2205    234.1909     52.3705   4.4704913535e+01   2.0947377662e+01     1.212846     0.868829 -82.54  0.006706596    1.488    0.328
         6 -12.4410    148.9811     43.6634   5.5302402276e+01   4.2682813108e+01     1.430991     1.016865  73.33  0.006978739    1.538    0.350
         7 -10.3711    187.7489     44.3063   4.8723885259e+01   3.2959514351e+01     1.108477    0.4208249 -41.47  0.004231564    2.518    0.603
         8 -11.9479    132.7719     36.3706   5.6303007645e+01   4.7621806783e+01    0.8087866    0.4976924 -30.84  0.003854116    1.698    0.411
         9 -11.6750    137.1032     27.8388   5.2453073546e+01   4.7632054479e+01    0.7586765    0.4690382 -33.24  0.003717297    1.707    0.414
        10 -11.0014    130.3761     21.8379   5.1737785433e+01   4.9939524329e+01    0.5542559    0.4406888  46.41  0.001212014    1.148    0.129
        11  -9.1820    222.7598     18.8737   3.8030450643e+01   2.7803761297e+01    0.4494415    0.2369057 -50.83  0.002291418    1.735    0.424
        12 -12.6865    240.4978     28.5265   3.8614364500e+01   2.2725342510e+01      3.02172    0.5101876  59.49  0.009847553    5.054    0.802
        13  -9.8790    125.1875     12.8489   4.9578963847e+01   5.2097877947e+01    0.4412323    0.2371204 -30.84  0.001732981    1.999    0.500
        14 -11.0887    119.9818      9.5004   4.9403200557e+01   5.3640215688e+01    0.8243846    0.3864695  44.42  0.002937292    1.945    0.486
        15  -8.5986    197.9740     12.1826   3.8825017995e+01   3.4332800001e+01    0.4098475    0.1321546 -35.27  0.001665883    2.803    0.643
        16  -8.8994    143.4505      8.2194   4.4715824034e+01   4.8100330976e+01     0.334721     0.141002 -11.39   0.00129027    3.415    0.707
        17  -9.0722      9.9573      9.4732   9.0525645488e+01   7.2577460885e+01    0.1568591   0.09763391  14.94  0.001033646    1.599    0.375
        18  -7.7813     52.3377      8.6835   6.8994139836e+01   6.7481821105e+01    0.1050117   0.09953261 -57.17 0.0007048306    1.701    0.412
        19  -8.3868    215.5691      6.9184   3.5868753590e+01   3.0746580663e+01    0.1717592     0.114264 -37.41 0.0004071891    1.497    0.332
        20  -8.5304    233.7740      3.5179   3.3667742552e+01   2.7024738462e+01    0.1911291    0.1368036 -23.92 0.0007672232    1.687    0.407
        21  -9.5914    249.2878      1.6211   3.2219938799e+01   2.3931006141e+01    0.1956594    0.1350274  88.62 0.0004885381    1.315    0.240
        22  -7.4760    144.2837      2.3492   4.2671535654e+01   4.8398421150e+01    0.1364987   0.08766256  37.28 0.0007017811    1.652    0.395
        23  -7.7803    215.8087      1.3409   3.4547040498e+01   3.1252481463e+01    0.1415691    0.1018861  77.95 0.0003130811    1.265    0.209
        24 -10.7637    248.9749     59.9410   4.4788153288e+01   1.6723969983e+01    0.7090752     0.595636 -45.26   0.00135636    1.080    0.074
        25  -9.1555    244.6331    244.1169   8.3489500204e+01  -1.0365346382e+01    0.1811645    0.1310441  26.17 0.0006000412    1.307    0.235
        26  -7.5320    104.5530    240.3911   1.0966761173e+02   1.1057088228e+01    0.1219437   0.09963828  49.69 -2.570965e-05    1.030    0.029
        27  -7.1805    151.2408    152.0144   8.4967338237e+01   2.1068317557e+01    0.1849999    0.1284836 -45.35            0    1.445    0.308
        28  -7.2464    150.0000    147.0631   8.4161334745e+01   2.2405449993e+01     0.251084   0.08729122 -46.45 0.0007924277    2.874    0.652
        29  -9.2630     69.4977    145.4650   1.0503481100e+02   3.6963067407e+01    0.3628902    0.3072449  80.63  0.002047106    1.187    0.158
        30  -9.4692     66.3833    144.1931   1.0567869107e+02   3.7696894342e+01    0.4204098    0.2789985 -68.62  0.001364176    1.405    0.288
        31 -11.2029    240.9030     46.1668   4.2540873647e+01   2.0350725945e+01    0.9502016    0.6649088 -59.63  0.001161539    1.306    0.234
        32  -8.3215    192.4945    143.5346   7.3807960966e+01   1.4312123779e+01    0.1515648     0.140108  -8.75 2.345348e-05    1.040    0.039
        33  -9.7905    196.8701    127.3253   6.9072972541e+01   1.6535292529e+01    0.3189587    0.2599412 -37.42  0.000283767    1.164    0.141
        34  -8.6549    140.4002    128.0499   8.2053931954e+01   2.8629502330e+01    0.2586381    0.2200249  48.27 0.0005101086    1.206    0.171
        35  -9.2656    202.2027    123.8227   6.7178910352e+01   1.6059358569e+01     0.257961    0.2195316  26.09 0.0007966903    1.261    0.207
        36 -11.9868    238.4431     71.3238   4.8632262728e+01   1.7244169315e+01     1.492122    0.6371208 -48.16   0.00428908    2.227    0.551
        37  -8.3984    162.7408    120.4726   7.4702520754e+01   2.5425387619e+01    0.3690981     0.230641 -72.86  0.001268993    3.030    0.670
        38  -7.4406    103.2531    121.7023   9.0576373318e+01   3.7432155216e+01    0.1461608    0.1185874 -89.13 0.0001501642    1.495    0.331
        39  -8.8196    185.2514    119.5776   6.9521554080e+01   2.0584722463e+01    0.2160737    0.1451172  36.30 0.0009474438    1.631    0.387
        40  -8.2288    215.2814    233.4755   8.6989351398e+01  -4.9554230094e+00    0.1887518    0.1469972 -17.26 0.0004019906    1.271    0.213
        41  -9.9587    206.1751    110.2146   6.3086770944e+01   1.7731364706e+01    0.3063576    0.2686905  89.97  0.001621103    1.342    0.255
        42 -10.9900    187.5502     97.0489   6.3221877022e+01   2.4386605809e+01     1.169882    0.3806244 -45.62  0.003592676    3.229    0.690
        43 -10.2037    187.5699    106.8164   6.5782472946e+01   2.2541644779e+01    0.6015362    0.3235676 -35.21  0.001846521    1.839    0.456
        44  -7.4496    120.5314    105.5303   8.1496363328e+01   3.7830108568e+01    0.1549708    0.1503383 -35.69 1.738056e-05    1.010    0.010
        45  -7.9412    144.2404    102.0512   7.4239816292e+01   3.3453622161e+01    0.2186039     0.192837 -43.58            0    1.118    0.105
        46  -8.7443    151.0082    100.4188   7.2117576485e+01   3.2252547081e+01    0.2988123    0.2753569  -1.07 0.0006294954    1.149    0.130
        47  -8.1450     86.8851    101.0935   9.0329606128e+01   4.5145772340e+01    0.2028999    0.1880074 -71.05            0    1.153    0.133
        48  -8.9199    214.2200    216.2000   8.4241669589e+01  -2.3297366400e+00    0.2578432    0.2255877 -72.60  0.001532343    1.934    0.483
        49  -8.4095    136.2197     97.0319   7.4869310061e+01   3.6300300307e+01    0.2657951     0.238575  80.18 0.0006877651    1.273    0.215
        50  -9.6420    162.9740     93.3193   6.7339958765e+01   3.0879520623e+01    0.5306647    0.3560602  36.81  0.002311603    1.650    0.394
        51  -8.9578    145.1804     89.9409   7.0544836908e+01   3.5708725885e+01    0.3219675    0.2423403 -45.97  0.001016378    1.335    0.251
        52 -10.8528    181.1999     82.5786   6.0534874987e+01   2.8519756386e+01     0.907998     0.679436 -20.60  0.002050909    1.513    0.339
        53  -9.7157    188.4967     79.2061   5.8239060921e+01   2.7357593109e+01    0.3013646    0.2668473 -51.38 0.0003839444    1.099    0.090
        54 -11.5337    180.6459     69.4167   5.6959659257e+01   3.0908489385e+01    0.6556659    0.4883061  24.24  0.003083858    1.726    0.421
        55 -10.4218    161.4895     83.6903   6.4920440254e+01   3.3059078436e+01    0.3638899    0.2786513 -29.75   0.00172691    1.346    0.257
        56  -9.1268      4.1494     85.0424   1.1513189881e+02   5.7782960414e+01    0.2238386   0.08702137 -48.47  0.001083477    2.045    0.511
        57 -10.1194    103.5043     81.3875   7.9430981934e+01   4.6469842843e+01    0.2660553     0.250854 -15.40  0.000302244    1.008    0.008
        58  -9.0933    199.6731     79.6273   5.6388832567e+01   2.4631180249e+01    0.3576672    0.2731401 -20.94  0.001133894    1.462    0.316
        59  -9.2536      2.6605     80.8768   1.1497060893e+02   5.8808515519e+01    0.2654631   0.06487602 -61.39  0.001098139    2.563    0.610
        60  -9.9470    199.3232     73.2987   5.4773709968e+01   2.5766012031e+01    0.3511458    0.2505887  41.47  0.001005957    1.591    0.372
        61 -10.3701    205.4203     69.7952   5.2877451420e+01   2.4891890142e+01    0.6406445    0.3767682 -34.69  0.001698609    1.644    0.392
        62 -10.9475    150.0390     56.1094   5.9058099651e+01   4.0581180468e+01     0.593716    0.4425183   2.31  0.001541167    1.727    0.421
        63  -9.0365    202.2442    210.3770   8.5511181934e+01   4.7961380661e-01    0.2344711    0.2030432  36.53  0.000207524    1.265    0.210
        64 -11.5415    162.0822     51.4594   5.5169517838e+01   3.8314571813e+01    0.9294277    0.6731703  51.84    0.0046145    1.343    0.255
        65 -11.7679    166.4918     55.5462   5.5566247202e+01   3.6605169984e+01      1.65694     0.736307 -58.44  0.004852395    4.438    0.775
        66  -8.8816    161.0782     64.2482   5.9252657247e+01   3.6565229774e+01    0.2510829    0.1765163 -84.26  0.001014394    1.975    0.494
        67  -8.5260    123.5539     58.6242   6.6202526704e+01   4.6466193661e+01    0.2773152    0.1277099 -45.99 0.0009793884    2.472    0.596
        68  -7.8322    116.5688     58.5056   6.8049723744e+01   4.8055218196e+01    0.1473491    0.1384193   7.15 8.389122e-05    1.017    0.017
        69  -8.2916    197.1204     56.0824   5.0524341588e+01   2.8986532063e+01    0.3956879    0.1780059 -56.45  0.001394645    3.025    0.669
        70  -9.9068    173.9486     49.0045   5.2282204520e+01   3.5719354991e+01    0.4192727    0.2412915  44.36  0.001833724    1.887    0.470
        71  -9.9603    178.4163     43.5056   4.9944457632e+01   3.5378788694e+01    0.7841896    0.2555067  47.45  0.002553006    3.490    0.714
        72 -10.2445    233.8438    209.3253   7.9374677903e+01  -4.3287487193e+00    0.2281906    0.1916349  10.50 0.0003252662    1.117    0.105
        73  -8.5994    198.5201     44.3748   4.7190321545e+01   3.0319613364e+01     0.602882    0.2909925 -53.89  0.001934914    2.331    0.571
        74  -9.5852    194.0352     45.8215   4.8213386583e+01   3.1209950008e+01    0.4694857    0.2587716 -40.48  0.001387836    1.741    0.426
        75  -9.3517    192.3111     39.9365   4.6861742763e+01   3.2428872882e+01    0.4300373    0.3352009  58.29  0.001821801    1.283    0.221
        76  -8.1197    164.2570     39.5310   5.1134201036e+01   3.9445778675e+01    0.2525175    0.1586593 -42.14 0.0005741949    1.634    0.388
        77  -7.8550    124.7693    206.7467   1.0117370165e+02   1.4295091456e+01    0.2416172    0.1477542  70.25 0.0008010385    2.433    0.589
        78  -8.8316    203.5014    205.9156   8.4460089753e+01   9.8596974276e-01    0.2221649    0.1730145  32.67  0.001301128    1.222    0.182
        79  -8.4232     10.9939    206.7471   1.2523204292e+02   2.9278203303e+01    0.1383009   0.08755133  39.87 0.0009018971    1.621    0.383
        80  -8.1403    162.2920     26.9614   4.7628363843e+01   4.1499895571e+01    0.1819194    0.1736732  66.25 0.0003672099    1.047    0.045
        81  -7.6588    228.6583     20.3202   3.7827227624e+01   2.6308085988e+01    0.2545894     0.101359 -35.41  0.001150273    2.273    0.560
        82  -8.6335    204.1079    201.1918   8.3471248233e+01   1.6519231546e+00     0.205163    0.1849897 -13.54 0.0002360969    1.142    0.124
        83  -9.1347    235.9270    196.9061   7.6673481300e+01  -2.8274556641e+00    0.2973871    0.2332459  52.98 0.0008738636    1.860    0.462
        84  -8.2689    230.9266    196.4167   7.7483528077e+01  -1.9723572967e+00    0.2590053    0.1902294  -9.83 0.0007497346    1.254    0.203
        85 -10.0918    171.5922    196.2428   8.9222656067e+01   8.1788139313e+00     0.249796    0.2278622  37.91 0.0003748474    1.114    0.102
        86  -7.2847    244.6811     14.6771   3.5256421176e+01   2.3470585067e+01    0.1104929   0.09284936  38.95 0.0007044436    1.671    0.401
        87  -8.1890    123.7945    194.8503   9.9570205289e+01   1.6901470133e+01    0.1890055    0.1800605  -6.70 0.0003647327    1.185    0.156
        88  -7.1054    235.4791     11.3373   3.5242999316e+01   2.5818669189e+01    0.1202515    0.0994584 -79.82 0.0003090924    1.066    0.062
        89  -9.1425     56.0875    187.4599   1.1416115865e+02   2.8669665313e+01    0.2195354    0.1672713 -75.45 0.0005389778    1.216    0.178
        90  -8.6728    193.0095    180.9683   8.1796653291e+01   7.1020282041e+00    0.2028347    0.1862269   5.60            0    1.028    0.027
        91  -7.5852    178.5155    178.0239   8.4254491203e+01   1.0352063846e+01     0.181346     0.129938 -71.62 0.0005245346    2.229    0.551
        92 -12.1792     28.9249    168.5960   1.1850696073e+02   3.6051079329e+01    0.6758879    0.6048797  85.12  0.001779914    1.133    0.117
        93 -11.7786     41.4114    161.5862   1.1472387980e+02   3.6438332272e+01    0.8710672    0.7365189 -80.07  0.002994252    1.054    0.051
        94  -8.5695     57.2480    172.0029   1.1208260946e+02   3.2117406463e+01    0.1933955    0.1733853  67.67 0.0003173882    1.105    0.095
        95  -8.3704    237.9921    249.4881   8.5502707359e+01  -1.0132812723e+01    0.1714452    0.0922787  31.09  0.001027184    1.576    0.366
