#   1 NUMBER                 Running object number                                     
#   2 MAG_AUTO               Kron-like elliptical aperture magnitude                    [mag]
#   3 X_IMAGE                Object position along x                                    [pixel]
#   4 Y_IMAGE                Object position along y                                    [pixel]
#   5 X_WORLD                Barycenter position along world x axis                     [deg]
#   6 Y_WORLD                Barycenter position along world y axis                     [deg]
#   7 A_WORLD                Profile RMS along major axis (world units)                 [deg]
#   8 B_WORLD                Profile RMS along minor axis (world units)                 [deg]
#   9 THETA_WORLD            Position angle (CCW/world-x)                               [deg]
#  10 FWHM_WORLD             FWHM assuming a gaussian core                              [deg]
#  11 ELONGATION             A_IMAGE/B_IMAGE                                           
#  12 ELLIPTICITY            1 - B_IMAGE/A_IMAGE                                       
         1 -14.8587    156.5333     52.1680   8.0676232378e+01   3.9629045259e+01     1.142488     1.119006 -42.68  0.003415271    1.090    0.082
         2 -15.1442    167.6594     23.1408   7.0310196543e+01   4.0669975210e+01     1.005256    0.8825704  72.84  0.003491075    1.006    0.006
         3 -14.0631    189.7453     14.0096   6.4811660714e+01   3.6272796115e+01     0.898088    0.4342544 -78.51  0.003559247    3.019    0.669
         4 -12.3147    196.8934      6.6219   6.2161956067e+01   3.5318660329e+01    0.2691001    0.1436643  88.00  0.001302577    1.888    0.470
         5 -13.7894    199.5730    239.5178   1.1471047238e+02  -5.0847372820e+00    0.4420917    0.3220489  56.68   0.00255737    1.650    0.394
         6 -13.3476    190.6385    249.1872   1.1791112585e+02  -5.0190292934e+00    0.5696329    0.4091799  32.17  0.001121228    1.193    0.162
         7 -14.3528    198.5108    246.6068   1.1603759485e+02  -5.9531327596e+00     1.798897     1.131832  73.58  0.007049251    4.664    0.786
         8 -12.9806    179.6801    242.9892   1.1904648278e+02  -2.2175105054e+00      0.33015    0.2685417  82.67  0.001992058    1.695    0.410
         9 -14.1119    187.7595    240.9647   1.1718865341e+02  -3.2922515203e+00    0.7331035    0.3434921  46.85  0.002347812    1.979    0.495
        10 -13.4380    186.6989    236.9636   1.1676092201e+02  -2.4832514044e+00    0.4573896    0.3453793  71.92  0.001619686    1.886    0.470
        11 -20.5625     85.7917    179.1478   1.2903711385e+02   2.7113307609e+01     15.71669     7.081903 -63.56   0.06654546    2.148    0.534
        12 -12.2135    203.6500    174.2679   1.0179868008e+02   5.3904594677e+00    0.6160834    0.3442367 -66.31  0.002034873    3.960    0.747
        13 -13.0376    230.4383    168.0083   9.5326752526e+01   1.2630584450e+00    0.5411345    0.2253791 -48.39  0.002018315    2.770    0.639
        14 -12.1410    207.8853    226.5718   1.1096231655e+02  -4.5239870152e+00    0.2201665      0.19011 -38.47 0.0004945014    1.325    0.245
        15 -11.2600     27.2055    225.7199   1.4600751152e+02   2.4748077071e+01    0.1752139    0.1123967  84.19 0.0004779253    1.211    0.174
        16 -12.9618    188.7713    154.0803   1.0048362481e+02   1.2521827664e+01     0.656675    0.5071111  39.51  0.002189667    1.323    0.244
        17 -10.3553    177.8835    156.1301   1.0326916689e+02   1.4462567167e+01    0.2235892    0.2026613  86.16 0.0003264073    1.199    0.166
        18 -13.2476    165.5769    154.2103   1.0556683655e+02   1.7548285127e+01    0.6422436    0.3820483  65.07  0.001836028    2.318    0.569
        19 -11.1287    150.6677    240.6730   1.2431048192e+02   3.2153355238e+00    0.2381373    0.2130868 -46.04  0.001150755    1.341    0.254
        20  -9.6840     20.2593    152.3058   1.4070558350e+02   4.1503198964e+01    0.1173642   0.07683416 -53.97 0.0001930743    1.519    0.342
        21 -12.5575    174.1564    148.6511   1.0240308869e+02   1.6865215243e+01    0.4945895    0.3526765 -60.99  0.001138885    1.582    0.368
        22 -10.6035     13.7442    142.1942   1.4107125864e+02   4.4362515884e+01    0.1693202    0.1274538 -82.65 0.0003180251    1.086    0.080
        23 -12.3962      6.2511    222.1272   1.4936043113e+02   2.7690293076e+01    0.3092596    0.1103322 -76.05  0.001631725    2.252    0.556
        24 -11.9764    207.6704    220.0160   1.0985453823e+02  -3.4503903885e+00    0.1805598    0.1629945 -11.14  0.000511814    1.134    0.118
        25 -10.9899     14.7221    133.1054   1.3971429401e+02   4.6354473641e+01    0.3103445    0.1562613 -40.31  0.001580283    2.457    0.593
        26 -13.1954    160.4811    128.0594   1.0061777502e+02   2.4379502568e+01    0.5262105    0.3899194 -62.90  0.001537353    1.496    0.332
        27 -11.6383    152.9947    237.0268   1.2333748981e+02   3.4376242439e+00    0.3026541    0.1906944  33.42  0.001317616    1.595    0.373
        28 -11.3351     20.9811    215.4844   1.4636397832e+02   2.7522597935e+01    0.1524152    0.1138217  83.04 0.0003199388    1.046    0.044
        29 -11.3558      9.5080    213.2723   1.4824132006e+02   2.9158317882e+01    0.1466402     0.114015  88.50 0.0003824253    1.165    0.142
        30 -12.8655     39.3560    115.5067   1.3034269430e+02   4.8210560015e+01    0.3938943    0.2677566 -13.29  0.001465104    2.101    0.524
        31 -11.3397    231.3232    113.7600   8.3097506811e+01   1.1038658289e+01    0.2630731    0.2550048 -61.57 0.0007813939    1.060    0.057
        32 -11.6853    167.5824    112.7865   9.5155948848e+01   2.5976233614e+01    0.4210434    0.3193226  79.89  0.001097868    1.619    0.382
        33 -11.2319    205.1771    110.6283   8.6930539996e+01   1.7530113407e+01    0.3709716    0.2922301  21.68  0.001205656    1.655    0.396
        34 -10.0486     16.3371    210.7802   1.4685602326e+02   2.8984557897e+01    0.1890521   0.08583894 -78.92 0.0009325044    1.798    0.444
        35 -11.9021     38.2715    102.3821   1.2812424670e+02   5.1284276779e+01    0.2589778     0.196027 -17.29 0.0009653646    1.582    0.368
        36 -13.0956     12.0623    206.2369   1.4730239290e+02   3.0362384944e+01    0.5473018    0.2739602  33.66  0.003198858    2.433    0.589
        37 -10.0993     16.2826    202.2865   1.4623537772e+02   3.0773869018e+01    0.1177302   0.09589929 -34.93 0.0002914447    2.062    0.515
        38 -12.5101    211.8079    236.3767   1.1188858258e+02  -6.6678894687e+00    0.2771119    0.2022553   3.70  0.001131619    1.502    0.334
        39 -11.9045     16.6940    192.6784   1.4539634534e+02   3.2793375516e+01    0.1916222    0.1414221 -71.17 0.0005495806    1.308    0.235
        40  -9.9302     24.2699    190.2455   1.4369772733e+02   3.2559448270e+01    0.1018439    0.0815805 -61.96 0.0002281255    1.438    0.305
        41 -12.2905     17.8409    183.8604   1.4441840610e+02   3.4609745861e+01    0.3764472    0.1781117 -54.75  0.001978718    2.308    0.567
        42 -12.3850    196.0027    228.0109   1.1349443520e+02  -2.6830042044e+00        0.203    0.1791803  28.28 0.0004206689    1.019    0.018
        43 -14.5488    146.6687     66.0789   8.6911112739e+01   3.9813357530e+01     1.029021    0.9555898  62.60  0.001267559    1.056    0.053
        44 -14.3787    237.0434    174.6856   9.5522452148e+01  -1.1471511305e+00    0.9177973    0.5493844  37.02  0.004484043    1.745    0.427
        45 -13.6207    160.6010     43.1693   7.7251296279e+01   3.9914336371e+01    0.5045376    0.4957588 -44.78 0.0007609822    1.108    0.098
        46 -11.5653     13.3557     59.9153   1.2680906262e+02   6.2132002286e+01    0.1856336    0.1666932 -44.62 0.0004328261    1.206    0.171
        47 -10.7644    156.8895    247.5912   1.2407676401e+02   9.7643834313e-01    0.2162463    0.1686708 -29.85 0.0008853463    1.684    0.406
        48  -9.5114     29.6977    245.1844   1.4692522678e+02   2.0656266146e+01    0.1061504   0.05720591  62.26 0.0006577754    1.443    0.307
