#   1 NUMBER                 Running object number                                     
#   2 MAG_AUTO               Kron-like elliptical aperture magnitude                    [mag]
#   3 X_IMAGE                Object position along x                                    [pixel]
#   4 Y_IMAGE                Object position along y                                    [pixel]
#   5 X_WORLD                Barycenter position along world x axis                     [deg]
#   6 Y_WORLD                Barycenter position along world y axis                     [deg]
#   7 A_WORLD                Profile RMS along major axis (world units)                 [deg]
#   8 B_WORLD                Profile RMS along minor axis (world units)                 [deg]
#   9 THETA_WORLD            Position angle (CCW/world-x)                               [deg]
#  10 FWHM_WORLD             FWHM assuming a gaussian core                              [deg]
#  11 ELONGATION             A_IMAGE/B_IMAGE                                           
#  12 ELLIPTICITY            1 - B_IMAGE/A_IMAGE                                       
         1 -10.9586     32.4978     63.7691   1.0713813990e+02   6.0685433396e+01     1.763146    0.5718762 -39.89  0.006103181    3.965    0.748
         2  -9.2832     96.8526      4.7294   5.8583704979e+01   6.0479516625e+01    0.5118791    0.2830876 -35.65  0.001703197    1.927    0.481
         3  -9.9247    102.8212     22.0207   6.5112387445e+01   5.7151507733e+01     1.071147     0.396389 -18.95  0.002854646    3.677    0.728
         4  -9.6165     91.7476     24.4566   6.9468928586e+01   5.9259322969e+01    0.8433994    0.3021209 -27.67   0.00270972    2.851    0.649
         5  -9.2470     96.4057     14.5862   6.3459019375e+01   5.9521748055e+01     0.721946    0.3067226 -12.42  0.002538414    3.291    0.696
         6  -9.5016    102.9091      5.9931   5.7678365018e+01   5.8954381351e+01    0.8055438    0.3767756  -3.58  0.002116124    2.837    0.647
         7  -9.6457    110.2788      5.1026   5.5555425503e+01   5.7283857279e+01    0.8299963    0.2781443 -30.57  0.003112695    2.836    0.647
         8  -8.7999    112.4889     15.5252   5.9725037468e+01   5.5674891605e+01    0.3348228    0.2234225 -39.76  0.001159071    1.611    0.379
         9  -9.0222    113.9169      9.9103   5.6907278340e+01   5.5932370628e+01    0.3431026    0.2166145  39.23 0.0004314423    1.537    0.349
        10 -10.3412     10.2221     18.8971   1.0308936910e+02   7.2031596694e+01     1.377274    0.3919896 -31.74  0.004048441    6.905    0.855
        11 -10.5711     37.3830      9.8086   8.3616990200e+01   7.0889346475e+01    0.8373359    0.2801364 -43.02  0.001846195    2.912    0.657
        12 -10.9526     23.6499     32.4986   1.0132286058e+02   6.8275900132e+01     1.346226    0.4162817 -43.39  0.003469332    2.627    0.619
        13 -10.0676     28.0665     11.3939   8.9415143857e+01   7.1777986129e+01    0.6538799    0.4772474  26.10  0.004259268    1.547    0.354
        14 -10.2107      4.6290     42.1504   1.1356118032e+02   6.7518900990e+01    0.6918986    0.2793973 -65.40  0.001995855    1.916    0.478
        15 -10.3089     45.5660     29.2210   8.9465367710e+01   6.6520303559e+01    0.4870913    0.4119447 -67.65  0.002979609    1.630    0.386
        16 -10.1165     69.7383     40.3441   8.4225199875e+01   6.0853949649e+01     1.001004    0.4281287 -39.85  0.002294892    2.112    0.527
        17 -10.5316     73.1352     19.4123   7.3312963238e+01   6.3704312789e+01     1.503557    0.4411568 -28.17  0.004854217    3.822    0.738
        18  -9.7668     77.7565      4.3813   6.3891254591e+01   6.4667309652e+01    0.7239718    0.4230235  22.57   0.00353749    1.854    0.461
        19  -8.5755     58.5839      7.2312   7.2430198735e+01   6.7985526630e+01    0.3671947    0.2679216  68.28  0.001486621    2.296    0.564
        20 -10.1830     63.0896      3.0533   6.8263603134e+01   6.7679534067e+01    0.5435119    0.3989529 -25.42  0.003242291    1.317    0.241
        21 -10.2647     80.9422     23.4739   7.2536272590e+01   6.1613912085e+01     0.976032    0.3802889  32.71  0.003203389    3.975    0.748
        22  -9.4698     63.0111     21.1024   7.8045205817e+01   6.5265828696e+01    0.4419129    0.2578104 -42.23 0.0008876312    1.763    0.433
        23  -9.9565     64.4146     13.6654   7.3642199708e+01   6.6106521335e+01    0.4115087     0.290939  -2.02  0.002290095    1.418    0.295
        24 -10.2533     50.7197     15.3866   8.0312918741e+01   6.8127485241e+01     1.142012    0.6426411   6.72  0.005061985    2.758    0.637
        25  -9.9112    155.3177     27.1450   5.5603937469e+01   4.3391273779e+01    0.4814987    0.2552742  75.64  0.001888916    2.230    0.551
        26  -8.1225    141.3549     12.0685   5.2404756818e+01   4.8761477515e+01    0.2284036    0.1927216 -56.10  0.000814821    1.289    0.224
        27  -8.5626    120.2594      6.2441   5.3954385684e+01   5.4724873617e+01    0.3614623    0.2281649  78.63  0.001685368    1.859    0.462
        28  -8.7140    115.4713      4.3855   5.4119324796e+01   5.6082734909e+01    0.3176382     0.224198 -48.46 0.0006053997    1.665    0.399
        29  -8.6729    125.1081     13.0883   5.5878902667e+01   5.2830278176e+01    0.2519678    0.2387177 -84.91  0.000662018    1.164    0.141
        30  -8.6135    132.6067     10.2647   5.3254213814e+01   5.1209407953e+01    0.4046107    0.1474879 -30.35   0.00148069    2.610    0.617
        31  -8.8999    125.9130      4.6887   5.2197437680e+01   5.3444285846e+01    0.4530454    0.2425987  18.80  0.001863192    2.400    0.583
        32  -9.5672    137.1512      7.5723   5.1366463069e+01   5.0294438629e+01    0.4127739    0.2188835 -26.70 0.0005567727    1.895    0.472
        33  -9.1172    135.6819      2.3023   4.9516564925e+01   5.1146306780e+01    0.4993611    0.2428514  37.75  0.002057933    2.221    0.550
        34  -8.7605    126.8449      8.9133   5.3788331918e+01   5.2813410162e+01    0.3317969    0.1816511  38.61 0.0006816817    1.878    0.467
        35  -8.6543    130.9238      5.8578   5.1767197373e+01   5.2060336174e+01    0.2724941    0.2161558  28.85 0.0008958516    1.266    0.210
        36  -9.4193    132.8140     17.1529   5.5993080997e+01   5.0433842602e+01    0.3931734    0.2495447 -16.08  0.001819744    1.667    0.400
        37  -9.6860      2.2466     14.3886   1.0591824713e+02   7.3408231282e+01    0.7438449    0.2100164 -62.47  0.002892292    3.783    0.736
        38 -10.0795      6.1794      5.2048   9.9207929558e+01   7.4868667452e+01    0.3627917    0.2374938 -23.61  0.001227042    1.337    0.252
        39  -9.8842      2.6521      3.1312   1.0046170173e+02   7.5481369017e+01    0.2833765    0.1642367 -34.65  0.001075615    1.330    0.248
        40  -8.1784     80.6692     12.5302   6.7217282035e+01   6.3139090141e+01     0.321124    0.1396723 -34.01  0.001375671    2.228    0.551
        41  -9.5583     85.1543     12.9573   6.5997400940e+01   6.2157855142e+01    0.4685768    0.2578437 -48.81  0.001520752    2.576    0.612
        42  -8.6265    155.5337      8.5106   4.8824917744e+01   4.5371574493e+01    0.3031594    0.1405142 -21.47  0.001226706    2.232    0.552
        43  -7.6048    178.0165      8.4952   4.5878558243e+01   3.9393326627e+01    0.2065239    0.1331287  69.05 0.0003415612    1.477    0.323
        44  -7.7380    143.3606      5.1518   4.9404985930e+01   4.8895812486e+01    0.2007075    0.1197095 -34.96 0.0004101564    1.720    0.419
        45  -8.2901     88.9978      3.1991   5.9916155589e+01   6.2391554316e+01    0.4152438    0.1851619 -20.09  0.001417501    2.220    0.550
        46  -9.9669     60.8832     31.9066   8.4055582195e+01   6.3821103302e+01     1.155182    0.4849632 -28.65  0.002912391    3.014    0.668
        47 -10.0863     18.3037      5.2460   9.1613209089e+01   7.3828143822e+01    0.6428189     0.357102 -52.92  0.003267936    2.121    0.528
        48  -7.4359    150.5350      1.4597   4.6955357586e+01   4.7328072062e+01    0.1395148    0.1321131  70.46 0.0002464373    1.016    0.016
        49  -9.8404     98.6534    128.6652   1.0077916157e+02   3.6392206759e+01    0.6437765    0.3701946  71.70   0.00217695    2.830    0.647
        50 -10.3385    201.8128    249.6006   9.9089149433e+01  -1.9457352896e+00    0.4759632    0.2250548  28.91  0.002735708    1.874    0.466
        51  -9.4072    168.3101    250.1432   1.0475418237e+02   2.8599208838e+00     0.346415      0.10285  45.57  0.001398052    2.850    0.649
        52 -10.0532    174.0636    248.6103   1.0359718643e+02   2.1995761032e+00    0.3679335    0.1680805  49.43  0.001992867    2.158    0.537
        53  -7.4085      6.5801    130.4262   1.2550900270e+02   4.6972011718e+01    0.1187293   0.08886715  89.37 0.0001215981    1.016    0.015
        54  -7.6790    126.2894    129.6721   9.3911094453e+01   3.1072507408e+01     0.150445    0.1156442  88.37 0.0003954265    1.617    0.382
        55  -9.0106    126.1566     83.6847   8.1824971667e+01   4.1088393560e+01    0.5077723    0.3349465  13.14  0.001930203    2.565    0.610
        56 -10.1203    116.9721    124.3168   9.5065142634e+01   3.4067213745e+01    0.9436614    0.5836359 -59.17  0.002480943    1.681    0.405
        57 -10.0389    108.7612    114.6017   9.4984886639e+01   3.7827329859e+01    0.5558614    0.3511234 -78.26   0.00168032    2.334    0.572
        58 -10.5528    128.4299    100.8027   8.6203698562e+01   3.6959540050e+01    0.9230777    0.5495786 -24.02  0.002412567    2.535    0.606
        59 -10.6388    122.9911     92.2162   8.5221141732e+01   3.9973244746e+01    0.9085946    0.6057343 -40.18  0.001923762    1.471    0.320
        60  -9.7992    109.9336     90.3812   8.8310028851e+01   4.3074914715e+01     1.168662    0.6992639  17.38  0.004085219    3.268    0.694
        61  -9.1857    110.6972    106.8813   9.2563153529e+01   3.9221045325e+01    0.6245489    0.3612582  25.54   0.00239872    2.601    0.616
        62 -10.7018    108.8470     99.9368   9.1269838351e+01   4.1152737634e+01      1.09318    0.6449925  64.21  0.004257139    2.472    0.595
        63 -10.1466    121.9636    112.6501   9.0998610302e+01   3.5700542224e+01    0.5514216    0.4232627 -56.44 0.0008475849    1.295    0.228
        64 -10.3982    120.1480    107.8198   9.0251635261e+01   3.7142196099e+01    0.7045208    0.5642102  36.70  0.002677312    1.340    0.254
        65  -9.7977     41.6190    122.2285   1.1527834322e+02   4.5841600747e+01    0.5849853    0.2626207 -88.56  0.002316313    2.951    0.661
        66 -10.4753    140.5320    117.2487   8.7467892137e+01   3.0840693369e+01    0.9412786    0.4628649 -42.56  0.001688746    2.038    0.509
        67 -10.3763    139.2769    104.4212   8.4436607422e+01   3.3831274475e+01    0.8705039    0.4624807 -34.81  0.002212904    2.087    0.521
        68  -9.8442    135.2576    122.3639   9.0008001006e+01   3.0854476000e+01    0.5153671    0.3022985 -44.06  0.002005492    1.709    0.415
        69 -10.1554    130.4135    118.7606   9.0340670915e+01   3.2634094933e+01    0.5068848    0.4227107 -77.49  0.001329439    1.344    0.256
        70 -10.9575    133.6528    109.3890   8.7163944990e+01   3.3990404849e+01    0.9182097    0.4584711 -47.07  0.002637102    1.970    0.492
        71 -10.0590     27.3291    122.8769   1.1930904205e+02   4.7077151002e+01    0.5758291    0.2629261  69.01  0.001909991    2.745    0.636
        72  -7.8640    158.4646    122.3278   8.4526889201e+01   2.5910229131e+01    0.2624867    0.1860382  68.88  0.001152757    1.820    0.451
        73  -8.5350     98.5010    120.4814   9.9103101519e+01   3.8319747376e+01    0.3626936    0.2443191 -14.46  0.001262047    2.817    0.645
        74  -8.4370      1.6694    116.8290   1.2566112115e+02   5.0428277003e+01    0.3403908    0.1223691 -89.37  0.001376212    2.612    0.617
        75 -10.1753     91.8599    112.9653   9.9281673167e+01   4.1216621586e+01    0.5758776    0.3845013 -78.88  0.001538419    1.828    0.453
        76  -8.6598     91.9558    104.4210   9.7255889267e+01   4.3207990129e+01    0.6629145    0.4178434   8.03  0.002472447    3.297    0.697
        77  -9.7060      5.9498    103.9264   1.2322508662e+02   5.3174924683e+01    0.5141616    0.3073426  56.96  0.002295824    1.778    0.438
        78 -10.1799     14.5109    111.5315   1.2157699511e+02   5.0805911607e+01    0.5846103    0.2562619  71.06  0.002588024    2.847    0.649
        79  -9.1767     14.3281    104.9931   1.2086824984e+02   5.2368344478e+01    0.2670573    0.1867043 -39.29  0.001012211    1.726    0.421
        80 -10.3065     78.1819    112.8657   1.0317369835e+02   4.3426760830e+01    0.7007653    0.3458984 -69.55  0.001654563    2.343    0.573
        81  -9.6352     81.4940    100.2479   9.9354617418e+01   4.5918912659e+01    0.7733999    0.2941566 -53.40  0.002627849    2.356    0.576
        82  -7.1706    167.0000    113.9661   8.0512061176e+01   2.5668447191e+01    0.2501973   0.08653201 -39.84 0.0004531236    2.853    0.649
        83  -9.6687     64.9867     85.0988   1.0084127844e+02   5.1959587371e+01      1.13961    0.5157537 -41.31  0.004527139    2.446    0.591
        84 -10.5091     63.0015     95.7595   1.0405943307e+02   4.9695599623e+01    0.7537496    0.4286511 -87.50  0.001616307    2.842    0.648
        85 -10.2010     65.7757    109.8978   1.0620492472e+02   4.5918824950e+01    0.9618714    0.4566801 -63.26  0.002380594    1.916    0.478
        86  -9.7397     59.1527    109.1880   1.0804210296e+02   4.6958891012e+01    0.4862104    0.2297719 -57.03  0.001450189    1.829    0.453
        87  -9.5726    157.4220    111.4210   8.1988679991e+01   2.8336250060e+01    0.3697667    0.2920438  62.91  0.000723071    1.407    0.289
        88 -11.1743     21.1651    101.7081   1.1837636975e+02   5.2642916431e+01     1.553878     0.597437  61.58  0.005667126    4.329    0.769
        89 -10.1473     20.0957     84.6086   1.1610587177e+02   5.6808457209e+01     1.097124    0.2204486 -63.58  0.004004641    3.165    0.684
        90 -10.5457     25.6196     77.9738   1.1295300026e+02   5.7958358384e+01    0.8234084    0.4346043  85.31  0.001794232    2.746    0.636
        91 -10.0840    182.8972    248.6098   1.0210736479e+02   9.0313411125e-01    0.4230359    0.2466932   6.06  0.002258696    2.949    0.661
        92  -9.8865     34.5462     90.6714   1.1230496827e+02   5.4150513047e+01      0.54896    0.2436645 -80.99  0.001859971    2.853    0.649
        93 -10.0459     36.7617     81.1138   1.0962967515e+02   5.6226006166e+01     1.047996    0.4961492 -22.46  0.003441524    5.458    0.817
        94  -9.6169    213.3848    106.8945   6.9602596936e+01   1.6419222983e+01    0.2474431    0.2269044  26.94 0.0001800699    1.122    0.109
        95 -10.9160     44.7726    102.4391   1.1117772702e+02   5.0280371033e+01    0.8752282    0.4431668  66.75  0.003052702    3.049    0.672
        96  -9.1031     40.3775    107.1398   1.1333795044e+02   4.9604975027e+01    0.2577269    0.1552336 -81.96 0.0006814306    1.601    0.376
        97  -8.5429    166.0623    104.1016   7.8097081764e+01   2.7804521518e+01    0.3205124    0.2123175 -44.72 0.0004417419    1.503    0.335
        98  -8.1616    218.4041    103.2170   6.7809754944e+01   1.5905489272e+01    0.2749454    0.2138817  15.55 0.0007696497    1.451    0.311
        99  -9.8816    149.4279    103.1343   8.1624758649e+01   3.1826758678e+01    0.4235421    0.2849758 -51.43 0.0008596007    1.550    0.355
       100  -9.2075    149.9536     96.3929   7.9614677659e+01   3.3074249269e+01    0.5362644    0.3587938 -37.58  0.002359736    1.475    0.322
       101  -8.1252     73.8554    103.0384   1.0232267509e+02   4.6424596755e+01    0.2189357     0.175104 -81.52 0.0005475368    1.277    0.217
       102  -8.9802    159.0690    101.0692   7.8820911022e+01   3.0024779320e+01    0.3619994    0.2106411 -42.70 0.0005154151    1.684    0.406
       103  -9.4292     94.3767     97.2969   9.4748569527e+01   4.4445323291e+01    0.3641072    0.2495187 -61.77 0.0006510174    1.471    0.320
       104  -9.0159     96.3141     90.7589   9.2406514001e+01   4.5596979445e+01    0.5057604    0.3239746 -19.61    0.0020048    2.566    0.610
       105 -10.3120      4.3022     89.2714   1.2204617514e+02   5.6718546883e+01    0.7745209    0.3017926  86.77  0.002322161    3.145    0.682
       106  -9.3982      5.8862     79.2159   1.2016187213e+02   5.8993156451e+01    0.5898924    0.2012854 -39.39  0.002401859    3.770    0.735
       107  -8.6222    164.5324     94.5665   7.5773721946e+01   3.0004112321e+01    0.3168942    0.2613145 -65.27 0.0006175044    1.386    0.279
       108  -9.7748    138.7064     92.7845   8.1308598341e+01   3.6389553418e+01    0.4370088    0.3396432 -65.50 0.0007897627    1.492    0.330
       109  -8.1255    140.2055     87.5774   7.9395957409e+01   3.7110415114e+01    0.3463827    0.2509588  28.04  0.001335133    1.656    0.396
       110  -8.6683    139.8782     75.5658   7.5747846843e+01   3.9561782697e+01    0.5232193    0.2663226 -50.28  0.001438711    2.212    0.548
       111  -8.9633    140.4870     83.1202   7.7971533240e+01   3.7938886888e+01    0.4369798    0.2806156 -55.37 0.0006560434    1.777    0.437
       112  -8.3571    141.2984     79.3666   7.6605150173e+01   3.8487917696e+01     0.296611    0.2093492  25.92  0.001268928    1.776    0.437
       113  -8.9860    240.5266     90.9822   6.1298487619e+01   1.2982447247e+01    0.2046288    0.1906467  47.84 0.0004935192    1.211    0.174
       114  -7.9359    157.4686     91.3312   7.6414216734e+01   3.2310520390e+01    0.2185878    0.1461509 -48.71  0.000934446    1.539    0.350
       115  -8.9406    150.2559     89.1181   7.7428886427e+01   3.4454221663e+01    0.3401681    0.2008397 -46.29 0.0008727878    1.700    0.412
       116 -10.5068     48.3306     82.7798   1.0595244487e+02   5.4612523362e+01     1.331719    0.4208446 -56.44  0.003495422    2.497    0.600
       117  -8.9333     43.9122     53.9124   9.9663961393e+01   6.1724711054e+01    0.3089227    0.1970082 -35.99 0.0008700112    1.500    0.333
       118  -9.9942     62.7665     60.8049   9.4535643087e+01   5.7794488361e+01    0.6874209    0.2806669  32.97  0.002284739    2.890    0.654
       119 -10.6232     55.0058     70.8367   1.0048862616e+02   5.6601075478e+01    0.6801205    0.4267499  64.37  0.001158486    2.499    0.600
       120 -10.1804     49.9741     54.5541   9.7412837731e+01   6.0863335590e+01    0.6830049    0.3721193 -66.32  0.002101771    2.368    0.578
       121  -9.9192     55.7093     43.8792   9.1217605568e+01   6.2330047620e+01     1.006404    0.5513793  -7.32  0.003460973    4.436    0.775
       122 -10.2368     85.3496     86.5960   9.4619491675e+01   4.8475649882e+01    0.5498851    0.3733397  66.39 0.0009583278    2.016    0.504
       123  -9.6205     87.3250     78.9105   9.1762883649e+01   4.9877465663e+01    0.5988378    0.3975134  12.73  0.001776865    2.342    0.573
       124  -7.7867    174.4896     88.4749   7.1908715600e+01   2.8744648460e+01    0.1561407    0.1509091 -22.56 0.0008100469    1.009    0.009
       125  -8.6987    163.4313     87.2130   7.3879168354e+01   3.1665591605e+01    0.3000959    0.2202056 -59.25 0.0007406001    1.577    0.366
       126 -10.3467    103.9372     82.5700   8.7744321616e+01   4.5979943804e+01    0.5802999    0.3200279 -55.46 0.0008812923    1.949    0.487
       127  -9.5997    104.9695     71.2306   8.3834120013e+01   4.8190750508e+01    0.8401415    0.3375033 -36.56  0.002859924    2.698    0.629
       128  -8.1620    237.6689     84.6870   6.0104836377e+01   1.4526196646e+01    0.1451403    0.1064366  13.02 0.0005206897    1.676    0.403
       129  -8.9439    157.7395     83.1797   7.3930328872e+01   3.3807620843e+01    0.4595316    0.2370927 -34.99  0.001677781    1.920    0.479
       130  -7.8269    135.3178     83.6435   7.9427410450e+01   3.9031145277e+01    0.2516611    0.1917499 -78.45  0.001007682    1.752    0.429
       131  -8.3371    149.8169     80.7485   7.4997801203e+01   3.6187186495e+01    0.3095163    0.2133953 -47.41 0.0005295842    1.467    0.318
       132  -8.0446    151.2077     76.0033   7.3192847455e+01   3.6747835700e+01    0.3308037     0.207117  -6.68  0.001181301    2.671    0.626
       133  -8.8213    118.9715     80.4564   8.2775389042e+01   4.3330373425e+01      0.35632    0.2508106 -58.67 0.0006165673    1.589    0.371
       134  -8.1469    119.9634     76.0375   8.1095520876e+01   4.4027229786e+01    0.2944894    0.2248069  32.90 0.0007842925    1.448    0.309
       135  -9.1113    121.1624     66.1831   7.7481843741e+01   4.5718610536e+01      0.36693      0.30919 -57.61 0.0007187478    1.278    0.218
       136  -8.4181    122.0015     61.4932   7.5620602780e+01   4.6417669543e+01    0.3340738      0.23711  17.92 0.0008767616    1.852    0.460
       137  -8.9636    115.1334     72.8740   8.1414268922e+01   4.5721996814e+01    0.3524169    0.2643926 -56.03 0.0008825935    1.429    0.300
       138  -9.3112    116.1948     68.0545   7.9499708870e+01   4.6458851258e+01    0.3067443    0.2587602 -29.69 0.0004728973    1.162    0.139
       139  -9.1707     74.1678     79.2641   9.6181326883e+01   5.1967643881e+01    0.6437754    0.2736813 -52.67  0.001946651    2.108    0.526
       140  -7.9045    184.2154     78.2933   6.7017004801e+01   2.8150768105e+01    0.2671201    0.2070185 -19.32 0.0006750369    1.357    0.263
       141  -7.2244    174.2479     78.9802   6.9158863649e+01   3.0509958058e+01    0.2028786    0.1303246 -34.87 0.0006732494    1.501    0.334
       142  -8.0654    166.2546     78.2955   7.0594685829e+01   3.2618015789e+01    0.2173844     0.178494 -62.59 0.0006018016    1.358    0.264
       143  -8.5390    157.0440     76.4740   7.2022811157e+01   3.5228572243e+01    0.3354754    0.1977922 -40.69 0.0009655669    1.643    0.392
       144  -9.2290     54.8727     63.2566   9.8295585056e+01   5.8331734427e+01    0.4465488    0.3486639  12.80  0.002535066    1.536    0.349
       145  -9.5397    127.2884     75.2171   7.8849736443e+01   4.2557885675e+01    0.3756888    0.2897537 -73.57 0.0008230205    1.669    0.401
       146  -9.9902     81.5549     72.3128   9.1617806856e+01   5.2333946846e+01     0.480148     0.349196 -68.99  0.001042147    1.642    0.391
       147  -9.0651     83.2198     64.8341   8.8611517884e+01   5.3663314535e+01    0.5559459    0.3559158 -11.11  0.002262301    2.590    0.614
       148  -8.0940      9.8382     60.0256   1.1535290048e+02   6.3230202150e+01      0.27039     0.145175 -67.61   0.00150516    1.455    0.313
       149  -9.8389     15.7753     70.8156   1.1517632291e+02   6.0365643697e+01    0.6316565    0.2589809 -55.71  0.001164092    1.843    0.458
       150  -9.4815     16.9291     62.0095   1.1291965477e+02   6.2331070640e+01     0.421069    0.3450989 -32.24  0.002256214    1.314    0.239
       151  -8.2073     17.5449     57.5307   1.1164360787e+02   6.3313498900e+01    0.1725503    0.1529321 -29.00  0.000571408    1.253    0.202
       152  -8.2916    162.7511     73.0635   6.9716959853e+01   3.4428697687e+01    0.2708285     0.217819 -78.04 0.0005800579    1.519    0.342
       153  -7.3384    175.5161     72.4602   6.6932953202e+01   3.1326081835e+01    0.1557051    0.1506073 -38.13 0.0008090928    1.012    0.011
       154  -8.3265    169.4961     71.0597   6.7694966350e+01   3.3085240590e+01    0.3161147    0.1420065 -38.73  0.001139411    2.113    0.527
       155  -8.6949    170.5651     65.6039   6.5771218067e+01   3.3741864287e+01    0.4606779    0.2520362 -20.63  0.001232541    2.223    0.550
       156  -9.2966    147.0444     69.3018   7.2000758397e+01   3.9005585526e+01    0.4151659    0.2739312 -58.02 0.0008693228    1.845    0.458
       157  -8.5697    156.6166     69.5824   6.9933202319e+01   3.6582229780e+01    0.3771245    0.1545537 -30.42  0.001239371    2.628    0.620
       158  -9.2037    129.9974     56.9034   7.1896588139e+01   4.5375979879e+01    0.6390101    0.2163326 -36.44  0.001378084    2.814    0.645
       159  -9.2193    129.5064     68.6546   7.6100002256e+01   4.3329769888e+01    0.4882505    0.2937133  25.33  0.001825414    2.487    0.598
       160  -8.7031    130.3771     64.1907   7.4356165058e+01   4.3966667549e+01    0.4847406    0.2003777 -41.84  0.001633112    2.349    0.574
       161  -8.4611     95.4223     54.2516   8.0790073471e+01   5.3510099576e+01    0.3388074    0.2656902   5.28  0.001431513    1.506    0.336
       162  -9.7977     94.8340     68.3699   8.6003679581e+01   5.0788967130e+01    0.4862449    0.2628644 -50.05 0.0008244831    1.825    0.452
       163  -9.3234     97.2721     58.5948   8.1809937130e+01   5.2298630792e+01    0.7558855    0.4283206 -14.74  0.002574115    3.398    0.706
       164  -7.3224    111.2686     69.6431   8.1445635244e+01   4.7204890879e+01    0.1540737    0.1182769 -69.22 0.0002943155    1.637    0.389
       165  -7.9818     23.3331     69.0184   1.1194684552e+02   6.0243456495e+01    0.1836519    0.1286598 -63.34 0.0003545935    1.138    0.121
       166  -9.3283    137.9450     65.2498   7.2821631158e+01   4.1963705541e+01    0.5977166    0.3056134 -31.45  0.001200097    2.020    0.505
       167  -8.3585     75.5838     66.6794   9.1846294458e+01   5.4556370360e+01    0.2677879    0.1241085 -45.02  0.001095264    1.941    0.485
       168  -9.2734    109.7751     63.8238   7.9880401703e+01   4.8683120339e+01    0.4024152    0.2769167 -53.19 0.0006128527    1.573    0.364
       169  -9.0229    110.5606     58.2999   7.7678419053e+01   4.9576452770e+01    0.4114038    0.2925575  11.25  0.001269726    1.908    0.476
       170  -8.2542    147.5188     63.5210   6.9975459172e+01   3.9924873357e+01    0.3685081    0.2338893  17.17  0.001373322    2.497    0.600
       171  -8.3631    157.7240     62.9339   6.7533006463e+01   3.7461687720e+01    0.2994727    0.1986036 -50.09 0.0009261722    1.615    0.381
       172  -9.7496    191.5170    249.4986   1.0077868104e+02  -4.5309367931e-01    0.2893482    0.1799532 -14.95  0.001843717    2.217    0.549
       173 -10.3934     89.9759     38.2902   7.6173801033e+01   5.7480568446e+01     1.107861    0.4617912  32.09   0.00358475    3.847    0.740
       174  -9.2100    101.2157     32.2240   7.0071042621e+01   5.6077320651e+01    0.4422704    0.2796001 -45.07  0.001077924    1.738    0.425
       175  -9.8052    162.7514    246.9335   1.0532278480e+02   4.0763314644e+00    0.2395294     0.177841 -54.02  0.001722017    1.846    0.458
       176  -9.4781    156.9620    244.7287   1.0606095176e+02   5.2186411432e+00    0.1700172    0.1156369  40.59  0.001160294    1.121    0.108
       177  -8.3573     89.9982    245.5318   1.1772499942e+02   1.4680179580e+01    0.1649742   0.08184789  43.89 0.0007009877    1.539    0.350
       178 -10.1155    125.9349    240.0886   1.1097470328e+02   1.0459009535e+01    0.1767082    0.1594926  60.28   0.00029544    1.191    0.160
       179  -7.7914    157.6522    240.7478   1.0547223328e+02   5.6376117004e+00    0.1114772    0.0746341  23.97 0.0002464563    1.588    0.370
       180  -9.4409     88.1038     56.8358   8.4142337197e+01   5.4422108893e+01    0.8609502    0.3266428 -35.15  0.002704812    2.969    0.663
       181 -10.2121     73.7438     56.8863   8.9147927855e+01   5.6936998211e+01     1.215172    0.4025732 -40.38  0.002858002    2.990    0.666
       182  -9.7181    188.0942    234.2188   9.9333877423e+01   1.8424479962e+00    0.2492068    0.2147878 -46.15  0.001090465    1.579    0.367
       183  -7.7765    241.4838    229.5218   8.9740917166e+01  -5.4860119467e+00    0.1122793   0.08337112  16.98 4.587979e-05    1.024    0.023
       184 -10.2261     85.1882     48.0626   8.1787747765e+01   5.6667938618e+01    0.4318269     0.335935 -77.02  0.001030365    1.920    0.479
       185  -9.2289     80.1255     46.2533   8.2829821282e+01   5.7941701625e+01    0.4319292    0.2371181 -31.85 0.0006371533    1.824    0.452
       186  -9.1150    212.3706     58.7745   5.6695831830e+01   2.4233081389e+01    0.3788369    0.2558464 -27.36  0.001203428    1.421    0.296
       187  -7.7456    152.4388     60.2524   6.7779633196e+01   3.9256089756e+01    0.2276914    0.1391302 -44.95 0.0009388514    1.666    0.400
       188  -8.4359    248.9997    225.9606   8.7988581370e+01  -6.1708942843e+00    0.1428287    0.1323604  24.29 0.0005853573    1.629    0.386
       189  -7.6073    128.0460    225.5253   1.0900969497e+02   1.2347171441e+01    0.1811115   0.09469765  43.04 0.0008163414    1.531    0.347
       190  -7.2773     56.0000    216.0790   1.2151096831e+02   2.3996232693e+01    0.1700408   0.05735905 -72.11 0.0003147346    3.031    0.670
       191  -8.6567    236.6769    213.9855   8.8011415323e+01  -3.1507694856e+00    0.1948472     0.139892  32.15 0.0003562587    1.260    0.206
       192 -10.0080     10.7730    207.5379   1.2919618935e+02   3.0437496891e+01    0.5007117    0.2510102  26.19  0.002981356    2.822    0.646
       193 -10.7846     21.9883     53.5929   1.0878307825e+02   6.3879959102e+01    0.7881669    0.4104884  89.42  0.003066905    3.986    0.749
       194 -10.1754     12.4761     45.5435   1.1082500833e+02   6.6330823338e+01     0.736352    0.3808461 -14.59  0.003105346    2.681    0.627
       195  -9.7312      6.8687     32.5182   1.0978425301e+02   6.9472480929e+01    0.2599689    0.1936001 -23.41 0.0009179199    1.386    0.278
       196  -8.4156    146.4770     58.9897   6.8677226183e+01   4.0971249123e+01    0.2935387    0.2055503 -46.52 0.0007051523    1.466    0.318
       197  -8.8832    147.7188     54.1037   6.6714505873e+01   4.1477965110e+01    0.4390797    0.2425957 -21.62  0.001684151    2.114    0.527
       198  -9.2456    138.8764     55.8048   6.9331427168e+01   4.3405975132e+01    0.7362896    0.2330856 -36.88  0.001514202    2.955    0.662
       199  -8.4875    142.0101     48.7310   6.6087639300e+01   4.3790614371e+01    0.3095773    0.2248236 -29.63 0.0004256969    1.361    0.265
       200  -9.2940    118.2008     54.7501   7.4222633697e+01   4.8522526637e+01    0.6069981    0.3622885 -38.25   0.00141115    1.609    0.379
       201  -8.9549    121.1487     46.9908   7.0519131647e+01   4.9178726574e+01    0.3421579    0.2170712 -35.59 0.0004793742    1.525    0.344
       202 -10.0485    162.5060     52.8601   6.3211292638e+01   3.7883988235e+01    0.4709053     0.372422 -53.10  0.001891646    1.331    0.249
       203  -8.7256    157.1787     48.8773   6.2917478157e+01   3.9883321449e+01    0.2814945    0.2063009 -44.32 0.0008233292    1.377    0.274
       204  -8.5661    105.4444     53.2907   7.7329290449e+01   5.1615405287e+01    0.3166252    0.2345455 -67.98 0.0006883255    1.856    0.461
       205  -7.8804    105.9811     48.9969   7.5527528003e+01   5.2275794286e+01    0.3472241    0.2203725  17.30  0.001408326    2.317    0.568
       206  -9.6763    130.5632     46.5101   6.7954283181e+01   4.6993332403e+01    0.9509563    0.3931312 -21.10  0.002399417    3.653    0.726
       207  -8.8220    132.9999     35.9939   6.3385210887e+01   4.7989387124e+01    0.3372315    0.2183707 -40.22 0.0006665025    1.568    0.362
       208 -10.8683    134.0224     31.0399   6.1239170907e+01   4.8419704500e+01    0.3721033     0.281824   0.51  0.001802702    1.484    0.326
       209  -7.3653    186.5064     50.3507   5.8114105428e+01   3.2017843826e+01    0.1475396    0.1430371  50.84 -0.0002104701    1.071    0.067
       210  -7.6859    172.2872     50.0452   6.0442241813e+01   3.5769275172e+01    0.2189378    0.1878878 -29.85 0.0004277478    1.147    0.128
       211  -9.0713    149.8189     47.7819   6.4048657497e+01   4.1951662564e+01    0.5423056    0.1926137 -35.68  0.001788729    2.629    0.620
       212  -9.0145    153.4683     40.9985   6.0905392031e+01   4.2022127918e+01    0.3909895    0.3473825   2.66  0.001604203    1.194    0.162
       213  -8.7809    112.1269     47.0969   7.3015011727e+01   5.1244672619e+01    0.3663262    0.2306056 -52.02  0.001535728    1.878    0.468
       214  -8.6602    114.0320     41.7174   7.0370745043e+01   5.1702792662e+01    0.5629511    0.3167996 -11.83  0.002113466    2.588    0.614
       215  -8.0710    162.2864     46.3904   6.1071233939e+01   3.8929893701e+01    0.2775355    0.1695565 -48.77 0.0006348076    1.759    0.432
       216  -8.8153    191.5589    193.2664   9.2375968446e+01   6.8085105670e+00    0.3926448    0.2227358 -59.07  0.001689524    3.459    0.711
       217  -9.1630    235.1007    196.1575   8.5186823258e+01  -8.3606710563e-01    0.2543422    0.2361861 -50.45  0.001760272    1.681    0.405
       218  -9.0371    223.1033    190.9710   8.6286762574e+01   1.7571205984e+00    0.2387037    0.1732813  36.45 0.0003592004    1.294    0.227
       219  -9.0256    223.9527    186.2456   8.5268118203e+01   2.2385842367e+00    0.2160108    0.1700234 -14.50 0.0002313743    1.223    0.182
       220  -7.9128    249.6313    187.3007   8.1181063934e+01  -2.0428563083e+00    0.1027131   0.09990889 -89.81 0.0007032515    1.739    0.425
       221  -7.4039    233.7413    181.3365   8.2665651686e+01   1.2493268235e+00    0.1089798   0.09906876 -46.92 0.0001749746    1.577    0.366
       222  -9.9741     76.2433     31.9541   7.8144007321e+01   6.1186641883e+01    0.4500967    0.3404352  55.95  0.001158035    1.658    0.397
       223  -8.8329    224.2405    181.0178   8.4231874331e+01   2.8917945169e+00    0.1994095       0.1639  25.31 0.0003824303    1.118    0.106
       224  -8.3232      4.7191    181.4096   1.2911384857e+02   3.6064609252e+01    0.1553383     0.133798  40.31 0.0007368771    1.518    0.341
       225 -10.0228    192.2075    177.8833   8.9475754954e+01   9.0328217894e+00    0.2261419    0.2135227  -4.35 0.0003188683    1.131    0.116
       226  -9.9699     37.8100     41.9927   9.8180679415e+01   6.4940262449e+01     0.397747    0.2973386 -79.94  0.001515124    1.901    0.474
       227 -10.2457     35.9071     37.9738   9.7544957439e+01   6.5971144682e+01    0.4353961    0.2548978 -29.83 0.0003586255    1.740    0.425
       228  -9.0644    110.3352     33.0932   6.7858690633e+01   5.3888784397e+01    0.3545079    0.2319008 -41.10 0.0008165265    1.580    0.367
       229  -8.5888    109.9807     26.5685   6.5181952695e+01   5.4895757278e+01    0.3805712    0.2598425  -2.12  0.001787223    1.688    0.408
       230  -8.5352    111.8312     21.5463   6.2528325357e+01   5.5114572735e+01    0.4754491    0.2381532 -35.51  0.001892707    1.991    0.498
       231  -9.2463    104.9484     41.0942   7.2691523093e+01   5.3854221042e+01    0.4295904    0.2452713 -47.80  0.001066241    1.985    0.496
       232  -8.5919    106.0229     36.4727   7.0476111664e+01   5.4356954384e+01    0.3276083    0.2397276  35.46 0.0009323371    1.402    0.287
       233  -9.0137    147.4148     40.5938   6.1982092476e+01   4.3651085893e+01    0.4136396    0.2272751  23.60  0.001426874    2.988    0.665
       234  -9.0240    139.1808     40.2385   6.3609909700e+01   4.5811521699e+01    0.3950435    0.2885089 -54.90  0.001335997    1.563    0.360
       235  -8.1908    123.5328     40.3432   6.7337758415e+01   4.9675070459e+01    0.4030354    0.2238032  29.97  0.001540039    2.401    0.583
       236  -7.7701    160.3566     39.2302   5.8971949378e+01   4.0469455881e+01    0.2234211    0.1307452 -38.78 0.0006475153    1.677    0.404
       237  -8.1168     53.4907     39.0237   9.0198970877e+01   6.3596055258e+01    0.2426114    0.1513461 -48.33 0.0009225335    1.488    0.328
       238  -9.2607     54.6396     35.0409   8.8039664685e+01   6.4192228890e+01     0.265441    0.1799563 -24.89 0.0005603135    1.439    0.305
       239  -8.9355    144.2591     36.6469   6.1190483249e+01   4.5029906394e+01     0.295079    0.2223286 -60.17 0.0005915901    1.544    0.352
       240 -10.0761      7.3688     28.2247   1.0814345929e+02   7.0340325477e+01    0.3303827    0.2748556  53.26  0.001040461    1.677    0.404
       241  -8.7846    118.9588     34.6929   6.6246857207e+01   5.1624686566e+01     0.353825    0.1998699 -32.59 0.0006110539    1.720    0.419
       242  -8.5113    144.9240    179.0823   9.9192541090e+01   1.7487568413e+01    0.1916322    0.1773086  40.62 0.0002765536    1.047    0.045
       243  -8.4265    153.9282     34.9587   5.8664375998e+01   4.2746172862e+01    0.2504207    0.1746281 -61.86 0.0006519892    1.717    0.418
       244  -8.6671    248.5984     32.1897   4.5408775569e+01   1.9182292338e+01    0.1883985    0.1219468 -17.23 0.0009511882    1.673    0.402
       245  -9.3350    152.2446     29.9608   5.7175393544e+01   4.3847135266e+01    0.2963845    0.1455968 -29.71 0.0008550358    1.989    0.497
       246  -9.1904     77.9422    177.2154   1.1344021118e+02   2.8763346425e+01    0.1934793    0.1621128 -84.70 0.0002359112    1.140    0.123
       247  -9.0014    128.5787     25.4169   6.0206406187e+01   5.0527907127e+01    0.4370198    0.2361368 -33.92  0.001292604    1.826    0.452
       248  -8.9086    144.1463     25.7874   5.7150994846e+01   4.6492472823e+01    0.2858349    0.1957456 -30.74 0.0009334697    1.457    0.314
       249  -9.5902    118.7568     21.2244   6.0707068260e+01   5.3484192066e+01    0.2998599    0.2663203 -48.65 0.0006250025    1.246    0.197
       250  -8.6630    120.4545     15.8799   5.8049239746e+01   5.3690245098e+01    0.3361918    0.1932855  27.91  0.001433764    2.048    0.512
       251  -8.8065     40.9724     20.9893   8.7743187377e+01   6.8588144108e+01    0.2625043    0.1767582 -22.77 0.0004698187    1.367    0.268
       252  -8.9359    139.7593     18.5404   5.5205063332e+01   4.8487389425e+01    0.2769706    0.2201774 -42.53 0.0006004873    1.320    0.243
       253  -8.3938    250.1100    176.0526   7.8952155096e+01  -7.5162363638e-01    0.1902027    0.1530029   4.03 0.0006568793    1.009    0.009
       254  -7.3795      3.5409    172.5390   1.2890487402e+02   3.7980965323e+01    0.1129892   0.07973845  77.21 6.047686e-06    1.030    0.030
       255  -8.2481    230.2558    167.3978   8.0513808266e+01   3.7210567853e+00     0.211196    0.1589338 -47.21  0.001189369    1.752    0.429
       256  -8.7371     77.9232    161.9343   1.1151278622e+02   3.2057608915e+01    0.1882348    0.1630013  79.95 0.0002963063    1.012    0.012
       257  -8.6372    212.5998    161.2394   8.2365807950e+01   7.8268433770e+00    0.2149324    0.1705397  36.33 0.0003410359    1.222    0.181
       258  -8.1805    198.2436    160.2007   8.4826552346e+01   1.0722548090e+01    0.2762702    0.1840194 -44.68  0.001393243    1.681    0.405
       259  -7.5887     22.3429    157.2941   1.2389754282e+02   3.9621575070e+01     0.108918   0.08243784 -52.43 0.0007030125    1.660    0.398
       260  -6.9184    140.5415    156.4279   9.6081161993e+01   2.2667203118e+01    0.1401241    0.1322318  48.68 0.0001273657    1.020    0.020
       261  -7.0654    145.4688    152.4029   9.4187188826e+01   2.2526123525e+01    0.1418037    0.1333446  46.24 0.0001064219    1.020    0.020
       262  -8.5336    239.8914    149.8734   7.5232001894e+01   4.4590157646e+00    0.2069389    0.1584717   2.17 0.0004891553    1.227    0.185
       263  -8.1873    133.6961    146.8652   9.5767546440e+01   2.5940517838e+01    0.3660749    0.1284879 -57.53  0.001103717    4.063    0.754
       264  -7.9385    129.0024     16.2689   5.6399122951e+01   5.1503460753e+01      0.28674    0.2580932 -71.98 0.0007559608    1.251    0.201
       265  -8.9629    236.3146    146.4791   7.5083628653e+01   5.5954856061e+00    0.4481432    0.1515253  36.13   0.00155123    3.666    0.727
       266  -9.2897     66.9613    143.9744   1.1167203459e+02   3.7649256287e+01    0.5149639    0.2672023  59.31  0.002357782    2.152    0.535
       267  -7.2771    231.2639    136.6905   7.3742699227e+01   7.9910699039e+00    0.1278417    0.1054554 -52.71 0.0002424424    1.533    0.348
       268  -7.4543    189.4523     15.5350   4.6780677268e+01   3.5655177623e+01     0.140452    0.1352194  56.98 0.0001179346    1.096    0.088
       269  -8.6511    112.3324    134.1498   9.8367385311e+01   3.2720621895e+01    0.3282948    0.2350024  82.26 0.0008192795    1.776    0.437
       270  -7.3336    169.6574    134.7355   8.5029971763e+01   2.1058301942e+01    0.1500688    0.1142772  14.08 0.0003302326    1.599    0.375
       271  -7.4367    220.3964     14.4678   4.3296143536e+01   2.7863524901e+01    0.1333129    0.1250337 -52.37 0.0001992228    1.070    0.065
       272  -8.6099     83.5170    132.0000   1.0542705189e+02   3.8071109014e+01    0.5887516    0.3040657  74.15  0.001967513    3.961    0.748
       273  -8.7687     40.4992     34.7061   9.4143037188e+01   6.6108035278e+01    0.3316032    0.2786129  31.75  0.001529139    1.425    0.298
       274  -8.4572    135.8011    132.5869   9.2240891461e+01   2.8550194476e+01    0.4504029    0.1947368 -45.15  0.001684436    2.353    0.575
       275  -9.0263    132.0396    131.5043   9.2907790266e+01   2.9536206287e+01    0.3323632    0.2408378  82.38  0.001499075    1.885    0.470
       276 -10.8587     69.9618    126.6621   1.0813132724e+02   4.1318534941e+01    0.7540868    0.6025359 -27.48  0.002620223    1.688    0.408
       277 -10.0663     58.3526    124.5938   1.1098312701e+02   4.3346128268e+01    0.6065645    0.3327307  77.75  0.002554566    2.514    0.602
       278  -8.4019    141.4248    130.5216   9.0431670559e+01   2.7843248197e+01    0.3711187    0.1430072 -51.24  0.001256416    2.832    0.647
