#   1 NUMBER                 Running object number                                     
#   2 MAG_AUTO               Kron-like elliptical aperture magnitude                    [mag]
#   3 X_IMAGE                Object position along x                                    [pixel]
#   4 Y_IMAGE                Object position along y                                    [pixel]
#   5 X_WORLD                Barycenter position along world x axis                     [deg]
#   6 Y_WORLD                Barycenter position along world y axis                     [deg]
#   7 A_WORLD                Profile RMS along major axis (world units)                 [deg]
#   8 B_WORLD                Profile RMS along minor axis (world units)                 [deg]
#   9 THETA_WORLD            Position angle (CCW/world-x)                               [deg]
#  10 FWHM_WORLD             FWHM assuming a gaussian core                              [deg]
#  11 ELONGATION             A_IMAGE/B_IMAGE                                           
#  12 ELLIPTICITY            1 - B_IMAGE/A_IMAGE                                       
         1 -14.0242    169.4178     35.8003   7.6635486612e+01   3.8713842747e+01     1.342823    0.9995673  11.25  0.004653133    1.713    0.416
         2 -13.0770    184.9720      4.4668   6.4732137591e+01   3.8129040134e+01     0.944186    0.5772443  72.07  0.004628493    1.472    0.321
         3  99.0000     13.7680    246.8221   1.5075185748e+02   2.3841034873e+01      0.12988   0.06042999 -78.89 0.0008816668    1.990    0.498
         4 -19.7616     61.4664    166.4366   1.3589944167e+02   3.3960408304e+01     18.66494     4.296834 -68.02   0.06102361    4.455    0.776
         5 -10.7869     21.9285    242.1069   1.4928513736e+02   2.3779346811e+01    0.1483432    0.1046242 -86.62 0.0005244646    1.384    0.277
         6 -10.7328    169.9769    195.9772   1.1683585748e+02   9.7104813965e+00    0.1995215    0.1585698  77.81 0.0006757464    1.619    0.382
         7 -11.0808    180.3368    192.8538   1.1424996749e+02   8.2814306578e+00    0.2699871    0.1958922  65.02 0.0008837613    1.721    0.419
         8 -11.1436    157.4933    192.3120   1.1873784586e+02   1.2685954069e+01    0.2201042    0.1856137  84.15 0.0003680314    1.391    0.281
         9 -12.2671    209.3250    180.6762   1.0641040434e+02   4.7149769501e+00    0.6893362    0.4248026  14.19  0.003154828    2.216    0.549
        10 -12.0584    197.8445    175.4195   1.0757649033e+02   7.7768652319e+00    0.4616058    0.3493568 -48.06  0.001331571    1.535    0.348
        11  -9.5952    185.4645    174.5399   1.0984875113e+02   1.0378837341e+01    0.1402241    0.1275985  34.93  0.000636147    1.014    0.013
        12 -12.9910    137.3029    171.4548   1.1944971811e+02   2.0476397087e+01    0.6423391    0.3543046  56.87  0.002813581    1.946    0.486
        13 -11.5685    203.7085    167.6064   1.0487728030e+02   7.9035596730e+00    0.5094247    0.3527781  42.40  0.002102345    1.354    0.262
        14 -12.0050    126.1439    172.3547   1.2207935237e+02   2.2386784801e+01    0.3260222     0.258612  45.28  0.001223875    1.195    0.163
        15  -9.9098     25.3112    165.7773   1.4385368983e+02   3.8214409889e+01    0.1806545    0.1517537  25.39 0.0008123849    1.655    0.396
        16 -10.1816    130.0587    161.4882   1.1928047711e+02   2.3909470333e+01    0.2161261    0.1327098  46.67 0.0004669157    1.525    0.344
        17 -10.4192    164.5492    157.9929   1.1089912598e+02   1.7688957698e+01    0.2122309    0.1456226 -43.52  0.000367237    1.556    0.357
        18 -10.4444     20.5798    237.9877   1.4930587695e+02   2.4626450585e+01    0.1598753   0.08824628  67.52 0.0008315631    1.294    0.227
        19 -10.6233     23.3296    156.2547   1.4345712924e+02   4.0475381933e+01    0.2194667    0.1573046  77.29 0.0005403198    1.164    0.141
        20 -12.7696    133.8138    145.4419   1.1527194835e+02   2.6582379941e+01     1.089405    0.2943777 -55.21  0.002834379    5.230    0.809
        21  -9.8851    151.3779    150.1588   1.1218625202e+02   2.1995066188e+01    0.1988722    0.1395059 -60.48 0.0001494065    1.615    0.381
        22  -9.9042     16.4216    150.1126   1.4447389125e+02   4.2442402491e+01    0.1608192    0.1470049  86.93  0.001221782    1.266    0.210
        23 -10.0772    174.7809    149.3688   1.0687922687e+02   1.7183081298e+01    0.2127063    0.1325438  37.89 0.0002586158    1.622    0.383
        24 -10.6941    128.2758    143.4308   1.1618004729e+02   2.8119319570e+01    0.2118873    0.1338268  54.84 0.0009476233    1.616    0.381
        25 -12.4158    115.4615    139.0669   1.1842449643e+02   3.1553920852e+01    0.4893816    0.2914287 -47.06  0.002099389    1.753    0.430
        26 -12.6035    105.7152    139.0344   1.2086391256e+02   3.3347525633e+01    0.5154114    0.3051268  57.07  0.002184802    1.840    0.457
        27 -11.1260      4.5433    140.7087   1.4641220987e+02   4.5444018177e+01    0.1846816    0.1550818 -89.30 0.0004526087    1.151    0.131
        28 -12.4450    106.1228    130.8560   1.1910210136e+02   3.5130683935e+01    0.4064455     0.352745  85.08   0.00120387    1.156    0.135
        29 -11.6216    108.6938    125.6267   1.1731121230e+02   3.5847413582e+01    0.3335762    0.2850418 -15.59  0.000656847    1.506    0.336
        30 -11.8749    119.6595    129.6745   1.1537396324e+02   3.2846739109e+01    0.3407189    0.2785011 -62.81 0.0008784118    1.223    0.182
        31 -11.7655    135.4052    123.9424   1.1010916039e+02   3.0898323270e+01    0.4815365    0.1916134 -45.91  0.001685743    2.541    0.607
        32 -11.8762     23.3470    127.6389   1.4051562377e+02   4.6885345156e+01    0.3129352    0.2196715 -33.92  0.001904264    1.959    0.489
        33  -9.9046    192.6542    225.6806   1.1727554634e+02   1.1470486586e+00    0.1274215   0.08437929  17.44 0.0007049236    1.728    0.421
        34 -11.6893    125.3393    127.0519   1.1334789971e+02   3.2300764709e+01    0.5016487    0.3093976  89.24  0.001764831    3.189    0.686
        35  -9.9108      7.0081    220.0069   1.5068115019e+02   2.9178081647e+01    0.1230989   0.07923333 -74.26 0.0005064987    1.612    0.380
        36 -12.3238    118.9331    215.2143   1.2977621215e+02   1.5406488056e+01    0.4210835    0.2122715  53.83  0.002124116    1.778    0.438
        37 -11.0764    113.9692    118.9229   1.1440111955e+02   3.6361327104e+01    0.2276276    0.2172329 -87.75  0.000489834    1.009    0.009
        38 -10.6243    169.1976    114.8343   9.9916461230e+01   2.5195205562e+01    0.4840185    0.2852223 -66.76   0.00169601    2.878    0.653
        39 -10.7707     13.7968    243.6326   1.5061615990e+02   2.4370994012e+01   0.09043313   0.06517997  83.97 0.0004474937    1.252    0.201
        40 -11.5150    164.5491    205.5722   1.1946579478e+02   9.1140635039e+00    0.2998384    0.2359141 -45.58 0.0007906888    1.495    0.331
        41 -10.0523    205.7175    110.0438   9.1287232839e+01   1.7463248029e+01    0.2130436    0.1970868 -23.59  0.000588194    1.070    0.065
        42  -9.6928    170.4884    205.5269   1.1829931773e+02   8.0414232931e+00    0.1324944     0.112328  46.49 0.0008090743    1.067    0.062
        43 -13.2328    193.5200    193.5591   1.1181388239e+02   5.6892117893e+00    0.9386048    0.5514598 -58.28   0.00418581    2.741    0.635
        44 -11.6750     11.3280    206.6510   1.4930504488e+02   3.1250143752e+01    0.3717661    0.1996339  57.95   0.00253357    1.448    0.310
        45 -12.9059    157.1407     51.4999   8.4035149274e+01   3.9679895904e+01    0.5499671    0.4477755  63.39  0.001145081    1.215    0.177
        46 -12.9373    136.7559    197.9641   1.2387082558e+02   1.5468268718e+01    0.5974253    0.3206302  53.28  0.002508798    1.757    0.431
        47 -12.0044    172.9895     28.5776   7.3750390818e+01   3.8687126770e+01    0.4110229    0.3315699   9.65  0.001057471    1.493    0.330
