#   1 NUMBER                 Running object number                                     
#   2 MAG_AUTO               Kron-like elliptical aperture magnitude                    [mag]
#   3 X_IMAGE                Object position along x                                    [pixel]
#   4 Y_IMAGE                Object position along y                                    [pixel]
#   5 X_WORLD                Barycenter position along world x axis                     [deg]
#   6 Y_WORLD                Barycenter position along world y axis                     [deg]
#   7 A_WORLD                Profile RMS along major axis (world units)                 [deg]
#   8 B_WORLD                Profile RMS along minor axis (world units)                 [deg]
#   9 THETA_WORLD            Position angle (CCW/world-x)                               [deg]
#  10 FWHM_WORLD             FWHM assuming a gaussian core                              [deg]
#  11 ELONGATION             A_IMAGE/B_IMAGE                                           
#  12 ELLIPTICITY            1 - B_IMAGE/A_IMAGE                                       
         1 -10.2405      4.5239     35.1151   1.0355594758e+02   6.8455603942e+01    0.6736226    0.2722812 -51.49  0.003591237    1.813    0.449
         2 -10.0694      8.5404     26.4761   9.8530836568e+01   6.9827608047e+01    0.4363014    0.2944494 -45.18  0.001669872    1.251    0.201
         3  -9.7099    197.0131     18.2518   4.0494301482e+01   3.3913022552e+01     0.678263    0.2313425 -39.20  0.002757106    2.659    0.624
         4  -9.3859    193.2969     13.0793   3.9555531135e+01   3.5364909184e+01    0.3791414    0.2956938  41.76  0.001271755    1.510    0.338
         5 -10.9629    218.9205     24.9535   3.9842000973e+01   2.7971856633e+01    0.3213885    0.2891807  83.86 0.0005058817    1.130    0.115
         6  -8.9269    126.8394     14.0999   4.9700444095e+01   5.1583604561e+01    0.2841889    0.1783156 -36.89 0.0005974305    1.762    0.432
         7 -10.3070    141.6877     21.0368   4.9270710527e+01   4.7274083637e+01     1.952151    0.6853918 -51.66  0.005324474    6.135    0.837
         8 -10.3378    141.4308     13.0441   4.6646400327e+01   4.8148710308e+01    0.3703228    0.3412293 -23.98 0.0008601483    1.203    0.169
         9 -10.2252    134.4323     18.0853   4.9624852690e+01   4.9355964616e+01    0.7218192    0.3708235  21.43  0.002797259    3.134    0.681
        10  -8.9364     78.6250     23.7716   6.6249397503e+01   6.1054272057e+01    0.4795648    0.2628599 -12.55  0.002230276    2.180    0.541
        11  -8.8312    162.2879     11.0151   4.2789890053e+01   4.3190971473e+01    0.4105985    0.1745163  60.61  0.001666785    2.001    0.500
        12  -9.4048    157.7112     15.5411   4.4831856665e+01   4.3881092811e+01    0.5148311    0.4055642  56.85  0.002955056    1.170    0.146
        13  -8.4950    152.4922     15.0661   4.5488098696e+01   4.5223556627e+01    0.3415325    0.2216676  21.48  0.001668672    2.014    0.503
        14  -9.7975     24.3746      9.4068   8.2513701709e+01   7.1200401888e+01    0.4145369    0.3261744  29.52  0.002059149    1.588    0.370
        15  -8.8942     14.5687      3.5291   8.4860699839e+01   7.3038853339e+01    0.2298256     0.155423   0.51 0.0008473534    1.257    0.204
        16  -9.5384     17.3559      9.1097   8.6161795133e+01   7.1970714148e+01    0.4471347    0.1949166 -32.92  0.001943941    1.928    0.481
        17  -9.0443     13.0376      9.4719   8.8762919363e+01   7.2316057852e+01    0.2842479    0.1565467 -23.86  0.001143676    1.533    0.348
        18 -10.3067     15.8545     16.8696   9.0667884454e+01   7.0913348995e+01    0.6121868    0.2520884 -51.45  0.002942348    2.795    0.642
        19 -10.2203     22.8133     17.5215   8.7266266491e+01   7.0158968968e+01     0.479138    0.2584342  33.91  0.002752133    2.182    0.542
        20  -9.2467    211.5850     19.3390   3.9221521872e+01   3.0327960756e+01     0.334992    0.2498146 -36.43  0.001413711    1.370    0.270
        21  -9.1565    209.0167     16.0215   3.8664628361e+01   3.1300484906e+01    0.4437094    0.2878855   0.35  0.001683895    2.537    0.606
        22  -9.5828    204.5377     12.4498   3.8225522851e+01   3.2741769423e+01    0.3020037     0.238336 -85.46 0.0006808851    1.134    0.118
        23  -9.7493    209.4513     11.4469   3.7502953420e+01   3.1691975641e+01    0.3545147    0.2359458 -63.89 0.0007702078    1.420    0.296
        24 -11.2804     90.0165     14.3245   5.8615796272e+01   5.9867952335e+01    0.6930346    0.4062956  27.16   0.00139124    1.757    0.431
        25 -12.2109    100.7314     13.1600   5.5225886241e+01   5.7688585902e+01    0.4197374    0.3920939 -52.67  0.001183572    1.321    0.243
        26 -10.0082     51.9023     18.1147   7.3779732236e+01   6.6381162259e+01    0.2924414    0.2281876 -27.95 0.0004443832    1.330    0.248
        27  -8.5433     47.5384      9.9619   7.1662439330e+01   6.8081139914e+01    0.6962869    0.1383469  41.82  0.002382877    4.736    0.789
        28  -9.6673     45.2955     17.8195   7.6505525117e+01   6.7393073800e+01    0.4317035    0.2567941  18.75  0.002116108    1.686    0.407
        29  -9.6468     40.2001     15.0270   7.7476181518e+01   6.8480504392e+01    0.3859795     0.215486 -18.25 0.0008860231    1.761    0.432
        30  -9.6018     33.5985     12.5572   7.9407179268e+01   6.9676794921e+01    0.4703918    0.1627913  31.88  0.002134432    2.927    0.658
        31  -9.6727    169.9725     17.8361   4.3747362441e+01   4.0596329843e+01    0.5546216     0.183186  57.43  0.001450654    2.568    0.611
        32  -8.0470    171.2578     11.5787   4.1756872727e+01   4.0915250435e+01    0.2165353    0.1945282  76.92 0.0007081456    1.023    0.022
        33  -8.1825     66.6391     11.7602   6.4990701790e+01   6.4697840622e+01    0.2492243     0.176956  18.52 0.0006268154    1.263    0.208
        34  -9.2537     63.9028     18.2269   6.9029301371e+01   6.4417645933e+01    0.4833446    0.2940791   3.80   0.00249715    1.882    0.469
        35  -9.3154     60.9788     11.7466   6.7080753350e+01   6.5695370223e+01    0.3762855    0.3066746  73.36  0.001465261    2.131    0.531
        36  -9.5898    121.4837     16.9585   5.1842698943e+01   5.2571487189e+01    0.4042341     0.229963 -34.27  0.001975027    1.905    0.475
        37 -10.4033    183.2007     10.2141   3.9920722122e+01   3.8111802841e+01    0.7800992    0.2679749 -38.94  0.003181343    2.744    0.636
        38 -11.5418    185.9610      3.5407   3.7824108912e+01   3.8080450644e+01    0.4223018    0.2889484  68.67  0.000459776    1.309    0.236
        39  -8.0753    109.6645      7.7484   5.0933332897e+01   5.6189010574e+01    0.1782511    0.1253674 -18.26 0.0002693916    1.546    0.353
        40  -9.4916    113.2411      4.2705   4.8819451328e+01   5.5662791005e+01    0.5682039    0.2719158  48.08  0.002716614    1.768    0.434
        41 -10.8041    113.1695     13.0912   5.2215658546e+01   5.4892501151e+01    0.4877335    0.2790478 -29.01  0.001510664    1.879    0.468
        42  -8.9429    247.8111     17.3450   3.5584324997e+01   2.2506396940e+01    0.3800145    0.1823574 -70.84  0.001840718    2.272    0.560
        43  -9.0913    250.3356      7.6763   3.3387824027e+01   2.3067024015e+01    0.1966719    0.1468375 -44.79 0.0007004497    1.250    0.200
        44 -10.0561    243.2805      3.8139   3.3065583323e+01   2.4955395079e+01    0.5210187    0.2100645 -61.06  0.002435386    2.447    0.591
        45 -10.4369    236.7201     13.1739   3.5547674595e+01   2.5345622741e+01    0.4685161    0.3030982 -31.96  0.001305791    1.609    0.379
        46  -9.8665    233.3662      5.9663   3.4229970238e+01   2.6857666172e+01    0.3298628    0.2352971  69.21  0.001513214    1.423    0.297
        47  -9.2295    234.9014      1.4932   3.3151062127e+01   2.6988501710e+01    0.2022128    0.1414481 -87.77  0.000395916    1.259    0.206
        48  -9.2521     84.9175      8.6228   5.7614603368e+01   6.1491334617e+01    0.3963396    0.2392214  -0.16  0.002065782    1.858    0.462
        49  -8.9631     80.6870     12.0577   6.0417589982e+01   6.2003178875e+01    0.2812128    0.2031234  10.79 0.0007208943    1.339    0.253
        50  -8.9862      1.4763      2.9438   9.2403058001e+01   7.4222847873e+01    0.2251364     0.119915 -37.94 0.0008536131    1.465    0.317
        51  -8.7923      6.2425     12.2703   9.3970351702e+01   7.2420637113e+01    0.2976325    0.1568592 -57.03  0.001623952    2.541    0.606
        52 -10.0448      6.1585      5.6512   9.0893642647e+01   7.3464837702e+01      0.50515    0.3047704 -52.62   0.00310873    2.161    0.537
        53  -8.9172    144.5880      5.7536   4.3731211571e+01   4.8038048439e+01    0.3215213    0.1947295 -89.96 0.0005291067    1.940    0.485
        54  -8.1749    148.6382      7.3399   4.3624866242e+01   4.6904298707e+01    0.2310849    0.1463513 -48.03  0.001189889    1.770    0.435
        55  -7.8757    122.9394     10.7153   4.9253212106e+01   5.2831404990e+01    0.1931476    0.1526094  59.66 0.0008139518    1.151    0.131
        56  -9.0234    128.4958      9.9196   4.7890036459e+01   5.1578963903e+01    0.2434369    0.1875436 -28.38 0.0009745696    1.435    0.303
        57  -8.5257    130.4420      5.5136   4.5983292811e+01   5.1496707740e+01    0.2182451    0.1314031 -12.74 0.0005443737    1.948    0.487
        58 -11.1569     64.8560      5.9456   6.2837866213e+01   6.5633283751e+01    0.5523813    0.2818125  41.63  0.000946829    1.717    0.417
        59  -9.0296     73.9434      5.1368   5.9380504677e+01   6.4008405968e+01    0.3743794    0.2107862 -32.74  0.002003985    1.988    0.497
        60 -10.1703     32.2011      6.3825   7.6931092262e+01   7.0672072082e+01    0.2819469    0.2416288   7.96 0.0005209602    1.295    0.228
        61  -9.2720     34.1176      1.7444   7.3495428972e+01   7.0983334092e+01    0.1884237    0.1325174  19.60  0.000368387    1.232    0.188
        62  -8.6365    223.8342      1.3659   3.3927768094e+01   2.9436878517e+01    0.3676744    0.1778177  88.50  0.001827753    2.041    0.510
        63  -7.8356    163.0526      7.1464   4.1529207870e+01   4.3364112535e+01    0.2285242    0.1168193  48.59  0.001063944    1.938    0.484
        64  -8.1171     51.5430      7.4336   6.8690824854e+01   6.7751133072e+01    0.1778874    0.1120194  50.89 0.0005969645    2.019    0.505
        65  -8.3159    168.6409      5.2777   4.0268325480e+01   4.2155526859e+01    0.2164441    0.1937062 -58.65 0.0007438479    1.164    0.141
        66  -9.6265     94.3517      4.9258   5.3437232859e+01   5.9839136565e+01    0.4831418    0.2408554  59.22  0.002344078    1.894    0.472
        67  -8.2297     40.4820      6.2383   7.2895721250e+01   6.9567600285e+01    0.1480385     0.102216 -32.34 0.0009272888    1.574    0.365
        68  -8.5989    195.9224      5.0012   3.7198535240e+01   3.5545493118e+01    0.2476789    0.1690365  73.99 0.0009161325    1.313    0.238
        69  -7.9651    150.4282     10.5620   4.4379676457e+01   4.6169105234e+01    0.2051189    0.1880218  79.40  0.000122306    1.058    0.055
        70  -8.6441    121.7906      3.2980   4.6766469255e+01   5.3742611296e+01    0.2626822    0.1980209  18.13  0.001214158    1.432    0.301
        71  -8.4812    217.9944      3.0943   3.4776720522e+01   3.0580673723e+01    0.1831535    0.1568812 -77.17 0.0004942072    1.043    0.041
        72  -8.9063    203.3839      3.1363   3.6032024652e+01   3.3957226589e+01    0.3776394    0.1598633  72.99  0.001230629    2.115    0.527
        73  -9.1614    150.3614      2.3399   4.1788943012e+01   4.6910143102e+01    0.3343332    0.1972374  45.23  0.001713656    1.675    0.403
        74  -7.8188     82.0358      2.4611   5.5691755825e+01   6.2637800012e+01    0.1782022    0.1456051   7.81 0.0004020694    1.161    0.139
        75  -8.0242     78.0813      2.4307   5.6837405546e+01   6.3438870596e+01    0.1809385    0.1501596   2.14 0.0005182766    1.170    0.145
        76  -7.7963     23.6432      2.8230   7.9438257371e+01   7.2169167780e+01      0.14738   0.09238148 -35.02 0.0005536199    1.619    0.382
        77  -9.1500    248.3340      1.8971   3.2336898098e+01   2.4099474756e+01     0.188983    0.1453923  86.87 0.0003024314    1.226    0.184
        78  -7.3920    210.2838      2.6672   3.5314736277e+01   3.2392660088e+01    0.1330272    0.0784144 -62.16 0.0003214735    1.616    0.381
        79  -8.9572    223.9863      5.9579   3.4951032168e+01   2.8935034884e+01    0.3642295    0.2114162 -56.04  0.001486279    1.553    0.356
        80  -7.4361    158.3020      1.3086   4.0401333342e+01   4.5044850899e+01     0.133635   0.08771372  42.40 0.0001875186    1.603    0.376
        81  -7.6499    189.4251     73.4279   5.6495137891e+01   2.8112382143e+01    0.1466518    0.1399676 -61.71 0.0001288735    1.008    0.008
        82  -7.5253    249.3513    250.3073   8.3682479923e+01  -1.1675408884e+01    0.1199678   0.06761225   6.33 0.0007042909    1.712    0.416
        83  -7.3321    233.3047    250.6828   8.6509650255e+01  -9.6579508214e+00    0.0974306   0.08714958  33.65 0.0007026917    1.626    0.385
        84  -8.1827    110.4701    249.6043   1.0950019421e+02   8.5839961463e+00    0.2313562    0.1583371  79.76  0.001389396    1.797    0.444
        85  -8.4235    148.1951     72.7967   6.4677983380e+01   3.8232289246e+01    0.3004454    0.2092858  33.60   0.00134506    1.611    0.379
        86  -8.1744    152.1295     71.5773   6.3405280223e+01   3.7502082910e+01    0.2558413    0.2081097  69.53 0.0007043033    1.342    0.255
        87  -7.8477    250.3025     72.3119   4.7414640157e+01   1.4635929764e+01    0.1234265    0.1027345   4.40 0.0001747135    1.610    0.379
        88  -8.0882    160.9659     71.4890   6.1447478404e+01   3.5372773202e+01    0.3362732    0.1676337 -51.19 0.0009847316    2.404    0.584
        89 -11.2780    129.2670     70.8428   6.8732344835e+01   4.3022117643e+01    0.6832909    0.3113019  41.21 0.0004838525    2.331    0.571
        90  -9.6935    113.8683     70.5056   7.2854424080e+01   4.6492625776e+01    0.4425672     0.383322 -78.81  0.001461293    1.466    0.318
        91  -8.0117     57.4601     66.4787   9.0516268606e+01   5.7222124084e+01    0.2309127    0.1564389 -38.47 0.0006975872    1.307    0.235
        92  -8.9873     59.5079     71.0787   9.1180558466e+01   5.5982095642e+01     0.375274    0.2918099 -58.46  0.001918864    1.392    0.282
        93  -7.6092     55.6886     71.3043   9.2682568952e+01   5.6435539015e+01    0.1933811    0.1126388 -42.37  0.000518991    1.511    0.338
        94  -9.7381     28.9156     71.5799   1.0310780971e+02   5.9211426233e+01     0.224795      0.18418 -51.73 0.0003198268    1.080    0.074
        95  -7.9940    220.5994     74.8149   5.1880663419e+01   2.0600588043e+01    0.2117484    0.1152486 -46.25  0.000938444    1.716    0.417
        96  -8.1368     37.4355     71.3995   9.9728101929e+01   5.8476034298e+01    0.2007094    0.1614818 -43.78  8.73493e-05    1.038    0.036
        97  -9.0159     37.1269     67.8138   9.8861085761e+01   5.9288014398e+01    0.3514391    0.2052342 -15.44 0.0009564636    2.169    0.539
        98  -8.6377    210.5010     69.5112   5.2029374802e+01   2.3749560188e+01    0.3633335    0.2325398  86.82  0.001623871    2.058    0.514
        99  -8.7915    192.3723     69.4945   5.4913438342e+01   2.8048552454e+01    0.2830464    0.2243187  47.80  0.001449681    1.334    0.250
       100  -9.4874     94.5379     67.8458   7.7865202677e+01   5.0915772502e+01    0.4996984    0.2240418 -32.32  0.001841547    2.554    0.609
       101 -10.3268    234.7181     64.3316   4.7455658675e+01   1.9097368766e+01    0.6871442    0.3079062 -40.28  0.003027368    1.931    0.482
       102  -8.3845    204.1345     68.9314   5.2851932212e+01   2.5332167521e+01    0.2099773    0.2022887 -76.28 0.0004186776    1.045    0.043
       103  -7.5385    141.5151     69.4615   6.5219696507e+01   4.0416351257e+01    0.1514503    0.1465172  18.68 3.444969e-05    1.025    0.025
       104  -8.4318      3.4570     68.2541   1.1236683674e+02   6.1607349202e+01    0.2283652    0.0881118 -62.18 0.0009859423    1.907    0.476
       105  -7.6684    221.9924     67.9590   4.9989938338e+01   2.1361371210e+01    0.1622542    0.1498513 -85.54 0.0009535908    1.096    0.088
       106  -7.4395    171.3504     68.6723   5.8505401404e+01   3.3308773588e+01    0.1551991    0.1530599  22.66 0.0008503664    1.056    0.053
       107 -10.1473    149.3653     66.9335   6.2600084286e+01   3.8974096005e+01    0.3190655    0.2658231  38.25 0.0003009452    1.225    0.183
       108  -8.2059    173.5683     66.0492   5.7317913124e+01   3.3196503169e+01    0.2174698    0.1845262 -37.13  0.001125919    1.178    0.151
       109 -10.8173     48.7975     65.4886   9.3559614189e+01   5.8518616943e+01    0.3461987    0.2741948  14.88  0.002048664    1.353    0.261
       110  -9.7087     24.3787     59.1117   1.0163380835e+02   6.2281862496e+01    0.3948331    0.3353539 -19.26  0.002156195    1.165    0.141
       111  -8.4922     28.3603     54.4953   9.8582585954e+01   6.2909350991e+01    0.3691193    0.1291769 -40.19  0.001385273    2.524    0.604
       112  -9.8448     15.0232     66.3780   1.0736334724e+02   6.1383788437e+01    0.3512974    0.2138863  -5.19 0.0004139984    1.957    0.489
       113  -8.5640     19.5238     63.4668   1.0482039400e+02   6.1715822405e+01     0.237339    0.1984703 -54.64 0.0009155278    1.136    0.120
       114 -10.5684    100.6940     62.9594   7.4251008351e+01   5.0628552834e+01    0.6376644    0.4745346  57.86  0.002958354    1.615    0.381
       115  -8.3928    208.5039     64.6393   5.1073741245e+01   2.4976661399e+01     0.233762      0.21221 -55.39 0.0001623019    1.025    0.024
       116  -9.1094    144.1480     64.1296   6.2914495972e+01   4.0707674169e+01     0.287004    0.2671163 -71.01 0.0006762222    1.163    0.140
       117  -7.7256     89.4481     65.4628   7.8721208856e+01   5.2328944387e+01    0.1453445    0.1320387 -11.11 0.0003396579    1.015    0.015
       118  -8.2260    201.8144     63.9380   5.1898831541e+01   2.6666486987e+01    0.2039478    0.1937901  17.36 0.0004785991    1.205    0.170
       119  -8.2460    126.6748     64.0653   6.7203027371e+01   4.4824051839e+01    0.2499781    0.2037418  59.81 0.0009013554    1.317    0.241
       120  -8.8257      8.5350     63.1644   1.0925563186e+02   6.2467573760e+01    0.2440202    0.1857789  71.83  0.001177867    1.822    0.451
       121  -7.7258    161.0423     62.9582   5.8870444219e+01   3.6784861974e+01    0.2338546    0.1812441  13.72  0.001106536    1.629    0.386
       122  -8.8374     82.1404     61.7035   7.9898800763e+01   5.4361282695e+01    0.4702158    0.2306653  25.77  0.001795302    2.775    0.640
       123  -8.8779     40.4509     61.6238   9.5706306176e+01   6.0264427008e+01    0.2399189    0.2038962 -74.01  0.000753696    1.506    0.336
       124  -7.7299      1.3038     62.6234   1.1208218762e+02   6.2939919225e+01    0.1134654   0.08414897  79.13 0.0007028037    1.768    0.434
       125  -9.2639    134.8505     59.4077   6.3600441412e+01   4.3712172773e+01    0.4580275    0.2852776 -54.71  0.001586807    2.021    0.505
       126  -7.5720    117.0573     61.5433   6.8953059719e+01   4.7424831113e+01    0.2101346    0.1444184  50.14 0.0003177607    1.473    0.321
       127  -7.8876     60.2890     61.6172   8.7846761311e+01   5.7827960757e+01    0.1853901    0.1251616  16.49  0.000906191    1.644    0.392
       128  -9.5528    243.5492     59.0481   4.5188117979e+01   1.7983443359e+01     0.292003    0.2258231 -37.45   0.00108888    1.213    0.176
       129 -11.4117    192.8918     56.7819   5.1365971223e+01   2.9907423232e+01     0.303335    0.3008117  80.26 0.0003195404    1.089    0.082
       130  -8.7471    188.2482     51.7699   5.0717657600e+01   3.1782197088e+01    0.3438309    0.2417833 -69.84 0.0007959281    1.625    0.385
       131 -10.2573    192.9630     49.2162   4.9293127353e+01   3.0994986663e+01    0.7002603     0.429811 -78.00  0.003041485    2.165    0.538
       132  -8.9002    197.4949     48.5270   4.8443111160e+01   2.9990589675e+01    0.3912935    0.2459741 -85.22  0.001507507    1.995    0.499
       133  -7.3885    186.3023     60.2826   5.3401924096e+01   3.0983498328e+01    0.1426012    0.1130565  26.29 0.0002983629    1.553    0.356
       134  -9.0918     34.5498     59.7419   9.7559512978e+01   6.1254103707e+01    0.2681233     0.205894  -4.07   0.00108191    1.359    0.264
       135  -8.4172     36.8211     56.1609   9.5500929670e+01   6.1767071894e+01    0.2431722    0.1370963 -36.68 0.0002882308    1.554    0.357
       136  -9.4979    174.3864     58.7134   5.5037292871e+01   3.4161525708e+01    0.4108834    0.2197268  45.54  0.001699395    1.998    0.499
       137  -8.3614      5.9590     58.0561   1.0914940879e+02   6.3704623567e+01    0.2842457    0.1595195 -20.77  0.001623387    1.916    0.478
       138 -10.1419      9.6462     52.6313   1.0621444885e+02   6.4651386290e+01    0.3284252    0.3121331 -10.98  0.001570047    1.284    0.221
       139  -7.8230     14.4991     49.5011   1.0319524447e+02   6.4998240440e+01    0.1635553    0.1042068 -10.21 -0.0005059048    1.680    0.405
       140  -8.1862    250.4073     57.7651   4.4147711125e+01   1.6740017614e+01    0.1869907    0.1172544 -26.60 0.0009641742    1.735    0.424
       141  -9.3461    235.0238     56.4908   4.5574595980e+01   2.0178804341e+01    0.4257079    0.2219466 -66.33  0.001802785    2.532    0.605
       142  -8.9728    156.5503     56.9412   5.7951117805e+01   3.8850832071e+01    0.5329629    0.3080925  75.12  0.002096892    2.361    0.576
       143  -9.0412     89.7025     57.3490   7.5798771733e+01   5.3788874094e+01    0.2435176    0.2055518 -31.47 0.0001772284    1.153    0.133
       144  -7.7829    224.4753     57.0265   4.6983016822e+01   2.2440694454e+01    0.1992982    0.1252044 -37.09 0.0003542321    1.481    0.325
       145  -9.2863     62.5999     55.2988   8.4774206167e+01   5.8730198888e+01    0.5411322    0.3467956  59.61  0.002390784    2.902    0.655
       146  -9.3128    113.1806     54.3032   6.7531734133e+01   4.9504353610e+01    0.4851696    0.3541696  37.37  0.001393162    1.346    0.257
       147  -8.0488    207.5611     55.3270   4.8803657496e+01   2.6600745070e+01    0.2389704    0.1588905  43.58  0.001155036    1.772    0.436
       148  -8.5252    124.8796     54.5393   6.4466423274e+01   4.6833079821e+01    0.2534521    0.1990207 -15.31  0.000650392    1.372    0.271
       149  -8.0130    220.9137     54.1756   4.6734826591e+01   2.3662071236e+01    0.2113984    0.1649491 -67.68  0.000428702    1.254    0.202
       150  -8.8712    129.2567     52.3059   6.2600158691e+01   4.6169688267e+01    0.3425654    0.2947524  24.24  0.001097892    1.183    0.154
       151  -8.3086     41.9982     53.4545   9.2437926212e+01   6.1757181230e+01    0.2472802    0.1443712 -36.16 0.0005711008    1.499    0.333
       152  -8.3457     94.7467     51.8502   7.2163373004e+01   5.3769478387e+01    0.3465423    0.2350156  -0.60  0.001375557    1.880    0.468
       153  -8.1251     92.7800     48.5411   7.1564260894e+01   5.4707912328e+01    0.2554791    0.1970336 -49.17 0.0006506304    1.531    0.347
       154  -9.1415    204.8701     51.9213   4.8295552161e+01   2.7734240926e+01    0.2372057    0.2242525 -63.68 0.0004573423    1.051    0.048
       155  -7.9507    207.4066     48.4600   4.7051607638e+01   2.7622624996e+01    0.2431572    0.2208893 -14.73 0.0008882461    1.281    0.220
       156  -9.3382    244.4075     49.9587   4.3033505617e+01   1.9084738948e+01    0.3669866    0.2448602  46.31  0.001089156    1.913    0.477
       157  -8.8897    212.8051     48.9862   4.6476829151e+01   2.6276091791e+01    0.4110657     0.299611  37.96  0.002133866    1.737    0.424
       158 -10.0563    120.1710     49.8186   6.4055470853e+01   4.8657463844e+01    0.5519353    0.2332239 -34.87   0.00102498    2.390    0.582
       159  -7.8153    122.3731     43.2787   6.1181491318e+01   4.9129651759e+01    0.2218424    0.1761068   7.92 0.0006045343    1.393    0.282
       160  -7.9485     84.6508     51.2550   7.5268841203e+01   5.5802997180e+01    0.1812887    0.1720446  27.32  0.000413719    1.178    0.151
       161  -9.0416     80.4950     49.4174   7.6014218145e+01   5.6873674817e+01    0.3913352    0.2982086  15.27  0.002123964    1.335    0.251
       162  -9.0052     72.9395     49.7073   7.8829498422e+01   5.8130776986e+01    0.4135522    0.2521876 -22.63  0.001981772    1.768    0.435
       163  -9.1485    237.4413     48.8345   4.3520214854e+01   2.0732111207e+01     0.381122    0.2134608 -40.89  0.001886057    1.565    0.361
       164  -8.6540    231.9124     41.3018   4.2365559072e+01   2.2966528194e+01    0.2778958    0.1846971 -72.05  0.001294893    1.547    0.353
       165  -9.0669    233.9746     45.0127   4.3009920960e+01   2.2012676534e+01    0.2770209    0.2416131 -62.02 0.0009424938    1.015    0.015
       166  -8.3486    237.8424     43.1129   4.2161882048e+01   2.1423544091e+01    0.2120941    0.1937319 -62.47 0.0004702454    1.097    0.089
       167  -9.6588    232.5732     36.5850   4.1199665200e+01   2.3438724859e+01     0.567582    0.2834602 -35.21  0.002140398    1.863    0.463
       168  -8.4742    236.5123     35.5505   4.0568359707e+01   2.2705936634e+01    0.2367363    0.1771496 -75.29 0.0007300433    1.258    0.205
       169  -8.6409    222.0379     50.0221   4.5576157660e+01   2.3996186232e+01    0.2098116    0.1887948 -67.90 0.0007117881    1.020    0.019
       170  -7.6852     67.7551     50.4094   8.1022403536e+01   5.8848819826e+01    0.1835387    0.1229382  21.92 0.0006463664    1.572    0.364
       171  -8.5434    141.9074     54.6993   6.0400295069e+01   4.2780836191e+01    0.3870702    0.2590337  35.89  0.001378496    1.621    0.383
       172  -9.4163     41.5450     46.3443   9.0145479171e+01   6.3182309143e+01    0.4746622    0.3633734  87.31   0.00245554    2.693    0.629
       173  -9.7922    173.9955     45.2819   5.1184847112e+01   3.6233924155e+01     0.384851    0.3233192 -32.26  0.002100108    1.241    0.194
       174  -9.2239     20.5160     46.9974   9.9721835794e+01   6.5072827789e+01    0.2288368    0.1983292  15.10 -0.0001788662    1.363    0.266
       175  -7.4854    181.7201     47.2724   5.0491860175e+01   3.4035965119e+01    0.1418698    0.1048965 -69.31 0.0002177663    1.495    0.331
       176  -8.7378    164.6067     46.5075   5.3191447402e+01   3.8402901022e+01    0.2406341    0.2240758 -56.02 0.0004278995    1.092    0.085
       177  -7.4609    155.5076     47.4538   5.5205124259e+01   4.0531509409e+01    0.1458292    0.1374311  45.24 0.0008082345    1.054    0.051
       178  -8.6111    112.0721     46.9696   6.5222227324e+01   5.0913960712e+01    0.3841043    0.1613666  51.37  0.001478611    2.332    0.571
       179  -8.3296     88.3721     46.4622   7.2214275855e+01   5.5904871467e+01    0.2661716    0.2027574  25.37  0.001149067    1.287    0.223
       180  -7.3630    225.3489     46.2953   4.4278571692e+01   2.3761712421e+01     0.129355    0.1030858  31.77 0.0007032737    1.677    0.404
       181  -8.3179    220.6618     45.9513   4.4746159213e+01   2.4876363018e+01    0.1937053    0.1558643 -47.01 0.0004995386    1.148    0.129
       182  -9.7790    136.9243     44.6006   5.8183054205e+01   4.5495369457e+01     0.442321    0.4184837 -81.93  0.002528929    1.152    0.132
       183  -9.2890     29.4748     44.9295   9.4979095407e+01   6.4712325203e+01    0.3434831    0.2285065 -64.71 0.0004113088    1.983    0.496
       184 -10.2754     34.1676     43.8395   9.2485509745e+01   6.4458402427e+01    0.4335557    0.2826351 -26.91 0.0007529217    1.366    0.268
       185  -9.4019    246.7566     44.4021   4.1551305743e+01   1.9346343643e+01    0.2584366     0.207095 -38.39  0.000405488    1.220    0.180
       186  -8.8508    250.0116     40.5398   4.0388042952e+01   1.9179357850e+01    0.2471914    0.1935679 -73.85  0.001213671    1.181    0.154
       187  -9.5867    248.0239     37.1657   3.9834862596e+01   2.0033982442e+01    0.3955517    0.3215224 -42.22  0.002532475    1.187    0.158
       188  -8.0875      8.7986     43.9849   1.0419908888e+02   6.6469953867e+01    0.3824333    0.1011114 -42.34     0.001617    2.797    0.643
       189  -8.9739    162.9522     42.1230   5.2155267593e+01   3.9423703312e+01    0.3750609    0.1854136  50.75 0.0008034538    1.945    0.486
       190  -7.9725    156.0175     44.1976   5.4084625589e+01   4.0865709920e+01    0.3151579    0.1307285  60.24 0.0008458528    2.323    0.570
       191  -8.5711    153.0303     40.9491   5.3633246468e+01   4.2053301436e+01    0.3974465    0.2617613 -58.97   0.00140099    1.854    0.460
       192  -8.5129     96.1337     43.2385   6.8500610203e+01   5.4876017907e+01    0.3006657    0.1980307   5.87   0.00126773    1.951    0.488
       193  -9.3631     99.8511     37.7251   6.5258744839e+01   5.4919384783e+01     0.421164    0.1937189 -35.00  0.001232084    2.205    0.546
       194  -8.9821    185.4875     41.5296   4.8289312566e+01   3.3894172463e+01    0.4445241    0.2519468 -64.75  0.001871151    2.273    0.560
       195  -8.6001    147.4470     41.7083   5.4980617208e+01   4.3331118330e+01    0.3409691    0.2187008  43.39 0.0008100302    1.566    0.362
       196  -8.7514    127.1629     41.7391   5.9464432132e+01   4.8229370737e+01    0.2961988    0.2118368  44.48 0.0006987518    1.324    0.245
       197  -7.4196     85.4283     42.5074   7.1668587143e+01   5.7098952638e+01     0.140116     0.121756   2.71 0.0002474659    1.042    0.040
       198  -8.3377     67.6079     42.1571   7.7901846214e+01   6.0301810670e+01    0.2874438    0.1761791  46.85  0.001033251    1.946    0.486
       199  -9.5530     67.0920     28.5542   7.2449189769e+01   6.2490659815e+01    0.4713459    0.2879853 -15.72  0.001626943    1.724    0.420
       200  -9.7599     69.1263     35.8102   7.4756891343e+01   6.1068466900e+01     1.211154    0.4282568  30.55  0.004012976    4.151    0.759
       201  -9.8787     51.8310     37.3365   8.2274533510e+01   6.3486882426e+01    0.3527176    0.2724813 -34.85  0.000267549    1.253    0.202
       202  -8.5098     56.2107     36.4191   8.0079827591e+01   6.3013356528e+01     0.444521    0.3323167  59.61  0.001998116    2.264    0.558
       203  -8.1427    242.2701     40.7664   4.1181840710e+01   2.0781501025e+01    0.2315113    0.1442654  89.49 0.0007783353    1.750    0.429
       204  -8.7129    224.2166     40.2769   4.2960052025e+01   2.4829947522e+01    0.3419936    0.1838978 -40.98  0.001674307    1.675    0.403
       205  -8.3186    225.4866     36.4299   4.1902033842e+01   2.5045274943e+01    0.2087581    0.2016036 -51.40 0.0006259318    1.189    0.159
       206  -8.9393     13.3771     37.2194   9.9893244657e+01   6.7504705282e+01    0.3790286    0.2927821  82.22  0.002300092    2.327    0.570
       207  -8.9339     20.0009     40.3135   9.7768142201e+01   6.6420841477e+01    0.2452555    0.2322729  30.75   0.00103099    1.444    0.307
       208  -8.2746     19.7384     36.6963   9.6631031449e+01   6.7127329312e+01    0.1857462    0.1234972 -13.54 0.0004583625    1.446    0.308
       209  -7.4561    195.6303     40.2976   4.6498983710e+01   3.1570948922e+01    0.1503255   0.09811778 -69.87  0.000344559    1.734    0.423
       210  -9.0740    142.1211     39.4264   5.5326681060e+01   4.4948348696e+01    0.3789282    0.2254341  21.78   0.00153745    2.495    0.599
       211  -7.8605    106.5404     39.8688   6.4146620443e+01   5.3180055541e+01    0.1900301    0.1361327 -27.71 0.0003137718    1.421    0.296
       212  -7.8798     90.2258     40.5864   6.9341453352e+01   5.6466057008e+01    0.2010747    0.1193137  34.32 0.0009464289    1.681    0.405
       213  -8.7673    216.7504     38.8353   4.3457370029e+01   2.6735024730e+01    0.2038563    0.1738079 -68.55 0.0005111784    1.059    0.055
       214  -9.3407    212.9079     37.5241   4.3581151826e+01   2.7802991165e+01    0.3531244    0.2404655  87.86 0.0007282459    1.520    0.342
       215  -9.3476    112.2286     36.1769   6.1211014771e+01   5.2436184704e+01    0.7753413    0.2449815  46.56  0.002716805    2.895    0.655
       216 -10.5362    124.2339     35.1664   5.7836581400e+01   4.9809180577e+01    0.4679021    0.4130101 -37.95  0.001772314    1.226    0.185
       217  -9.7873    123.8664     26.5325   5.4813652571e+01   5.0963388821e+01     0.265664    0.2191207 -13.10  0.001500575    1.293    0.227
       218  -8.0727     10.3269    248.6618   1.2746184626e+02   2.1202977011e+01    0.1159293    0.0518155  63.59 0.0007051661    1.728    0.421
       219  -9.0013      1.7706     28.8096   1.0289734708e+02   6.9800152875e+01    0.1753996     0.128453 -42.32  0.000603345    1.091    0.083
       220  -9.5760     14.1416     30.0621   9.6979560587e+01   6.8785051016e+01    0.3974215    0.1879695  16.18  0.002162823    2.316    0.568
       221  -7.6027     64.6683    247.3362   1.1792015448e+02   1.5292528977e+01    0.1255137   0.06681486  63.35 0.0004744251    1.735    0.424
       222  -8.4568     25.2656     38.1106   9.4503860199e+01   6.6391392388e+01    0.2285176    0.1734685 -14.07  0.000602299    1.184    0.156
       223  -9.0728     24.3369     32.8025   9.2956876934e+01   6.7445158738e+01    0.2993277    0.1994436 -56.24  0.001770387    1.775    0.437
       224  -9.0617     21.0899     31.3998   9.4006672909e+01   6.7985345837e+01    0.3176142    0.2019949 -43.55  0.001323295    1.343    0.255
       225  -8.3595    241.0808     36.7949   4.0405950400e+01   2.1555542469e+01    0.1976659     0.147285 -64.14 0.0004976562    1.195    0.163
       226  -8.6232    192.9933     36.6912   4.5887494551e+01   3.2686311913e+01    0.2201664    0.1957412 -48.44 0.0005415223    1.123    0.110
       227  -9.7410    153.7654     32.8886   5.0932997480e+01   4.2914918429e+01    0.4716811    0.2673724 -30.02 0.0005278738    1.858    0.462
       228  -9.1230    158.5234     28.4186   4.8697191615e+01   4.2269846028e+01    0.5418008    0.2472051  65.12  0.002249679    2.076    0.518
       229  -9.2908     91.2102     34.5429   6.6638095972e+01   5.7151221116e+01    0.3854963    0.3074519 -57.68  0.001537036    1.732    0.423
       230  -7.9601    174.0357     35.4502   4.8302778532e+01   3.7533507340e+01    0.2121144    0.1296776  62.44 0.0005233887    1.536    0.349
       231  -7.7074    165.6333     35.2022   4.9586354736e+01   3.9663330269e+01    0.1783522    0.1373148 -15.70 0.0005560005    1.502    0.334
       232  -8.3417     59.1742     33.7758   7.7774752935e+01   6.2991647917e+01    0.2360168    0.2200974 -19.89 0.0009556812    1.282    0.220
       233  -8.4796     33.7307     34.2895   8.9070867097e+01   6.6244628212e+01    0.2248413    0.2032474  39.25  0.001527977    1.560    0.359
       234  -8.8450    120.0112     38.9060   6.0209777752e+01   5.0291454394e+01    0.2530255    0.2075283  48.92 0.0005454306    1.160    0.138
       235  -9.1357    211.3793     31.5555   4.2266220731e+01   2.8922500724e+01    0.3604213    0.2246071 -64.54  0.001312202    1.659    0.397
       236  -8.9159     39.5376     32.5304   8.5681514729e+01   6.5885540159e+01    0.2481089     0.177939 -10.36 0.0007490232    1.272    0.214
       237  -9.3808    187.2876     29.0784   4.4580224065e+01   3.5036110820e+01    0.5361219    0.3578824 -38.88  0.002087837    1.498    0.332
       238  -8.4959    214.7807    244.5983   8.8869594486e+01  -6.3628405787e+00     0.168069   0.09646351  39.54 0.0007017675    1.680    0.405
       239  -8.1822    234.9655    242.5145   8.4912434071e+01  -8.8980385534e+00    0.1796866   0.09484341  29.68  0.001033737    1.610    0.379
       240  -9.7411    193.3673     23.7619   4.2368119450e+01   3.4174914574e+01    0.4677737    0.3100857  51.09  0.001954776    1.594    0.373
       241  -9.2202    189.2129     22.1619   4.2446965369e+01   3.5371544544e+01    0.2934506    0.2450733 -68.80 0.0008004513    1.146    0.127
       242  -9.1270    133.9111     32.0709   5.4569522552e+01   4.7895536056e+01    0.2672381    0.2025776  67.51 0.0005720765    1.346    0.257
       243  -8.4943    130.4850     27.9847   5.3878725427e+01   4.9216005772e+01    0.3416324    0.1359486 -28.17  0.001329104    2.646    0.622
       244  -7.9667     47.4229     30.5325   8.1321334289e+01   6.5205964996e+01    0.2123769    0.1009163 -29.66 0.0005468306    2.049    0.512
       245  -8.5287    224.4801     26.9849   3.9769522619e+01   2.6457070796e+01     0.455437    0.1567165 -33.39  0.001870501    2.682    0.627
       246  -8.6500    247.5987    238.7570   8.2096961063e+01  -1.0113691478e+01    0.1503398   0.09963433 -33.52 0.0008111878    1.711    0.416
       247  -9.4230     84.4257     29.3354   6.6685586233e+01   5.9211423977e+01    0.2805684    0.2231026 -10.63 0.0005749296    1.208    0.172
       248  -8.6116    168.1789     23.2087   4.5588791008e+01   4.0458828088e+01    0.3815503     0.179674  57.97  0.001208303    1.900    0.474
       249  -8.8998    174.6575     26.3457   4.5561437109e+01   3.8487149530e+01    0.5268217    0.2400437 -56.28   0.00201292    2.903    0.656
       250  -9.3892    167.2234     28.8223   4.7408656678e+01   4.0049799222e+01    0.4809079    0.2256079  55.40  0.001752749    1.947    0.486
       251  -8.5710    170.4772     26.5408   4.6232491169e+01   3.9505841616e+01    0.2197545    0.1984656  74.56 9.517933e-05    1.024    0.024
       252  -7.8623     97.7135     29.5452   6.2674062299e+01   5.6478938290e+01    0.1819999    0.1302846  59.97 0.0009444923    1.580    0.367
       253  -7.6004    247.5318     28.5007   3.7993303088e+01   2.1232098627e+01    0.1264197    0.1027652 -62.86 0.0002996485    1.013    0.013
       254  -7.4990    202.3866     28.2184   4.2458290526e+01   3.1468741437e+01    0.1329394   0.09217639  48.65 0.0006855951    1.613    0.380
       255  -8.4417     61.9518     27.2667   7.3865902558e+01   6.3530426395e+01     0.320409    0.1813239 -10.14  0.001505296    2.207    0.547
       256  -9.1818     51.6931     25.5595   7.7299208558e+01   6.5366804065e+01    0.4265181    0.1944349 -37.55  0.002059854    2.100    0.524
       257  -8.1606    227.2715    239.4291   8.5778357476e+01  -7.4591462837e+00    0.1647736   0.09872032  38.83 0.0009622453    1.690    0.408
       258  -9.9061    137.0694     25.4660   5.1649222163e+01   4.7914665558e+01    0.3122093    0.2547212 -71.52 0.0004010811    1.442    0.306
       259  -7.6819    153.0000    233.9924   9.9177550881e+01   4.6709896411e+00    0.1850693   0.07393073 -49.41 0.0008041259    2.954    0.661
       260  -7.7827    102.5197    229.4699   1.0886424200e+02   1.3367717977e+01    0.1255904    0.1071555  53.14 7.005764e-05    1.029    0.028
       261  -9.6675    171.6576    233.4688   9.5375143847e+01   1.7747534481e+00    0.3114153    0.2999837  20.40  0.002159619    1.197    0.165
       262  -9.0350    128.0647     18.6833   5.1092012287e+01   5.0829904675e+01    0.4153324     0.226504  62.10  0.001913139    1.703    0.413
       263  -7.8741    115.1163     27.1234   5.7085658702e+01   5.2932182164e+01    0.2128455    0.1665175  31.47 0.0005967902    1.225    0.183
       264  -8.7693    105.2120     26.5090   5.9383515870e+01   5.5236164942e+01    0.2358913    0.1814135  -6.19 0.0004116256    1.361    0.265
       265  -7.8204     41.6954     25.3006   8.1586910148e+01   6.6785425907e+01    0.1827789     0.137188 -19.37 0.0005392905    1.114    0.102
       266  -8.3032     38.0494     25.4837   8.3350059209e+01   6.7215235929e+01    0.2996971    0.1797522 -17.03  0.001648522    1.649    0.393
       267  -7.7537     31.2657     27.2644   8.7345179472e+01   6.7709475725e+01    0.3498077    0.1386973  38.11  0.001590276    3.159    0.683
       268  -8.0047     30.0138     24.4728   8.6748782539e+01   6.8302836744e+01    0.2537251    0.1212236  -3.59 0.0005927297    3.941    0.746
       269  -7.9714    234.5306     25.9684   3.8580670294e+01   2.4336335189e+01    0.2106369     0.181104 -21.54 0.0007826084    1.422    0.297
       270  -8.5418    238.9513     24.9670   3.7961317548e+01   2.3493322452e+01    0.2116686    0.1798225 -69.39 0.0004110776    1.031    0.030
       271  -8.9095    237.5385     20.6403   3.7124026530e+01   2.4314138522e+01    0.3027069    0.1651526  67.51  0.001443847    1.825    0.452
       272  -9.3437    232.1193     20.6579   3.7596069844e+01   2.5499600661e+01    0.2197695    0.1827419 -61.01 0.0002805165    1.054    0.051
       273  -8.1000     89.6819     25.6158   6.3473835572e+01   5.8644603407e+01    0.2254493    0.1415597  22.44  0.001113955    1.723    0.420
       274  -8.2286    233.8448    210.1054   7.9517379031e+01  -4.4405127459e+00    0.1792119    0.1629071  -8.05  0.001210788    1.289    0.224
       275  -7.8394    250.6100     24.8331   3.6951594376e+01   2.1037207574e+01    0.1809065    0.0888267 -45.93 0.0006215262    1.688    0.408
       276  -8.6616    178.8719     23.5303   4.4165045393e+01   3.7763924993e+01    0.2209326    0.1850823 -44.49 0.0006002814    1.226    0.184
       277  -7.9133    203.2086    206.6286   8.4647204206e+01   9.1970068082e-01    0.1785914    0.1116157  27.17  0.000324517    1.509    0.337
       278  -8.7793    152.5787     23.2324   4.8068097993e+01   4.4343117708e+01    0.3306302    0.1811205 -34.40  0.001543777    1.904    0.475
       279  -8.4660     29.5330    199.3964   1.2104315965e+02   2.9028093552e+01    0.2384254    0.1006038 -75.01  0.001044783    2.099    0.524
       280  -7.6533    220.2518    193.3663   7.8874425462e+01   2.2653371089e-01    0.1371046   0.09198687  -6.31 0.0003959446    1.625    0.385
       281  -9.0280    157.1120     22.8508   4.7195931361e+01   4.3257559359e+01    0.3404664    0.1884104  81.45  0.000697621    2.145    0.534
       282  -8.0382    161.3862     21.8219   4.6200140798e+01   4.2305709818e+01    0.2966921    0.2084612  11.16  0.001485477    1.904    0.475
       283  -8.6604    113.3657     22.6440   5.5819147151e+01   5.3851859526e+01    0.4325379    0.1872842  34.01   0.00162158    2.918    0.657
       284  -7.4239      1.2492     24.3411   1.0162230082e+02   7.0652244378e+01    0.1205304   0.05909892 -35.44 0.0003105372    1.570    0.363
       285  -8.7404    246.0550     23.1344   3.6958929130e+01   2.2194938478e+01    0.1847877    0.1480489 -65.80 0.0003202663    1.032    0.031
       286  -7.8080     96.1791     23.2670   6.0582959564e+01   5.7578417925e+01    0.1749126    0.1605385 -87.96  0.001055258    1.427    0.299
       287  -8.7971    103.7002     21.0356   5.7625923855e+01   5.6205921755e+01    0.3038526    0.2466426 -14.95   0.00145778    1.276    0.216
       288  -8.6384     70.9977     20.4212   6.7419072183e+01   6.2891241710e+01    0.2580381    0.1745225 -45.07  0.001135661    1.960    0.490
       289  -8.3605     57.9792     21.4535   7.2832473777e+01   6.4982063395e+01    0.1836158    0.1464801 -12.96 0.0004494782    1.124    0.111
       290  -7.4820    141.3072    189.6757   9.4720323079e+01   1.4913705348e+01    0.1430016     0.109897  73.49 0.0007035538    1.647    0.393
       291  -7.6120    242.5279    168.5030   6.9851147430e+01   5.1489537137e-01    0.1353162    0.1131903 -12.37 0.0008100042    1.010    0.010
       292  -7.9002    224.4792    153.5129   6.9854138269e+01   6.1813038434e+00    0.1420776    0.1258005 -15.67  0.000810184    1.005    0.005
       293  -8.1161    249.6228    150.8004   6.4949389602e+01   2.1680829712e+00    0.1930767    0.1097582 -41.50 0.0009455236    1.660    0.397
       294  -9.6321     65.6270    131.8486   1.0372149668e+02   4.0853372767e+01     0.403142    0.2996396  27.09  0.001206877    1.542    0.352
       295  -8.4256     13.2638    133.0430   1.1876962283e+02   4.5854399720e+01    0.1882511    0.1717716  80.48 0.0005938092    1.181    0.153
       296  -8.1938     25.4263    128.2670   1.1480127484e+02   4.6066269675e+01    0.1844473    0.1078389 -81.23 0.0009480336    1.584    0.368
       297  -7.5215     39.3480    126.7156   1.1054159638e+02   4.5173446400e+01     0.135141   0.09359322  69.26 0.0007018568    1.651    0.394
       298 -10.4941     69.3327    122.9069   1.0088606504e+02   4.2562731551e+01     0.249728    0.2387211  85.33 0.0003205464    1.093    0.085
       299  -7.7604     17.3900    124.4877   1.1660517994e+02   4.7615950679e+01    0.1280847    0.1010295 -75.13 -0.0001504573    1.031    0.030
       300  -9.0692     12.0217    114.9959   1.1695293521e+02   5.0275274766e+01    0.2640481    0.2037675 -45.35 0.0004748123    1.326    0.246
       301  -8.9406     15.2237    112.2282   1.1561391917e+02   5.0725961045e+01    0.2426571    0.1467291 -79.45 0.0007436236    1.477    0.323
       302  -8.3313     22.5461    114.0075   1.1363276360e+02   4.9765009324e+01    0.2025383    0.1061537 -68.57 0.0005954562    1.562    0.360
       303  -9.0265      5.7597    112.9235   1.1855381507e+02   5.1156010603e+01    0.2523208    0.2114432  34.06  0.001506092    1.470    0.320
       304  -7.6565     44.2772    104.7102   1.0507532818e+02   5.0058529659e+01     0.128356    0.1001095  80.72 0.0002218085    1.520    0.342
       305  -8.6590     33.9410     16.4787   8.1157839862e+01   6.9079893688e+01    0.2209372     0.169396   9.81  0.000480817    1.182    0.154
       306  -8.5118     30.4560     16.0489   8.2669829910e+01   6.9557297315e+01    0.2177731    0.1491868 -13.15 0.0006391429    1.232    0.188
       307  -9.0278    119.5385    102.2062   8.0856326090e+01   3.8771390159e+01    0.4540055    0.2754244 -57.57  0.001122354    1.916    0.478
       308  -8.5463     25.5393    103.3421   1.1097176090e+02   5.2105046066e+01    0.2039406    0.1659151   6.49 0.0006895601    1.503    0.335
       309  -8.0662      1.8378     20.1700   9.9754732630e+01   7.1366912207e+01    0.1635421   0.09841915 -25.04 0.0009794232    1.368    0.269
       310  -7.7106    217.4770    102.5788   5.9226629400e+01   1.6633520816e+01    0.1447013    0.1341278 -39.89 0.0001299164    1.012    0.012
       311  -7.9279    175.1291     13.6512   4.1854041059e+01   3.9751476348e+01    0.4024361    0.1559631  77.02  0.001480959    2.861    0.651
       312  -9.4815      9.9094    101.3624   1.1572226911e+02   5.3657736038e+01    0.3501938     0.139525  46.45  0.001526211    3.339    0.700
       313  -9.1164     16.5284     99.0792   1.1321444412e+02   5.3780815644e+01    0.2464775    0.1800779   5.63 -0.0001235304    1.718    0.418
       314  -7.5167     56.3754    100.1907   1.0007583271e+02   4.9774360971e+01    0.1956976    0.1239259 -69.15 0.0005000047    1.679    0.404
       315  -9.2684    249.9840     97.2781   5.3086146764e+01   1.0821193907e+01    0.2697514    0.1627903 -41.24 0.0005443422    1.416    0.294
       316  -7.7570    130.5617     97.5039   7.6498188619e+01   3.7448345989e+01    0.1553585    0.1510008 -41.92 0.0001605587    1.034    0.033
       317  -8.8758     72.5143     95.6710   9.3564106174e+01   4.8664817787e+01    0.3418534    0.2417765  19.75  0.001208746    1.645    0.392
       318  -8.2671     38.7261     94.5633   1.0483606290e+02   5.3046269008e+01     0.303087    0.1553611 -43.67  0.001374588    1.800    0.444
       319  -8.2130    165.3108     94.2297   6.7075991510e+01   3.0151922419e+01    0.2643198    0.2032594  39.67 0.0006656582    1.364    0.267
       320  -7.7810    145.7099     92.9782   7.1297188132e+01   3.4980250003e+01    0.2038633    0.1993499 -33.26 0.0004238405    1.014    0.014
       321  -7.6009    237.2995     92.2946   5.3698106574e+01   1.4170687012e+01    0.1321319    0.1070521   3.81 0.0006988871    1.570    0.363
       322  -8.7747    109.7155     15.6602   5.4007244531e+01   5.5429391960e+01    0.2357137    0.2086287  39.15 0.0005211509    1.019    0.019
       323  -9.2461     19.8917     90.7913   1.1063052489e+02   5.5506589835e+01     0.318951    0.2550027 -41.54  0.001337144    1.188    0.158
       324  -8.8759    210.2407     91.4940   5.7675142400e+01   2.0164879047e+01    0.2656114    0.1492376  61.32 0.0006878448    2.019    0.505
       325  -9.0350     55.3424     89.6726   9.7888962271e+01   5.2375591000e+01    0.3877125    0.2702265  39.24  0.002043988    1.639    0.390
       326  -8.6161     27.5665     88.5625   1.0749067297e+02   5.5449136540e+01    0.2464343    0.2017766  75.67  0.001507769    1.486    0.327
       327  -9.2148      5.5776     87.7604   1.1507550085e+02   5.7083807762e+01    0.3419183    0.2420671  -9.65  0.001445247    1.729    0.422
       328  -7.8984      1.3356     84.7801   1.1607339983e+02   5.7977462483e+01    0.1891514   0.09650582 -70.56 0.0004210326    1.573    0.364
       329  -9.1705    189.0482     87.9946   6.0516062857e+01   2.5684938381e+01    0.2317567    0.2161113  63.58            0    1.111    0.100
       330  -8.1970     79.4087     15.4831   6.2350734436e+01   6.1887688998e+01    0.1957026     0.114391  45.55 0.0001033313    1.562    0.360
       331  -8.0313     99.7226     90.3366   8.3302435657e+01   4.5294898323e+01    0.2378014    0.1671986 -10.94  0.001029928    1.925    0.481
       332  -8.0357    137.2618     88.7399   7.2182331130e+01   3.7763763048e+01    0.3234304     0.194304 -17.74  0.001172026    2.566    0.610
       333  -7.4453     97.3014     85.2830   8.2551896542e+01   4.6840510029e+01    0.1490381     0.114723  -7.15 0.0002136647    1.552    0.355
       334  -8.2174    230.5431     84.4983   5.2813039710e+01   1.6860632843e+01    0.2856206    0.1387515  57.20  0.001233343    2.253    0.556
       335  -7.6898      1.4020     13.2215   9.7192522547e+01   7.2587331595e+01    0.1447905    0.0920086 -51.83 0.0009453915    1.598    0.374
       336  -7.5242     74.5009     12.4816   6.2603627653e+01   6.3162088172e+01    0.1280928    0.1086817  18.07 0.0002387186    1.036    0.034
       337 -10.0297    195.7645     82.0959   5.7717351125e+01   2.5131935548e+01    0.3256191    0.2974559  71.61 0.0003681974    1.136    0.120
       338 -10.4756    188.7829     82.1630   5.8990675212e+01   2.6777382793e+01    0.3089564     0.250768  51.07 0.0002952569    1.274    0.215
       339  -8.9479     87.3860     83.1222   8.5084653687e+01   4.9093506460e+01    0.3156612    0.2742188 -68.02  0.001376079    1.346    0.257
       340  -9.2547     64.4401     83.6288   9.3071536682e+01   5.2568453452e+01    0.3280644    0.2778932  59.90   0.00183006    1.483    0.326
       341  -8.9134     68.8306     82.6152   9.1239571396e+01   5.2171203365e+01    0.2469916    0.1920072  35.32 0.0008164552    1.409    0.290
       342  -8.5217     12.1907     82.7280   1.1186401932e+02   5.7878418852e+01    0.4010835   0.05013649 -52.51  0.001367984    3.740    0.733
       343  -8.0625    146.0739     82.6732   6.8176201857e+01   3.6913460028e+01    0.2075076    0.1961843  38.19 0.0003855526    1.062    0.058
       344  -7.7526    135.6362     82.8939   7.0845088441e+01   3.9289969921e+01    0.2190352     0.139554 -50.04 0.0004091407    1.689    0.408
       345  -8.2382    125.4287     81.9367   7.3255206745e+01   4.1770714415e+01    0.3904824    0.2360436  30.18  0.001576531    2.017    0.504
       346  -8.3448     37.2875     82.0555   1.0250778230e+02   5.6099142114e+01     0.195363    0.1522807 -54.79 0.0006999974    1.111    0.100
       347  -8.0153     81.2538     79.4249   8.6005030622e+01   5.0929188831e+01    0.1973316    0.1379303  46.67 0.0008308344    1.637    0.389
       348  -8.2889     75.6998     78.6690   8.7677009179e+01   5.1990911862e+01    0.3517683    0.2587134  62.01  0.001437714    1.933    0.483
       349  -9.4029     72.2783     73.4977   8.7279270557e+01   5.3624682551e+01    0.5196617    0.2801412 -29.67  0.001522737    2.178    0.541
       350  -8.6627     68.1196     72.3359   8.8405285552e+01   5.4498499446e+01    0.4153634    0.2699239  26.87  0.001843473    1.671    0.401
       351  -7.6731     49.9283     79.7697   9.7250700608e+01   5.5280450535e+01     0.162958    0.1138404  21.33 0.0004836933    1.609    0.379
       352  -8.5284    151.9646     78.0762   6.5408762498e+01   3.6375872931e+01    0.2258635    0.2169267  31.46 0.0003434035    1.049    0.047
       353  -9.1014    199.7119     76.5792   5.5577707886e+01   2.5132619679e+01     0.308576     0.272576  44.28  0.000658266    1.225    0.184
       354  -7.7402    195.5077     77.4874   5.6532757466e+01   2.5976617483e+01    0.1481501     0.140202 -57.79 0.0008104934    1.010    0.010
       355  -7.4927    107.4974     77.4805   7.6989128570e+01   4.6466132994e+01    0.1488057    0.1443521 -24.95 0.0001899005    1.061    0.058
       356  -9.1137     31.9168     77.0130   1.0329718330e+02   5.7738056275e+01    0.3487881    0.1885881   7.24  0.001315276    2.433    0.589
       357  -8.4853     86.5054     76.0041   8.3172293239e+01   5.0752433531e+01    0.2292722    0.1354465 -41.40  0.001026756    1.596    0.373
       358  -9.9463     20.2300     74.5036   1.0717835271e+02   5.9229669651e+01    0.5664212    0.3459987  37.81  0.003169055    2.042    0.510
       359  -8.0697     20.5369     68.9271   1.0576191341e+02   6.0450535117e+01    0.1784643    0.1269827 -52.43 0.0003317686    1.128    0.113
       360  -8.4149      9.7990     76.0858   1.1147833775e+02   5.9530561529e+01    0.2208592    0.1596546 -36.13  0.001408391    1.305    0.234
       361  -7.7906     50.2090     75.1377   9.5867472386e+01   5.6276957728e+01       0.1728    0.1553066 -79.06 0.0003899331    1.352    0.260
       362  -8.1126    232.9494     74.4688   5.0085350828e+01   1.7935401141e+01    0.1938906    0.1368818  67.72  0.001016526    1.564    0.360
       363 -10.1292    243.8525     71.8111   4.8073996604e+01   1.6034063962e+01    0.4008455    0.3062654  80.38  0.001890897    1.468    0.319
