#   1 NUMBER                 Running object number                                     
#   2 MAG_AUTO               Kron-like elliptical aperture magnitude                    [mag]
#   3 X_IMAGE                Object position along x                                    [pixel]
#   4 Y_IMAGE                Object position along y                                    [pixel]
#   5 X_WORLD                Barycenter position along world x axis                     [deg]
#   6 Y_WORLD                Barycenter position along world y axis                     [deg]
#   7 A_WORLD                Profile RMS along major axis (world units)                 [deg]
#   8 B_WORLD                Profile RMS along minor axis (world units)                 [deg]
#   9 THETA_WORLD            Position angle (CCW/world-x)                               [deg]
#  10 FWHM_WORLD             FWHM assuming a gaussian core                              [deg]
#  11 ELONGATION             A_IMAGE/B_IMAGE                                           
#  12 ELLIPTICITY            1 - B_IMAGE/A_IMAGE                                       
         1 -13.6887      5.8915     14.7128   1.2021273092e+02   7.1614714414e+01     2.712248    0.5925868 -46.94   0.01193126    2.995    0.666
         2 -14.0514    203.2549     12.2331   6.4129638656e+01   3.2532750073e+01     2.067069     1.236693  42.60  0.009927604    1.992    0.498
         3 -13.2398    191.1760     29.5383   7.0447377892e+01   3.3650692474e+01     1.174629     1.039778  18.42  0.006634367    1.312    0.238
         4  -9.7516     88.8467    248.8649   1.3783783967e+02   1.3998248871e+01    0.1569302    0.1016917  64.32 0.0004030574    1.304    0.233
         5 -12.0375    247.6037    247.3891   1.1028332905e+02  -9.7867445099e+00    0.5111181    0.3552009  -1.32  0.003695085    1.321    0.243
         6 -10.3854    125.5730    250.1313   1.3159400952e+02   8.4421545437e+00     0.207316    0.1112826  40.76  0.001217141    1.527    0.345
         7  -9.9223    111.7860    250.3741   1.3402098086e+02   1.0468914731e+01    0.1594926   0.08919663  38.24 0.0006009073    1.630    0.386
         8 -11.3710     98.0443    248.2782   1.3620472617e+02   1.2794246862e+01    0.3301173    0.2219602  67.28  0.001486459    1.347    0.258
         9 -11.2315    101.2630    245.9883   1.3543441867e+02   1.2695708453e+01    0.2743468    0.2060571 -83.42 0.0007224332    1.465    0.318
        10 -10.9719     46.9820    249.5042   1.4484774345e+02   1.9301279986e+01    0.2592642    0.1376342  50.59  0.001047428    1.425    0.298
        11 -14.3437     32.1123    247.0146   1.4707870319e+02   2.1424035334e+01     11.03817      3.33825  30.46   0.02824507   14.566    0.931
        12 -13.3759      6.9479    243.9038   1.5083207400e+02   2.4569452729e+01     1.331365     1.212634 -72.88   0.01216219    1.765    0.433
        13 -10.6655    139.3003    245.5815   1.2867119710e+02   7.0020660843e+00    0.1727799    0.1437809 -12.86  0.001184576    1.750    0.429
        14 -10.7192    124.5019    243.0012   1.3102174653e+02   9.6899421192e+00    0.1936213    0.1300334  46.95 0.0007605942    1.172    0.147
        15 -11.0941    140.5112    250.1910   1.2898216570e+02   6.1427949224e+00      0.48314    0.1187497  39.84  0.001861314    3.457    0.711
        16 -15.2827      7.3530    206.8229   1.4906229561e+02   3.1187530470e+01     7.808974    0.8274021 -75.02   0.02636517    6.429    0.844
        17 -10.8374    120.1026    238.0402   1.3127175994e+02   1.1149401604e+01    0.2777528    0.1506389 -75.82  0.001438548    2.773    0.639
        18 -11.4853     81.6301    243.8469   1.3865532654e+02   1.5813096310e+01    0.2807782    0.2444496   0.48  0.002013676    2.030    0.507
        19 -10.0511     85.4810    246.4633   1.3821152285e+02   1.4853472501e+01    0.1813328    0.1013907 -63.57  0.001053477    2.074    0.518
        20  -9.7839     69.2326    233.9763   1.4000463178e+02   1.9162958605e+01    0.1805699    0.1165978  66.89 0.0006592472    1.279    0.218
        21  -9.7745    229.6406    229.8334   1.1048792710e+02  -5.2803770332e+00    0.1441774    0.1056004 -37.31 0.0006008506    1.731    0.422
        22 -10.8883     19.2764    229.5070   1.4822669730e+02   2.5829738432e+01    0.2406956    0.1821019  31.31  0.001841739    1.883    0.469
        23 -13.3092     43.5239    230.3634   1.4420765124e+02   2.3008602231e+01    0.6576985    0.3694189  36.21  0.002061074    1.966    0.491
        24  -9.0613     94.7923    216.7960   1.3367434006e+02   1.8663785936e+01    0.1698467     0.116413  67.86 0.0003790357    1.352    0.260
        25  -8.8922    152.7023    212.9538   1.2191400152e+02   9.9147420898e+00    0.1627683    0.1512019  54.83 0.0003463694    1.106    0.095
        26 -10.4576     32.3703    207.0542   1.4459715020e+02   2.8628758394e+01    0.3093943    0.1286791  62.28   0.00142421    2.203    0.546
        27 -13.9388     56.7265    212.2545   1.4047587016e+02   2.4764924053e+01     2.357849    0.7845142  54.42   0.01070432    2.770    0.639
        28 -11.4492     67.0377    196.6723   1.3700838804e+02   2.6501817124e+01    0.3436341    0.2391587 -47.44  0.001586198    1.962    0.490
        29 -11.6219     72.2197    189.3606   1.3515356141e+02   2.7296096374e+01     0.254469    0.2181618 -65.60 0.0005021535    1.321    0.243
        30  -9.9578    192.6867    194.2441   1.1108220772e+02   5.7999651219e+00    0.4410498    0.2071237 -58.91  0.001331126    6.195    0.839
        31 -13.7989     48.5781    221.2201   1.4268031437e+02   2.4075249465e+01    0.9663803    0.5596781  57.78  0.004572322    1.377    0.274
        32 -10.8100     81.4243    176.8850   1.3164617008e+02   2.8617829127e+01    0.2336679    0.2020883 -85.89 0.0004449162    1.091    0.083
        33 -13.0945     68.6297    174.7030   1.3419560175e+02   3.0892865554e+01    0.4555327    0.2763297 -45.78  0.001440846    2.168    0.539
        34  -9.2598    119.5005    174.5248   1.2282638294e+02   2.2955002977e+01    0.1382918    0.1243043  67.33 0.0002476005    1.020    0.019
        35 -10.8441     81.8515    249.0633   1.3904557476e+02   1.4928249954e+01    0.2764739    0.1679393  58.83  0.001480561    1.290    0.225
        36 -11.9392     88.4233    167.5925   1.2876728342e+02   2.9579733473e+01    0.6928324    0.4993331  58.39  0.003880874    1.321    0.243
        37 -11.8168     32.4214    156.3696   1.4025451789e+02   3.9230980945e+01    0.3935459    0.1889089 -57.31  0.002059638    2.028    0.507
        38 -12.2237     57.9874    133.0807   1.3091438035e+02   4.1683247945e+01     1.725276    0.5800326 -75.41  0.004394214    6.842    0.854
        39  -9.1481    103.2991    147.3212   1.2184659335e+02   3.1663195007e+01    0.2171931     0.195948 -30.93  0.001233126    1.322    0.243
        40 -12.0644     89.1136    150.9307   1.2596675978e+02   3.3180623698e+01    0.2671248    0.2451346 -46.06 0.0004782585    1.255    0.203
        41 -12.7519     67.5821    144.6640   1.3028268886e+02   3.7759352061e+01     1.013943    0.5813954  87.86  0.004597275    2.272    0.560
        42  -8.5562    192.2407    143.9834   1.0097208687e+02   1.4496264906e+01    0.1820503    0.1225892 -38.03 0.0003597435    1.498    0.332
        43  -9.7306    111.1891    136.6145   1.1777662847e+02   3.2670325198e+01    0.3372476    0.2335664 -27.75  0.001365718    2.014    0.504
        44 -10.8002     50.3440    129.8057   1.3241563820e+02   4.3360068599e+01    0.2489014    0.1992571  72.84 0.0006180392    1.254    0.203
        45 -10.4260     98.6109    134.0910   1.2046509600e+02   3.5458983191e+01    0.2830344    0.2279107 -34.41 0.0005739081    1.459    0.315
        46  -9.5847     40.6539    129.3131   1.3490700689e+02   4.4539121935e+01     0.132462     0.085089  72.55 0.0007046763    1.713    0.416
        47 -14.9926     17.7667    168.8308   1.4460696647e+02   3.7920673174e+01     5.752368     1.919726  84.84   0.02026226    4.800    0.792
        48  -9.6184    107.8581    123.7022   1.1584057911e+02   3.6185267031e+01    0.2173634    0.1897891 -44.06 0.0003300876    1.171    0.146
        49 -10.8992    168.2332    113.2987   9.8576113504e+01   2.5668106019e+01    0.3487968    0.3040773 -76.72 0.0007750203    1.315    0.240
        50  -9.2644    203.8195    111.0107   9.0806029779e+01   1.7865696829e+01    0.2495515    0.1729928  -3.06 0.0008304158    1.990    0.498
        51  -9.9597    100.5184    151.4827   1.2328361355e+02   3.1203486849e+01    0.2906957    0.2646718 -40.56 0.0008762613    1.268    0.212
        52 -10.0155    163.3329    249.0640   1.2483734753e+02   2.7316298773e+00    0.1583961    0.1362164  44.73 0.0008505274    1.125    0.111
        53 -11.0968    106.5349    247.4090   1.3464857972e+02   1.1701977036e+01    0.2893458    0.1853646  87.55  0.001787684    1.902    0.474
