#   1 NUMBER                 Running object number                                     
#   2 MAG_AUTO               Kron-like elliptical aperture magnitude                    [mag]
#   3 X_IMAGE                Object position along x                                    [pixel]
#   4 Y_IMAGE                Object position along y                                    [pixel]
#   5 X_WORLD                Barycenter position along world x axis                     [deg]
#   6 Y_WORLD                Barycenter position along world y axis                     [deg]
#   7 A_WORLD                Profile RMS along major axis (world units)                 [deg]
#   8 B_WORLD                Profile RMS along minor axis (world units)                 [deg]
#   9 THETA_WORLD            Position angle (CCW/world-x)                               [deg]
#  10 FWHM_WORLD             FWHM assuming a gaussian core                              [deg]
#  11 ELONGATION             A_IMAGE/B_IMAGE                                           
#  12 ELLIPTICITY            1 - B_IMAGE/A_IMAGE                                       
         1 -13.5264      6.1141     62.8243   1.3559386719e+02   6.0982381135e+01     2.732069          nan -65.18  0.001225783    5.617    0.822
         2 -14.7502      7.8192    207.5222   1.4601378097e+02   3.2329472091e+01     5.922021     1.560124 -75.20   0.03388821    3.337    0.700
         3 -14.5185      2.2968    152.1284   1.4459663683e+02   4.2471539536e+01     2.908009    0.9685791 -76.00   0.01629029    2.383    0.580
         4 -13.2194      3.6313     10.5529   1.2424291203e+02   7.2285562348e+01     1.828193    0.6115562 -56.46   0.00918709    2.041    0.510
         5 -13.4934    205.0359      9.3269   6.3792794118e+01   3.1991238434e+01     1.586273     1.083889  25.07  0.007614623    1.622    0.383
         6 -13.3687    190.6786     26.5356   7.1205036762e+01   3.4035389339e+01     1.627487     1.284747 -22.73  0.007607359    1.229    0.186
         7 -11.2446     13.0634    241.6005   1.4637901658e+02   2.6785044436e+01    0.2557214    0.1211378  82.00  0.002034788    1.790    0.441
         8 -11.5474    139.2415    249.0014   1.2799881090e+02   1.1398329340e+01    0.2945644     0.281618  63.08  0.002803639    1.356    0.263
         9 -11.2571    101.0268    248.3540   1.3378941211e+02   1.6440219900e+01    0.3834488    0.1790422  35.59  0.001628119    2.100    0.524
        10  -8.7514     67.4640    250.5305   1.3894385526e+02   2.0114634777e+01   0.09402604   0.06274656  57.69 9.635265e-05    1.031    0.030
        11 -11.4218     28.0222    248.9817   1.4453287694e+02   2.4393327247e+01    0.5230613    0.1082027  46.71  0.003177115    2.621    0.619
        12 -10.4445     33.5877    248.1905   1.4371888933e+02   2.3964439288e+01    0.2160539    0.1220762  54.28  0.001321273    1.193    0.162
        13 -10.7351     35.4430    243.8894   1.4327912715e+02   2.4370607147e+01    0.3309228    0.2119251  24.46  0.002496964    2.662    0.624
        14 -10.7553      7.9026    249.8482   1.4732983350e+02   2.6106448189e+01     0.332566    0.1344522  37.19   0.00247777    2.306    0.566
        15 -11.3091      2.0689    248.5754   1.4808299441e+02   2.6778299528e+01    0.6644049    0.1655522 -81.51   0.00413788    3.783    0.736
        16 -11.6515      5.7062    241.0142   1.4738812117e+02   2.7509212845e+01    0.3334182    0.2453382 -75.38 0.0003791565    1.749    0.428
        17 -10.2211      2.2820    240.6378   1.4785195976e+02   2.7852883466e+01    0.2087571   0.08893174  79.51  0.001625865    1.908    0.476
        18 -12.1375     21.6778    200.8216   1.4349709830e+02   3.2193375127e+01    0.5741878    0.1012679  47.68  0.002476257    3.248    0.692
        19 -10.5696    125.8633    249.7359   1.3011301388e+02   1.3094573239e+01     0.289283   0.06002143  42.75  0.001311713    3.334    0.700
        20 -10.4894     81.4198    248.5199   1.3675717025e+02   1.8784358880e+01    0.2091998    0.1303442  60.30  0.001720252    1.239    0.193
        21  -9.3664     19.9657    229.6897   1.4497739038e+02   2.7865624309e+01    0.1307595   0.08045129  56.90 0.0006160471    1.143    0.125
        22  -9.9176    162.9873    226.5179   1.2189211912e+02   1.0644780099e+01    0.1738224   0.08197069  41.90 0.0007100097    1.594    0.373
        23 -10.5700    173.8298    222.3387   1.1961176831e+02   9.5096842129e+00    0.3010959    0.2414585  76.12  0.002187711    1.820    0.451
        24 -13.8036     46.6957    226.4471   1.4076886315e+02   2.5721557168e+01    0.8380747    0.5062734  59.29  0.005443705    1.192    0.161
        25  -9.9582    183.5644    238.2523   1.1998774043e+02   6.3411591723e+00    0.1229307   0.09397418  -5.09 0.0009510017    1.653    0.395
        26  -8.7480    152.4867    212.9603   1.2202331326e+02   1.3898136451e+01    0.1284569    0.1123783 -50.02 0.0003045902    1.464    0.317
        27 -12.8609      2.5994    181.9959   1.4590072246e+02   3.7005201596e+01     1.437628    0.4733888 -73.11    0.0057656    2.634    0.620
        28 -11.2612     65.7689    199.2105   1.3583204715e+02   2.7868942985e+01    0.2579392    0.1990456 -50.06 0.0007872483    1.860    0.462
        29  -9.7774    191.9885    192.9981   1.1241950488e+02   1.0120971225e+01    0.3265002    0.2047998 -63.77  0.001554161    3.779    0.735
        30  -8.9141     51.2883    197.2722   1.3823858704e+02   2.9823906071e+01    0.1399326   0.08553755  62.24 0.0004929335    1.306    0.234
        31 -11.5506     71.3286    191.2450   1.3417387098e+02   2.8537252145e+01    0.2037095    0.1880778  86.62 0.0005192449    1.291    0.225
        32  -8.3507    103.9253    180.0047   1.2685229731e+02   2.6138056692e+01    0.1324937    0.1084653  56.30 0.0009207071    1.038    0.036
        33 -13.0847     67.8910    176.3597   1.3346707856e+02   3.1556269214e+01    0.3938475    0.2445988 -46.29   0.00179318    2.321    0.569
        34 -10.7200     80.7079    178.3941   1.3117966768e+02   2.9590730835e+01    0.1939671    0.1713378  85.38  0.000336007    1.149    0.130
        35  -8.4902    171.5170    173.4497   1.1291757258e+02   1.6239272482e+01    0.1257669    0.1068795  36.16  9.97676e-05    1.014    0.014
        36 -11.6441     87.9939    168.7394   1.2866372480e+02   3.0360594195e+01    0.5813293    0.4569947  50.15  0.004011782    1.168    0.144
        37 -10.5736    190.4919    153.9600   1.0581827063e+02   1.5590905966e+01    0.4150571    0.3028322 -81.23  0.001753603    2.823    0.646
        38 -10.8998     32.2633    156.0775   1.3881333321e+02   3.9212819482e+01    0.2668061    0.1230963 -73.68  0.001581638    1.892    0.471
        39  -9.8200     99.6607    152.5252   1.2409002728e+02   3.1724269858e+01    0.2447725    0.2052662  76.49 0.0007426133    1.136    0.120
        40 -11.8589     88.4906    152.0844   1.2644487973e+02   3.3421527170e+01    0.2272116    0.2187061 -47.51 0.0006946858    1.285    0.222
        41 -12.3326     67.1619    143.9688   1.3008901629e+02   3.7833533602e+01    0.6854412    0.4271088  75.30   0.00382741    1.723    0.419
        42 -11.4281     57.7930    132.9817   1.3085506139e+02   4.1199309433e+01    0.8338371    0.3080337 -81.39  0.002777394    5.127    0.805
        43  -9.4603    184.3121    147.7532   1.0574882446e+02   1.7682690555e+01    0.2742698    0.2123557 -71.96  0.001032681    2.053    0.513
        44  -8.6993    102.5905    148.2528   1.2281459173e+02   3.2099401732e+01    0.1646948     0.112902 -47.76 0.0008075906    1.633    0.388
        45  -8.3355    192.0047    143.9922   1.0351856116e+02   1.6746446684e+01    0.1586521    0.1420413  10.86 0.0003995384    1.054    0.051
        46  -8.9798    180.1358    143.0914   1.0560355231e+02   1.9203875504e+01    0.1956519    0.1668015  89.64 0.0006721835    1.648    0.393
        47  -9.5226    110.4762    137.5885   1.1931023284e+02   3.2923557040e+01    0.3016126    0.2041747 -19.65  0.001168509    2.641    0.621
        48 -11.0264     25.2279    138.0085   1.3884238751e+02   4.3434388101e+01    0.1846387    0.1495149  56.05  0.001408265    1.262    0.208
        49 -10.4024     98.1455    134.8182   1.2166400477e+02   3.5414805258e+01    0.2287247    0.2058329 -37.21 0.0004223117    1.312    0.238
        50  -9.4517     46.7931    248.7331   1.4185650542e+02   2.2567558129e+01    0.2105723   0.07811603  65.49 0.0009129037    2.541    0.606
        51  -9.5836     86.8639    136.7594   1.2459082786e+02   3.6684685642e+01    0.2161901    0.1642594  72.17 0.0005001939    1.328    0.247
        52 -10.1088    163.1176    127.5922   1.0572991719e+02   2.5110946636e+01    0.5639802    0.3636522  84.81  0.002060722    3.815    0.738
        53  -9.4365    107.5275    124.1199   1.1752898151e+02   3.6082093287e+01    0.1778722    0.1670545  60.71 0.0003370479    1.054    0.051
        54 -14.2375     56.0937    213.6698   1.3851204720e+02   2.6652393110e+01     6.805479          nan  44.54   0.02132254    7.703    0.870
        55 -10.2868    168.0093    113.1472   1.0134549973e+02   2.6576131264e+01     0.321339    0.2802639  88.26 0.0008976707    1.466    0.318
        56  -9.1626    203.4599    111.5451   9.3977733860e+01   1.9179057371e+01    0.1476489    0.1272236  12.59 8.688739e-05    1.070    0.066
        57 -12.5022     40.6995    233.8790   1.4206026629e+02   2.5254868721e+01    0.2276831    0.1894263 -87.41 0.0007913058    1.451    0.311
        58  -9.6634     35.1342     93.1592   1.3117193787e+02   5.2151712124e+01      0.25488    0.1643732  51.81 0.0009284654    1.709    0.415
        59  -9.0182    156.3140     75.6947   9.3688537161e+01   3.5676380776e+01    0.1502465    0.1213885 -71.06 0.0003046068    1.621    0.383
        60 -11.0925     14.6113     65.6618   1.3315087113e+02   5.9856060422e+01    0.2927921    0.2064299  43.17 0.0009892208    1.714    0.416
        61  -9.2824     31.3216     61.7117   1.2658784858e+02   5.9493274134e+01    0.2235847    0.1611129  37.50 0.0008610168    1.680    0.405
        62 -10.4437      1.9845     51.7089   1.3528122748e+02   6.3635776404e+01    0.2718438    0.1210388 -67.19  0.001524353    1.605    0.377
        63 -10.9542      2.3270     46.5122   1.3423526046e+02   6.4756595653e+01    0.3401306    0.1112872 -74.48  0.001517374    2.652    0.623
        64 -10.6070    196.1823    240.9975   1.1836248242e+02   4.2513081241e+00    0.1837681    0.1652292  72.86  0.001544755    1.720    0.419
        65 -10.3202     82.0113    242.9509   1.3630743664e+02   1.9446360192e+01    0.3349484    0.1271645  61.32  0.001865303    2.909    0.656
