#   1 NUMBER                 Running object number                                     
#   2 MAG_AUTO               Kron-like elliptical aperture magnitude                    [mag]
#   3 X_IMAGE                Object position along x                                    [pixel]
#   4 Y_IMAGE                Object position along y                                    [pixel]
#   5 X_WORLD                Barycenter position along world x axis                     [deg]
#   6 Y_WORLD                Barycenter position along world y axis                     [deg]
#   7 A_WORLD                Profile RMS along major axis (world units)                 [deg]
#   8 B_WORLD                Profile RMS along minor axis (world units)                 [deg]
#   9 THETA_WORLD            Position angle (CCW/world-x)                               [deg]
#  10 FWHM_WORLD             FWHM assuming a gaussian core                              [deg]
#  11 ELONGATION             A_IMAGE/B_IMAGE                                           
#  12 ELLIPTICITY            1 - B_IMAGE/A_IMAGE                                       
         1 -14.8686      3.7069    125.5893   1.4230849111e+02   4.6979752230e+01     3.940039    0.5662875 -78.93   0.01287644    5.902    0.831
         2 -13.5987    196.6639     27.8887   6.8474461835e+01   3.2215442031e+01     1.481765     1.353191   5.39  0.006312233    1.058    0.054
         3 -13.5483    213.2048      7.3424   5.9988784702e+01   2.9941641907e+01    0.9966071    0.8774056  45.01  0.005455179    1.135    0.119
         4 -11.9786     67.5186    143.4923   1.2909933853e+02   3.7500166276e+01    0.5803112    0.3302014  60.95   0.00291459    1.884    0.469
         5 -11.5458    238.4388    247.0215   1.1069145584e+02  -2.7054091800e+00    0.2302417    0.1373642  36.39  0.001416379    1.330    0.248
         6 -11.2359    226.7335    249.4595   1.1280567791e+02  -1.3082988965e+00    0.2423673    0.1327216  43.21  0.001644409    1.672    0.402
         7 -12.8504    152.7670    249.1562   1.2448380707e+02   9.0085908063e+00    0.7159056    0.1779775  43.16  0.003377597    2.850    0.649
         8 -13.3120    140.9342    247.9368   1.2627007647e+02   1.0758953933e+01    0.7712865    0.3455532  54.73  0.004404198    2.468    0.595
         9 -10.6162      8.3642    249.8631   1.4656819003e+02   2.5336585832e+01    0.1548378   0.09768258  44.54  0.001270221    1.399    0.285
        10 -11.3540      2.6814    247.8549   1.4729985903e+02   2.6084107704e+01    0.2905736    0.1517793 -66.83  0.002424245    2.508    0.601
        11 -11.6511     99.9722    248.3037   1.3284776310e+02   1.6016397643e+01    0.2552373    0.1835284  37.31  0.002101889    1.323    0.244
        12  -9.9455     81.0389    248.3091   1.3581075783e+02   1.8271791863e+01    0.2228964    0.1035342  85.64  0.001299993    3.479    0.713
        13 -11.5907    179.6266    246.7301   1.1990244147e+02   5.5237337377e+00    0.2363355    0.1457502  30.45  0.001697989    1.276    0.216
        14 -12.0574     18.8880    248.1862   1.4504964668e+02   2.4650559046e+01    0.2951658    0.2299348  34.74  0.002860319    1.691    0.409
        15 -12.7728    109.7739    231.3912   1.2989486143e+02   1.7004988736e+01    0.7114974    0.1151321  42.69  0.002821129    4.029    0.752
        16 -12.7575     47.3583    216.9370   1.3933559498e+02   2.6488268296e+01    0.6062925    0.3212092  52.45  0.003984787    1.414    0.293
        17 -11.5365     91.4708    227.7707   1.3267466544e+02   1.9842246127e+01    0.2817392    0.1048744  45.22   0.00162672    1.971    0.493
        18 -10.3442     56.8537    223.9258   1.3817142681e+02   2.4419151381e+01     0.197346     0.162781  70.38  0.001755708    1.182    0.154
        19  -9.3797    172.6844    222.6543   1.1816834669e+02   9.1818191286e+00    0.1129369   0.07394055  17.39 0.0007047965    1.718    0.418
        20 -14.5992     35.8661    230.6052   1.4186929473e+02   2.5567462068e+01    0.8369681    0.6322517 -73.03  0.007580865    1.628    0.386
        21 -12.0832    173.5645    248.6887   1.2109424499e+02   6.1743977229e+00    0.3261508    0.2222004  40.76  0.002512649    1.121    0.108
        22  -9.8821     20.6316    212.1687   1.4348828591e+02   2.9798154934e+01    0.2531962    0.1143129  35.15  0.001739795    2.122    0.529
        23 -12.1332     10.3270    207.0706   1.4495580950e+02   3.1494046335e+01    0.4539945     0.259886  30.71  0.002946567    2.021    0.505
        24 -11.8498     59.2409    200.7655   1.3624645196e+02   2.7821612481e+01    0.2030005    0.1762497  76.36 0.0005211312    1.188    0.158
        25  -9.8728     12.2967    195.9114   1.4420140490e+02   3.3160721770e+01    0.1654214   0.09352183  53.09 0.0006403819    1.366    0.268
        26 -12.0700     65.8768    192.1233   1.3436167700e+02   2.8532230543e+01    0.2071721    0.1810126  63.65 0.0004019845    1.148    0.129
        27 -13.1829     62.9398    177.0755   1.3364179172e+02   3.1532812528e+01    0.3940054    0.2356981 -47.73    0.0016987    2.285    0.562
        28 -10.8822     76.5598    178.7342   1.3107222952e+02   2.9611662709e+01    0.1972246    0.1690661  58.35 0.0003451297    1.080    0.074
        29  -9.3341     98.3667    175.1497   1.2623742225e+02   2.7383518182e+01    0.1574514    0.1349116  77.96  0.001096613    1.141    0.123
        30 -12.0776     84.1985    169.6992   1.2853968438e+02   3.0290989649e+01    0.5782599    0.4716014  17.96  0.003881839    1.592    0.372
        31 -13.1856     10.2637    157.2261   1.4276426194e+02   4.0252293203e+01      1.27483    0.4655465  82.50  0.006574398    2.752    0.637
        32 -12.0759    244.8242    246.3843   1.0963562013e+02  -3.5156826455e+00    0.3308502      0.21456 -20.92  0.002563823    1.873    0.466
        33 -10.5771     96.8041    153.4725   1.2372700350e+02   3.1638413064e+01    0.2563047    0.2547553 -72.83 0.0008395604    1.166    0.142
        34 -10.1034    109.0797    137.8935   1.1842790248e+02   3.2839030096e+01    0.3509691    0.2539909 -14.15  0.001787014    2.137    0.532
        35 -10.5600     95.9978    135.3760   1.2113877627e+02   3.5356125745e+01    0.2167966    0.1800828 -57.55 0.0003456221    1.223    0.183
        36 -10.7305     29.8153    130.7066   1.3659177860e+02   4.4011276180e+01    0.2504965     0.155725  58.01 0.0006095064    1.544    0.353
        37  -8.7877    115.2961    130.3462   1.1555941377e+02   3.3327723050e+01    0.1337367    0.1054224 -13.01 0.0007033239    1.673    0.402
        38 -11.8134     21.3116    126.1694   1.3821184999e+02   4.5646386912e+01    0.4357171    0.1719418  48.98  0.001626695    2.481    0.597
        39  -9.2052    106.2788    124.2641   1.1661826975e+02   3.6045593897e+01    0.1670914    0.1448131  75.17 0.0003585708    1.232    0.188
        40  -9.4481     99.9378    149.0466   1.2236827394e+02   3.2041962025e+01    0.1829744    0.1694155  61.27 0.0003301829    1.027    0.026
        41 -12.0467     85.4091    152.4746   1.2615481265e+02   3.3420039728e+01    0.2502891    0.2177252 -49.83 0.0006055533    1.321    0.243
        42  -9.9365    157.9795     76.3123   9.1527192383e+01   3.5119795898e+01    0.2210554    0.2003209  32.82  0.000603337    1.087    0.080
        43 -11.9989      4.9349     51.2769   1.3421485245e+02   6.3066654102e+01    0.4227414    0.2318069  19.87  0.002576801    2.324    0.570
        44  -9.6381    134.0000    146.3685   1.1418750792e+02   2.7044463841e+01     0.411921     0.076564 -48.59  0.001146943    5.841    0.829
        45 -11.4783    198.6686    247.2580   1.1692039024e+02   2.7859304040e+00    0.2812691    0.2021801 -55.21  0.002014987    2.672    0.626
        46 -12.6067    122.0787    249.1654   1.2940546986e+02   1.3114064035e+01    0.3762922    0.2788246  38.47  0.003112767    1.186    0.157
