#   1 NUMBER                 Running object number                                     
#   2 MAG_AUTO               Kron-like elliptical aperture magnitude                    [mag]
#   3 X_IMAGE                Object position along x                                    [pixel]
#   4 Y_IMAGE                Object position along y                                    [pixel]
#   5 X_WORLD                Barycenter position along world x axis                     [deg]
#   6 Y_WORLD                Barycenter position along world y axis                     [deg]
#   7 A_WORLD                Profile RMS along major axis (world units)                 [deg]
#   8 B_WORLD                Profile RMS along minor axis (world units)                 [deg]
#   9 THETA_WORLD            Position angle (CCW/world-x)                               [deg]
#  10 FWHM_WORLD             FWHM assuming a gaussian core                              [deg]
#  11 ELONGATION             A_IMAGE/B_IMAGE                                           
#  12 ELLIPTICITY            1 - B_IMAGE/A_IMAGE                                       
         1 -14.2190    167.5054     74.3120   7.9237349639e+01   3.3148159700e+01     4.219072     1.778214 -40.84  0.006402891    2.375    0.579
         2 -14.7932    215.0715     69.5258   6.9183867032e+01   2.2190044189e+01     5.767056     1.951642 -36.15   0.01988626    2.728    0.633
         3 -14.8251    243.7059     15.6210   5.0650252810e+01   2.1681604875e+01    0.8814875    0.6645999 -27.25  0.002794661    1.246    0.198
         4 -17.1053    245.0513     33.8141   5.5388320293e+01   1.9413921041e+01     9.567756     3.636483  64.29   0.01866657    2.690    0.628
         5 -14.5710    204.2035     66.6002   7.0117302997e+01   2.5278986741e+01     3.953272     1.719714 -49.89   0.01311503    3.205    0.688
         6 -15.8265    246.0827     95.5918   7.1281045702e+01   1.1560967721e+01      8.60724     2.431706 -24.75    0.0271752    3.805    0.737
         7 -15.0002    248.4574      9.3167   4.8571695199e+01   2.1171004873e+01     1.588013     0.640842 -54.43  0.006126319    2.873    0.652
         8 -10.4710     92.2658     15.8703   7.6813013488e+01   5.9584629450e+01    0.6063293    0.2177798 -30.06  0.002315477    2.628    0.619
         9  -9.6973    165.6356      2.8702   5.5604377999e+01   4.3279291153e+01    0.3922591    0.2183322  -1.17  0.001107619    2.167    0.539
        10 -11.6052    206.8728      1.6256   5.0202658186e+01   3.2364926809e+01     0.220423    0.1769464  58.87  0.001145422    1.231    0.187
        11  -9.4846    159.1609      1.6651   5.6116514787e+01   4.5114673247e+01    0.2719036    0.1844462  34.34  0.001037375    1.516    0.340
        12  -8.7040    177.1807     11.8606   5.7102203199e+01   3.9311247312e+01    0.1933968     0.108922 -24.37 0.0008256725    1.773    0.436
        13  -8.3147    103.3082    161.0052   1.1262986837e+02   2.9447716456e+01     0.121894    0.1052443 -85.19 0.0003036105    1.138    0.121
        14 -13.7135    170.3386    246.4402   1.1112500796e+02   6.3486050524e+00     2.680939    0.5048058  43.81   0.01078328    3.793    0.736
        15 -13.7624    136.1386    229.5078   1.1477977828e+02   1.3445311133e+01     2.354442    0.7595784  46.23   0.01183101    2.317    0.568
        16  -8.4280      6.8236    236.1110   1.3535713922e+02   2.8102197361e+01    0.1071972   0.08207095  74.24 0.0004602723    1.296    0.228
        17 -10.0175    216.0851    152.1559   8.8977917422e+01   1.0166979191e+01    0.2061598    0.1882943  13.47 0.0003381939    1.092    0.084
        18  -8.6787    179.1625    146.6325   9.4646206460e+01   1.8284827318e+01    0.2067751    0.1576127  59.79 0.0005988029    1.423    0.297
        19  -8.8963    191.3531    143.8690   9.1755370885e+01   1.6266415549e+01     0.232769    0.1750332  55.66 0.0007694014    1.399    0.285
        20  -7.8361     82.3208    143.6257   1.1472009177e+02   3.5964942189e+01    0.1344819   0.08399064  75.55 0.0007030375    1.810    0.448
        21  -8.8108    192.8127    139.6238   9.0592950466e+01   1.6620859166e+01    0.2482435    0.1839598  61.68 0.0005473376    1.567    0.362
        22  -9.8733    188.6691    138.1465   9.1064728874e+01   1.7701437330e+01    0.3131559    0.2464414  60.97  0.001704911    1.420    0.296
        23 -11.2157    210.1501    135.7628   8.6584312276e+01   1.3634218583e+01    0.4865305    0.3912727  77.54  0.002617583    1.766    0.434
        24 -10.1228    197.8249    130.9392   8.7770034510e+01   1.6914501651e+01    0.2575561    0.1971926  45.35  0.001070181    1.240    0.193
        25  -9.9983    189.5322    130.7722   8.9299967150e+01   1.8686357696e+01    0.2691866    0.1871171  45.12  0.001038393    1.347    0.258
        26  -7.9787    132.6577    136.3019   1.0222628845e+02   2.9159572269e+01    0.1394594    0.1021577  77.69 0.0003450931    1.677    0.404
        27 -11.7442    204.5118    123.0045   8.4738415453e+01   1.6701211076e+01    0.7922902    0.3860026 -26.83  0.003284467    2.293    0.564
        28 -11.4160    196.1998    119.9131   8.5557391178e+01   1.8974039136e+01    0.6154299    0.4308944 -85.74  0.002401833    2.671    0.626
        29  -8.7681    160.7427    128.3615   9.4548771586e+01   2.5112606919e+01    0.2652286    0.1738321 -54.18  0.001271768    1.767    0.434
        30  -9.7250    134.7566    123.3882   9.9147862359e+01   3.1242354174e+01    0.7260801    0.3210971 -59.59  0.002589297    3.324    0.699
        31 -11.4728    185.5843    121.7368   8.8017746445e+01   2.0985877408e+01    0.6049304    0.5182679  10.73   0.00328713    1.221    0.181
        32  -9.0977    129.1706    115.6956   9.8766210117e+01   3.3827629995e+01    0.3036306    0.2060175 -73.12  0.001146845    1.947    0.486
        33  -9.0954    158.4799    114.7854   9.1956817034e+01   2.8029870214e+01    0.3813171    0.2241571 -66.01   0.00106065    2.933    0.659
        34  -8.5054     90.8086    115.6652   1.0809783229e+02   4.0531181484e+01    0.1833088    0.1451713 -61.28  0.000511949    1.200    0.167
        35  -9.4814    175.8185    115.2604   8.8439455454e+01   2.4195394273e+01    0.2286858    0.1851485  72.32  0.001171748    1.476    0.322
        36 -10.4793    167.9293    113.8789   8.9734678446e+01   2.6157255794e+01    0.3701672    0.3119953  61.10 0.0009345193    1.248    0.198
        37  -9.6123    134.7355    109.0599   9.5946139204e+01   3.4040358482e+01    0.7423025    0.1514506 -45.88   0.00200212    4.968    0.799
        38  -9.1361    196.1064    111.4851   8.3557962877e+01   2.0322773632e+01    0.2175311    0.1381373  48.95 0.0004996289    1.529    0.346
        39 -10.0775    113.3016    105.9402   1.0041294663e+02   3.8780378783e+01    0.3431259     0.242197 -30.43  0.001467372    1.786    0.440
        40  -8.5078    140.4704    105.8282   9.3835022151e+01   3.3499617773e+01    0.1971072    0.1377913 -28.78 0.0009270147    1.682    0.406
        41 -10.8074    120.2366    104.3472   9.8321893748e+01   3.7816187886e+01    0.4003741    0.2479804 -43.75  0.001261322    1.640    0.390
        42 -10.7930    124.0000    102.4304   9.6938867766e+01   3.7480619847e+01    0.5502741    0.3693428  72.53  0.002493238    2.053    0.513
        43  -9.5331    146.3724    102.3098   9.1605197579e+01   3.2932081054e+01    0.3144826    0.2346016  29.03 0.0006551372    1.531    0.347
        44 -11.2555    196.9909     96.9591   7.9727562050e+01   2.2415504419e+01    0.4973167    0.4304223 -14.54  0.001436194    1.155    0.134
        45 -10.5995    155.5622     97.1592   8.8211014094e+01   3.1890992123e+01    0.4787081    0.3662983  20.59  0.002323818    1.573    0.364
        46  -9.5585    133.3712     98.2856   9.3634926756e+01   3.6431598766e+01    0.2847342    0.2316586  84.44 0.0005374607    1.479    0.324
        47 -14.5710    241.2472     45.7704   5.9028547738e+01   1.8935818040e+01     1.049005    0.5890663 -60.18  0.003088891    2.387    0.581
        48 -10.2222    115.5564     95.8052   9.7429100191e+01   4.0445449617e+01    0.2488532     0.196229  50.37 0.0005296873    1.298    0.230
        49  -9.9533    193.9573     89.8075   7.8398348996e+01   2.4255522983e+01    0.3859535    0.2224113 -26.13  0.001640745    1.823    0.451
        50 -11.0468    161.4293     88.4523   8.4578797712e+01   3.2135613967e+01    0.5333095    0.2318905 -48.27  0.001880528    2.697    0.629
        51 -10.1656    139.7341     92.4747   9.0602736021e+01   3.6225755488e+01    0.3427468    0.2832778 -75.52 0.0007381899    1.430    0.301
        52 -11.1301    153.2279     87.7096   8.6185777235e+01   3.4144382089e+01    0.3434578    0.2559475 -36.35 0.0009327119    1.348    0.258
        53  -8.0062    133.2708     82.6199   8.9455643702e+01   3.9499445964e+01    0.1514329    0.1142956 -71.94 0.0006995104    1.695    0.410
        54 -11.0028    153.7486     76.1000   8.2741719548e+01   3.6113626384e+01    0.4903444    0.4263583 -32.62  0.002127336    1.143    0.125
        55  -9.6060    237.0162    249.5116   1.0144798963e+02  -3.6151472899e+00    0.1587724   0.07259977  40.17 0.0005449072    1.568    0.362
        56  -8.7209    139.0489     77.5705   8.6592100537e+01   3.9196890580e+01    0.2360854    0.1916904 -37.93 0.0005819745    1.215    0.177
        57 -11.1293    108.3998     75.8477   9.3985431192e+01   4.5864558656e+01    0.5002533    0.3673441 -21.55  0.002464569    1.680    0.405
        58 -10.7444    108.0578     69.3145   9.2150753688e+01   4.7233272424e+01    0.3353844    0.1996234 -29.97  0.001460654    1.972    0.493
        59 -13.5513     19.2970    177.1107   1.3083709659e+02   3.6661543302e+01     0.794548     0.549908  77.85  0.003611733    1.063    0.059
        60  -9.5195    182.0375     63.7382   7.3187993713e+01   3.1258652912e+01    0.5331874    0.3608014 -73.90  0.002195013    2.231    0.552
        61 -10.1368    249.3482    174.2530   8.7786945096e+01   1.4668000028e+00    0.2603303    0.1811357  35.27  0.001144946    1.251    0.200
        62 -10.4388    213.1560    187.9681   9.6098600754e+01   6.1533290438e+00    0.3418956    0.1923813  49.08 0.0007258778    1.702    0.413
        63  -8.7839     70.8295     41.8021   9.4640950850e+01   5.9047687028e+01    0.1980431    0.1583635 -30.68 0.0005604401    1.153    0.132
        64  -8.4972     58.0000     36.5958   9.7393366923e+01   6.1880565547e+01    0.4390138   0.06400102 -48.15  0.001153193    5.903    0.831
        65  -8.7320    204.1671    161.5599   9.2921801869e+01   1.1178362749e+01    0.3086971     0.199927 -62.92  0.001412212    2.981    0.664
        66 -11.1789    110.7474     35.1793   7.9569977036e+01   5.2859119739e+01     0.467931    0.2252551 -29.02  0.001865879    2.104    0.525
        67 -10.9853    112.9274     28.8009   7.6447719127e+01   5.3369652358e+01    0.4340117    0.2069465 -23.59  0.001708242    2.299    0.565
        68 -11.9328     68.6421    144.0126   1.1783674968e+02   3.7730329659e+01     0.805761    0.6394027  58.89  0.003153756    1.180    0.153
        69 -10.7446    117.8060     31.6532   7.6294390681e+01   5.1857359080e+01    0.3531944    0.1930771 -14.95  0.001109994    2.349    0.574
        70  -9.4538    160.6170     28.9595   6.5802438743e+01   4.1736063093e+01    0.3531415    0.2000262  52.07  0.001189577    1.691    0.409
        71  -8.0476    162.5395     25.5175   6.4230401867e+01   4.1666253753e+01    0.2523549    0.1472713 -23.34 0.0009208031    1.732    0.423
        72  -9.5466    159.7373     22.9218   6.3805601974e+01   4.2716831779e+01    0.3365909    0.2468551 -68.21 0.0003529789    1.701    0.412
        73  -8.8763     57.4491     28.4992   9.4497274054e+01   6.3469292404e+01    0.2619834    0.1098696 -45.03  0.001174882    2.065    0.516
        74 -11.7226     61.3771    152.1446   1.2040278979e+02   3.6997492038e+01    0.4891051     0.310045  88.61  0.001097844    1.513    0.339
        75  -9.1539    178.3438     25.2095   6.1459736405e+01   3.7523279076e+01    0.5543949    0.2074992  49.23  0.001622627    2.583    0.613
        76 -10.4092    101.9535     25.9403   7.8327242369e+01   5.6148135863e+01    0.2955512    0.1858937 -29.21   0.00114622    1.503    0.335
        77  -9.5139    154.5759     25.3781   6.5652241168e+01   4.3758500908e+01    0.3766401    0.1179531  56.06  0.001239864    2.839    0.648
        78  -9.1074    171.0611     22.5944   6.1741919848e+01   3.9767449729e+01    0.2725864    0.1893556 -41.40  0.000422555    1.489    0.328
        79 -10.0472    154.4962    219.1938   1.1058193110e+02   1.2003749034e+01    0.2034947    0.1506008  40.31 0.0002518826    1.133    0.118
        80 -11.2638     47.4212    161.1609   1.2423742767e+02   3.6838602604e+01    0.2492603    0.2409065  84.19 0.0008562324    1.405    0.288
        81 -12.0204    242.1824    241.5525   9.9640043591e+01  -3.7067095578e+00    0.2185387    0.1850047  27.32  0.001868334    1.357    0.263
        82  -8.2020    191.2428    181.2852   9.8757297971e+01   1.0879365027e+01    0.1715148    0.1007076 -50.82 0.0008853387    2.360    0.576
        83 -11.6770     35.7319    199.3216   1.2923757178e+02   3.1132091984e+01    0.3303146    0.1620809  82.89  0.002149221    1.864    0.464
        84 -12.4175     54.6108    156.7025   1.2232383845e+02   3.6897393320e+01    0.6657102    0.5698805  88.62  0.003136414    1.142    0.124
        85 -11.9015      4.2583    184.4373   1.3386470904e+02   3.6664288617e+01     1.520426    0.3427718 -83.16  0.006968682    4.057    0.754
