#   1 NUMBER                 Running object number                                     
#   2 MAG_AUTO               Kron-like elliptical aperture magnitude                    [mag]
#   3 X_IMAGE                Object position along x                                    [pixel]
#   4 Y_IMAGE                Object position along y                                    [pixel]
#   5 X_WORLD                Barycenter position along world x axis                     [deg]
#   6 Y_WORLD                Barycenter position along world y axis                     [deg]
#   7 A_WORLD                Profile RMS along major axis (world units)                 [deg]
#   8 B_WORLD                Profile RMS along minor axis (world units)                 [deg]
#   9 THETA_WORLD            Position angle (CCW/world-x)                               [deg]
#  10 FWHM_WORLD             FWHM assuming a gaussian core                              [deg]
#  11 ELONGATION             A_IMAGE/B_IMAGE                                           
#  12 ELLIPTICITY            1 - B_IMAGE/A_IMAGE                                       
         1 -13.1624     18.4193    108.1847   7.7149029048e+01   5.2589124112e+01     1.069803     1.011858 -30.47  0.005420438    1.225    0.184
         2 -12.1696    247.4046      2.6704   3.5508460176e+02   2.4868951463e+01     1.225554    0.3671202  70.93  0.005683454    3.410    0.707
         3 -12.4498    199.1379     16.3742   1.2156549495e+00   3.3667250161e+01    0.8196084    0.3956761  73.98  0.002607351    2.010    0.503
         4 -12.2304    230.0504      4.9487   3.5642060606e+02   2.8116404284e+01    0.6917073    0.3836168  71.88  0.003207141    1.909    0.476
         5 -12.3378    223.3536     13.1301   3.5867099905e+02   2.8627305318e+01    0.8999398    0.2762473  59.03  0.003602501    3.878    0.742
         6 -12.1093    205.3450     17.3143   9.5785693290e-01   3.2129319059e+01     1.079957    0.2900963  55.46  0.003636997    4.794    0.791
         7 -12.9846    216.8306     11.4225   3.5869172410e+02   3.0231396004e+01     1.315928    0.3511844  63.05  0.002505209    3.784    0.736
         8 -10.6813    241.8585     16.9145   3.5838802602e+02   2.4371183530e+01    0.2562021    0.1613375  78.21  0.001021402    1.688    0.407
         9  -9.6644    183.2022     13.7459   1.8848309520e+00   3.7751364841e+01    0.3059044    0.1716239  43.65 0.0009282954    2.535    0.606
        10  -8.5410     93.6094     11.8254   1.4643468404e+01   6.0604005031e+01     0.177893    0.1211753 -40.19 0.0003468308    1.587    0.370
        11 -10.4713    223.2607      1.6838   3.5604438930e+02   2.9892392141e+01    0.4495803    0.1929583  79.70  0.002212168    2.265    0.558
        12 -12.3168    185.6666      6.4844   3.5968067889e+02   3.7930972779e+01     1.211164    0.4816412 -77.95  0.004712952    2.993    0.666
        13 -12.2198    211.3309      5.3286   3.5758329515e+02   3.2108287000e+01    0.7315828    0.5233712  49.57  0.004346348    1.902    0.474
        14  -9.2664    158.3219      5.6324   1.8938262294e+00   4.4770649273e+01    0.1511961   0.08274159 -60.74 0.0007037076    1.794    0.443
        15 -10.1590    120.1184      9.3687   8.2160170568e+00   5.4200517718e+01    0.3309032    0.3000894 -32.48  0.001089807    1.211    0.174
        16  -8.7322    195.1761    206.8597   4.5610968380e+01   2.8272151452e+00    0.1731985    0.1630766  17.04 0.0008538379    1.280    0.219
        17 -15.5902    221.7333     38.2972   4.7239200742e+00   2.5875644070e+01     8.272567     3.145016 -51.32   0.03560111    2.286    0.563
        18  -9.0243     95.7008    150.8407   5.8674412513e+01   3.1024941839e+01    0.2469171    0.1871374 -45.37 0.0008230272    1.432    0.302
        19 -11.2517     68.1832    144.3315   6.5664702698e+01   3.7117238329e+01    0.7687711    0.4116004  60.02  0.003025898    2.226    0.551
        20 -15.6784    247.2529     97.9204   1.5601409421e+01   1.2149055795e+01     2.827631     1.239534 -59.67  0.009853371    4.354    0.770
        21  -9.6638    103.9973    160.0028   5.8036356310e+01   2.7323182261e+01    0.1843788    0.1750195  75.92  0.001005461    1.014    0.014
        22  -8.6012      2.5297    141.9826   8.5702753921e+01   4.4744749925e+01    0.1914394    0.1101563 -85.30 -4.733801e-06    1.451    0.311
        23  -8.3444      9.2957    168.7074   8.5428241715e+01   3.7424552864e+01    0.1379898   0.07661879  61.54 0.0002213354    1.558    0.358
        24 -16.1143    205.2467    113.3062   2.4918470450e+01   1.7406204598e+01     5.562875     3.074352 -30.88   0.02486767    1.834    0.455
        25 -14.3342    169.6232    110.5713   3.0790184418e+01   2.5379044856e+01     3.259158     2.463347 -67.91   0.01000922    1.526    0.344
        26  -9.1197     79.4734    132.1228   5.9954329488e+01   3.8592615576e+01    0.2323062    0.1474636 -63.36  0.000486082    1.528    0.345
        27 -10.3311     25.7836    131.3181   7.7409480021e+01   4.5729681129e+01    0.2398737    0.2037646 -78.07  0.000251418    1.073    0.068
        28  -9.4178    108.0194    127.4852   5.0310745021e+01   3.4644670803e+01    0.4480228    0.2082398 -51.13  0.001639575    2.101    0.524
        29  -9.2596    115.7180    132.4843   4.9270712399e+01   3.1905997821e+01    0.3000567    0.2677469  11.63  0.001143495    1.308    0.236
        30 -10.1876    115.6665    168.0142   5.6385598074e+01   2.3386326784e+01    0.3188712    0.2218469 -33.87  0.001472111    1.772    0.436
        31  -9.5348    113.0617    125.4811   4.8399965758e+01   3.4146677389e+01    0.3521797    0.2207179 -54.52 0.0009998372    1.575    0.365
        32 -10.1927    121.8747    120.2150   4.4668564847e+01   3.3623298610e+01    0.3988422    0.2133307 -45.86 0.0008106379    1.861    0.463
        33  -9.2214     41.9767    191.0301   7.8566564846e+01   2.8683224506e+01    0.1984169    0.1629983  64.75  0.001202389    1.013    0.013
        34 -12.2775      6.5718    112.3700   8.2002153491e+01   5.2289836221e+01      1.15917    0.4424173 -82.13  0.004672326    2.331    0.571
        35  -8.5018      4.5023    249.4379   8.9750047594e+01   2.0218944600e+01    0.1103394   0.07972732  57.36 9.992655e-05    1.051    0.048
        36 -10.2269    126.9931    110.5335   4.0807020662e+01   3.4808527250e+01    0.3626039    0.2733982 -73.17 0.0003725206    1.549    0.354
        37 -11.3387    124.6709    105.8694   4.0185472428e+01   3.6392497968e+01    0.7160188    0.3474649 -36.87  0.002482785    2.473    0.596
        38 -11.3534    121.2660    102.1408   4.0096006842e+01   3.7999648462e+01    0.5175034    0.3287475  51.17  0.002179013    1.626    0.385
        39  -8.6239     94.8275    110.6454   5.0247890497e+01   4.1423023930e+01    0.2208105    0.1430232  50.55 0.0004212564    1.618    0.382
        40 -10.4223    139.7890    105.4764   3.6167143117e+01   3.3113813116e+01    0.3781417    0.3144065 -89.48 0.0008632421    1.367    0.268
        41  -9.1658    144.3364    104.8595   3.4896632500e+01   3.2222205464e+01    0.3162943    0.2045041 -47.25 0.0007332138    1.490    0.329
        42 -17.2180    245.6032    122.7927   2.1062885978e+01   8.5659057589e+00     4.156791     2.052545 -31.96    0.0142885    1.756    0.431
        43 -14.3811    155.8987    155.1495   4.4114679206e+01   1.8868151233e+01     3.784309     2.669731  -6.24   0.01684328    2.048    0.512
        44 -10.7057    146.5949    113.3206   3.6586820670e+01   2.9876145104e+01    0.3222204    0.2742035  60.10 0.0006846217    1.229    0.186
        45 -10.6257    170.8346     96.1354   2.6801104035e+01   2.7968242432e+01    0.7088037     0.365202 -37.93  0.002851088    1.877    0.467
        46 -10.8483    121.6863     94.3256   3.7760869904e+01   3.9680751612e+01     0.555739    0.2752396 -44.63  0.002075189    1.982    0.496
        47 -10.4686    111.6286     92.2415   4.0013804933e+01   4.2392546001e+01    0.6144491    0.4240941 -30.73  0.002022439    1.740    0.425
        48  -8.6091     85.5069     95.0687   4.9179543836e+01   4.7088977435e+01    0.2362982    0.1495574 -51.63 0.0006781174    1.519    0.342
        49  -8.0652    134.3013     94.2659   3.4417099729e+01   3.6809760373e+01    0.1503804    0.1274425   8.20 0.0002330097    1.522    0.343
        50 -11.9322     45.7036    108.6949   6.6948863855e+01   4.9742650001e+01    0.4650532    0.4015212  51.58 0.0009016597    1.209    0.173
        51 -10.2758    174.0246    182.6070   4.5544503925e+01   1.0207784849e+01    0.2351534    0.1862557 -58.00 0.0005660938    1.541    0.351
        52 -10.0247    195.6408     88.4417   2.0423345941e+01   2.3837068603e+01    0.3672286      0.27775  -4.28  0.001542969    1.895    0.472
        53  -9.5534    126.9766     89.2994   3.4856169914e+01   3.9576667226e+01    0.2932365     0.226463 -37.62 0.0005376006    1.340    0.254
        54  -9.8467    102.0089    167.6915   5.9891705154e+01   2.5802021651e+01    0.2107521    0.1859546  46.78 0.0004366985    1.084    0.078
        55 -10.7583    177.1128     65.9924   1.7411647512e+01   3.1963969458e+01    0.5330642    0.2419423 -29.95  0.001806491    2.500    0.600
        56 -11.0070    175.6247     60.6636   1.6145009725e+01   3.3201384057e+01    0.3990754    0.2912099  68.26  0.001162347    1.407    0.289
        57  -9.9891    169.1573     84.0993   2.3861387774e+01   3.0650135055e+01     0.457968     0.253746 -27.32  0.001418127    2.256    0.557
        58 -10.6189    177.4651     71.6715   1.8937181690e+01   3.0915769578e+01    0.4850469    0.3562232  50.50  0.001226448    1.515    0.340
        59 -11.5511    183.3055     78.4404   1.9813596782e+01   2.8370089688e+01    0.6739677    0.5101957 -42.26  0.001511573    1.215    0.177
        60  -9.9402    171.4820     78.4871   2.1872888122e+01   3.1132503187e+01    0.2637526    0.2485438 -20.16 0.0005784548    1.207    0.171
        61 -11.0991    175.6777     77.2986   2.0797736043e+01   3.0353445557e+01    0.3334305      0.31454  42.19 0.0006516903    1.225    0.184
        62  -8.8197     93.6866     84.6504   4.3329285083e+01   4.7967670996e+01    0.3058024    0.1377657 -44.68 0.0006739487    2.212    0.548
        63 -12.2916     72.1798    109.6825   5.7566337027e+01   4.5703756615e+01     1.428058    0.9194171 -69.97  0.006218949    1.620    0.383
        64  -8.3567    113.5584     83.5214   3.6802903268e+01   4.3909287146e+01    0.1586708     0.150368 -75.11 0.0001469239    1.031    0.030
        65  -9.4651    139.8959     80.2461   2.8912804763e+01   3.8397950526e+01    0.3895564    0.2569653  49.67  0.001276026    1.565    0.361
        66  -9.2032    195.4913     78.9499   1.8022200320e+01   2.5511585689e+01    0.2534299    0.1917889 -83.91 0.0007167052    1.488    0.328
        67 -13.6113     57.8631    109.7979   6.2691834583e+01   4.7850336187e+01     1.467699     1.086405  48.03  0.007209897    1.407    0.289
        68  -9.0918    132.8969     74.8684   2.8925328928e+01   4.1153516468e+01    0.2274579     0.213004  11.57 0.0002994407    1.243    0.196
        69  -8.4169    126.9780     74.0525   3.0143357272e+01   4.2743559485e+01    0.1840439    0.1756805 -89.64            0    1.021    0.021
        70 -10.2842    152.8648     66.0979   2.1787712833e+01   3.7878576239e+01    0.5799513    0.3124673 -20.84  0.001108112    2.979    0.664
        71  -9.3312    145.9884     69.5055   2.4253453645e+01   3.8966716855e+01    0.2884811    0.2198315 -21.72 0.0007208977    1.587    0.370
        72  -9.2425    174.0661     82.1068   2.2405231723e+01   2.9865589887e+01    0.2205815    0.1969568 -54.31 0.0002725599    1.028    0.027
        73 -10.2024    165.2809     59.1933   1.7417482868e+01   3.5976050145e+01     0.396124    0.2176091  51.41 0.0009715898    1.959    0.490
        74  -9.6413    144.2994     59.5915   2.1484523054e+01   4.1151828850e+01    0.2889707    0.2632125 -66.33 0.0007413443    1.040    0.039
        75 -10.0412    178.2827     52.0181   1.3284273955e+01   3.3918344346e+01    0.3938117    0.2467192 -12.04  0.001639609    2.550    0.608
        76  -9.1282    166.2260     50.3951   1.4640035600e+01   3.7140409527e+01    0.2078677    0.1348678  82.16 0.0006614293    1.675    0.403
        77 -10.1675    161.5767     46.5654   1.4223420891e+01   3.8888241744e+01    0.2932231    0.2510249   0.47 0.0005669871    1.528    0.345
        78  -8.4593    142.9061    187.8249   5.3229642692e+01   1.4396913879e+01    0.1730895     0.157381  68.97  0.000301656    1.248    0.199
        79 -10.0587    250.1398     40.3396   2.8878536427e+00   1.9871188204e+01    0.4972247    0.1331655 -34.99  0.002012099    2.870    0.652
        80 -14.1730    135.5358    132.6569   4.4055543130e+01   2.7875043397e+01      4.24754     1.535896 -47.12   0.01395545    2.715    0.632
        81 -15.8699    194.5285    164.2133   3.7934267664e+01   1.0123922942e+01     7.983917     5.930565 -77.14   0.03888507    2.366    0.577
        82  -9.7642    249.4173     29.7878   6.8265647034e-01   2.1347347989e+01    0.1937841    0.1677643 -73.81 0.0003885538    1.228    0.186
        83  -9.1811    169.9281     30.4638   8.1430290310e+00   3.9032556784e+01     0.207846    0.1302987  73.44 0.0004992794    1.540    0.351
        84 -10.1809    202.5914    246.7626   5.0358320348e+01  -3.7755567718e+00    0.1339883    0.1027966 -38.98 0.0009513064    1.664    0.399
        85 -10.3033    202.6430     24.2084   2.9334799283e+00   3.1927725688e+01    0.3735416    0.3100285 -18.82  0.001419457    1.511    0.338
        86 -10.3351    198.0429    247.0058   5.1199964395e+01  -3.2611944768e+00    0.1603325    0.1313423  43.76  0.001142007    1.708    0.415
        87 -11.4727    211.4572    242.4345   4.8190542838e+01  -4.2790887605e+00    0.3167731    0.2688988 -39.50  0.001944393    1.686    0.407
        88  -8.7229    130.6559    244.3484   6.3810356069e+01   5.9108670404e+00    0.1246144   0.08163092  56.06 0.0007043355    1.804    0.446
        89 -10.8198    246.0518    233.4769   4.1143468510e+01  -7.0718266142e+00    0.4672477    0.1521717  36.26  0.002347112    3.252    0.692
        90  -8.5176    142.6513    224.3209   5.8818611022e+01   7.5808883624e+00    0.1282416   0.09122812  57.67 0.0007048858    1.740    0.425
        91  -9.4879    191.0018     24.0121   3.9599222731e+00   3.4680890032e+01    0.2039695    0.1706402 -66.11 0.0003358672    1.010    0.010
        92  -8.5628     88.4258     23.8334   2.1585875548e+01   6.0443872152e+01    0.1927829    0.1342534  -8.27 0.0009425664    1.759    0.432
        93 -10.1201    242.0783     21.8267   3.5943971235e+02   2.3748606191e+01    0.2591099    0.1531648 -31.64   0.00117369    1.641    0.391
        94 -10.5810    229.7547    221.4809   4.1892411837e+01  -3.7676107353e+00    0.2891667    0.1895233  35.81   0.00112351    1.728    0.421
        95  -9.8556    187.0275    216.7739   4.8761729704e+01   2.4374012863e+00    0.3019912    0.1520065 -24.50  0.001416831    2.542    0.607
        96  -8.3565    114.3795    222.5348   6.4684862347e+01   1.2031528349e+01    0.1261287    0.1108841  39.19 8.767065e-05    1.030    0.029
        97  -9.0942    230.1471    214.3090   4.0668712765e+01  -2.8719085036e+00    0.1929411    0.1441677 -30.94 0.0005615824    1.379    0.275
        98 -10.1012    192.8872    213.4140   4.7114841528e+01   2.1357683860e+00    0.2071857    0.1913451 -14.48 0.0005134307    1.246    0.198
        99  -9.1114    154.2440    186.1764   5.0408185603e+01   1.2826698608e+01    0.3063056    0.2194935 -88.99  0.001368151    2.451    0.592
       100  -9.2990     98.0302    211.0120   6.6998357198e+01   1.6698041800e+01    0.1889021    0.1746882  45.46 0.0003477324    1.082    0.075
