#   1 NUMBER                 Running object number                                     
#   2 MAG_AUTO               Kron-like elliptical aperture magnitude                    [mag]
#   3 X_IMAGE                Object position along x                                    [pixel]
#   4 Y_IMAGE                Object position along y                                    [pixel]
#   5 X_WORLD                Barycenter position along world x axis                     [deg]
#   6 Y_WORLD                Barycenter position along world y axis                     [deg]
#   7 A_WORLD                Profile RMS along major axis (world units)                 [deg]
#   8 B_WORLD                Profile RMS along minor axis (world units)                 [deg]
#   9 THETA_WORLD            Position angle (CCW/world-x)                               [deg]
#  10 FWHM_WORLD             FWHM assuming a gaussian core                              [deg]
#  11 ELONGATION             A_IMAGE/B_IMAGE                                           
#  12 ELLIPTICITY            1 - B_IMAGE/A_IMAGE                                       
         1 -13.8910    168.7772     36.1380   7.6854206945e+01   3.8838164271e+01     1.322555    0.9931303   5.97  0.004366576    1.683    0.406
         2 -13.0282    184.2526      4.5868   6.4850379933e+01   3.8305910083e+01    0.9346304    0.5829754  70.08  0.004559782    1.436    0.303
         3 -10.8849     13.7661    243.7723   1.5062669641e+02   2.4350664637e+01    0.1136536   0.06514347 -83.55 0.0008432347    1.579    0.367
         4 -19.7811     61.9445    166.6782   1.3582000265e+02   3.3844650538e+01      18.6757     4.226504 -67.85   0.06050109    4.536    0.780
         5 -10.8835    169.9863    195.9802   1.1683451116e+02   9.7082311286e+00    0.2009636    0.1590876  78.64 0.0007063439    1.644    0.392
         6 -11.2820    180.0350    192.7907   1.1429832523e+02   8.3488457553e+00    0.3182285    0.2164627  62.14  0.001382385    1.807    0.447
         7 -11.4082    157.4896    192.1946   1.1871913390e+02   1.2707504520e+01    0.2488245     0.194481  68.82 0.0006306156    1.435    0.303
         8 -11.9434    209.3943    180.6934   1.0640075252e+02   4.6991593071e+00    0.6592991    0.4186906  12.51  0.003106833    2.091    0.522
         9 -11.9494    197.8532    175.4377   1.0757836124e+02   7.7721526741e+00    0.4431468    0.3417418 -45.75  0.001353719    1.474    0.322
        10  -9.9613    185.4721    174.5397   1.0984718921e+02   1.0377362234e+01    0.1404339    0.1275339  34.36 0.0001209117    1.009    0.008
        11 -12.8752    137.3832    171.3945   1.1942134074e+02   2.0473197205e+01    0.6180229    0.3346386  49.44  0.002784798    1.725    0.420
        12 -11.8481    126.3760    172.5655   1.2206321107e+02   2.2300745897e+01    0.2985145    0.2540773  72.27  0.001710372    1.134    0.118
        13 -11.4483    203.7549    167.6749   1.0488234654e+02   7.8829648462e+00    0.4923198    0.3724566  41.01  0.002093807    1.239    0.193
        14 -10.1607     25.2740    165.8550   1.4386828421e+02   3.8201270608e+01    0.1827099    0.1588604  37.55 0.0007764052    1.485    0.327
        15  -9.8989    130.2471    161.4262   1.1922597148e+02   2.3886479896e+01    0.2017848    0.1256992  54.81 0.0005601071    1.591    0.372
        16 -10.6859     22.0756    241.7215   1.4924403694e+02   2.3829090343e+01     0.155109    0.1030378 -78.05 0.0006104218    1.577    0.366
        17 -10.7793     20.5870    237.2739   1.4927110268e+02   2.4748752540e+01    0.1678402   0.09210511  76.28 0.0009934049    1.388    0.280
        18 -10.9651     23.4452    156.0056   1.4340874786e+02   4.0519255585e+01    0.2519163    0.1740171 -87.82 0.0005193846    1.149    0.130
        19 -10.7786    164.8602    157.8932   1.1081148042e+02   1.7643478885e+01    0.2219249    0.1974061  12.99 0.0004964838    1.245    0.197
        20 -12.1171     11.6625    206.5051   1.4923874501e+02   3.1245843640e+01    0.3549482    0.1840964  57.59  0.002029886    1.501    0.334
        21 -12.5208    134.0000    144.4620   1.1502440483e+02   2.6755208766e+01    0.9777836    0.2945689 -55.95  0.002697829    4.647    0.785
        22  -9.2967     16.3106    150.2843   1.4451408904e+02   4.2414179569e+01    0.1071282   0.07791146 -55.24 0.0002288269    1.572    0.364
        23 -10.3924    174.7080    149.0313   1.0682120938e+02   1.7263228571e+01    0.2067026    0.2008639 -29.51 0.0005832375    1.075    0.070
        24 -12.1137    115.4901    138.9140   1.1838617009e+02   3.1582701595e+01    0.4734797    0.2645937 -42.84  0.001811813    2.023    0.506
        25 -12.0759    119.8401    205.8712   1.2841118891e+02   1.6946497768e+01    0.3386724    0.2299019 -29.07  0.001582239    2.633    0.620
        26 -11.6619      4.3219    140.6813   1.4646131162e+02   4.5466012173e+01    0.2712296    0.2206629  24.52  0.001449715    1.669    0.401
        27 -12.1780    105.6247    138.7934   1.2083941828e+02   3.3418247714e+01    0.4245378    0.2760281  57.48  0.002012507    1.617    0.382
        28 -12.0991    106.1153    130.8459   1.1910194859e+02   3.5134346488e+01      0.40064    0.3491973  82.80  0.001217397    1.147    0.128
        29 -11.0605    108.8505    125.5136   1.1724529497e+02   3.5843977005e+01    0.2825734    0.2687965   4.44 0.0006753678    1.232    0.188
        30 -11.6442    164.5193    205.4832   1.1945766755e+02   9.1341285532e+00    0.3187802    0.2594834 -58.03 0.0007845366    1.481    0.325
        31 -10.3014     25.6367    232.7241   1.4823006931e+02   2.5002344569e+01    0.1601922    0.1207565 -63.34   0.00058231    1.856    0.461
        32 -11.5912    119.6776    129.6426   1.1536234169e+02   3.2850330317e+01      0.32501    0.2835686 -64.52 0.0008221577    1.132    0.117
        33 -11.6453    135.4795    122.9117   1.0984465992e+02   3.1105425804e+01    0.5764082    0.1882045 -50.07  0.001789013    3.241    0.691
        34 -10.5935    113.9732    118.9077   1.1439649171e+02   3.6363971053e+01    0.2250287    0.2143308 -88.28 0.0004832665    1.012    0.012
        35 -10.6153    169.8157    115.6438   9.9987526598e+01   2.4890817455e+01    0.3874775     0.276506  82.33  0.001630695    1.995    0.499
        36  -9.3970    115.6563    115.2508   1.1308058786e+02   3.6854314312e+01    0.1498636    0.1143283  76.33 0.0002910011    1.578    0.366
        37 -11.1262    125.4844    127.4586   1.1340408187e+02   3.2181687094e+01    0.3460666    0.2277766  85.09  0.001376546    2.416    0.586
        38  -9.9517    170.4030    205.2637   1.1827392181e+02   8.0994762317e+00    0.1650318      0.12684 -62.56 0.0009461014    1.673    0.402
        39 -13.2171    193.2238    193.0882   1.1178640956e+02   5.8184278197e+00    0.9493403    0.5877429 -62.10  0.004316323    2.788    0.641
        40 -10.1101    205.8410    109.9371   9.1237397550e+01   1.7453090821e+01    0.2329306    0.2044938   7.84 0.0006589661    1.241    0.194
        41 -10.3661      8.3180    218.1316   1.5037938086e+02   2.9394742215e+01    0.1773249   0.09183887 -52.39  0.001009176    3.428    0.708
        42 -12.7882    136.9167    197.9681   1.2383849941e+02   1.5438775103e+01    0.6206405    0.3189377  54.48  0.002392829    1.921    0.480
        43 -12.8781    157.0650     51.7754   8.4140367304e+01   3.9656962867e+01    0.6536328    0.4573245  73.61  0.001231374    1.601    0.375
        44 -10.2036     41.5572    199.1432   1.4325977394e+02   2.9523101489e+01    0.1863777      0.14835  54.14 0.0008861807    1.282    0.220
        45 -12.2003    172.5720     28.7415   7.3868714295e+01   3.8777480328e+01    0.5428793    0.3919014  23.49  0.001586092    1.725    0.420
