#   1 NUMBER                 Running object number                                     
#   2 MAG_AUTO               Kron-like elliptical aperture magnitude                    [mag]
#   3 X_IMAGE                Object position along x                                    [pixel]
#   4 Y_IMAGE                Object position along y                                    [pixel]
#   5 X_WORLD                Barycenter position along world x axis                     [deg]
#   6 Y_WORLD                Barycenter position along world y axis                     [deg]
#   7 A_WORLD                Profile RMS along major axis (world units)                 [deg]
#   8 B_WORLD                Profile RMS along minor axis (world units)                 [deg]
#   9 THETA_WORLD            Position angle (CCW/world-x)                               [deg]
#  10 FWHM_WORLD             FWHM assuming a gaussian core                              [deg]
#  11 ELONGATION             A_IMAGE/B_IMAGE                                           
#  12 ELLIPTICITY            1 - B_IMAGE/A_IMAGE                                       
         1 -14.7113    244.5943     11.0502   3.5520473071e+02   2.4366424638e+01     1.726115    0.7139328 -46.06  0.009885654    1.828    0.453
         2 -11.8577      9.6293      2.0601   4.3782058071e+01   7.5406510900e+01    0.5886574    0.1932965  30.35  0.002717784    2.808    0.644
         3 -12.5324     15.9360      8.1855   4.3165618744e+01   7.3822320305e+01    0.4378675    0.2340388   7.46  0.002262417    2.163    0.538
         4 -11.7098     18.5901      3.1056   3.8416236115e+01   7.4138861963e+01    0.3562616     0.205891  13.75  0.002043877    1.688    0.407
         5 -12.7575     11.0843     14.9184   5.0105702907e+01   7.3379636980e+01    0.4747672    0.2434543 -25.88   0.00215241    1.884    0.469
         6 -12.5674      4.4133     16.5080   5.5500223650e+01   7.3745659122e+01    0.5640509    0.2824613 -23.01  0.003005487    1.948    0.487
         7 -12.5191      6.0920      9.0015   5.0407306159e+01   7.4794654666e+01    0.7541443    0.3810307   0.64  0.003865946    2.297    0.565
         8 -11.4352      2.1771      3.9843   5.0453667178e+01   7.5919954776e+01    0.3924652    0.2041315 -38.13  0.002331366    1.759    0.432
         9 -13.0012      8.4533     26.1934   5.7203854591e+01   7.1724379460e+01    0.6250224    0.2174222 -44.18  0.002887716    2.382    0.580
        10 -11.7400     31.0188      9.1330   3.4704102271e+01   7.1584041926e+01    0.3082694     0.127644  24.65  0.001248665    3.176    0.685
        11 -12.1198     26.5365      4.4678   3.4474399267e+01   7.2828477038e+01    0.4214815    0.2285248   4.40  0.002102758    2.364    0.577
        12 -11.8871     23.8137     20.8330   4.5107647367e+01   7.0992403381e+01    0.3831434     0.178308 -21.40  0.001662984    2.846    0.649
        13 -10.9870    248.2192    233.5297   3.7531905004e+01  -7.8059993391e+00    0.2702513    0.1545568 -23.14  0.000983774    1.424    0.298
        14 -11.7724    247.3275    226.4283   3.6510889719e+01  -6.7894865792e+00    0.4965525    0.2089909 -24.94   0.00246739    2.252    0.556
        15 -11.2516    249.0142    249.7763   3.9984909027e+01  -9.8927485084e+00    0.3003144    0.1833858  -2.63  0.001949836    1.304    0.233
        16 -12.0777    243.3504    245.1129   4.0195821580e+01  -8.7454969531e+00    0.5738093     0.224732 -23.73  0.002867351    2.625    0.619
        17 -11.9767    248.9341    240.5694   3.8548824495e+01  -8.7662435967e+00    0.5066167    0.2095083 -33.58  0.002844603    2.127    0.530
        18 -11.0721    233.5176    250.5164   4.2713651111e+01  -8.3704292033e+00    0.2187208   0.09183016  27.57  0.001203047    2.140    0.533
        19 -11.9719    234.2014    244.4984   4.1655333266e+01  -7.6878192955e+00    0.4477374    0.2292148 -14.29  0.002531884    1.958    0.489
        20 -10.8306    213.0359    250.5036   4.6362011078e+01  -6.0697038777e+00    0.2965237   0.09601492  30.49  0.001362437    2.726    0.633
        21 -11.0957    201.5075    249.1066   4.8299716983e+01  -4.5021040816e+00    0.4417319    0.2106751  10.20  0.002054635    2.657    0.624
        22 -10.8187    184.5017    250.3732   5.1779698871e+01  -2.5492285047e+00    0.3361315   0.09702615  31.85   0.00137213    2.953    0.661
        23 -11.6689     64.9445    249.1304   7.7093155385e+01   1.3693475389e+01    0.4076574    0.1879433  43.48  0.002088902    1.739    0.425
        24 -10.8493     51.2731    249.9876   8.0078613554e+01   1.5173135775e+01    0.2915406    0.1234298  39.40  0.001479267    1.818    0.450
        25 -10.2455     27.3398    250.2573   8.5060695417e+01   1.7776589532e+01    0.2472301    0.1144715  42.31  0.001378101    1.651    0.394
        26 -11.3420     21.1619    248.7090   8.6228704683e+01   1.8713244650e+01    0.3910854     0.172357  44.29  0.002171839    1.716    0.417
        27 -11.3049    158.0208    245.2841   5.6433155192e+01   1.7573550491e+00    0.3612455     0.182707  19.52  0.001728278    2.037    0.509
        28 -11.2949    193.2564    244.2368   4.9140993935e+01  -2.7821629836e+00    0.3631864    0.1763148  11.72   0.00166472    2.575    0.612
        29 -10.8738     45.2370    244.6844   8.0980934779e+01   1.6905963100e+01    0.3174313    0.1498371  39.87  0.001682332    1.673    0.402
        30 -12.1626      3.9223    242.3568   8.9387003001e+01   2.1619724012e+01    0.4810379    0.2277577  64.66  0.002750854    1.797    0.444
        31 -11.5703    135.4428    243.2466   6.0981135731e+01   5.2559727256e+00    0.4058419    0.1731585  51.43  0.001454037    4.078    0.755
        32 -10.4921    201.8708    241.5816   4.7069886613e+01  -3.4919359347e+00    0.2728929     0.114519 -26.95   0.00124087    2.769    0.639
        33 -11.8273    127.7382    249.0014   6.3395984151e+01   5.3451673882e+00    0.3744112    0.1623649  32.42  0.001760648    1.891    0.471
        34 -11.8541    108.6329    240.9221   6.6614658025e+01   9.4600412304e+00     0.367907    0.1777375  55.70   0.00152473    2.965    0.663
        35 -11.5417     72.2184    240.5096   7.4736414478e+01   1.4454006459e+01    0.4247771    0.2075998  66.72  0.001825777    2.970    0.663
        36 -11.4179     54.0017    240.1072   7.8737979133e+01   1.6793149209e+01    0.3755219     0.200693  69.10  0.001896642    2.146    0.534
        37 -10.7136     38.3331    241.3380   8.2226226547e+01   1.8350284875e+01    0.2782802    0.1477107  57.80  0.001520391    1.693    0.409
        38 -11.0498     29.1853    241.6867   8.4187929971e+01   1.9270095574e+01    0.4058772    0.1361206  37.98  0.001929035    2.227    0.551
        39 -11.9281     16.7800    239.2766   8.6640884814e+01   2.1019486455e+01    0.6256662    0.1697768  43.69  0.002843361    2.550    0.608
        40 -10.8557    170.5364    240.1139   5.3071757821e+01   8.5880885295e-01    0.3008777    0.1515566  -9.43  0.001099562    4.140    0.758
        41 -11.7196    242.2275    237.2588   3.9132170975e+01  -7.6379890623e+00    0.4542113    0.2075428 -16.08  0.002146063    2.477    0.596
        42 -11.6882    124.2439    239.5275   6.2956124322e+01   7.5056648071e+00    0.4054785    0.1040026  34.39  0.001437939    3.140    0.682
        43 -11.3860     82.4019    238.8743   7.2290913521e+01   1.3445714855e+01    0.4411298    0.1403019  35.85   0.00179794    2.460    0.593
        44 -10.9037     44.9605    236.6621   8.0459142196e+01   1.8550950388e+01    0.3363978     0.164114  60.31  0.001670348    2.061    0.515
        45 -11.8350    231.6740    235.0281   4.0576894338e+01  -6.1704797002e+00    0.4340987    0.2402595  -7.46  0.002469186    1.839    0.456
        46 -12.0234    236.7379    227.9061   3.8531955994e+01  -5.7951963675e+00    0.5025687    0.1775435 -28.57  0.002266825    2.855    0.650
        47 -10.0038    195.8069    236.7796   4.7481253188e+01  -2.0182042390e+00    0.2199116    0.1141098  -3.41 0.0009612245    2.855    0.650
        48 -10.1461    210.0213    235.8153   4.4614711788e+01  -3.6895492628e+00    0.2129722    0.1163001   3.31  0.001087325    2.100    0.524
        49  -9.9515    148.5120    236.4891   5.7201212206e+01   4.5578651046e+00    0.1320032    0.1091905  16.51 6.532707e-05    1.023    0.022
        50 -11.3893     89.8662    247.5601   7.1516669616e+01   1.0787700947e+01    0.3684461    0.1872844  50.75  0.001826674    1.958    0.489
        51 -10.2171      1.4651    234.4584   8.9557024992e+01   2.3425831192e+01    0.2199871   0.09861694 -84.19  0.001192528    2.113    0.527
        52 -10.3836    203.0000    233.9844   4.5646211298e+01  -2.5364771380e+00    0.1842469   0.06415353 -40.34   0.00076965    2.921    0.658
        53 -10.1663    141.3426    241.3154   5.9437334996e+01   4.7525981269e+00    0.1332035   0.09076661  -0.27 0.0007048053    1.710    0.415
        54 -11.2371      6.5971    235.1368   8.8539209091e+01   2.2825966937e+01    0.2433171    0.1299281  55.14  0.001268807    1.497    0.332
        55 -11.9541     32.0371    231.7510   8.2950680399e+01   2.1001392209e+01    0.4558834    0.1892511  55.62  0.002159738    2.228    0.551
        56 -10.5673     11.5784    232.1385   8.7364554068e+01   2.2979298995e+01    0.2443681     0.137374  58.04  0.001250288    1.466    0.318
        57 -10.8139    213.8318    231.3514   4.3180302575e+01  -3.5270089288e+00    0.1977665    0.1667359 -52.56  0.001283929    1.955    0.488
        58 -10.8569     62.1344    241.3275   7.7047962711e+01   1.5561466765e+01    0.3561984    0.1455147  46.52  0.001660578    2.079    0.519
        59 -10.6615    103.0197    229.4990   6.6505759075e+01   1.2450668585e+01    0.2175746    0.1150385  33.52   0.00104282    1.622    0.383
        60 -11.5652     21.2554    228.5534   8.5103948113e+01   2.2789360220e+01     0.384308    0.1598846  39.60  0.001955051    1.924    0.480
        61 -10.5711    229.9185    227.4051   3.9629099447e+01  -4.9304121495e+00     0.249278    0.1249041 -21.14  0.001325659    1.959    0.490
        62 -10.7368    113.7885    228.3113   6.3858375152e+01   1.1125493474e+01    0.2933069   0.09103265  38.79  0.001089374    2.697    0.629
        63 -10.1268     40.0591    229.0257   8.0979926404e+01   2.0695627773e+01    0.2167546     0.115516  56.37   0.00113133    1.712    0.416
        64 -10.7081     11.8626    226.3873   8.7012524242e+01   2.4156042968e+01    0.3060566    0.1343615  56.50  0.001493396    1.951    0.488
        65 -10.1339    154.6459    238.6803   5.6198523759e+01   3.3112447617e+00    0.1357801   0.08924004  -0.33 0.0007046624    1.751    0.429
        66 -11.4549     18.9382    221.3895   8.5188265048e+01   2.4549437620e+01    0.4951994    0.1174834  44.30  0.001995201    3.012    0.668
        67 -10.2403    216.5375    221.7735   4.1082782045e+01  -2.4764235899e+00     0.233743     0.102601 -33.24  0.001147906    2.129    0.530
        68 -11.3983      5.7176    227.3141   8.8364830268e+01   2.4523913433e+01    0.3804969    0.2041708  77.42  0.002186002    1.691    0.409
        69 -10.7861     43.8971    221.0677   7.9481824383e+01   2.1969650249e+01    0.3028591    0.1382611  58.45  0.001368829    2.272    0.560
        70 -11.1796      2.3141    220.5284   8.8774011550e+01   2.6262230467e+01    0.3293796    0.1782615  80.56  0.001870962    1.662    0.398
        71 -11.8279    239.7294    219.4900   3.6609725517e+01  -4.9927160368e+00     0.347323     0.194909 -17.18    0.0020188    1.635    0.388
        72 -10.5822    227.0845    218.7020   3.8658011419e+01  -3.3579420674e+00    0.3084829    0.1580271 -14.37   0.00151893    2.280    0.561
        73 -11.9619    248.2849    213.9660   3.4250947814e+01  -5.2243892160e+00    0.4739338    0.2501585 -27.54  0.002795397    1.567    0.362
        74  -9.5310     56.2144    216.9418   7.6206330287e+01   2.1411025080e+01    0.1494904    0.1032021 -77.47            0    1.524    0.344
        75 -11.3064     11.8652    216.4148   8.6475633257e+01   2.6303797204e+01    0.3387023    0.1858173  43.20  0.001925172    1.550    0.355
        76 -10.4318     33.2313    215.0991   8.1500273543e+01   2.4469750392e+01    0.2564506    0.1537349  72.83  0.001372901    1.658    0.397
        77 -10.4861    232.3928    213.3398   3.6805274374e+01  -3.2420717267e+00    0.2821195    0.1236558 -31.94   0.00142459    2.023    0.506
        78 -11.2299      3.2822    212.3217   8.8170061107e+01   2.7963162769e+01     0.358769    0.1787998  46.91    0.0019847    1.677    0.404
        79 -10.0916     45.9913    212.4875   7.8252158621e+01   2.3629816229e+01    0.2047897   0.07306018  48.51  0.000810538    2.599    0.615
        80 -10.9989     25.7431    210.0590   8.2888391634e+01   2.6381428755e+01     0.350961    0.1548937  65.07  0.001557625    2.439    0.590
        81 -10.9386    236.4792    206.6545   3.4935835159e+01  -2.7802363254e+00    0.3814923    0.1628854 -36.38  0.001919941    2.058    0.514
        82 -10.8360    247.0038    206.1362   3.3102033864e+01  -3.9869612054e+00    0.2933112    0.1431665 -31.03  0.001484414    1.706    0.414
        83 -10.9449    250.2738    200.7270   3.1626390500e+01  -3.6120049832e+00    0.4025014    0.1337241 -33.66  0.001822176    2.563    0.610
        84 -10.4653      2.5897    206.1471   8.8013237904e+01   2.9395460690e+01    0.2496387    0.1474072  60.40  0.001448791    1.450    0.310
        85  -9.6829    123.8755    205.9030   5.8229435655e+01   1.4113035807e+01    0.1786188     0.153788  51.96            0    1.243    0.195
        86  -9.8850     51.6442    206.3203   7.6289191717e+01   2.4363806422e+01    0.1480808   0.08524814  58.85 0.0007045852    1.757    0.431
        87 -11.8595     12.9359    204.4463   8.5526844862e+01   2.8884303565e+01    0.5126858    0.2381263  54.81  0.002556128    1.933    0.483
        88 -10.5502    228.3996    201.7477   3.5449641414e+01  -1.0166077145e+00    0.4049614    0.1631204 -22.25  0.001487367    3.847    0.740
        89 -10.7983    243.6109    199.7156   3.2518799157e+01  -2.6569018046e+00    0.3498181     0.112439 -34.60  0.001519302    2.690    0.628
        90 -10.2674     29.9918    200.9929   8.1174507491e+01   2.8030815312e+01     0.229158    0.1257513  59.73  0.001140042    1.759    0.431
        91  -9.5732     37.3384    200.6676   7.9324056398e+01   2.7325105857e+01    0.1460742   0.08271033  60.11 0.0007051863    1.743    0.426
        92 -10.5861    237.1421    197.2269   3.3140547254e+01  -1.4739221868e+00    0.3325766    0.1422182 -36.22  0.001642947    2.020    0.505
        93 -12.0979      5.4922    195.5594   8.6753842500e+01   3.1575840676e+01    0.4944196     0.264008  61.04  0.002635465    1.698    0.411
        94 -11.5278      3.7327    188.1782   8.6740572571e+01   3.3449183046e+01    0.3315159    0.1945678  85.94  0.001492142    1.528    0.346
        95 -11.5577     18.0213    192.8087   8.3510896398e+01   3.1129995684e+01    0.4381259    0.2130291  71.23  0.002029014    2.167    0.538
        96 -11.4589    246.1815    192.2107   3.0754895588e+01  -1.8813617796e+00     0.350889    0.1697203 -31.96  0.001878064    1.721    0.419
        97  -9.8198    224.0000    192.9803   3.4621700382e+01   9.3437435118e-01    0.2074278   0.06321187 -39.28 0.0008039899    2.953    0.661
        98 -11.3735     11.0032    188.8463   8.4981855541e+01   3.2694482590e+01    0.3503787    0.1959961  66.37  0.001827293    1.693    0.409
        99  -9.8421    237.5832    187.1970   3.1232539429e+01  -1.5396967388e-02     0.185917   0.09623416 -27.17  0.000924317    1.743    0.426
       100 -10.7750     27.2032    186.8263   8.0690803805e+01   3.1689148629e+01    0.4484276   0.09910889  39.34  0.001580388    3.426    0.708
       101 -11.0758    249.6445    184.2835   2.8765766928e+01  -1.1507016990e+00    0.3426679    0.1417239 -31.22  0.001513472    2.095    0.523
       102  -9.5565    230.4888    186.4957   3.2290584804e+01   1.0567744556e+00    0.1277838    0.1023752 -15.05 -6.985189e-05    1.002    0.002
       103 -10.6769     16.4023    182.0017   8.3105372218e+01   3.3875752798e+01    0.3604077     0.171592  72.02   0.00159856    2.292    0.564
       104 -10.6887     23.2859    180.2434   8.1146971499e+01   3.3678004715e+01    0.2806253    0.1326035  76.26  0.001172683    2.490    0.598
       105 -10.0011    241.0000    179.9630   2.9329694499e+01   6.3512887718e-01    0.2056979    0.0592766 -38.41 0.0008021701    2.941    0.660
       106 -12.8248      7.2171    174.4360   8.4945338120e+01   3.6488661036e+01     0.790739    0.2622113 -82.01  0.003082338    2.892    0.654
       107 -11.0619     31.4902    173.4865   7.8271906507e+01   3.4556322254e+01    0.3899953    0.1307956 -83.27  0.001216741    4.149    0.759
       108 -11.5323     19.4479    171.9335   8.1451203081e+01   3.6090693571e+01    0.4245915    0.2480814  76.34   0.00210354    1.747    0.428
       109 -10.1773     40.6536    171.9710   7.5534004747e+01   3.3966770859e+01    0.2354209    0.1004894  81.91   0.00070485    4.398    0.773
       110 -10.7347    249.4892    176.9850   2.7442973894e+01  -4.1875980245e-02    0.1906546   0.09825563 -35.17 0.0009453738    1.588    0.370
       111  -9.5964    246.4920    162.4965   2.5163058840e+01   2.5795654122e+00    0.1251415   0.09993527 -25.31 3.712202e-05    1.021    0.020
       112 -10.6735    250.5380    157.3105   2.3570358858e+01   2.8143478727e+00    0.2967436   0.09974257 -36.47  0.001271488    2.446    0.591
       113 -10.8420    249.2235    149.0679   2.2168765627e+01   4.2789908903e+00    0.2698006    0.1161381 -37.43 0.0009411924    1.883    0.469
       114 -11.1189    243.5402    149.4737   2.3073604629e+01   5.0510376597e+00    0.2742176    0.1034157 -38.18  0.001212026    2.182    0.542
       115 -12.1021      7.5915    147.1400   8.2608494332e+01   4.3310323201e+01    0.4095021    0.2070824 -82.79  0.001927536    1.818    0.450
       116  -9.8276    234.0000    147.0078   2.4022959367e+01   6.9084067419e+00    0.2196544   0.06295329 -38.85 0.0008024944    2.943    0.660
       117 -10.4083    247.5726    143.7594   2.1366432056e+01   5.3517124630e+00    0.1802271   0.09828746 -43.67 0.0009507108    1.627    0.386
       118 -11.1878    244.0139    140.4890   2.1227022314e+01   6.4056280848e+00    0.3584234     0.143927 -25.96  0.001297345    3.684    0.729
       119 -11.1229     20.7497    141.3718   7.7910800212e+01   4.3792696728e+01    0.2690885     0.157208 -87.24  0.001269109    1.741    0.426
       120 -11.0556     10.1547    136.9035   8.0792360774e+01   4.5759347044e+01    0.5908211    0.1642848 -71.78  0.002116733    2.968    0.663
       121 -10.7193    248.5916    134.7658   1.9450954198e+01   6.6079734888e+00    0.2402635    0.1008633 -35.71 0.0009672336    1.981    0.495
       122  -9.9710    250.4255    140.2518   2.0279280115e+01   5.4753790620e+00     0.177381   0.09661534 -43.81 0.0009442612    1.612    0.380
       123 -10.4977    247.4702    129.9299   1.8642748222e+01   7.5387094853e+00    0.1985159    0.1016842 -38.79 0.0007831862    1.581    0.367
       124 -11.3292      5.8150    125.4681   8.0969333924e+01   4.8983943498e+01    0.5776541    0.2807907  72.16  0.002437726    2.600    0.615
       125 -11.1378    249.3891    124.1652   1.7238770988e+01   8.1388428700e+00    0.1859619   0.09349484 -45.21 0.0009439838    1.732    0.423
       126 -10.9800     10.4742    112.9448   7.7771696567e+01   5.1905314702e+01    0.4675942    0.2218992  89.81  0.001909442    2.586    0.613
       127 -11.9688    249.3023    107.4263   1.3897301282e+01   1.0734421596e+01    0.3180851    0.1541832 -30.40  0.001541321    2.049    0.512
       128 -10.6423      2.6943     94.7414   7.8143834185e+01   5.6941087840e+01    0.4562054    0.2022934  83.10  0.001690079    3.564    0.719
       129 -11.4659    249.0221     91.9975   1.0821970523e+01   1.3104680946e+01     0.152396    0.1243419 -46.70 0.0008920581    1.013    0.013
       130 -11.0875      4.6662     76.2799   7.4121738671e+01   6.1332473579e+01    0.5498652    0.2138967 -73.70  0.002229701    2.722    0.633
       131 -11.3228    248.6033     74.1942   7.2807688946e+00   1.5757391283e+01    0.1712351    0.1019222 -30.63 0.0009518088    1.699    0.411
       132 -11.5387      2.9292     63.4409   7.2239141745e+01   6.4408923984e+01    0.5379492    0.2011239 -68.52  0.002263133    2.609    0.617
       133 -11.0692     16.7305     53.5264   6.2397777436e+01   6.5674338549e+01     0.438076    0.1438904 -58.70  0.001711098    2.944    0.660
       134 -11.7257      3.0271     51.7058   6.9268463852e+01   6.7009500482e+01     0.530516    0.1690519 -48.71  0.002325785    2.284    0.562
       135 -11.9598     11.9882     41.2836   6.0941330836e+01   6.8576803714e+01    0.6159088    0.2191066 -38.26  0.002628295    2.540    0.606
       136 -11.7476      1.4280     38.5013   6.6264057833e+01   6.9863664644e+01    0.4536954     0.105005 -60.60  0.001630475    3.961    0.748
       137 -11.1663    152.4853    249.6158   5.8197930932e+01   1.8235481279e+00    0.3606123    0.1015545  32.27  0.001381893    2.962    0.662
       138 -12.3272    142.9901    248.3592   6.0036409214e+01   3.3355750727e+00    0.4658577    0.1963293  25.95  0.002065733    2.249    0.555
       139 -12.1575     99.7030    245.9865   6.9181357195e+01   9.7546336171e+00    0.5659559    0.3147581  75.73  0.002360109    3.641    0.725
       140 -11.2127     76.6297    248.0296   7.4462299640e+01   1.2431257714e+01     0.393684    0.1737627  46.06  0.001904493    1.951    0.487
       141 -11.1268     35.0043    248.2261   8.3369174673e+01   1.7352687602e+01     0.341669    0.1502809  47.15  0.001659279    1.783    0.439
       142 -11.1545    218.9889    245.8216   4.4553235356e+01  -6.1432738899e+00    0.3536062    0.1706597 -25.28  0.001938738    2.016    0.504
       143 -12.0632    224.1695    241.9874   4.3018647864e+01  -6.2341725037e+00    0.5792972     0.230084 -35.80   0.00298427    2.396    0.583
       144 -11.6741    168.4420    247.8938   5.4646896973e+01  -7.0785286633e-02    0.3735151    0.1568842  25.61  0.001711749    2.202    0.546
       145 -12.3929     15.4021     19.6266   4.9671346902e+01   7.2174385211e+01    0.3503796    0.2185368  -8.32  0.002027733    1.560    0.359
       146 -12.0880     19.4454     29.4626   5.1805308634e+01   7.0088284491e+01    0.5159378    0.2072747 -33.74  0.002279208    2.519    0.603
       147 -10.7208     83.5112    246.8498   7.2842615289e+01   1.1761235526e+01    0.2766756    0.1226848  44.21  0.001323153    1.913    0.477
       148 -11.9577     22.2123     14.1573   4.2569698720e+01   7.2187802616e+01     0.381597    0.1589183  25.29  0.001757114    2.471    0.595
       149 -11.7945    211.2231    244.5135   4.5770762793e+01  -5.0498153021e+00    0.3880574    0.2132089 -12.30  0.002133566    1.942    0.485
       150 -11.8570    177.5276    243.5913   5.2164820331e+01  -6.2903947130e-01    0.5325039    0.2687969  -3.40   0.00207111    3.781    0.735
