#   1 NUMBER                 Running object number                                     
#   2 MAG_AUTO               Kron-like elliptical aperture magnitude                    [mag]
#   3 X_IMAGE                Object position along x                                    [pixel]
#   4 Y_IMAGE                Object position along y                                    [pixel]
#   5 X_WORLD                Barycenter position along world x axis                     [deg]
#   6 Y_WORLD                Barycenter position along world y axis                     [deg]
#   7 A_WORLD                Profile RMS along major axis (world units)                 [deg]
#   8 B_WORLD                Profile RMS along minor axis (world units)                 [deg]
#   9 THETA_WORLD            Position angle (CCW/world-x)                               [deg]
#  10 FWHM_WORLD             FWHM assuming a gaussian core                              [deg]
#  11 ELONGATION             A_IMAGE/B_IMAGE                                           
#  12 ELLIPTICITY            1 - B_IMAGE/A_IMAGE                                       
         1 -15.2083      5.6242    133.7225   1.4140067647e+02   4.6884279848e+01     6.968142     1.329961 -73.43   0.02026425    5.786    0.827
         2 -13.4647    200.6410     27.5233   6.5997719692e+01   3.1874100055e+01     1.278225     1.210004  52.62  0.006591393    1.250    0.200
         3 -13.4816    216.1940      9.8808   6.0162662482e+01   3.0213970232e+01    0.8869284    0.7691914  80.27    0.0023582    1.156    0.135
         4 -11.7872      4.4834      3.0904   1.0963276116e+02   7.1915867228e+01    0.3232057    0.2241221   9.44  0.002558751    1.346    0.257
         5 -11.4271    101.0002    247.7404   1.3423000279e+02   1.0093638659e+01    0.3005801    0.1899619  58.43  0.001754828    1.348    0.258
         6 -12.6153    240.0529    248.4483   1.0823788677e+02  -1.2838389957e+01    0.6925532    0.3497259  38.31  0.003826889    1.802    0.445
         7 -11.3493     46.1085    248.9007   1.4409577850e+02   1.7754304545e+01    0.3266749    0.2074106  82.24  0.001743681    1.306    0.234
         8 -14.3129     14.4373    242.9016   1.4889612881e+02   2.2629197124e+01     2.393283     1.567332  43.55   0.01714516    1.689    0.408
         9 -14.0831     33.6160    226.2136   1.4451360588e+02   2.3748860361e+01    0.7246439    0.5210161  78.66  0.002410028    1.047    0.045
        10 -11.9842    139.9287    249.3709   1.2709167566e+02   3.3995401239e+00    0.4254189    0.3136937  61.54  0.002579585    1.312    0.238
        11 -13.0968     44.2762    214.5894   1.4155604735e+02   2.4874669826e+01     0.977443    0.6861101 -66.81  0.005008325    1.445    0.308
        12  -9.8985    111.3154    242.3291   1.3166757082e+02   9.4351063483e+00    0.1141745    0.1009808   4.77   0.00070452    1.677    0.404
        13 -12.0135    112.1364    231.7289   1.3019828697e+02   1.1312376464e+01    0.5972388    0.1483103  39.98  0.001987058    3.845    0.740
        14 -12.0812     92.4075    227.8055   1.3360576062e+02   1.5294799290e+01    0.8360396    0.1580118  48.21  0.002528149    4.799    0.792
        15 -12.9906     28.8540    232.2592   1.4580399348e+02   2.3088660861e+01    0.2797982    0.2335324 -84.27 0.0007692838    1.333    0.250
        16 -11.5668     58.2139    212.9586   1.3869336928e+02   2.3418186280e+01    0.7297332    0.2332591  57.51  0.002585431    4.020    0.751
        17  -8.7640    152.4507    213.2371   1.1923855252e+02   7.7619641139e+00    0.1666033    0.1348519 -72.00 0.0002694714    1.424    0.298
        18 -12.6020      9.5913    207.1326   1.4738918236e+02   3.0291346546e+01    0.6590634    0.4379941  38.11  0.002876018    1.807    0.447
        19 -10.0513     56.0268    205.3239   1.3832191007e+02   2.5366253621e+01    0.1804677    0.1421269  64.26  0.001144936    1.154    0.133
        20 -11.7696     56.9313    198.7331   1.3740812758e+02   2.6704172785e+01    0.2886476    0.2250963 -80.60 0.0005119296    1.129    0.114
        21 -10.5886     40.8602    199.9983   1.4082322856e+02   2.8449030117e+01    0.3855475    0.1680222  66.51  0.001696255    2.732    0.634
        22 -11.2197    198.6201    247.4475   1.1564728763e+02  -6.2411485380e+00    0.3225757    0.2392396  88.99   0.00167483    2.765    0.638
        23 -11.8761     11.7054    121.3448   1.3820630139e+02   4.9255681548e+01    0.3739914    0.2260937  50.23  0.001570032    2.014    0.504
        24 -10.8067     74.6506    177.2309   1.3072259380e+02   2.9160317965e+01     0.241931     0.209905  87.94 0.0003116401    1.015    0.015
        25 -13.1746     60.9545    175.3678   1.3361069061e+02   3.1524046023e+01    0.5245761       0.2761 -47.41  0.002085176    2.252    0.556
        26  -9.4910     94.3967    171.8410   1.2522480212e+02   2.7333282388e+01    0.2252135    0.1798738  64.83 0.0005293309    1.236    0.191
        27 -11.9469     82.4713    168.0763   1.2745014844e+02   3.0142227165e+01    0.6864842    0.5487477 -45.56  0.003767798    1.413    0.292
        28  -9.3947    192.3349    194.0020   1.0743391088e+02   3.8007508428e+00    0.2275461    0.1161025 -62.90 0.0007052206    4.400    0.773
        29 -10.5065     95.4883    152.6281   1.2146577025e+02   3.1724636493e+01    0.3115557    0.2711272 -60.19  0.000850472    1.100    0.091
        30 -11.9914     84.0957    151.4516   1.2414074632e+02   3.3868315838e+01     0.321594    0.2503907 -49.95 0.0005972555    1.287    0.223
        31  -9.4282     98.9510    148.4061   1.1974748102e+02   3.2140699241e+01    0.2212991    0.1868809 -61.51 0.0002914008    1.113    0.101
        32 -12.1454     67.3778    143.5979   1.2702155071e+02   3.8225628920e+01    0.6691967    0.4283367  64.57  0.002586916    1.908    0.476
        33  -9.8986    108.0285    137.6651   1.1511597178e+02   3.3066456041e+01     0.420726    0.2793538 -20.67  0.001572488    2.461    0.594
        34 -10.6166     95.1975    134.6999   1.1785726175e+02   3.6055787629e+01    0.2522638    0.2229889 -43.42 0.0003440827    1.154    0.133
        35 -10.9241     25.5211    128.4202   1.3556422331e+02   4.6534735568e+01    0.2465804    0.1847838  70.30  0.000925565    1.496    0.332
        36  -8.6838     73.6250    127.3164   1.2216436383e+02   4.1225477480e+01     0.147282    0.1057317  77.35 0.0007030574    1.799    0.444
        37  -9.1093    105.8605    123.9446   1.1252194721e+02   3.6677504951e+01    0.2076044    0.1908117 -27.91 0.0002770954    1.159    0.137
        38  -9.8129     78.0240    122.0023   1.1978409082e+02   4.1823357305e+01    0.2142726    0.1937473 -76.59 0.0005372735    1.113    0.102
        39  -9.1550     65.0672    120.8715   1.2321633535e+02   4.3937604483e+01    0.2049506    0.1739528  87.36 0.0005437264    1.299    0.230
        40  -9.4965     46.8227     99.6141   1.2399180160e+02   5.1013752362e+01    0.2250543    0.1804381  72.15  0.001051795    1.619    0.382
        41  -8.5808     64.4585     80.4237   1.1342975396e+02   5.2919436429e+01    0.1315572    0.1187636 -34.88 0.0001405864    1.061    0.058
        42 -10.3422    158.9317     77.3087   8.6509592178e+01   3.4784154235e+01    0.2181432     0.195388  53.16 0.0005769214    1.097    0.088
        43 -11.3906      7.3528    192.8167   1.4674009584e+02   3.3547420183e+01    0.4201037    0.1810829  62.10 0.0006908069    2.295    0.564
        44  -9.1552     33.7437     62.7717   1.1892930613e+02   5.9954714370e+01    0.1466971    0.1379126 -56.50 0.0005756118    1.330    0.248
        45 -12.2674      2.9361     49.2620   1.2678880193e+02   6.4806588142e+01    0.3973567    0.2601047 -52.04  0.002217585    1.265    0.209
        46  -9.9754     66.0124    249.7308   1.4074336280e+02   1.4936701705e+01    0.1707043    0.1225991  63.26 0.0007392501    1.089    0.082
        47 -12.0610     63.6435    190.2055   1.3496286786e+02   2.7722173247e+01    0.2738931    0.2358685 -79.65 0.0004316432    1.129    0.114
        48 -11.0069    125.5383    250.0000   1.2989796557e+02   5.7057140397e+00    0.4578683   0.05756967  44.22  0.001235609    5.862    0.829
