#   1 NUMBER                 Running object number                                     
#   2 MAG_AUTO               Kron-like elliptical aperture magnitude                    [mag]
#   3 X_IMAGE                Object position along x                                    [pixel]
#   4 Y_IMAGE                Object position along y                                    [pixel]
#   5 X_WORLD                Barycenter position along world x axis                     [deg]
#   6 Y_WORLD                Barycenter position along world y axis                     [deg]
#   7 A_WORLD                Profile RMS along major axis (world units)                 [deg]
#   8 B_WORLD                Profile RMS along minor axis (world units)                 [deg]
#   9 THETA_WORLD            Position angle (CCW/world-x)                               [deg]
#  10 FWHM_WORLD             FWHM assuming a gaussian core                              [deg]
#  11 ELONGATION             A_IMAGE/B_IMAGE                                           
#  12 ELLIPTICITY            1 - B_IMAGE/A_IMAGE                                       
         1 -13.2358     54.5625    146.4475   1.0439483815e+02   3.8864519812e+01     6.105391     1.529429 -64.11   0.01881088    3.709    0.730
         2 -14.1821     68.8594    144.2972   9.9885193957e+01   3.7524422327e+01     4.633667     1.992516  60.75   0.00550209    6.140    0.837
         3 -13.2699    199.1870     41.9148   4.1874736471e+01   3.0329813089e+01     1.089263    0.9705666 -74.28  0.003180842    1.014    0.014
         4 -13.6502    209.0356     32.3984   3.8423482921e+01   2.9280628697e+01     1.113312    0.8491752 -15.38  0.001480483    1.737    0.424
         5 -11.3966     16.6171     19.5280   8.5161068360e+01   7.0540454376e+01    0.3680532    0.1245183 -40.47  0.001738051    2.517    0.603
         6 -12.9231    234.1008      6.2300   3.0505988876e+01   2.6808118307e+01    0.8084295    0.6108737 -85.38  0.004853553    1.134    0.118
         7 -11.1878    111.4482    204.1562   9.8678608526e+01   1.6649689378e+01     0.496582    0.3084773  85.66  0.001261415    2.646    0.622
         8  -9.9483    140.2810    250.2223   9.8829897722e+01   3.2895774856e+00    0.2940328     0.142765  36.99  0.001473057    1.705    0.413
         9 -14.5274     47.4217    200.5699   1.1314228991e+02   2.6599530515e+01     6.027566     2.109429  63.99   0.01670888    6.389    0.843
        10 -17.2416     14.7338    242.7787   1.2291189977e+02   2.1273230579e+01     6.038603      2.10861  26.80   0.02451687    3.956    0.747
        11  -8.6412     23.9903    193.4914   1.1779211155e+02   3.0781875044e+01    0.1661212    0.1350734  70.35 0.0005015967    1.080    0.074
        12 -11.0436    193.2601    195.1764   7.8853374428e+01   4.3420160966e+00    0.9627754    0.5675471 -67.10  0.003213406    4.896    0.796
        13  -7.9306     76.3275    194.3024   1.0563408805e+02   2.4256977707e+01    0.1313159    0.1069856 -25.05 0.0003040321    1.644    0.392
        14  -8.8771     65.2254    191.9693   1.0801153926e+02   2.6335052936e+01    0.2319994    0.1379757  76.34  0.001071485    2.016    0.504
        15 -10.6554     43.3804    178.3002   1.1173195346e+02   3.2297443949e+01    0.5435225    0.4708351 -43.30  0.002536265    1.378    0.274
        16 -10.3391     49.5942    180.7548   1.1047647837e+02   3.0981518133e+01    0.4958633    0.2460254 -75.24   0.00171407    1.987    0.497
        17 -12.5208     57.1869    187.1056   1.0936734352e+02   2.8528766876e+01    0.9449907    0.5241965 -46.53  0.003663979    2.165    0.538
        18 -12.0662     53.8195    185.8858   1.1004290202e+02   2.9240645226e+01    0.6836292    0.3285702 -59.90  0.002243856    1.967    0.492
        19  -9.3668    110.5121    188.9815   9.6520878568e+01   2.0159886284e+01    0.2030699     0.116088 -34.04 0.0008098161    2.486    0.598
        20  -9.6001    147.4626    186.7717   8.7281359959e+01   1.4141294883e+01    0.3824776     0.218262 -37.71  0.001472795    1.946    0.486
        21  -8.0937     72.4760    188.5010   1.0580360153e+02   2.6155870364e+01    0.1380945     0.123977  76.46 -1.892766e-05    1.014    0.013
        22 -10.9473    135.0246    212.2555   9.4523258843e+01   1.1067813744e+01    0.4041009    0.2222877 -41.78  0.001853349    2.078    0.519
        23  -8.7984     79.5134    183.0430   1.0329620296e+02   2.6439050445e+01    0.2070302    0.1340749 -66.40 0.0004914778    1.531    0.347
        24  -8.8791     69.1129    182.9229   1.0588793605e+02   2.7947076252e+01    0.2167892    0.1712164  71.97 0.0006534887    1.247    0.198
        25 -10.2018     99.3911    180.9792   9.7965779569e+01   2.3846011286e+01    0.2640683    0.2549546  48.62 0.0006587951    1.060    0.057
        26  -9.1443     37.6609    180.9740   1.1342847325e+02   3.2292238805e+01    0.1846634    0.1784146  55.14 0.0004040774    1.222    0.182
        27  -8.3360     89.5781    180.5478   1.0037834004e+02   2.5511174862e+01     0.141886    0.1320902  78.10 0.0001483404    1.018    0.018
        28 -10.0245    187.4018    175.8926   7.6233972647e+01   8.9750230262e+00    0.3432141    0.3321927 -86.36  0.001215769    1.274    0.215
        29  -8.6536    147.9782    174.4843   8.4780143260e+01   1.6673279993e+01    0.1954551    0.1271676  62.79 0.0003580897    2.165    0.538
        30 -16.2561      6.7594    203.8701   1.2223832821e+02   3.0072224738e+01     15.94196     1.108639 -75.71  0.009601006   10.110    0.901
        31 -11.3724     73.9493    167.5075   1.0238998940e+02   3.1011500209e+01    0.3959435    0.3229648 -61.32  0.001676475    1.185    0.156
        32  -8.3965     84.2727    173.6505   1.0064878207e+02   2.7982628755e+01     0.148498    0.1061296  76.35 0.0002421915    1.630    0.386
        33 -11.9562     82.1898    159.2517   9.8795094230e+01   3.1829496799e+01    0.9221095    0.6016234  70.49 0.0005438353    1.986    0.497
        34  -8.2776     34.5397    171.5173   1.1318161345e+02   3.4901681063e+01     0.132881     0.111509  86.65 0.0001954221    1.038    0.037
        35  -8.6487    193.4815    170.5146   7.3850643364e+01   8.8856711710e+00    0.1448073    0.1327139  -9.29 4.473526e-05    1.009    0.009
        36  -9.6106    240.4766    169.4757   6.4843373134e+01   9.4551298963e-01    0.1344962    0.1108156 -16.79 9.281908e-06    1.037    0.036
        37 -10.1505    239.1815    173.8204   6.5940478120e+01   4.3650233881e-01    0.1927923    0.1419153  -6.73  0.001094201    1.356    0.263
        38  -8.5916     35.1369    166.5975   1.1247518845e+02   3.6038862495e+01     0.183931    0.1214289  38.06 0.0009983506    1.591    0.371
        39  -9.3924     89.4768    211.5266   1.0477687243e+02   1.8479148573e+01    0.2443899    0.2015964 -85.26  0.001014892    1.245    0.197
        40 -11.4049     89.4276    152.2431   9.5511331471e+01   3.2425837060e+01    0.7061702    0.4842296 -23.05  0.002595504    2.066    0.516
        41 -10.1976    134.4263    148.1807   8.2546691030e+01   2.5200980790e+01    0.6262931      0.27861 -55.82  0.002145058    2.633    0.620
        42 -10.3606    133.3202    142.1177   8.1450184025e+01   2.6817176028e+01    0.7055625    0.2500263 -55.44  0.002018997    3.720    0.731
        43  -9.3079    174.5265    149.0076   7.3177524840e+01   1.6867400046e+01    0.2803203    0.2193485  62.24 0.0007615238    1.554    0.357
        44 -10.4612     38.6834    146.2937   1.0891746056e+02   4.0707782916e+01     0.329438    0.2704325  54.37 0.0009226697    1.286    0.222
        45 -10.1815    102.9149    138.3324   8.8838140578e+01   3.3541527341e+01    0.5573286    0.3579683 -21.01   0.00217551    2.406    0.584
        46 -11.6389     90.3400    137.9637   9.2370060468e+01   3.5810212474e+01     0.295132    0.2624465 -34.31 0.0004604622    1.170    0.146
        47 -11.4413     43.6169    130.3265   1.0497383108e+02   4.4192190953e+01    0.5612249    0.3159092  88.36  0.002337719    2.500    0.600
        48 -10.0520    105.8992    130.9081   8.6294496789e+01   3.4790888799e+01    0.3688005    0.3353636 -61.33  0.001185031    1.103    0.093
        49  -9.7893    135.8970    128.8784   7.7613200629e+01   2.9309818508e+01    0.3808192    0.2002088 -55.13  0.001332732    2.159    0.537
        50  -9.7692    111.9195    129.2763   8.4197810160e+01   3.4044656366e+01    0.3412359     0.270715  13.08  0.001121448    1.506    0.336
        51  -9.1820    161.1564    128.0080   7.1206768221e+01   2.4096009094e+01    0.2642437    0.1827851 -68.22  0.001091406    1.993    0.498
        52 -10.2808     99.1179    125.1793   8.6906647240e+01   3.7408249585e+01    0.3169642    0.2629074 -13.42  0.001074088    1.404    0.288
        53 -10.3581    118.9773    122.6672   8.0594791782e+01   3.4206458906e+01    0.6361535    0.3848671   5.14  0.001958512    3.924    0.745
        54  -9.0361     90.9539    123.9669   8.9055395817e+01   3.9137403483e+01    0.2331657    0.1827427  77.46 0.0005984359    1.629    0.386
        55  -9.5494    135.0000    121.3948   7.5959875059e+01   3.1177635417e+01    0.5362628    0.0887927 -45.52  0.001157321    5.945    0.832
        56  -9.1322    108.0153    118.4678   8.2643181431e+01   3.7340096044e+01    0.2173393    0.2041405 -40.17 0.0001138246    1.034    0.033
        57  -9.9223    231.4628    113.7689   5.4378118260e+01   1.2050604056e+01    0.2526103    0.2478563  68.83 0.0008632074    1.160    0.138
        58  -9.6286    134.7748    112.4195   7.3669232193e+01   3.3202361570e+01    0.4681517     0.128304 -43.99  0.001306138    3.598    0.722
        59 -11.1847     41.3531    113.6828   1.0266460907e+02   4.8576711399e+01    0.3885809    0.2026856  37.70  0.001793696    2.123    0.529
        60  -9.2897    205.4721    110.0491   5.7764527647e+01   1.7998262505e+01    0.2688854     0.221935  52.89 0.0006884928    1.310    0.237
        61 -10.8137    115.2829    108.7446   7.7993084336e+01   3.8123635409e+01     0.562816    0.2804821 -50.19  0.002132223    2.051    0.512
        62 -11.4454     69.4758    172.1746   1.0427780045e+02   3.0497511774e+01    0.4516558    0.2985611 -34.75  0.001911864    2.006    0.501
        63  -8.5294    139.2091    106.1292   7.0829053669e+01   3.3575341475e+01    0.2080526     0.184468 -80.34 0.0004926391    1.292    0.226
        64 -13.0613     70.4417    154.1480   1.0116512233e+02   3.4829613847e+01    0.6599577     0.514366 -53.44 0.0008795728    1.247    0.198
        65  -9.9574     39.6770    103.0119   1.0106293525e+02   5.1351425641e+01    0.2012499     0.161794 -55.19 0.0008106642    1.085    0.078
        66 -10.6442     33.2543     99.2904   1.0254316367e+02   5.2876746166e+01    0.3481181    0.2037945 -66.88  0.001718909    1.627    0.385
        67  -9.9627     29.2178     98.6360   1.0384686599e+02   5.3399522206e+01    0.2563909    0.2034567  37.09 0.0008180429    1.471    0.320
        68  -9.4402    128.0934     95.1374   7.0632857544e+01   3.8325394137e+01    0.3128755    0.2224268 -88.45  0.001256592    2.316    0.568
        69  -9.5589     92.9210    249.3453   1.0834345866e+02   1.0422529122e+01     0.292486   0.09578311  46.80  0.001195579    2.644    0.622
        70  -9.3936    156.0041     87.9468   6.1758611977e+01   3.3340621150e+01    0.4035199     0.258559 -70.92  0.001563348    2.449    0.592
        71  -8.6742    115.8672     85.0208   7.0994538520e+01   4.3034617301e+01    0.2235156    0.1658782  62.11  0.001027672    1.602    0.376
        72  -9.2588    158.5043     82.9515   5.9803877766e+01   3.3668143470e+01    0.2297572    0.1480578 -38.45 0.0006405408    1.548    0.354
        73  -8.7503     56.7678     66.6124   8.4879155743e+01   5.7435299151e+01    0.1789362    0.1250234  40.66 0.0003765565    1.636    0.389
        74 -12.9987    188.4252     50.1285   4.5421355303e+01   3.1745248447e+01    0.9737209    0.8126498  39.64 0.0008925425    1.404    0.288
        75 -10.8852    121.5004    197.0247   9.5197463403e+01   1.6521611934e+01    0.4675894    0.2847045 -77.87  0.001245542    2.552    0.608
        76 -10.3693     60.4088    197.8093   1.0984740243e+02   2.5615130436e+01    0.2600039    0.2057615  46.27 0.0002634735    1.219    0.180
        77  -9.1327     68.4850     52.4860   7.5436566081e+01   5.8272122736e+01    0.2351249    0.1844136  41.51  0.000844846    1.395    0.283
        78 -11.6579     20.8535     33.5306   8.8865591098e+01   6.7838492344e+01    0.5039034    0.2294973  33.45  0.002401649    2.515    0.602
        79  -9.2231    198.1473     23.5845   3.7485730005e+01   3.2824399242e+01    0.2235497    0.1708647  -5.25 0.0007428282    1.860    0.462
        80 -11.0303    107.5160    203.5118   9.9502204445e+01   1.7425175043e+01    0.4785378    0.2698999  63.18  0.002001392    2.429    0.588
        81  -9.3689    189.3659     14.9236   3.6292963236e+01   3.5817705738e+01    0.2214659    0.1604628 -85.59  0.001006235    1.266    0.210
