#   1 NUMBER                 Running object number                                     
#   2 MAG_AUTO               Kron-like elliptical aperture magnitude                    [mag]
#   3 X_IMAGE                Object position along x                                    [pixel]
#   4 Y_IMAGE                Object position along y                                    [pixel]
#   5 X_WORLD                Barycenter position along world x axis                     [deg]
#   6 Y_WORLD                Barycenter position along world y axis                     [deg]
#   7 A_WORLD                Profile RMS along major axis (world units)                 [deg]
#   8 B_WORLD                Profile RMS along minor axis (world units)                 [deg]
#   9 THETA_WORLD            Position angle (CCW/world-x)                               [deg]
#  10 FWHM_WORLD             FWHM assuming a gaussian core                              [deg]
#  11 ELONGATION             A_IMAGE/B_IMAGE                                           
#  12 ELLIPTICITY            1 - B_IMAGE/A_IMAGE                                       
         1 -13.0527    194.7137     31.5236   6.6886419391e+01   3.2915914610e+01    0.9756296    0.7734808  45.74  0.005617437    1.453    0.312
         2 -13.9212    207.6065     15.0624   6.1433501205e+01   3.1785713550e+01     1.368538    0.9507728  41.76  0.007666092    1.906    0.475
         3 -11.6895      2.2123     12.6021   1.1444099378e+02   7.0901227093e+01    0.4324318    0.1597925 -48.21  0.002326221    2.737    0.635
         4 -12.3138      2.4807      3.8786   1.1063592711e+02   7.2053588337e+01    0.5769672      0.33417  19.41  0.004209237    1.710    0.415
         5 -10.1799    189.7726     15.7732   6.3632577199e+01   3.5943677927e+01    0.1837789    0.1346185 -76.94 0.0007493111    1.321    0.243
         6  -9.7356    205.0177    250.5198   1.1345777753e+02  -7.8936703670e+00     0.190171    0.1045863  37.38 0.0003789288    1.548    0.354
         7 -10.5599    184.5888    250.2664   1.1729899250e+02  -4.5206217903e+00    0.2904519     0.151179  33.87            0    1.727    0.421
         8 -10.7982    169.8976    248.4205   1.1985821936e+02  -1.7581033711e+00    0.3461056    0.2371873   6.08 0.0009821877    2.153    0.535
         9 -11.4950    149.8036    247.9122   1.2370069992e+02   1.7586110589e+00    0.4509282    0.3213972 -69.06  0.002590741    1.804    0.446
        10 -10.5923    143.2215    249.2923   1.2517067111e+02   2.6451730698e+00    0.2294782    0.1907988  73.51 0.0006137424    1.291    0.225
        11 -11.7628    116.5125    238.7288   1.2904250070e+02   9.0775573662e+00     0.705372    0.3366422 -48.82  0.003285664    2.590    0.614
        12 -11.2590    134.3997    249.1285   1.2686250093e+02   4.1674194160e+00      0.47231    0.2480864  43.14  0.002416757    1.595    0.373
        13 -11.8440    125.1122    249.1704   1.2866555278e+02   5.7173471776e+00    0.8741804    0.2594115  42.08  0.003405328    2.809    0.644
        14 -10.9505    122.1707    244.9952   1.2871687967e+02   6.9625722720e+00    0.3618287    0.1921576  52.45   0.00114168    1.669    0.401
        15 -12.0496    126.1757    240.6179   1.2737005602e+02   7.0936627899e+00    0.4893468     0.393379  57.17  0.002634989    1.066    0.062
        16 -10.9085     99.1231    247.5755   1.3345856744e+02   1.0234132852e+01    0.5306045    0.2827088  69.53  0.002567076    2.257    0.557
        17 -10.0068    102.9349    247.3131   1.3270469330e+02   9.6787267386e+00    0.2486245    0.1935651  63.37  0.001030911    1.066    0.061
        18 -10.7464    115.1027    250.3501   1.3073051141e+02   7.1566133370e+00    0.4296651    0.2298606  42.12 0.0009468563    1.618    0.382
        19 -11.4750    109.6008    247.1976   1.3141623650e+02   8.6281492585e+00    0.4898593    0.3974072 -80.84  0.002325952    1.310    0.236
        20 -10.4563     81.5076    246.5944   1.3666549759e+02   1.3125055459e+01      0.58425    0.3018796  89.04  0.002825581    2.504    0.601
        21  -9.8599     83.9540    242.0205   1.3574335163e+02   1.3640418489e+01    0.2637069    0.1961549 -50.60  0.001532954    1.799    0.444
        22  -9.2933     83.6600    238.3142   1.3541214962e+02   1.4411903943e+01    0.3039054   0.08906389  45.91  0.001220373    2.787    0.641
        23  -9.6187     89.3204    250.7110   1.3562793377e+02   1.1168274947e+01    0.2302499     0.109795  37.51 0.0006119616    2.148    0.534
        24 -10.9739     87.7561    247.6467   1.3560678108e+02   1.1982958862e+01    0.4504414    0.2569353  44.70  0.001139644    1.533    0.348
        25 -12.4006     62.6178    245.7946   1.4005329185e+02   1.5996871137e+01     1.448812    0.6093908  33.13  0.006452777    3.232    0.691
        26 -12.5885     15.4968    138.5211   1.3881281989e+02   4.5145972590e+01    0.7479661     0.231136  39.59  0.003265404    3.460    0.711
        27 -14.3129      2.9602    181.9725   1.4604490425e+02   3.6307120843e+01     5.929308     0.774322 -75.65   0.01527463    7.982    0.875
        28 -12.2827     63.1852    221.3223   1.3762633298e+02   2.0883082277e+01     1.006053    0.4333313 -75.94  0.003566327    2.462    0.594
        29 -12.8552     12.3212    213.0363   1.4658241966e+02   2.8742400750e+01    0.9847082    0.5232667  48.34   0.00499315    1.752    0.429
        30 -12.8956     11.0697    206.1172   1.4631640996e+02   3.0328936217e+01     1.205856    0.7184133  10.97  0.006211387    3.818    0.738
        31 -14.3225     31.9806    245.7155   1.4541010100e+02   1.9964040505e+01     1.931739     1.083344  40.81   0.01206392    1.851    0.460
        32 -14.0142      5.9460    245.1538   1.4964619117e+02   2.2971442664e+01      1.57137    0.7841136 -79.86  0.008231942    1.665    0.399
        33 -12.9859     13.7936    238.8995   1.4801631764e+02   2.3349183110e+01     0.679531    0.4329731  69.32  0.004802599    1.174    0.148
        34 -13.1886     37.4671    228.4548   1.4316336465e+02   2.2741126590e+01    0.7638983    0.4142121  51.34  0.001718026    1.598    0.374
        35 -14.5859     44.1321    218.6883   1.4108327291e+02   2.3960251628e+01     1.525704     1.519826 -14.69   0.01125147    1.544    0.352
        36 -10.3870     84.6785    229.5743   1.3426316144e+02   1.6014000708e+01     0.267424    0.2269206 -11.88  0.000748513    2.013    0.503
        37 -11.5569    104.4109    237.9196   1.3133339882e+02   1.1228751359e+01    0.5120296    0.3817819 -25.54  0.002735686    2.411    0.585
        38 -11.5933     98.5522    231.8813   1.3177288773e+02   1.3366581239e+01    0.7117434    0.3375776 -73.76   0.00114841    2.696    0.629
        39 -10.3435     84.8486    234.2822   1.3474996790e+02   1.5034253399e+01    0.2713396    0.1803608  83.36   0.00127487    1.510    0.338
        40 -11.4407     90.8264    239.7803   1.3419197657e+02   1.3024595300e+01    0.7038342    0.3526604  89.79  0.002627006    3.113    0.679
        41 -11.1150     96.9363    239.8772   1.3302138925e+02   1.2047668701e+01    0.3858433    0.3181314  58.36  0.002134289    1.083    0.076
        42 -10.8913    112.9637    230.1679   1.2865699743e+02   1.1334832024e+01    0.3432715    0.2655068  40.79  0.001569559    1.287    0.223
        43 -11.8353    105.6412    228.8271   1.2997062844e+02   1.2823970241e+01    0.6649526    0.3569269  55.82  0.003245321    1.755    0.430
        44 -10.3520    164.8414    242.1831   1.1992297485e+02   1.3506732638e-01    0.2018667    0.1746074  38.78 0.0005126274    1.020    0.019
        45  -8.6196    162.3108    239.6929   1.2005113460e+02   9.9793005739e-01    0.1650919      0.13666 -82.00 0.0005417042    1.539    0.350
        46 -10.9469    245.0151    240.9950   1.0453773842e+02  -1.2678979961e+01    0.1999236    0.1256624   3.76  0.001143066    1.696    0.410
        47 -10.6338    173.1050    240.2990   1.1800602322e+02  -9.8395275863e-01    0.2400574    0.1746857  87.15   0.00123565    2.269    0.559
        48  -9.4605     61.7706    238.4094   1.3954834413e+02   1.7565380300e+01    0.2905344    0.1787783  27.56  0.001545509    2.462    0.594
        49 -11.2323    250.0000    236.5285   1.0288075203e+02  -1.2799735716e+01    0.7737741   0.07384691 -37.69  0.001824548   10.580    0.905
        50 -11.3798    134.0905    232.3807   1.2466223606e+02   7.2721079222e+00    0.3159432    0.2745664 -42.88 0.0009897902    1.395    0.283
        51 -11.4854    122.5047    233.2582   1.2713220242e+02   9.1105412560e+00    0.3701003    0.3244709 -50.11  0.001696141    1.378    0.274
        52 -10.7545    127.2954    234.0088   1.2626531813e+02   8.1435469431e+00    0.2569915    0.1730588  43.79 0.0008079095    1.310    0.236
        53  -9.1822     71.5951    236.2826   1.3750581125e+02   1.6602496146e+01    0.2072954    0.1172994  71.34  0.001098445    1.763    0.433
        54 -10.1714    165.6104    234.7975   1.1864495750e+02   1.2622001439e+00    0.1703431    0.1281551 -64.28 0.0007685302    1.677    0.404
        55 -10.8680    156.7812    231.5444   1.1992396925e+02   3.4073416876e+00    0.2280702     0.223205  78.79 0.0003034744    1.137    0.121
        56  -9.3456     78.0676    233.0595   1.3593627001e+02   1.6303095646e+01      0.21433    0.1613028 -88.64  0.001108748    1.232    0.188
        57 -10.3288     63.0123    233.0308   1.3881558460e+02   1.8476201551e+01    0.1807971    0.1451901  72.48            0    1.049    0.046
        58  -8.7668     92.3878    232.2702   1.3304377464e+02   1.4269488637e+01     0.169791      0.11283 -82.82 0.0006001216    1.576    0.365
        59 -11.0313    142.3336    229.5207   1.2256601314e+02   6.3577210306e+00    0.4076075    0.2648146 -40.38  0.002096745    1.921    0.479
        60  -9.2194     57.3630    230.9596   1.3968769663e+02   1.9673885734e+01    0.1681363    0.1276153 -89.37 0.0009057464    1.157    0.135
        61  -8.9524    180.7076    229.3392   1.1474170853e+02  -4.7376224058e-01    0.1281822    0.1033557  74.10 0.0001762201    1.648    0.393
        62 -10.4911     77.4504    220.9294   1.3473526126e+02   1.8907545654e+01     0.325269    0.2007408  67.63   0.00139683    1.559    0.359
        63 -10.5169     79.8296    227.9598   1.3504319020e+02   1.7081691128e+01    0.3426538    0.2892528 -17.03  0.001481034    2.038    0.509
        64  -9.5988     78.9600    224.5561   1.3483927244e+02   1.7918830377e+01    0.2311258    0.1833733  42.24 0.0007176611    1.374    0.272
        65  -9.5510    197.1805    226.4189   1.1097523231e+02  -2.8828848186e+00    0.2876176    0.2181001  73.97  0.001505128    2.089    0.521
        66  -9.5168    166.3652    226.8130   1.1722699493e+02   2.5383299010e+00    0.1773445    0.1269351 -35.63 0.0009453481    1.640    0.390
        67 -10.6430    132.2057    224.7785   1.2395747470e+02   9.0696139285e+00    0.2595671    0.2240913 -23.10  0.001513211    1.535    0.349
        68  -9.7221    129.4129    221.1551   1.2400832172e+02   1.0283622606e+01    0.2776889    0.1965903 -89.85  0.001420836    1.756    0.431
        69 -10.1448     92.6204    225.9602   1.3225472538e+02   1.5517670449e+01    0.2427675    0.1654036  54.39 0.0005196189    1.274    0.215
        70  -9.3307    147.0257    225.4643   1.2098832078e+02   6.2841575974e+00    0.2013672    0.1212578  42.01 8.687122e-05    1.478    0.324
        71 -10.0986    117.3035    224.3672   1.2699063286e+02   1.1756108823e+01    0.2450988    0.2234975  66.46 0.0002374586    1.082    0.076
        72 -11.2120     99.1661    223.3993   1.3060528621e+02   1.4994273188e+01    0.4191393    0.2726092  59.28  0.001053549    1.404    0.288
        73  -9.7973    110.6803    221.0684   1.2791629995e+02   1.3560238055e+01    0.3640717    0.1193529 -56.86   0.00137082    3.221    0.689
        74 -11.0266     69.7245    217.3284   1.3589547399e+02   2.0808793528e+01    0.7632322    0.3464164 -81.59  0.003249963    2.746    0.636
        75 -11.3646     72.9618    209.9790   1.3439314928e+02   2.1934127321e+01    0.3592669     0.271291  29.04  0.001683907    1.718    0.418
        76 -10.1613    245.5113    221.4999   1.0098846061e+02  -1.0051301628e+01    0.1801627    0.1132492 -43.57 0.0009903383    1.854    0.461
        77 -11.3445    142.3360    221.7659   1.2139405329e+02   7.8426136610e+00    0.4394661    0.2518544  38.20  0.001085416    1.650    0.394
        78  -9.8354    104.9147    218.6788   1.2879878443e+02   1.5028042529e+01    0.2262741    0.1792646 -83.55 0.0002443958    1.262    0.208
        79 -10.2299     99.7352    217.4230   1.2971694100e+02   1.6151138917e+01    0.2415957     0.190618 -38.72 0.0008961962    1.745    0.427
        80 -10.6897    160.6507    223.6028   1.1787964565e+02   4.1606913377e+00     0.268817     0.210561   6.72 0.0007149394    1.643    0.391
        81 -10.7974    138.3296    214.2085   1.2105924922e+02   1.0072256048e+01    0.4822297    0.3514575  33.79  0.001382334    1.418    0.295
        82  -9.8102     88.1611    212.8901   1.3156194927e+02   1.8986020623e+01    0.2512112    0.1641914 -84.76 0.0007694782    1.604    0.376
        83  -9.8672    102.2770    212.1578   1.2847142470e+02   1.6851911977e+01    0.3842643     0.175471  63.38  0.001393299    3.231    0.690
        84 -10.6877    107.2818    209.3938   1.2700855870e+02   1.6601758303e+01    0.4028258    0.2910726 -26.52  0.001419742    2.307    0.566
        85 -10.9723    112.4806    208.2962   1.2572291212e+02   1.5942185630e+01    0.2743348    0.2379494  48.78 0.0003182392    1.145    0.126
        86  -9.0836    134.3138    208.5168   1.2101410113e+02   1.1977422771e+01    0.2302953    0.1718978 -31.12 0.0009004573    1.789    0.441
        87 -11.3904     93.0212    203.2860   1.2924605742e+02   2.0317633894e+01    0.5845028    0.4987893  83.92  0.003484191    1.053    0.051
        88 -11.3866    247.3716    205.4214   9.7652828053e+01  -7.9354619944e+00    0.5019949    0.3151053   8.17  0.002571434    1.947    0.487
        89  -9.2461     32.8485    206.9086   1.4221645454e+02   2.7847950810e+01    0.1683694    0.1355745 -75.99 0.0003492828    1.254    0.203
        90  -9.3086    125.8430    205.5295   1.2238280969e+02   1.4156882379e+01    0.2269337     0.185487  79.91 0.0007698802    1.263    0.208
        91  -8.8003    119.0221    217.0322   1.2559658665e+02   1.2956235725e+01    0.1631896    0.1460994 -88.80 0.0003536615    1.122    0.108
        92  -9.6213    166.8991    203.0991   1.1305253425e+02   6.9139898997e+00    0.2066438    0.1823809  66.83            0    1.212    0.175
        93  -8.9199    133.0108    202.7259   1.2035338867e+02   1.3436409308e+01    0.1957286    0.1790932  61.22 0.0003979035    1.011    0.011
        94  -9.8747    102.8003    202.7288   1.2702157377e+02   1.8820088109e+01    0.6318473    0.2709629  57.43   0.00172612    2.895    0.655
        95  -9.7166     98.7377    196.7868   1.2704866360e+02   2.0832299690e+01    0.5094267    0.2307646  52.01  0.001245679    2.232    0.552
        96  -9.5335    102.7526    195.9430   1.2602026236e+02   2.0344357521e+01    0.1951868    0.1678656 -74.40 0.0005540407    1.143    0.125
        97  -9.0093     84.0857    202.2239   1.3105039958e+02   2.1975051535e+01    0.1911113    0.1360908  72.39 0.0002221429    1.358    0.263
        98  -9.4426     64.2267    202.0508   1.3530045278e+02   2.4944883899e+01     0.184189    0.1711267 -78.37 0.0005018316    1.266    0.210
        99 -10.5577     32.6860    201.7515   1.4178197221e+02   2.8996254749e+01    0.2086546    0.1691938  87.98 0.0002972866    1.084    0.077
       100  -9.0708    196.6153    200.7823   1.0642423681e+02   1.6825037561e+00    0.1897112    0.1329656 -51.89 0.0009456026    1.637    0.389
       101  -9.7359    115.0724    200.1149   1.2390714479e+02   1.7267616001e+01    0.2047853    0.1875919  74.10 0.0003121512    1.034    0.033
       102 -12.1683    135.4636    236.3290   1.2493765262e+02   6.2928489030e+00    0.5686821    0.3715625  35.35  0.001697757    1.511    0.338
       103  -9.3528    119.9736    199.4530   1.2270976050e+02   1.6534726506e+01    0.2101172    0.1310466  45.28 3.810537e-05    1.501    0.334
       104  -8.4590     86.2638    199.2841   1.3017747656e+02   2.2295318922e+01    0.2010898    0.1558693 -63.78 0.0001996883    1.304    0.233
       105  -9.3606     85.8311    195.8307   1.2979595129e+02   2.3146661713e+01    0.2144739    0.1656292  71.02 0.0003064139    1.206    0.171
       106 -11.6924     69.0087    187.4140   1.3242107278e+02   2.7616079288e+01    0.2956674    0.2424314 -55.94 0.0005343052    1.352    0.260
       107 -10.7320     57.2704    194.9232   1.3595408188e+02   2.7505343792e+01    0.6492482    0.2962854 -66.64  0.003062282    1.979    0.495
       108  -9.8529     53.0175    198.0143   1.3721568741e+02   2.7362602954e+01    0.2857718    0.1729509  60.30  0.001553096    1.563    0.360
       109  -9.1718    134.0000    197.9524   1.1933233723e+02   1.4273161089e+01    0.2197297    0.0824866 -53.14 0.0004303528    2.808    0.644
       110 -11.2799    249.5957    194.2219   9.5094852421e+01  -6.5355878770e+00    0.3359021    0.2857933  -2.99   0.00211839    1.055    0.052
       111  -9.8077    113.1975    193.8018   1.2332347409e+02   1.9005060876e+01    0.5241464    0.2424063 -62.66  0.001339819    2.385    0.581
       112 -10.7921     38.2235    193.7784   1.3987681087e+02   3.0138690649e+01     0.467144     0.198801 -58.38  0.001674588    2.267    0.559
       113  -9.4550     40.6962    188.1399   1.3876006561e+02   3.1130316873e+01    0.2377871    0.1789302 -85.30 0.0009840705    1.094    0.086
       114  -9.3161     31.5760    195.2939   1.4140165695e+02   3.0553968109e+01    0.2623814    0.1058288  49.93  0.001259756    2.354    0.575
       115  -9.3684    159.9023    194.1997   1.1292947785e+02   1.0071217195e+01    0.2184129    0.1904369  66.41 0.0003693319    1.197    0.165
       116  -8.7196    133.4864    194.4249   1.1884061779e+02   1.5134151394e+01    0.1446898    0.1346081  58.51 0.0001130743    1.036    0.035
       117  -9.6670    120.5074    193.2345   1.2157131419e+02   1.7812330198e+01    0.3756042    0.2315698 -59.32  0.001756401    1.676    0.403
       118  -8.9692    117.9920    189.9874   1.2160057651e+02   1.8999477725e+01    0.1844235    0.1728627 -28.29  0.000343492    1.296    0.228
       119  -9.3135     72.5640    193.0338   1.3236937758e+02   2.5802683583e+01    0.1919209    0.1625014  62.38 0.0001091993    1.134    0.118
       120  -9.5172     25.6289    192.3370   1.4234054699e+02   3.1858025170e+01     0.241154    0.1498885  69.92  0.000833546    1.465    0.317
       121  -9.5023     20.3904    191.8311   1.4335945223e+02   3.2511229132e+01     0.292165      0.14624  73.74  0.001512856    2.024    0.506
       122  -9.9087    191.4717    191.4387   1.0566385013e+02   4.4170194832e+00    0.2455956    0.2352826  17.98 0.0006290866    1.016    0.016
       123  -8.9620    172.7245    192.6709   1.0985892747e+02   7.8561685895e+00    0.1437289    0.1141869  -3.80 0.0002841964    1.592    0.372
       124 -11.4806     63.4260    194.8772   1.3461390330e+02   2.6680695921e+01    0.3477147    0.2470009 -51.90  0.001292919    1.627    0.385
       125  -9.9650     32.3022    189.8209   1.4071743202e+02   3.1703529526e+01    0.3205687    0.2242718  44.36   0.00199741    1.528    0.346
       126  -9.2216    135.1527    189.9743   1.1768034139e+02   1.5791023849e+01    0.2195873     0.185719  79.18 0.0003931732    1.235    0.190
       127  -9.6821     15.1842    190.0573   1.4425474817e+02   3.3418139215e+01    0.1733092    0.1308102 -71.14 0.0006740052    1.270    0.213
       128 -10.8535    249.7081    187.8553   9.3819433895e+01  -5.5292182090e+00    0.3210013     0.229338 -24.99  0.001820743    1.290    0.225
       129  -9.9903     77.0097    188.7157   1.3078761874e+02   2.6140937069e+01    0.2258966    0.1999046 -79.04 0.0002865345    1.116    0.104
       130  -9.1052    111.4495    187.8722   1.2275187378e+02   2.0659502753e+01    0.2148625    0.1385917 -60.93 0.0009518515    1.563    0.360
       131  -9.8512    140.1344    183.1474   1.1529140665e+02   1.6331911940e+01    0.2220092     0.206965  70.73 0.0002991789    1.029    0.029
       132  -9.9580     24.3635    184.3015   1.4184358074e+02   3.3795776083e+01    0.2031323    0.1625644  68.26 0.0005261736    1.190    0.160
       133  -8.6148     74.2451    184.4026   1.3081515096e+02   2.7557892215e+01    0.1347023   0.09774545 -44.61  0.000693314    1.691    0.409
       134  -9.2612     37.4932    184.0280   1.3900621465e+02   3.2442310083e+01    0.1988904    0.1468168  46.93  0.001229193    1.436    0.304
       135  -9.7328     30.2710    183.7231   1.4053154255e+02   3.3308998716e+01    0.2300771     0.148461  70.13 0.0008243803    1.456    0.313
       136 -10.7827    236.3830    146.1116   8.7440876164e+01   4.1413011511e+00    0.4082227    0.2706728  46.58  0.001453533    1.642    0.391
       137 -12.7392    248.1703    101.7421   7.5842724626e+01   9.7390628232e+00    0.9087682     0.491904 -40.56  0.004264499    1.651    0.394
       138 -12.4513    245.1635    162.9017   8.9513621117e+01  -5.2221784738e-01    0.7355051    0.4635266 -53.62  0.003562191    1.865    0.464
       139 -12.4809    245.5704    156.6444   8.8128547114e+01   5.0450035742e-01     1.440422     0.934086 -71.66  0.006068513    2.936    0.659
       140 -12.0617    247.8472    142.4733   8.4734235943e+01   2.5961865671e+00    0.8556981    0.6234578  47.24  0.004631219    1.534    0.348
       141 -12.6365    248.5897    133.9830   8.2790037144e+01   3.9671103764e+00     1.122716    0.8002169 -37.03  0.005992058    1.265    0.209
       142  -9.0980     47.9744    179.8091   1.3620015478e+02   3.2183026729e+01    0.1582239   0.09860069  37.93 0.0006936891    1.764    0.433
       143  -9.6323     19.9591    179.0580   1.4226982343e+02   3.5422112688e+01    0.1756501    0.1256735 -52.20  0.000470465    1.621    0.383
       144  -9.9858     12.4256    178.7547   1.4383180812e+02   3.6196461174e+01    0.2474743    0.1447822 -65.14  0.001136254    1.493    0.330
       145 -10.5149     11.7406    173.9283   1.4353617430e+02   3.7344195944e+01    0.4025505    0.1462781 -56.54  0.001605632    2.597    0.615
       146  -9.0688     92.7605    178.1737   1.2553768249e+02   2.6129645892e+01    0.1776997    0.1607535 -46.22 0.0002215589    1.286    0.222
       147  -9.0610    182.4704    176.5491   1.0454640276e+02   9.1642673045e+00    0.1467967    0.1433879  56.34 0.0002175055    1.051    0.048
       148 -11.6375     78.0499    175.2126   1.2857400453e+02   2.9158144421e+01    0.3085781    0.2821307  53.93  0.001848025    1.188    0.158
       149  -9.1465     68.3708    175.6941   1.3094201431e+02   3.0461212847e+01    0.2123743    0.1282786 -72.19 0.0006211099    1.555    0.357
       150 -11.0692     64.8365    173.8329   1.3151015663e+02   3.1397513599e+01    0.4726604    0.3067007 -45.47   0.00127572    1.828    0.453
       151  -9.7672    115.3901    177.9850   1.2012288194e+02   2.2222657257e+01    0.4051204    0.2096371 -58.45  0.001682238    1.966    0.491
       152 -11.7385     24.2524    162.4462   1.3957385789e+02   3.8825146734e+01    0.3199641    0.2732594  -7.40   0.00212294    1.706    0.414
       153 -10.4923     19.0696    172.6483   1.4183085397e+02   3.6966134994e+01    0.3948597     0.215112  62.39  0.002163489    1.890    0.471
       154 -10.1266     12.5347    167.5036   1.4275243626e+02   3.8730712171e+01    0.2429967    0.1592848  88.86 0.0007721352    1.286    0.222
       155 -10.7812     15.7909    166.0712   1.4188812651e+02   3.8771038013e+01    0.3736872    0.1936257 -85.28  0.001989574    1.726    0.421
       156  -8.9640    107.5582    172.7820   1.2106596825e+02   2.4859089041e+01     0.196347    0.1365851 -74.00 0.0005383923    1.541    0.351
       157  -9.2725     90.9846    172.5105   1.2503120506e+02   2.7763942362e+01    0.2306715    0.1893184 -44.53 0.0005832745    1.391    0.281
       158 -12.1045     86.3820    166.8833   1.2520916961e+02   2.9853836021e+01    0.6344358    0.5106332  49.13  0.003467368    1.266    0.210
       159 -10.2878     28.9000    171.2278   1.3950045714e+02   3.6326429449e+01    0.4066592    0.2682073 -64.12  0.001681226    1.350    0.259
       160  -9.1327     95.1343    172.5075   1.2402546918e+02   2.7076807862e+01    0.2051129    0.1382472  44.50 0.0005582168    1.489    0.329
       161  -8.5623     55.7774    172.2623   1.3343014891e+02   3.2979066167e+01    0.1252815   0.08828453  82.01            0    1.399    0.285
       162  -8.4860    100.5189    170.4898   1.2236648217e+02   2.6639297153e+01    0.1463026    0.1349105 -89.58 -8.898121e-05    1.018    0.018
       163 -10.5211     43.7049    168.6752   1.3579357502e+02   3.5306166185e+01    0.3085479     0.240481 -28.58  0.001230692    1.850    0.459
       164 -10.9628     45.0983    165.0991   1.3499862020e+02   3.5989605233e+01    0.5241908    0.2944956  81.73  0.002370785    2.126    0.530
       165  -9.2703    126.5866    167.6978   1.1550709307e+02   2.2495442375e+01    0.2552298    0.1769848  64.77 0.0007527008    1.643    0.391
       166  -9.6295     68.8593    166.9289   1.2951926253e+02   3.2483605567e+01    0.2107673    0.1765397 -86.68 0.0005554149    1.070    0.065
       167  -8.7721     58.4772    167.4414   1.3211383744e+02   3.3775531957e+01    0.1361226    0.1155464 -87.34 0.0001333834    1.023    0.023
       168  -8.8652     53.6405    164.7728   1.3290143128e+02   3.5032556008e+01    0.1855378    0.1116449 -77.39 0.0004558888    1.569    0.362
       169  -9.7263     33.0769    164.7079   1.3778743705e+02   3.7412944592e+01    0.2416549    0.1505187 -68.03 0.0006109087    1.339    0.253
       170  -9.2730    126.3068    180.8566   1.1807068380e+02   1.9521020649e+01    0.3556501    0.1840562 -71.62 0.0008321778    3.037    0.671
       171  -8.7374     40.3266    162.2787   1.3576757157e+02   3.7201762109e+01    0.1227377   0.09212282 -43.33 0.0003495879    1.593    0.372
       172 -10.5309     89.4693    159.3719   1.2312282514e+02   3.1162451812e+01    0.4451798    0.2498324 -70.64  0.001196047    1.966    0.491
       173  -9.3625     78.9856    158.5197   1.2562676624e+02   3.3022193781e+01    0.1920516    0.1781998  85.95 0.0003260965    1.063    0.059
       174  -9.8368     81.6653    156.2948   1.2455497753e+02   3.3148202580e+01    0.3967012    0.2115003  16.88  0.001349505    4.064    0.754
       175  -9.8088     72.9502    156.5856   1.2682842997e+02   3.4387873400e+01    0.3375988    0.2417617  44.76  0.001778811    1.467    0.318
       176  -8.7205     52.4760    158.4328   1.3227207210e+02   3.6693109709e+01    0.1336819    0.1149858 -76.18 0.0001277944    1.040    0.039
       177  -9.1232     47.8162    158.0002   1.3336214700e+02   3.7359174099e+01    0.2138946    0.1218679 -48.04 0.0005506982    1.884    0.469
       178 -11.4433     31.8177    156.0290   1.3700799652e+02   3.9581141348e+01    0.4276675    0.2367874 -47.65  0.001603595    1.974    0.493
       179 -12.5735     23.8486    154.6145   1.3875099967e+02   4.0686364531e+01    0.5419425    0.4527381 -84.62  0.003655922    1.060    0.057
       180  -9.1399    228.4410    155.4999   9.0887188185e+01   3.9646973650e+00    0.2426097    0.1254999 -49.21  0.000635763    2.043    0.511
       181 -10.8522     98.6920    151.1723   1.1920855206e+02   3.1583798025e+01    0.4033666    0.3089872 -49.77   0.00131433    1.300    0.231
       182  -9.3311    101.8306    146.3696   1.1742046686e+02   3.2185375840e+01    0.3171309    0.1849397 -38.64  0.001305588    2.065    0.516
       183  -9.9601    113.9384    150.7487   1.1520507105e+02   2.8916734288e+01    0.3610679     0.242872 -57.94  0.000484124    1.463    0.316
       184  -9.5390     86.7483    150.4519   1.2217007370e+02   3.3757685437e+01    0.2838611    0.1789824 -75.83 0.0007218418    1.807    0.447
       185 -10.7196     55.3087    148.8478   1.3007802602e+02   3.8642134431e+01    0.5224349    0.3212634  66.92  0.002526274    1.986    0.497
       186  -8.9573    112.4256    157.5774   1.1698421659e+02   2.7576237671e+01    0.1495361      0.14024 -88.17 0.0001162158    1.005    0.005
       187 -11.4690     74.0361    139.2007   1.2339766630e+02   3.8429096002e+01    0.4948262    0.3811691  41.36  0.002363101    1.405    0.288
       188 -12.7651     67.9729    144.4353   1.2600152093e+02   3.8033087781e+01    0.8610618    0.5868267  81.27  0.004212472    1.791    0.442
       189 -11.1478     60.9115    137.0322   1.2656076327e+02   4.0765956808e+01    0.2718228     0.248575  40.42            0    1.239    0.193
       190 -10.1983     56.2219    138.9749   1.2817949739e+02   4.0898586820e+01    0.2022945    0.1918351  61.90 0.0003702605    1.170    0.145
       191 -10.2499     39.3907    146.5159   1.3381902162e+02   4.1043955416e+01    0.2699861    0.1510837  63.59  0.001040883    2.228    0.551
       192 -10.5243    133.3438    141.6407   1.0829331257e+02   2.7200581036e+01    0.6421611    0.2631153 -51.22  0.002213216    2.462    0.594
       193 -11.2725     32.6783    140.6975   1.3470031780e+02   4.3109197658e+01     0.322971     0.190909 -88.79  0.001404657    1.853    0.460
       194  -9.6184     36.6809    140.3223   1.3360057675e+02   4.2795942395e+01    0.1932598    0.1396908  -3.64 0.0006257676    2.060    0.515
       195 -13.6261      8.6584    148.3873   1.4165637834e+02   4.3414154366e+01     1.547999    0.6684492 -86.64  0.002525737    2.450    0.592
       196 -10.0730    110.1273    136.3948   1.1308300584e+02   3.3041476271e+01    0.3300687    0.2601944  -6.96  0.001136006    1.767    0.434
       197 -12.7950     10.4004    127.9630   1.3875666177e+02   4.7954766501e+01     0.502828    0.4021627  23.44  0.003466583    1.605    0.377
       198  -9.6788     80.8660    132.7981   1.2024177619e+02   3.8936000083e+01    0.2034697    0.1840284 -42.70 0.0002890392    1.143    0.125
       199 -11.4545     45.2222    131.2734   1.2984173432e+02   4.4028274486e+01    0.4135983    0.3252534  72.97  0.002119239    1.411    0.291
       200 -12.4199     31.5901    119.1348   1.3157797140e+02   4.8250330990e+01    0.6118814    0.3628807 -68.11  0.003315351    1.468    0.319
       201 -11.6041     31.5227    126.9083   1.3289542334e+02   4.6454198924e+01    0.3722442    0.2798133  70.05  0.001932603    1.516    0.340
       202 -11.5272     66.9578    128.5513   1.2325785486e+02   4.1981746686e+01    0.3970821    0.3064844 -73.98  0.002016281    1.289    0.224
       203  -9.7360    116.3750    128.7277   1.0965094975e+02   3.3633289844e+01    0.3472572      0.23821  -0.82  0.001295527    2.645    0.622
       204 -11.0293     24.4088    127.4253   1.3492764628e+02   4.6974201047e+01    0.2797803    0.1774104 -27.46  0.001085794    2.114    0.527
       205 -10.4215    209.8155    125.7884   8.7615158277e+01   1.3559508560e+01    0.3126491    0.2509899 -37.25 0.0004858553    1.220    0.180
       206 -12.4270     20.2827    121.7780   1.3519994961e+02   4.8618466049e+01    0.4675714    0.3070261   6.79  0.002724042    2.116    0.527
       207 -10.1574     37.9194    121.7846   1.3023133697e+02   4.7025891244e+01    0.1999693    0.1516294 -46.06  0.000638127    1.261    0.207
       208 -10.4165     54.8332    120.6031   1.2513351341e+02   4.5426201537e+01    0.3026908    0.2165681   7.73 0.0009265632    1.879    0.468
       209 -11.0625    168.0929    113.3133   9.3046409561e+01   2.5696068443e+01    0.3876001     0.318949 -76.57 0.0009496463    1.375    0.273
       210 -12.0432     14.9065    114.6322   1.3560512179e+02   5.0655046063e+01    0.3274031    0.2353674 -67.87 0.0004110179    1.125    0.111
       211  -9.4624    203.9435    111.0667   8.5196304434e+01   1.7744211603e+01    0.2450202    0.1932413   8.11  0.001141209    1.783    0.439
       212 -10.6887     32.9098    131.8119   1.3329658071e+02   4.5175935973e+01    0.2273216    0.1705407 -39.49  0.000741847    1.461    0.316
       213 -11.0493    249.5779    150.9354   8.6252613416e+01   7.7665494316e-01    0.5828854    0.3257174 -41.99  0.002766756    1.612    0.380
       214  -9.3744     62.6327    107.3141   1.1995059031e+02   4.7500698345e+01    0.1379325    0.1046499  76.98 0.0007037856    1.771    0.435
       215 -10.8950     14.8854    104.2681   1.3391794214e+02   5.2974432984e+01    0.2413551    0.1114766  15.76  0.001211103    2.886    0.653
       216 -10.9556     17.4974     99.2628   1.3223423826e+02   5.3890381623e+01    0.2248881    0.1918449 -70.82 0.0001919179    1.154    0.134
       217 -13.1494    248.3998    114.1940   7.8525819054e+01   7.5173579621e+00     1.390236    0.9340573 -22.57  0.006783613    1.839    0.456
       218  -9.4373     42.8124     92.1507   1.2266722556e+02   5.3202588134e+01      0.17601    0.1290925 -34.12 0.0002904689    1.297    0.229
       219 -12.8245    248.3906    171.9540   9.0835810548e+01  -2.6574528798e+00     1.170613    0.4701819 -40.08   0.00486825    2.270    0.560
       220  -9.6658     77.9375     85.0566   1.0942642335e+02   5.0102945196e+01    0.2005356    0.1817426 -25.58  0.001186952    1.016    0.016
       221  -9.3091     63.9645     76.4767   1.1150083234e+02   5.3884760904e+01    0.1912365     0.158345 -34.94 5.973442e-05    1.078    0.073
       222 -11.8618    199.6680    246.1843   1.1377950029e+02  -6.3976123558e+00     0.539931    0.2120359  41.61  0.001955696    2.225    0.551
       223 -10.5466    193.9324    245.0611   1.1469718224e+02  -5.2827897606e+00    0.1928665    0.1769796  -3.01 0.0003814434    1.163    0.140
       224 -10.2686    222.6931    244.9815   1.0926093785e+02  -9.8905946949e+00    0.1726863    0.1438583   5.06  0.001123667    1.080    0.074
       225 -12.4138    135.5265    241.0636   1.2557472365e+02   5.4133097261e+00     0.906185    0.3527645  53.47  0.003532758    2.854    0.650
