#   1 NUMBER                 Running object number                                     
#   2 MAG_AUTO               Kron-like elliptical aperture magnitude                    [mag]
#   3 X_IMAGE                Object position along x                                    [pixel]
#   4 Y_IMAGE                Object position along y                                    [pixel]
#   5 X_WORLD                Barycenter position along world x axis                     [deg]
#   6 Y_WORLD                Barycenter position along world y axis                     [deg]
#   7 A_WORLD                Profile RMS along major axis (world units)                 [deg]
#   8 B_WORLD                Profile RMS along minor axis (world units)                 [deg]
#   9 THETA_WORLD            Position angle (CCW/world-x)                               [deg]
#  10 FWHM_WORLD             FWHM assuming a gaussian core                              [deg]
#  11 ELONGATION             A_IMAGE/B_IMAGE                                           
#  12 ELLIPTICITY            1 - B_IMAGE/A_IMAGE                                       
         1 -13.7896    209.6532     29.0056   1.3510903154e+01   3.0104788244e+01    0.8836225    0.7535508 -73.68  0.003862746    1.107    0.097
         2 -10.9465     49.5264      9.5051   4.0668583837e+01   6.6466296418e+01    0.1176897   0.08965465  18.01 1.618178e-05    1.005    0.005
         3 -11.6734     54.6285    229.2653   9.0630220846e+01   1.9057433838e+01     0.274125     0.131042 -65.24  0.001321552    2.028    0.507
         4 -14.1017    245.6747    238.1330   5.1207607937e+01  -1.2116984130e+01     2.177774     0.797802 -33.93  0.009906998    2.539    0.606
         5 -15.6740    121.8457    235.8241   7.6614728429e+01   7.5090903397e+00     6.539362     4.249602 -58.52   0.03355493    1.713    0.416
         6  -9.5331     70.1977    197.8640   8.3428410379e+01   2.4288653602e+01     0.163941    0.1051619 -72.24            0    1.522    0.343
         7 -11.4419     56.3358    194.5198   8.6379710062e+01   2.7001124660e+01    0.2476001    0.2038878 -54.07 0.0006811121    1.310    0.237
         8  -9.9787     69.3692    194.4632   8.3168938657e+01   2.5241664407e+01    0.1414551    0.1239276  89.08 1.203368e-05    1.042    0.040
         9 -10.2709     52.4626    187.7559   8.6476633628e+01   2.9169417452e+01    0.2862877    0.2408043  66.86 0.0008820369    1.139    0.122
        10  -9.6791     54.5107    184.5050   8.5540218782e+01   2.9721025797e+01    0.1938596    0.1662255 -83.34  0.001118132    1.038    0.037
        11 -10.0315     11.2474    189.2740   9.6435561719e+01   3.3192143179e+01    0.1145284    0.0820637 -57.56 0.0002730213    1.447    0.309
        12  -9.5172     71.3282    186.9773   8.1614192329e+01   2.6820783406e+01    0.1837187    0.1612726 -80.37 0.0003273224    1.056    0.053
        13 -12.4917     63.7957    178.8355   8.2361266060e+01   2.9924613460e+01      0.64423    0.3888583 -30.48  0.002692025    2.581    0.613
        14 -12.1785     89.3637    212.8537   8.0863126871e+01   1.7827423255e+01    0.3769921    0.2527936 -45.57  0.001189928    1.740    0.425
        15  -9.1024     58.2710    227.9636   8.9718910232e+01   1.8866321962e+01    0.1530249    0.1255475 -64.78 0.0004708797    1.325    0.245
        16 -11.8759    179.5702    168.8508   5.1033464701e+01   1.1442287777e+01    0.6677831    0.5616667 -47.24  0.002571099    1.181    0.153
        17 -10.5139    175.0208    179.7063   5.4362961414e+01   9.9749554944e+00    0.3014222    0.2824448 -31.26 0.0008909162    1.047    0.045
        18 -12.2137    172.6674    174.8688   5.3882091801e+01   1.1492053969e+01    0.5989007    0.4637694 -22.63  0.001205847    1.428    0.300
        19 -11.0889     67.7244    213.1568   8.5966551027e+01   2.0969568876e+01    0.1881568    0.1642495  63.96 0.0002715846    1.061    0.058
        20 -11.1209      3.4138    176.2904   9.7102873559e+01   3.6940310726e+01    0.1476374    0.1113601 -72.83 0.0003563205    1.132    0.117
        21 -12.1354    139.6904    172.1191   6.1235645642e+01   1.8656263866e+01    0.4015868    0.3263356 -86.19 0.0003956184    1.511    0.338
        22 -12.4273    232.8231    166.6623   3.9881384935e+01   1.9454836472e+00    0.4172281    0.2762628  48.84   0.00204592    1.801    0.445
        23 -10.7688      9.1509    166.3401   9.4797337277e+01   3.8898399880e+01    0.1927899    0.1374393 -67.97 0.0003973269    1.181    0.153
        24 -10.7145      2.4386    164.3083   9.6250277754e+01   3.9893205407e+01    0.2467086    0.1288698 -60.60  0.001321041    1.615    0.381
        25 -11.3988    107.6083    161.5832   6.7483879030e+01   2.7342811381e+01    0.3600396    0.2920208 -76.29  0.001733654    1.340    0.254
        26 -18.7578     30.0933    130.2615   8.4290376839e+01   4.6068589059e+01     17.44533     4.213624 -67.77   0.05209864    4.303    0.768
        27 -10.1731    139.0025    155.7601   5.7879169784e+01   2.2698528066e+01    0.2557962    0.2226838 -50.80     0.000489    1.139    0.122
        28 -11.5387    112.4007    150.8879   6.3901990024e+01   2.9128006152e+01     0.522293    0.3585963 -89.44  0.001256315    2.206    0.547
        29 -11.7663    108.8987    145.4024   6.3664083297e+01   3.1145627524e+01    0.3683155    0.3237456 -54.13 0.0006703515    1.110    0.099
        30 -11.8119    133.8121    146.0595   5.7017125211e+01   2.6079759229e+01     1.160731    0.3301521 -54.11  0.002924243    4.475    0.777
        31  -9.6718    119.4859    140.9841   5.9696135162e+01   3.0193303128e+01     0.238898    0.2102238  41.71 0.0005846754    1.157    0.136
        32 -11.1018    107.0080    139.4724   6.2853383196e+01   3.2962944803e+01    0.3268777    0.2704173  84.08 0.0007873718    1.453    0.312
        33 -12.2945    106.6851    131.1140   6.0977108825e+01   3.5061774617e+01    0.6269455    0.5449863 -88.92  0.002729374    1.330    0.248
        34  -8.9666    151.6561    135.3201   4.9903209109e+01   2.4810802639e+01    0.1652864     0.127889  88.02 0.0007049717    1.725    0.420
        35 -12.1207     97.8238    130.3423   6.3395710361e+01   3.6880631199e+01     0.345902    0.2964304 -64.61 0.0003283703    1.208    0.172
        36 -11.8732    134.1189    127.2430   5.2388906613e+01   3.0436002870e+01    0.7492383    0.5281712 -46.71  0.003338512    1.403    0.287
        37 -10.2291    115.9306    125.3090   5.6892652252e+01   3.4647413949e+01    0.2230287    0.2064701  27.35 0.0007128158    1.107    0.097
        38  -9.9241    210.9997    198.8658   5.0553022972e+01  -4.4434273114e-01    0.2108849    0.1857764  -8.70 0.0004958732    1.021    0.021
        39 -10.6616    103.8061    120.2095   5.9126092087e+01   3.8202126222e+01    0.3386842    0.2589036  13.57  0.001143845    1.567    0.362
        40 -11.6621     85.3329    118.4947   6.4341842209e+01   4.1894585134e+01    0.3683878     0.242882  58.77  0.001011745    2.035    0.509
        41  -9.8302    156.6282    117.8280   4.4348801460e+01   2.7576208077e+01    0.2288123    0.1427357 -55.39  0.000470641    1.754    0.430
        42 -10.8186    121.0182    114.5692   5.2691683414e+01   3.6074914902e+01    0.2840441    0.2179962 -63.45 0.0004092871    1.487    0.328
        43 -10.0616    110.9309    115.0079   5.5686171312e+01   3.8024884293e+01     0.234451    0.2257887 -53.08 0.0004942777    1.060    0.057
        44 -11.5125    117.4525    108.9754   5.2203642420e+01   3.8054235210e+01     0.434367     0.371487  51.49  0.001522478    1.218    0.179
        45 -11.7738    119.1875    104.6142   5.0526041715e+01   3.8639679513e+01    0.3940805     0.308017  39.63  0.001674712    1.279    0.218
        46 -11.3154     76.3800    106.1999   6.4105124860e+01   4.6207145863e+01    0.2709592    0.2493601  70.99 0.0002805064    1.297    0.229
        47 -11.8749     83.2440    105.8814   6.1781836901e+01   4.5170138501e+01    0.6090297    0.4345849  59.14  0.002444605    1.855    0.461
        48 -10.5019     79.4371    102.4954   6.2120857384e+01   4.6556940841e+01     0.287729    0.2801291  56.81  0.001015021    1.169    0.144
        49 -11.0398     90.2065    224.0579   8.2164287480e+01   1.5132516342e+01    0.3414808    0.2176405 -62.31  0.001468252    1.625    0.384
        50 -12.1755    112.6273     99.7492   5.1049437611e+01   4.1032294961e+01    0.6886424    0.4847022  78.70  0.002272539    2.344    0.573
        51 -10.0254    107.0409     95.5237   5.1492933158e+01   4.3045729023e+01    0.2337258    0.2105459  84.87  0.001219951    1.340    0.254
        52 -10.6538    131.5267     92.9851   4.3937856304e+01   3.8363635512e+01    0.2693253    0.2199177  49.65 0.0004201871    1.209    0.173
        53 -10.4613     97.1869     87.5217   5.2162839835e+01   4.6600645588e+01    0.7107903    0.3377078  60.13  0.001938611    5.490    0.818
        54 -11.5065     90.3233    220.3208   8.1648230214e+01   1.5958353277e+01    0.2981264    0.2646725 -23.03 0.0009720095    1.449    0.310
        55 -10.4030     78.3908     81.7956   5.6568748842e+01   5.1103097880e+01    0.2927958    0.2158516  54.46  0.001370346    1.743    0.426
        56 -11.4295    175.2329     76.7871   2.9796805483e+01   3.1156311510e+01    0.3801466    0.2555346 -72.55  0.001122029    1.861    0.463
        57 -13.1471    169.6973     67.7458   2.8488686622e+01   3.3955374521e+01    0.6553932    0.5558326  68.32 0.0009215292    1.110    0.099
        58 -10.1685    106.4676     69.1676   4.3740674406e+01   4.8161079072e+01      0.26392    0.1972602  53.72  0.000687078    1.412    0.292
        59 -13.7778    186.2514     54.6313   2.2380963190e+01   3.2040056562e+01     1.152233     0.906449  35.25  0.003919034    1.643    0.391
        60 -12.0118    192.1991     48.9333   2.0140823948e+01   3.1464315451e+01    0.3680443    0.3353992  51.88 0.0008723877    1.288    0.224
        61 -10.8070     57.8541    222.6260   8.9257148328e+01   2.0127483063e+01     0.121859   0.08075576 -59.33 0.0002148881    1.586    0.369
        62  -9.1213     90.4931     60.4921   4.5775145634e+01   5.2785231112e+01    0.1390073    0.1249261  15.04 0.0002103701    1.008    0.008
        63  -9.5312    139.0015     57.0262   3.1734995737e+01   4.2867687559e+01    0.2088951    0.1650166 -82.51 0.0003057656    1.542    0.351
        64 -11.0188     61.1014    220.0067   8.8256995079e+01   2.0290995555e+01    0.1625208    0.1251387 -78.43 0.0003840782    1.230    0.187
        65 -10.4713     66.3083     48.2980   4.9770872303e+01   5.8968353668e+01    0.2682589    0.1892602  41.49   0.00109446    1.501    0.334
        66 -10.9701     71.0958    230.5851   8.7214023757e+01   1.6514022211e+01    0.1680415    0.1401899 -82.44  0.001015577    1.174    0.148
        67  -9.8514     51.6509     34.9036   5.0339400794e+01   6.3160479787e+01    0.2071932    0.1395569  22.13 0.0006220296    1.316    0.240
        68 -10.1821     66.0716     28.3272   4.2354063534e+01   6.1725108245e+01    0.1753962    0.1364809  30.67 0.0005321236    1.140    0.122
        69 -10.2065     60.8600     21.1908   4.1371833221e+01   6.3423837961e+01    0.1753809    0.1485003  28.25 0.0006566277    1.199    0.166
