#   1 NUMBER                 Running object number                                     
#   2 MAG_AUTO               Kron-like elliptical aperture magnitude                    [mag]
#   3 X_IMAGE                Object position along x                                    [pixel]
#   4 Y_IMAGE                Object position along y                                    [pixel]
#   5 X_WORLD                Barycenter position along world x axis                     [deg]
#   6 Y_WORLD                Barycenter position along world y axis                     [deg]
#   7 A_WORLD                Profile RMS along major axis (world units)                 [deg]
#   8 B_WORLD                Profile RMS along minor axis (world units)                 [deg]
#   9 THETA_WORLD            Position angle (CCW/world-x)                               [deg]
#  10 FWHM_WORLD             FWHM assuming a gaussian core                              [deg]
#  11 ELONGATION             A_IMAGE/B_IMAGE                                           
#  12 ELLIPTICITY            1 - B_IMAGE/A_IMAGE                                       
         1 -13.1607    198.9844     42.4151   4.2067387995e+01   3.0377701899e+01     1.064776    0.9162819 -61.98   0.00328498    1.074    0.069
         2 -13.7319    208.4848     33.0861   3.8712441940e+01   2.9411818673e+01     1.261513     0.903276 -17.59  0.001338637    1.907    0.476
         3 -11.7498    236.2870      8.8129   3.0995876936e+01   2.6230739373e+01    0.5635757    0.3717995  32.97  0.003029281    3.027    0.670
         4 -12.7349    232.2373      4.9814   3.0495839077e+01   2.7489074212e+01    0.7740598    0.6319822 -81.99  0.004693417    1.120    0.107
         5  -9.3715     60.6835      7.6806   5.9068611321e+01   6.5946369761e+01    0.1297256    0.0778545  21.99 0.0002693917    1.657    0.397
         6 -10.6565     42.9692      7.2960   6.5815538486e+01   6.9008480940e+01    0.1742538    0.1328308  20.32 0.0007908883    1.083    0.077
         7 -11.0753     52.1308      4.9880   6.0915329442e+01   6.7730428174e+01    0.3490187     0.185621   6.15  0.001736603    2.405    0.584
         8 -10.4778    110.9062    203.1533   9.8368677891e+01   1.6588592661e+01    0.2639394    0.1970886 -86.49  0.000685607    1.580    0.367
         9 -11.0023    139.6140    249.3841   9.8560241099e+01   2.9824092752e+00    0.3367241    0.3025271  60.35  0.002274759    1.229    0.186
        10 -13.9735     43.1647    196.1880   1.1343982623e+02   2.7956362145e+01     3.894349     1.461592  64.68  0.009841202    4.203    0.762
        11 -17.3253     13.7654    242.5050   1.2287151558e+02   2.1184045604e+01     5.880739     2.175528  26.66   0.02653366    3.814    0.738
        12 -10.9826    193.1730    195.0500   7.8644935972e+01   3.9231366774e+00    0.9481768    0.4911558 -62.67  0.002922143    5.372    0.814
        13 -10.9007    121.8163    198.0390   9.5006744072e+01   1.5873887151e+01    0.4575666    0.2856582 -73.55  0.002028261    2.126    0.530
        14  -8.0035     67.3654    198.6545   1.0804438000e+02   2.4272036310e+01    0.1524668   0.08925647  66.17 0.0007024513    1.860    0.462
        15 -10.0784     59.9590    197.6033   1.0966823360e+02   2.5519260296e+01     0.227799    0.1860341 -85.74  0.000272603    1.129    0.114
        16  -9.8187    111.2618    197.4330   9.7409616535e+01   1.7799058095e+01    0.2105692       0.1234  47.40 0.0009547184    1.638    0.390
        17  -8.6909     21.4735    195.9258   1.1833943874e+02   3.0388185125e+01    0.2597317   0.09613191  87.72 0.0009809938    3.339    0.701
        18  -8.7662     24.0063    193.5238   1.1757873004e+02   3.0689194075e+01    0.1970637    0.1738485 -63.32 0.0005712725    1.332    0.249
        19  -9.1327    204.6498    195.3019   7.6402691584e+01   1.9481907538e+00    0.1259097    0.1109823  80.24 0.0007039115    1.696    0.410
        20  -8.2574     82.2944    194.6833   1.0396889695e+02   2.3047713750e+01    0.1454857    0.0983141  69.71 0.0007012059    1.604    0.376
        21  -9.7959    118.3776    191.2421   9.4707097990e+01   1.7978810948e+01    0.2533606    0.1867641 -70.59 0.0008628684    1.518    0.341
        22 -10.1259     43.4904    178.2491   1.1145730054e+02   3.2219284842e+01    0.4964233    0.3184646 -26.21  0.001311022    2.650    0.623
        23 -12.7045     56.0733    185.7410   1.0921848523e+02   2.8849593449e+01    0.8061797    0.7312849  75.95  0.002945929    1.073    0.068
        24  -9.8880     49.5630    180.7111   1.1022963388e+02   3.0890698294e+01    0.2906476    0.1846067  77.34 0.0007424204    1.639    0.390
        25 -10.3418    147.6094    187.6843   8.7161986661e+01   1.3530447924e+01    0.4676367    0.3114069 -74.90  0.001751255    2.288    0.563
        26 -10.1188    119.9900    186.2861   9.3474925924e+01   1.8820899454e+01    0.2090768     0.184082  46.69 0.0004086787    1.089    0.082
        27 -11.4170    101.3002    243.9042   1.0576536082e+02   9.7539625584e+00    0.6402766    0.2402945 -63.78  0.002110265    3.260    0.693
        28  -9.0659     79.7019    182.9173   1.0295472510e+02   2.6237081131e+01    0.2655521    0.1849117 -89.05   0.00107154    1.568    0.362
        29  -8.7399     69.0008    182.7417   1.0562246454e+02   2.7834793511e+01    0.1956285    0.1744855  69.75 0.0005428792    1.046    0.044
        30 -10.3686     99.4657    181.0550   9.7679290510e+01   2.3560377053e+01      0.27337    0.2643199 -82.61 0.0007070431    1.067    0.063
        31  -9.0885     37.5752    181.0769   1.1322688913e+02   3.2204749141e+01    0.1863439    0.1612491  70.96 0.0003233938    1.088    0.081
        32  -8.2549     89.3330    179.7385   1.0003456452e+02   2.5520736473e+01    0.1491188    0.1035446  65.24 0.0002111383    1.575    0.365
        33 -10.4301    186.9745    175.3151   7.6019016144e+01   8.7671265712e+00    0.3792623    0.3122702 -45.89  0.001242321    1.256    0.204
        34 -10.1323    121.0053    174.2978   9.1069523412e+01   2.1409159073e+01    0.2209464     0.201022  46.70  0.001183002    1.076    0.070
        35 -13.1877     58.5651    131.8381   1.0039369018e+02   4.2087763630e+01     1.832035    0.9048313 -71.89  0.007260092    2.267    0.559
        36 -11.8342     82.3675    158.8768   9.8407433334e+01   3.1775120296e+01    0.8923457    0.6324323  71.43  0.004213384    1.640    0.390
        37 -12.9531     70.5987    153.7262   1.0078135971e+02   3.4848203958e+01     0.658002    0.5218113 -47.56  0.001068216    1.310    0.237
        38 -14.3884     68.9064    144.2906   9.9604232273e+01   3.7493962201e+01     5.107611     2.208152  61.78   0.01327621    5.914    0.831
        39 -11.4044     69.7893    171.7552   1.0386516358e+02   3.0425765508e+01    0.4496918     0.309677 -29.26   0.00209938    2.098    0.523
        40 -11.3700     74.0926    167.1018   1.0201685525e+02   3.0964769583e+01    0.4494268    0.3411404 -70.94  0.000792984    1.254    0.203
        41  -8.0767     84.2820    173.6790   1.0037449473e+02   2.7791825050e+01    0.1494729    0.1063092  74.35  0.000334308    1.588    0.370
        42  -8.6838    148.0912    174.1935   8.4452025594e+01   1.6366974852e+01    0.1998725     0.176397  75.79 0.0003895221    1.299    0.230
        43 -10.6315    240.1397    169.1540   6.4755495448e+01   6.7041643915e-01    0.2060484    0.1609458 -11.95 0.0004201051    1.226    0.184
        44  -9.1836    110.9231    167.9134   9.2439250968e+01   2.4741272999e+01    0.2416313    0.1789754  76.12 0.0006091257    1.655    0.396
        45  -9.3254     89.1022    210.9478   1.0450535038e+02   1.8324582512e+01    0.2002339    0.1777268  71.09 0.0005597257    1.038    0.037
        46  -8.3871     29.9906    164.7634   1.1337134318e+02   3.7018114856e+01    0.1469883    0.1104595  34.26 0.0003268771    1.490    0.329
        47  -9.4379     36.0006    158.4973   1.1104741984e+02   3.7961505444e+01    0.2737141     0.180035  75.42 0.0006158694    1.576    0.366
        48  -9.7112     32.5933    156.2452   1.1168859836e+02   3.8881448041e+01    0.1860102    0.1748501  18.10  0.000666378    1.311    0.237
        49 -11.3712     89.4547    151.9433   9.5174456154e+01   3.2380034731e+01     0.702907     0.472406 -25.79  0.002992072    2.152    0.535
        50 -10.6424    133.8094    145.3789   8.1839228777e+01   2.5754689406e+01     1.338372    0.3645184 -55.57  0.003019671    5.917    0.831
        51 -11.2059     54.0701    147.7292   1.0448740570e+02   3.8608046275e+01    0.7449027    0.5653489 -73.63  0.003992723    1.207    0.171
        52  -9.1734    174.6995    149.1049   7.2992118622e+01   1.6512000778e+01    0.2448476    0.1873375 -59.27 0.0006345856    1.459    0.315
        53 -10.4391     38.5913    146.2316   1.0869977825e+02   4.0786390309e+01    0.3401624    0.2375394  58.53 0.0007251471    1.524    0.344
        54  -9.4247    143.7478    145.7327   7.9422770635e+01   2.3645429740e+01    0.2527774    0.1291955 -58.56  0.000891924    2.407    0.585
        55 -10.1957    103.0305    138.2234   8.8521086464e+01   3.3441562684e+01    0.5804439    0.3732431 -19.56  0.002192805    2.608    0.617
        56 -10.1689    105.9587    130.8268   8.6005639622e+01   3.4711679551e+01    0.4015407    0.3333012 -62.20  0.001509828    1.207    0.171
        57 -11.5940     90.4470    137.7237   9.2021282424e+01   3.5784695489e+01    0.3012922    0.2660497 -37.53 0.0008161973    1.191    0.160
        58 -11.4555     43.9356    130.8068   1.0471429791e+02   4.4126049335e+01    0.6614348    0.3106906 -82.94  0.002386005    3.091    0.677
        59 -10.0749    135.5904    128.4335   7.7371625401e+01   2.9319219830e+01    0.4575328    0.1492111 -52.55  0.001286313    3.584    0.721
        60  -9.8801    112.0729    129.1517   8.3879640154e+01   3.3946030959e+01    0.3491454    0.2896818  13.17  0.001373929    1.433    0.302
        61  -9.1477    160.9807    127.9677   7.1073961326e+01   2.3939615773e+01    0.2600741    0.1988263 -82.65  0.001149407    1.754    0.430
        62 -10.6851    118.2050    123.8794   8.0881533239e+01   3.3983996178e+01    0.6812354    0.4244312 -19.21  0.002428091    2.790    0.642
        63 -10.2903     99.1566    124.9536   8.6586438830e+01   3.7407192016e+01    0.3274468    0.2644596 -17.41 0.0007343817    1.503    0.335
        64  -8.7916     90.9303    123.9161   8.8790500374e+01   3.9132304294e+01    0.2330738    0.1810922  77.70 0.0004812288    1.604    0.377
        65  -8.2695     87.6610    121.3247   8.9172324329e+01   4.0333251262e+01    0.1579361    0.1190398  78.10 0.0007051245    1.724    0.420
        66  -8.7949    135.0000    119.9363   7.5383743585e+01   3.1379068128e+01    0.2615302   0.08898023 -45.95 0.0007162348    2.881    0.653
        67  -9.3981    108.1098    118.2909   8.2330353812e+01   3.7312407554e+01     0.243093    0.2063616 -36.31 0.0002893599    1.199    0.166
        68  -9.9686    231.3628    113.8366   5.4405530488e+01   1.1847673594e+01    0.2898561    0.2304909 -45.83 0.0008003629    1.103    0.093
        69  -9.4750    134.7516    112.2172   7.3430256707e+01   3.3156497291e+01    0.3860713    0.1327405 -43.36  0.001194802    2.886    0.654
        70 -10.8366     51.8526    103.7196   9.6727864889e+01   4.9954908303e+01     0.358106    0.2847509 -25.34  0.001947457    1.350    0.259
        71 -12.2736     42.8982    109.6118   1.0108877550e+02   4.9559538660e+01    0.6474552    0.3756025 -37.39  0.003024706    1.858    0.462
        72  -9.2095    205.6466    110.0924   5.7700271228e+01   1.7767901547e+01    0.2574973    0.2154201  44.49 0.0006813023    1.325    0.245
        73 -10.6200    115.8539    109.0177   7.7684409112e+01   3.7905850627e+01    0.5236838     0.383167  50.20  0.002412331    1.431    0.301
        74  -8.3985    139.0648    105.9885   7.0653455944e+01   3.3554986819e+01    0.1861765    0.1820183 -54.75 0.0005646972    1.005    0.005
        75 -16.3090      6.5879    204.5525   1.2213152554e+02   2.9856671387e+01     16.15286     1.079322 -75.98   0.01996456   10.294    0.903
        76 -10.1170     33.7718     99.5953   1.0219059967e+02   5.2945620052e+01    0.2710546    0.2242515  88.24  0.001359241    1.376    0.273
        77  -9.2460     29.9727     98.9759   1.0342110394e+02   5.3451323878e+01    0.2874469    0.1918351  58.67  0.000983901    1.966    0.491
        78 -11.6158     47.7805    106.8258   9.8830396362e+01   4.9689512628e+01    0.6427317     0.256229  36.60  0.002570258    2.686    0.628
        79  -9.2573    127.8879     94.9290   7.0447269939e+01   3.8391285263e+01    0.2486452    0.1928477 -88.79  0.001115277    1.722    0.419
        80  -9.5165    155.7377     87.8944   6.1693376071e+01   3.3365318195e+01    0.3760768    0.2573821 -69.97  0.001293382    1.929    0.482
        81  -8.8776    115.7108     85.1383   7.0883120097e+01   4.3076778106e+01    0.2207575    0.1836795  51.69  0.001103733    1.233    0.189
        82  -8.7943    158.4514     83.4602   5.9862691256e+01   3.3552559371e+01     0.150677    0.1456037 -76.35 0.0001157085    1.003    0.003
        83  -8.3350    184.6790     76.7257   5.2988145140e+01   2.8502437035e+01    0.1404136    0.1152191  24.53 0.0003145167    1.574    0.365
        84  -9.3787     57.7912     67.0372   8.4364173016e+01   5.7391721948e+01    0.2147183    0.1871441  13.35  0.000351971    1.155    0.134
        85 -12.8631    188.0027     50.6386   4.5630044575e+01   3.1821116705e+01    0.9590472    0.7998047  40.66  0.001119165    1.440    0.306
        86  -9.9287     92.9366    249.1013   1.0802688421e+02   9.9997476991e+00    0.2259016     0.145368  36.92    0.0011299    1.389    0.280
        87 -11.0791     22.7315     34.2246   8.7944607200e+01   6.7796726471e+01     0.313357    0.1883059  33.86  0.001172781    1.939    0.484
        88  -8.7373     68.6701     52.7436   7.5218322734e+01   5.8377786281e+01    0.1833834    0.1563668  16.86 0.0005436384    1.114    0.102
        89 -11.2630    135.0718    211.2136   9.4066606214e+01   1.0824943104e+01    0.4491507    0.2494791  53.52  0.001978772    2.054    0.513
        90  -9.3472    142.4979    208.4930   9.1963786857e+01   1.0110305414e+01    0.1397289    0.1287283  37.78 -3.029984e-05    1.021    0.021
        91  -9.1165    189.6984     14.9598   3.6320977372e+01   3.5895750160e+01    0.1774354    0.1520645 -70.51 0.0005446605    1.082    0.076
        92  -7.8031    224.2690    206.6914   7.4820705213e+01  -3.0366509908e+00    0.1099283     0.102564 -56.94 0.0002402719    1.540    0.351
        93 -11.2541    203.0770    200.7236   7.7737660961e+01   1.2603112822e+00    0.4998487    0.1797047  34.80  0.001912429    2.875    0.652
        94 -11.1555    107.5105    203.9778   9.9285773951e+01   1.6964686915e+01     0.647137    0.2506868  52.10  0.002237653    3.180    0.686
        95 -11.1927    185.3112    211.6154   8.3295765373e+01   2.2661627030e+00    0.3866427    0.2003639  23.29  0.001663484    2.301    0.565
