#   1 NUMBER                 Running object number                                     
#   2 MAG_AUTO               Kron-like elliptical aperture magnitude                    [mag]
#   3 X_IMAGE                Object position along x                                    [pixel]
#   4 Y_IMAGE                Object position along y                                    [pixel]
#   5 X_WORLD                Barycenter position along world x axis                     [deg]
#   6 Y_WORLD                Barycenter position along world y axis                     [deg]
#   7 A_WORLD                Profile RMS along major axis (world units)                 [deg]
#   8 B_WORLD                Profile RMS along minor axis (world units)                 [deg]
#   9 THETA_WORLD            Position angle (CCW/world-x)                               [deg]
#  10 FWHM_WORLD             FWHM assuming a gaussian core                              [deg]
#  11 ELONGATION             A_IMAGE/B_IMAGE                                           
#  12 ELLIPTICITY            1 - B_IMAGE/A_IMAGE                                       
         1 -11.4451    190.0168     43.3886   3.8496519548e+01   3.2741809512e+01     3.432808    0.6918085 -41.86   0.01086873    3.992    0.749
         2 -10.6184    207.1632     13.6029   3.0032894147e+01   3.2580250568e+01    0.5608184    0.4722268   1.33  0.001492915    1.908    0.476
         3 -11.5642    213.5818     20.2732   3.0888668206e+01   3.0489763135e+01    0.7249186    0.5201697 -10.80  0.002384886    2.370    0.578
         4 -14.0284    179.2069     73.0729   4.7359483291e+01   3.0772823043e+01     12.43239     4.958237 -62.37   0.02306803   12.221    0.918
         5 -11.5158    233.4846     42.4391   3.3653151408e+01   2.3704543370e+01    0.4966126    0.4611689 -41.55 0.0006164977    1.404    0.288
         6 -14.0719    226.9561     89.0264   4.4013746719e+01   1.8026926682e+01     7.603063     1.983496 -52.40    0.0200948    6.132    0.837
         7 -12.1621    250.0414     28.5392   2.9666943782e+01   2.2329985026e+01     1.275406     0.400156 -42.72  0.004931073    2.439    0.590
         8 -14.2258    224.9275     72.0940   4.0666206005e+01   2.1136762149e+01     3.744628     1.961202 -75.13   0.01604957    2.866    0.651
         9 -13.7471    244.4275     51.7722   3.4498344789e+01   2.0340906118e+01     1.428408     1.174605  74.28  0.006317577    1.375    0.273
        10 -10.9051    228.7148     30.0764   3.1605891120e+01   2.6232307685e+01    0.6398378    0.4071577 -49.42   0.00345409    1.350    0.259
        11  -9.0841    232.6324     17.1325   2.8776486949e+01   2.6995849935e+01    0.3601591    0.1803934 -22.48  0.001704763    3.617    0.724
        12 -10.2557    134.6726     14.9693   3.8746936494e+01   4.8846571260e+01    0.3234449    0.2559071   2.83  0.001258212    1.647    0.393
        13  -9.7260    164.2670     14.2097   3.4455013179e+01   4.2037955483e+01    0.3854707    0.1919307  51.90  0.001336523    2.077    0.518
        14 -11.5851    248.2462      6.4062   2.5808033370e+01   2.5221414424e+01    0.4522657    0.2904353 -13.15  0.002523832    3.499    0.714
        15  -8.2271    242.2257     10.6031   2.6917923124e+01   2.5884869375e+01    0.1626314   0.09584299 -75.22 0.0005670629    1.400    0.286
        16 -10.3269    235.1659      7.8100   2.6849165473e+01   2.7538163579e+01    0.4194857    0.1697787 -37.47  0.002024995    2.316    0.568
        17  -9.8066    224.2134      9.9342   2.7984881548e+01   2.9464327085e+01    0.2440995    0.1915224 -20.71  0.001226971    1.879    0.468
        18  -9.8619    120.2454      9.3277   3.9400018397e+01   5.2697839952e+01    0.2832079    0.2809074 -12.87  0.001044465    1.195    0.163
        19 -12.3866    220.7136     36.6799   3.3658914417e+01   2.7019428385e+01     2.409563    0.4013105 -46.84  0.008091259    4.486    0.777
        20  -8.7683    225.5607      1.6148   2.6294143184e+01   3.0068671540e+01    0.1240541    0.1122535  84.58  0.000551478    1.386    0.279
        21  -8.4045    182.0024      1.9465   2.9637053794e+01   3.9204238837e+01    0.1972571    0.1134065 -68.90 0.0008313688    1.656    0.396
        22  -8.1103    171.6842      2.3341   3.0693104048e+01   4.1472206324e+01    0.1978104    0.1114694 -68.83  0.001084352    1.787    0.440
        23  -7.4743     79.3145      2.3410   4.5552736663e+01   6.2287333289e+01    0.1306276   0.07362182  33.61 0.0007047568    1.704    0.413
        24  -7.6788    191.3141    200.3519   7.3597095352e+01   3.5098876521e+00    0.1474675    0.0991697 -10.68 0.0007046143    1.730    0.422
        25  -9.3116    135.8806    249.5862   9.3646503964e+01   2.7213029800e+00    0.3868718    0.1852957  50.08  0.001665825    2.587    0.613
        26  -9.6470    192.5315    194.3537   7.2208007204e+01   4.4624804481e+00    0.8371908    0.4049715 -61.49  0.002429455    5.700    0.825
        27  -8.6688    218.4816    189.4995   6.6208304295e+01   1.3319628008e+00    0.1342511    0.1147522 -21.91 0.0008101147    1.038    0.036
        28  -9.0674    219.1698    185.7602   6.5360595025e+01   1.9017883593e+00    0.2053911    0.1534597 -84.00 0.0009580515    2.844    0.648
        29  -8.7830     25.0473    184.9009   1.1227581932e+02   3.2240172157e+01    0.1966786    0.1700781  88.54 0.0003456265    1.017    0.017
        30  -8.7136    242.2311    183.5974   6.0926230669e+01  -1.0537821064e+00    0.1894142      0.17701 -33.03 0.0005598473    1.295    0.228
        31  -8.1741    180.3155    182.0836   7.2371258245e+01   8.9419558634e+00    0.1996898    0.1716632 -36.10 0.0003762273    1.114    0.102
        32  -8.7429    212.0488    176.8587   6.4933548192e+01   4.6512914935e+00    0.4441432    0.1873609  24.76  0.001419195    4.618    0.783
        33 -10.0129    238.2522    175.5854   6.0056217418e+01   8.7944142662e-01     0.317773    0.2538717  77.52  0.001239822    2.205    0.547
        34 -10.8379    229.6660    169.2350   6.0261522897e+01   3.2808682507e+00    0.6337231    0.2927394 -39.18  0.002902735    1.846    0.458
        35 -11.0049     10.4773    169.0133   1.1455929514e+02   3.7548628882e+01    0.6650096    0.3487254  39.55  0.003354128    1.955    0.489
        36  -8.6722    249.6003    168.7440   5.6924817152e+01   4.3451106540e-01    0.1773041    0.1011023 -44.36 0.0009414293    1.542    0.351
        37  -9.5495    186.7662    168.4624   6.8219267031e+01   1.0601480841e+01    0.3842478    0.2964056 -89.40   0.00129747    2.082    0.520
        38  -9.4920    181.1529    244.5174   8.3316834847e+01  -2.8724622845e+00    0.2901003    0.2652515 -84.45  0.001140924    1.701    0.412
        39 -12.6090    187.8530    112.9207   5.5566595110e+01   2.1675544605e+01     2.296406    0.8420924 -38.11  0.005394856    2.761    0.638
        40  -9.9180    112.4418    241.8884   9.7791188115e+01   7.6187794963e+00    0.4480947    0.2320414  58.75  0.001867287    2.777    0.640
        41 -12.1401    204.0102     80.2119   4.5218896174e+01   2.4140574473e+01     1.190736    0.8107826  72.54  0.006292434    1.589    0.371
        42  -8.7392    135.8287    241.5983   9.2554523430e+01   4.2106838315e+00    0.1984493    0.1076525  41.75 0.0009509716    1.721    0.419
        43 -12.2997    185.0523     89.0611   5.0328961142e+01   2.6726752686e+01     1.718333     1.177227  15.65  0.007253354    2.755    0.637
        44 -10.2757    201.9823    238.9197   7.8235250328e+01  -4.7879876746e+00    0.2307481    0.1812155 -20.52 0.0004403898    1.170    0.145
        45  -8.5995    219.1506    159.1138   6.0049001792e+01   6.8209478378e+00    0.1994514    0.1742247 -43.44 0.0005525689    1.132    0.117
        46 -10.3517    193.2781    156.4491   6.4347405509e+01   1.1872107898e+01    0.5689127    0.3786266 -63.24  0.001232453    2.001    0.500
        47  -9.6368    169.9845    155.9797   6.9162183364e+01   1.6361817488e+01    0.2501192    0.2042663 -40.61            0    1.160    0.138
        48  -8.9838    168.9279    238.2358   8.4876316673e+01  -6.5579685056e-02    0.1984758    0.1747105 -13.14 0.0003331272    1.121    0.108
        49  -8.9712    175.1602    152.8903   6.7344362028e+01   1.6028179822e+01    0.2247698    0.2061092 -78.60 0.0008088412    1.254    0.203
        50  -8.2020    204.1777    152.4332   6.1377762444e+01   1.0693851607e+01    0.1861309    0.1390356  58.27 0.0005614571    1.685    0.406
        51  -8.3381    113.2758    151.0311   8.2295595783e+01   2.8482584738e+01    0.2122561    0.1933919 -49.29 0.0002922396    1.074    0.069
        52 -12.6526     40.3695    151.0280   1.0392810077e+02   3.9425845402e+01     1.428435     1.068975   2.11  0.003228011    1.685    0.407
        53 -10.3919    175.3503    146.7970   6.5945944745e+01   1.7291594932e+01    0.4606229    0.3457901  -2.95  0.001337349    1.763    0.433
        54  -8.9252    134.0000    147.0543   7.5832004346e+01   2.5474906146e+01    0.6429884    0.1015622 -49.87  0.001331728    6.476    0.846
        55 -10.6694     68.1068    144.4389   9.4282184758e+01   3.7679298340e+01    0.7529215    0.4500104  55.95  0.003136339    2.070    0.517
        56 -10.1196    210.0054    137.5799   5.7126345584e+01   1.2517426678e+01    0.3030615    0.2836005 -60.99 0.0006818039    1.136    0.120
        57  -8.9065    217.1118    145.0793   5.7488345205e+01   9.8105118513e+00    0.3039258    0.2520605 -20.87 0.0009581237    1.226    0.184
        58  -8.8038    214.5922    140.7016   5.6996201913e+01   1.1086703185e+01    0.2854756    0.2303566 -68.46 0.0008772991    1.471    0.320
        59  -9.0569    160.7938    143.8674   6.8525358896e+01   2.0832056252e+01    0.4314952    0.3049515 -82.38  0.001733886    2.248    0.555
        60  -9.7937    192.5585    143.6895   6.1710842501e+01   1.4594157836e+01     0.378911    0.3181354  -5.89  0.001158848    1.356    0.262
        61 -10.0259    191.4064    137.8634   6.0638391935e+01   1.5995852191e+01    0.3087507    0.2275055 -68.05 0.0007006277    1.693    0.409
        62  -9.3910    223.8544    145.6056   5.6454782411e+01   8.5445980134e+00    0.2831835    0.2275622  82.74 0.0008019231    1.765    0.434
        63 -10.4110    179.5721    136.0714   6.2613108815e+01   1.8712401293e+01    0.4110946     0.311025 -53.56 0.0008819347    1.320    0.242
        64  -8.8183    176.0069    132.4796   6.2525651813e+01   2.0186795408e+01    0.3005811    0.2002775  45.70 0.0006983496    1.601    0.375
        65  -8.9712    173.1913    137.8370   6.4368844202e+01   1.9630538862e+01    0.2263703    0.2015215 -65.63 0.0005144131    1.196    0.164
        66  -8.1365    123.4776    234.9721   9.4385647926e+01   7.3539344514e+00    0.1873201    0.1358456 -57.01 0.0005048036    1.554    0.356
        67  -9.4395    141.5545    134.4392   7.0945173684e+01   2.6893841830e+01    0.5528197    0.2648074 -64.23  0.001553588    4.163    0.760
        68  -9.3724    145.9831    141.9656   7.1621759683e+01   2.4261796474e+01    0.2409402    0.2261593 -59.62  0.000491553    1.083    0.077
        69  -9.1063    159.6731    129.1908   6.5326054817e+01   2.4282346552e+01    0.4480917     0.337575 -12.44   0.00201994    1.748    0.428
        70  -9.7960    223.4672    128.8766   5.3009402110e+01   1.1696599081e+01    0.2494329    0.2245404  29.39 0.0006370879    1.315    0.239
        71  -9.2936    135.9041    127.1413   7.0604318360e+01   2.9736324615e+01    0.5177435    0.1632607 -51.52  0.001463637    3.558    0.719
        72  -9.4807    201.9774    125.9941   5.5998454089e+01   1.6275371390e+01    0.3096184    0.2217659 -67.21 0.0005241704    1.687    0.407
        73  -9.4367    173.3163    123.6596   6.1005905434e+01   2.2581578852e+01    0.2895352     0.242955  69.55   0.00101792    1.348    0.258
        74  -7.8510    143.6753    124.3132   6.7935932825e+01   2.8738884066e+01    0.1593079     0.125342 -88.87 0.0004849235    1.662    0.398
        75  -9.0903    170.4495    233.9193   8.3866495241e+01   4.7778796279e-01    0.2404202    0.1916911  14.95 0.0004247733    1.121    0.108
        76  -8.2124    205.5267    122.0806   5.4500440533e+01   1.6331014478e+01    0.2139537     0.127195 -43.21 0.0005663425    1.497    0.332
        77  -8.1783     71.3461    234.3240   1.0616448558e+02   1.5013919013e+01    0.1267736     0.101684 -20.53 0.0007050018    1.741    0.426
        78  -9.5994    164.2675    118.1172   6.1595552306e+01   2.5659920116e+01    0.3827578    0.2837473 -54.00  0.001692954    1.352    0.260
        79  -9.5730    169.0156    117.7669   6.0487065553e+01   2.4711671255e+01    0.2883808    0.2580918 -86.50 0.0007110054    1.216    0.177
        80  -8.2073     63.4865    117.9477   9.0246629709e+01   4.5153801613e+01    0.2011383    0.1961887  28.25 0.0003437147    1.100    0.091
        81  -9.1351    201.0251    115.9087   5.3888657224e+01   1.8394607129e+01    0.3214447    0.2030565  65.94   0.00105563    2.008    0.502
        82  -9.5865    134.6818    111.8439   6.7011682767e+01   3.3413847398e+01    0.5406386    0.1413943 -45.32     0.001491    3.759    0.734
        83  -8.7916    177.6839    109.9404   5.6800911967e+01   2.4421379911e+01    0.2971978    0.2179125 -23.65 0.0008493161    1.637    0.389
        84  -8.1369    225.0706    108.2290   4.8369522897e+01   1.5111439693e+01    0.1892873    0.1748378 -27.52 0.0004031844    1.213    0.175
        85 -10.3746    122.6724    103.2958   6.7892206623e+01   3.7845008415e+01    0.6161472    0.4111821 -72.66  0.001982655    2.269    0.559
        86  -9.1308    120.0185     96.8155   6.6812954581e+01   3.9786883318e+01    0.3583883    0.2154803 -59.04  0.001209894    2.073    0.518
        87 -10.2832    205.5692    110.3163   5.1850285652e+01   1.8527702116e+01    0.4726225    0.3644725  12.94  0.002394436    1.915    0.478
        88  -8.2263    144.2167    105.6185   6.2996479972e+01   3.2655154471e+01    0.2177371    0.1440908  37.77 0.0006322417    1.654    0.396
        89  -8.2223    158.0404    103.4938   5.9264779785e+01   3.0016163518e+01     0.214543    0.1500702  51.20 0.0004243424    1.468    0.319
        90  -9.1617    151.3439    102.6493   6.0542687321e+01   3.1679770134e+01    0.2902097    0.2770326  72.75 0.0007488214    1.060    0.057
        91 -10.2167     82.1141    100.2064   7.9398343068e+01   4.6487230710e+01    0.2606241    0.2429255 -30.00 0.0003027593    1.025    0.024
        92 -13.1781    239.3403     65.5064   3.7700945129e+01   1.9334509638e+01     1.041302    0.7157356  86.37   0.00270408    1.536    0.349
        93 -10.7812    163.8234     97.7699   5.6553140603e+01   2.9846954254e+01    0.8237926    0.3173141  46.18  0.002887907    2.769    0.639
        94  -8.9945    208.9316     96.0614   4.8096281788e+01   2.0413515688e+01    0.4350377    0.2143855 -57.19  0.001716633    2.333    0.571
        95  -8.9135    203.5225     96.6269   4.9063978648e+01   2.1426638584e+01    0.2942269    0.1847746 -58.90  0.001206514    1.652    0.395
        96  -9.4505    136.7897     98.7078   6.2951991655e+01   3.5726435204e+01    0.3022888    0.2538906  65.77  0.001185542    1.277    0.217
        97  -9.6613    145.5763     93.1468   5.9324567772e+01   3.4863933354e+01    0.3257224    0.2663381 -59.92 0.0008348073    1.278    0.217
        98  -8.8026    113.8649     92.3994   6.7270310547e+01   4.2015652331e+01    0.2851799    0.2390105 -77.96 0.0008510776    1.454    0.312
        99  -8.9597    170.0587     91.9755   5.3812545508e+01   2.9540022585e+01     0.228847    0.1864825   9.16  0.001134195    1.681    0.405
       100 -11.4382    248.8876     59.6725   3.5615213140e+01   1.8405334637e+01    0.2922361    0.1981931 -56.92 0.0005236026    1.171    0.146
       101  -9.2271    118.7682     90.2359   6.5272378648e+01   4.1406682800e+01    0.2752468    0.1858946 -45.83  0.000899291    1.499    0.333
       102  -8.0769    200.0112     90.5004   4.8202713522e+01   2.3240217086e+01    0.1848915    0.1368176  63.06 0.0003335666    1.439    0.305
       103 -10.8727    162.0368     88.6556   5.4547920001e+01   3.1970413726e+01    0.3402823     0.264476 -30.26 0.0006372185    1.410    0.291
       104  -9.2203    249.5243    158.4752   5.4964153790e+01   2.1925330442e+00    0.3016772    0.1528424 -21.81  0.001263976    2.913    0.657
       105  -8.4052    149.3056     82.3774   5.5534225001e+01   3.6038573895e+01    0.1511297    0.1183956   8.39 0.0007027708    1.775    0.437
       106 -10.1702    132.3769     81.0353   5.9061375531e+01   4.0162053801e+01    0.3420005    0.2124425  54.75  0.001177508    1.620    0.383
       107  -7.5194     53.6988     81.3730   8.4338527211e+01   5.5133928125e+01    0.1364469     0.112917  81.60 0.0004617329    1.752    0.429
       108 -10.6988    140.1351     79.3749   5.6743438986e+01   3.8692743434e+01    0.4361357    0.2396849  49.21  0.001273143    1.787    0.441
       109  -8.6340    162.6624     74.6941   5.0728533873e+01   3.4297765979e+01    0.1429612    0.1136359  22.67 0.0005319434    1.675    0.403
       110  -7.6780    181.6645    230.2818   8.0911305088e+01  -5.1708631828e-01     0.121434    0.1025953  54.45 0.0002574016    1.618    0.382
       111 -10.8521    151.4130     71.5268   5.2085588394e+01   3.7446040133e+01    0.3516248    0.3175196  81.02 9.719723e-05    1.085    0.078
       112  -7.6144    100.2455     66.3679   6.3226120101e+01   4.9863305601e+01    0.1440618    0.1095084  -1.12 0.0006941202    1.617    0.382
       113 -10.1006    144.3261     59.2924   5.0067053299e+01   4.1072792625e+01    0.3414838    0.2480659 -50.72  0.001104654    1.440    0.305
       114  -8.5004    182.9700     59.2742   4.3321310325e+01   3.2084775625e+01    0.1850862    0.1635456  84.83 0.0003053339    1.069    0.065
       115 -10.0827    153.5455     57.7135   4.7823688440e+01   3.9145784549e+01    0.3493522    0.2988114  25.26  0.001950615    1.428    0.300
       116  -7.5322     72.7479     58.3420   6.9536957817e+01   5.6629463997e+01    0.1260858    0.1110085 -74.41 0.0003271877    1.576    0.366
       117 -10.0774    148.7935     53.7152   4.7593073889e+01   4.0856511175e+01    0.3843576    0.2293242  83.76  0.001198385    2.270    0.559
       118  -8.6018    106.6697     52.3228   5.6736452275e+01   5.0764955308e+01    0.2244238    0.2041579 -63.67 0.0005796526    1.264    0.209
       119  -9.2355    179.2746     52.1304   4.2088369219e+01   3.3971465141e+01    0.3307606    0.2498153  24.30   0.00138796    2.001    0.500
       120  -9.8605    134.2412     51.8128   4.9954422821e+01   4.4552808415e+01    0.3170136    0.2370002  61.97  0.001686864    1.262    0.208
       121 -12.9205     28.3839    156.3490   1.0821301171e+02   3.9249609470e+01     1.417187    0.8522508  17.81   0.00141069    2.012    0.503
       122  -8.6457    105.5666     45.2878   5.4653567677e+01   5.2027580413e+01    0.2448569    0.1302174 -38.33  0.000876096    2.026    0.507
       123  -9.0841    116.6950     45.0973   5.1793785557e+01   4.9556427902e+01    0.2152704    0.1779952  66.14  0.000236926    1.203    0.168
       124  -7.9827    172.6025     43.7401   4.0934725262e+01   3.6666006510e+01    0.1766433    0.1146342 -49.68 0.0001869591    1.518    0.341
       125 -11.2892    133.9109     40.2651   4.6523125752e+01   4.6206776947e+01     0.472416    0.3796801 -65.96  0.001653068    1.375    0.273
       126  -8.1610    204.4356     40.0856   3.6044470917e+01   3.0005509427e+01    0.1753558    0.1124841 -42.78 0.0004184649    1.490    0.329
       127  -8.6430    122.5186     38.5091   4.8336258339e+01   4.9086691103e+01    0.1355991    0.1225438  57.52 0.0008103309    1.002    0.002
       128  -8.6224    171.1059    229.0805   8.2939133792e+01   1.2534718358e+00    0.1996635    0.1742946  10.28 0.0003971567    1.026    0.025
       129  -8.4525    229.4664     24.4434   3.0431239626e+01   2.6766662868e+01    0.1307391    0.1053706 -43.36 0.0001148363    1.374    0.272
       130  -9.6678    139.1675     33.0129   4.3357370634e+01   4.5866780437e+01    0.2268402    0.1768391  65.43 0.0004055994    1.145    0.127
       131  -8.6066    200.1604     31.2206   3.4520370577e+01   3.2055671356e+01    0.1705832    0.1466614 -83.70  0.000338179    1.078    0.072
       132  -8.9912    118.4102     31.2134   4.6862347334e+01   5.0919686937e+01      0.17604    0.1221186 -43.45 0.0009488995    1.616    0.381
       133  -8.1698    111.5977     30.2194   4.8038185429e+01   5.2591332427e+01    0.1664552    0.1274165  -4.81 0.0004681874    1.581    0.368
       134  -8.1257     86.5824     32.8847   5.5528001872e+01   5.7729400934e+01    0.1818114    0.1276996 -24.83 0.0005659215    1.550    0.355
       135  -9.3902    179.1253     23.6686   3.5070318428e+01   3.7631243799e+01    0.3863725    0.2931193  78.44  0.002407928    1.158    0.137
       136  -8.0403     91.2189    229.0432   1.0101609649e+02   1.3389428735e+01    0.1690044    0.1099975 -62.72 0.0005537521    1.653    0.395
       137  -8.1949    224.2464     19.7374   2.9911200034e+01   2.8363675880e+01     0.158505    0.1392488 -13.57 0.0005746254    1.737    0.424
       138  -7.6507    223.4105     16.4822   2.9329750822e+01   2.8903528323e+01     0.165617   0.08491128 -51.49 8.392569e-05    1.636    0.389
       139  -9.8157    130.2053     19.0833   4.0732406846e+01   4.9488078720e+01    0.3000478    0.1995828  29.96  0.001284314    1.876    0.467
       140  -7.4938    199.2691    227.3023   7.6820690920e+01  -2.5115146165e+00    0.1299984   0.08755588  -8.98 0.0002471755    1.529    0.346
       141  -9.0697    171.8189     17.3784   3.4368185302e+01   3.9980466707e+01    0.1854509    0.1714364 -46.37  0.000445846    1.267    0.210
       142  -7.9214    237.0000     16.9650   2.8437256465e+01   2.6166133897e+01    0.1658503   0.05569996 -36.40 0.0005275996    2.798    0.643
       143  -8.8257    189.2878     15.9216   3.2158835717e+01   3.6200762749e+01    0.2024576    0.1507596  68.88 0.0005010538    1.293    0.227
       144 -10.0209    138.4320    222.2481   8.9083495396e+01   7.6183988928e+00     0.253331    0.2380455 -34.55 0.0004059731    1.136    0.119
       145  -8.8117    224.7669    218.8236   7.0455393418e+01  -4.5572214071e+00    0.2378826    0.1928237  40.03  0.001214599    1.630    0.386
       146  -8.5423     90.1199    216.0879   9.9626926143e+01   1.6434771085e+01    0.1912307    0.1840442 -13.12 -0.0006383859    1.179    0.152
       147  -8.6661     36.3307    214.3177   1.1224388811e+02   2.3890028089e+01    0.1247345   0.09685675 -39.64 0.0006517728    1.686    0.407
       148  -9.3444    187.6502    209.0602   7.5966533613e+01   2.4402120328e+00    0.4527914    0.3014231  62.58  0.001868464    2.883    0.653
       149  -7.9579    210.4884    209.4264   7.1453989027e+01  -1.0274846221e+00    0.1334353    0.1101134  -9.63 0.0001040547    1.036    0.035
       150  -8.8343    161.4876    208.6140   8.1548677913e+01   6.6884838200e+00    0.2355219    0.2092915 -21.02 0.0002315138    1.095    0.087
       151  -7.5153    237.7011    203.6790   6.5423293720e+01  -3.7851249769e+00    0.1300648   0.08248178 -12.74 0.0004002525    1.622    0.384
       152  -7.7357    134.5900    203.4738   8.6898866959e+01   1.2229907138e+01    0.1419753    0.1374181  26.54 0.0008027907    1.041    0.039
       153  -9.4298     22.4887    200.1509   1.1427451220e+02   2.8731423405e+01    0.2118447    0.1924343  55.70 0.0003688145    1.178    0.151
