#   1 NUMBER                 Running object number                                     
#   2 MAG_AUTO               Kron-like elliptical aperture magnitude                    [mag]
#   3 X_IMAGE                Object position along x                                    [pixel]
#   4 Y_IMAGE                Object position along y                                    [pixel]
#   5 X_WORLD                Barycenter position along world x axis                     [deg]
#   6 Y_WORLD                Barycenter position along world y axis                     [deg]
#   7 A_WORLD                Profile RMS along major axis (world units)                 [deg]
#   8 B_WORLD                Profile RMS along minor axis (world units)                 [deg]
#   9 THETA_WORLD            Position angle (CCW/world-x)                               [deg]
#  10 FWHM_WORLD             FWHM assuming a gaussian core                              [deg]
#  11 ELONGATION             A_IMAGE/B_IMAGE                                           
#  12 ELLIPTICITY            1 - B_IMAGE/A_IMAGE                                       
         1 -17.2995    131.8323    103.2582   8.6913816200e+01   3.5509425134e+01     3.725524     2.028821  53.68   0.01104477    1.979    0.495
         2 -17.7048    125.2191     63.9527   7.6957879630e+01   4.4585826172e+01     5.858212     5.097771  54.80    0.0302965    1.175    0.149
         3 -15.7358    222.4792     94.0057   6.6758323554e+01   1.7224454668e+01     2.564811     1.406208 -15.90   0.01162297    1.956    0.489
         4 -16.8982    239.5175     41.5540   5.1232768703e+01   1.9983044038e+01     5.109189     2.263917 -28.63   0.02312176    1.885    0.470
         5 -17.1268    210.0559     59.9669   5.9560396335e+01   2.4445743757e+01     3.160172     2.500151 -34.37   0.01715928    1.178    0.151
         6 -16.6263    159.5197    130.9951   8.7118838254e+01   2.4615303568e+01     3.695411     2.020327 -22.58   0.01483388    2.703    0.630
         7 -15.2206     17.4705    117.9815   1.2287953097e+02   4.9219864539e+01     1.995872    0.7306651 -60.59   0.00582728    2.494    0.599
         8 -14.6747     48.1731     21.8617   8.6708293074e+01   6.8075987148e+01     1.122848    0.9938698  -1.21  0.004254223    1.125    0.111
         9 -13.2237    122.2557      3.8899   5.3639571293e+01   5.3903051988e+01    0.5631959    0.3488295  60.08  0.000566308    1.512    0.339
        10 -10.7215    224.2778      6.3106   4.3108984512e+01   2.6964978387e+01    0.1904469    0.1520012  29.97  0.001095128    1.488    0.328
        11 -10.0178    227.5186      5.5424   4.2681491305e+01   2.6276726840e+01    0.2491095    0.1509321  37.99  0.001229243    2.088    0.521
        12 -16.5299    245.6380    107.3865   6.6674808745e+01   1.1031281686e+01     2.008797     1.124449 -18.24   0.01034939    1.651    0.394
        13 -12.1887    187.8728    137.3585   8.2805873438e+01   1.7989956637e+01    0.2247666    0.1900534 -38.12  0.001007861    1.312    0.238
        14  -9.8660    217.0000    250.0742   9.6344041705e+01   9.9666145668e-02    0.1264609   0.05383617 -30.68 0.0007930342    2.878    0.652
        15 -11.4880    164.1369    250.3575   1.0478777400e+02   6.8716973980e+00     0.365793   0.09969745  37.01   0.00176937    2.665    0.625
        16 -12.5325      1.7925    247.0891   1.3201694247e+02   2.5969226182e+01    0.3254343    0.1838711 -77.40  0.002648783    2.061    0.515
        17 -13.0887      4.9350    239.8042   1.3134870081e+02   2.6785687948e+01    0.4430426    0.1611457  64.16  0.002918483    2.063    0.515
        18 -15.3340    218.0189    181.4735   8.6013413526e+01   6.8453212350e+00      1.48596    0.4975686  35.01  0.006474079    2.787    0.641
        19 -15.7892    225.2772    175.0000   8.3678289946e+01   6.4553550173e+00     2.079683     1.206247   9.46   0.01143529    1.911    0.477
        20 -14.4658     26.7051    180.6752   1.2501316207e+02   3.4967617832e+01    0.7466921    0.5759799  63.84  0.004497438    1.015    0.015
        21 -14.8233    229.3648    166.9631   8.1546561911e+01   6.7316702074e+00    0.9395214    0.5409888  46.18  0.005299268    1.886    0.470
        22 -11.5403    167.8150    174.9947   9.3920668892e+01   1.5944399622e+01    0.3274977      0.23887 -12.18  0.001913581    1.633    0.388
        23 -14.1433    192.5759    170.2085   8.8419338313e+01   1.2405958707e+01    0.9944207    0.3976932  43.55  0.004491161    2.277    0.561
        24 -14.2383    202.2034    169.3247   8.6537459508e+01   1.0895491713e+01    0.6654845    0.4005596 -37.52  0.003720557    1.874    0.466
        25 -13.3704    199.0721    158.9817   8.5148386307e+01   1.2810403881e+01    0.5146257    0.3839784   6.64  0.002949707    1.322    0.243
        26 -12.1135     90.3627    167.6725   1.0941358054e+02   2.9813648044e+01    0.3432929    0.2796615  58.59  0.001267545    1.088    0.081
        27 -11.7269    139.0145    164.4376   9.8024283142e+01   2.2591593323e+01    0.3285147     0.307996  52.11  0.001325324    1.107    0.097
        28 -13.4116     68.1403    144.6528   1.1183335209e+02   3.7683798300e+01    0.8252099    0.6647925 -89.64  0.003194411    1.189    0.159
        29 -13.2277     44.8244    155.0298   1.1891998796e+02   3.8304489132e+01     1.160054    0.5077825 -77.31   0.00566651    2.292    0.564
        30 -12.7253     52.8995    164.1320   1.1782156372e+02   3.5478967948e+01    0.3617463    0.3142023  26.12 0.0009699326    1.397    0.284
        31 -13.9751     59.9781    159.0252   1.1560301891e+02   3.5680688453e+01    0.8334978    0.6746472  38.86  0.003410625    1.263    0.208
        32 -12.7916     66.0034    154.0282   1.1355509655e+02   3.5961970505e+01    0.4350682    0.2921332  61.32  0.001343126    1.397    0.284
        33 -12.9978    246.2056    163.1919   7.8241851052e+01   4.5226808838e+00    0.5872937    0.2759516  17.42  0.002695012    2.836    0.647
        34 -15.1849    237.8140    137.5907   7.4408272781e+01   8.7901991810e+00     1.288389     1.101218 -13.40  0.008597697    1.168    0.144
        35 -11.7018    171.1920    247.3202   1.0329201715e+02   6.2651869966e+00    0.2275805    0.1740315  47.76  0.001803758    1.469    0.319
        36 -13.8648    151.7261    239.6049   1.0572320527e+02   9.7377864485e+00    0.6533301    0.5047488  53.44  0.003672394    1.445    0.308
        37 -11.7408    210.6651    134.1055   7.8011836152e+01   1.4112590879e+01    0.4934182    0.2411616  45.92  0.001740617    2.018    0.505
        38 -15.2788    159.6757    228.2502   1.0304885397e+02   9.9994595207e+00     1.164849    0.6627797  37.58  0.004274727    1.322    0.244
        39 -11.3311    219.9176    130.3388   7.5652551924e+01   1.2892767164e+01    0.4135273    0.1755188  32.10  0.001649861    2.877    0.652
        40 -11.0537    213.5084    128.1227   7.6218624668e+01   1.4393381684e+01    0.4095604    0.2757977 -66.88  0.001776654    3.241    0.691
        41 -11.3522     26.9543    125.0988   1.2079249612e+02   4.6763641797e+01    0.4299819    0.1783718 -68.66  0.001950401    2.103    0.524
        42 -13.9629    175.8734    140.9973   8.5900803877e+01   1.9739070650e+01     1.171728    0.5694187 -24.37  0.004679335    2.859    0.650
        43 -12.0047     99.0510    240.1590   1.1502148778e+02   1.6612996028e+01    0.4332689    0.1797508  45.40  0.002163679    1.767    0.434
        44 -10.4078    217.0884    117.6937   7.3268296504e+01   1.5123012887e+01    0.2273949    0.1682054 -33.64  0.000594301    1.358    0.264
        45 -10.9818    211.9996    115.7763   7.3653858624e+01   1.6388675667e+01    0.2825758    0.2352024 -76.73  0.001441521    1.806    0.446
        46 -11.4014    135.9803    210.0212   1.0517804590e+02   1.5838865193e+01    0.4095148    0.1453943  36.01  0.001891876    2.381    0.580
        47 -11.2474    188.0331    105.9847   7.5472208372e+01   2.2809767185e+01    0.2930173    0.1945658 -31.97 0.0009536661    1.473    0.321
        48 -11.6655      1.8007    105.9382   1.2664902301e+02   5.3111486361e+01    0.2913973    0.1307345  89.92   0.00147644    1.923    0.480
        49 -16.3476    197.9427     93.1768   7.0430153376e+01   2.2590755066e+01     1.742288     1.481145  70.41  0.006888807    1.410    0.291
        50 -13.8870     74.6732     87.7056   9.9423453552e+01   4.9711141889e+01     1.278164    0.5788868 -42.87  0.004040177    2.504    0.601
        51 -12.4703     52.2443     93.1584   1.0822750060e+02   5.1618533529e+01    0.8360826    0.2821784 -61.11  0.003201801    2.603    0.616
        52 -11.6884     49.2792     84.6963   1.0752402667e+02   5.4011556727e+01    0.3988195    0.2281599 -73.41  0.001882948    1.786    0.440
        53 -12.3210     18.4459    154.1066   1.2532127438e+02   4.1115371798e+01    0.3678386    0.1901262 -65.56  0.001931443    1.945    0.486
        54 -12.4251     58.0561     76.0311   1.0227392962e+02   5.4924129251e+01    0.4070874    0.2985916   9.53  0.001324209    1.827    0.453
        55 -11.5098     22.3093    148.7716   1.2401441058e+02   4.1910585817e+01    0.3045181    0.1556202 -73.18  0.001713554    1.796    0.443
        56 -16.2628    124.8551    144.4866   9.7680105223e+01   2.8728381944e+01     2.385823     1.794801 -48.54   0.01057967    1.440    0.306
        57 -10.4441    105.4927    207.1325   1.1077288601e+02   2.0663836227e+01    0.2620367    0.1284231  68.52  0.001084486    4.100    0.756
        58 -11.0670      1.4553     66.2114   1.2299638086e+02   6.2551756192e+01    0.3134809    0.1027138 -79.76  0.001305778    2.622    0.619
        59 -12.7010      6.7003    157.0052   1.2828250064e+02   4.1480502588e+01    0.3065993     0.243776  75.50  0.001650845    1.064    0.060
        60 -12.5145     12.4795     62.3858   1.1772136014e+02   6.2853512639e+01    0.5689927    0.3320878 -66.33  0.002238675    1.389    0.280
        61 -11.6651     12.5075     56.4997   1.1662697076e+02   6.4262625682e+01    0.2891437     0.198877 -63.90  0.001368433    1.192    0.161
        62 -10.8429     43.9210     60.6828   1.0371727670e+02   6.0363849436e+01    0.2765462    0.2096512 -46.56   0.00145548    1.232    0.188
        63 -13.4759      8.6871    136.1166   1.2667493633e+02   4.5796856952e+01    0.9273961    0.3794288  65.05  0.004598512    2.285    0.562
        64 -12.4471     78.5692     57.2016   8.8926963081e+01   5.5843342322e+01    0.4905446    0.3651145 -47.89  0.001881036    1.276    0.216
        65 -11.8101      1.6553     56.8002   1.2162443319e+02   6.4791254116e+01    0.3609076    0.1439261 -81.34   0.00164569    2.244    0.554
        66 -12.0435     29.1597     48.8739   1.0696688884e+02   6.4727100001e+01    0.5822576    0.3365945  25.86   0.00297277    1.993    0.498
        67 -11.2169     32.2524     45.7678   1.0453981965e+02   6.5130631531e+01    0.3383544     0.249723  18.76  0.001767581    1.585    0.369
        68 -15.9621    191.3378     61.4995   6.2722809680e+01   2.8703214261e+01      1.19779    0.7850784  66.61  0.005232253    1.695    0.410
        69 -12.2454     11.6113     37.4580   1.1272146003e+02   6.8805280031e+01    0.4841805    0.2633335  89.03  0.002046727    2.459    0.593
        70 -11.0412    142.5400    205.7932   1.0339861884e+02   1.5471700414e+01    0.2667933    0.1869332   3.26  0.001594094    2.006    0.501
        71 -12.1571     11.5147    206.1825   1.2923496562e+02   3.1680290255e+01    0.1920507    0.1184589  42.09  0.001420247    1.352    0.260
        72 -12.1457     97.0595     25.5571   6.9591535516e+01   5.7703587125e+01    0.3401695    0.2886746  60.43  0.001763976    1.257    0.205
        73 -12.5009      3.4126    153.8909   1.2891575971e+02   4.2379445300e+01    0.3347941    0.2615326 -71.31  0.002457493    1.400    0.286
        74 -10.5828    159.2538     21.7727   5.4742613550e+01   4.2094388805e+01    0.2161828    0.1987793 -63.46  0.001172537    1.106    0.096
        75 -11.4068    213.4073     20.1808   4.7859057302e+01   2.8244861402e+01    0.1973658    0.1457301 -17.17 0.0008375898    1.345    0.257
        76 -11.0768    226.5789     17.5189   4.5989260958e+01   2.5379971153e+01    0.2291914    0.1433192  -5.86  0.001126177    1.818    0.450
        77 -13.3093    184.8443    121.8162   7.9903064648e+01   2.0996755614e+01    0.8036121    0.5647278 -15.13   0.00379945    1.560    0.359
        78 -10.7556    170.9914    201.6935   9.7509924973e+01   1.1690625184e+01    0.1729269    0.1296553  32.54 0.0007341187    1.067    0.063
        79 -11.8994     24.7808    139.9407   1.2271225493e+02   4.3614182992e+01    0.4118463    0.2790899  78.44  0.001852652    1.275    0.216
        80 -11.5549     15.5919    201.7755   1.2829061347e+02   3.2090899129e+01     0.146542   0.07542285  76.72 0.0008792657    1.685    0.406
        81 -13.5408    193.2107    195.3750   9.2564308145e+01   9.0525227024e+00     0.772833     0.467899 -61.70  0.003249212    5.165    0.806
        82 -14.2188    247.8493    185.8862   8.2095631738e+01   1.9409005730e+00    0.5590641    0.4683118  -3.87  0.004272721    1.301    0.231
        83 -11.5292    193.7928    138.7487   8.2000489770e+01   1.6646609662e+01    0.3766987    0.1812402 -27.31  0.001646199    2.285    0.562
