#   1 NUMBER                 Running object number                                     
#   2 MAG_AUTO               Kron-like elliptical aperture magnitude                    [mag]
#   3 X_IMAGE                Object position along x                                    [pixel]
#   4 Y_IMAGE                Object position along y                                    [pixel]
#   5 X_WORLD                Barycenter position along world x axis                     [deg]
#   6 Y_WORLD                Barycenter position along world y axis                     [deg]
#   7 A_WORLD                Profile RMS along major axis (world units)                 [deg]
#   8 B_WORLD                Profile RMS along minor axis (world units)                 [deg]
#   9 THETA_WORLD            Position angle (CCW/world-x)                               [deg]
#  10 FWHM_WORLD             FWHM assuming a gaussian core                              [deg]
#  11 ELONGATION             A_IMAGE/B_IMAGE                                           
#  12 ELLIPTICITY            1 - B_IMAGE/A_IMAGE                                       
         1 -13.3235    191.4786     16.4054   5.5956207731e+01   3.4985988657e+01     1.096212    0.4779965 -58.33  0.003855721    3.280    0.695
         2 -14.2419    170.5826     48.5231   6.9071348183e+01   3.6381750477e+01     2.042418     1.245887  23.21  0.005919838    2.362    0.577
         3 -14.0220    184.2586     33.9566   6.2221932668e+01   3.4815320020e+01    0.9795231    0.8526441 -26.58  0.003525133    1.200    0.166
         4 -13.6655    188.8554     27.5348   5.9603868075e+01   3.4408609707e+01      0.71126    0.6581199 -46.33  0.001214662    1.103    0.093
         5 -13.9199    206.3187      4.0082   5.0767613114e+01   3.2443241459e+01     1.014307     0.576077  58.31  0.004785079    1.684    0.406
         6 -12.0115     51.3145      4.8997   8.5007835013e+01   6.8053643436e+01    0.2320926    0.1593495  24.39 0.0006601292    1.378    0.274
         7 -10.7630    162.8689    210.6824   1.0849677356e+02   9.3381771178e+00    0.2536207    0.1555067 -54.30  0.001384662    2.098    0.523
         8 -18.6756     36.5643    242.1367   1.3449813688e+02   2.2290665282e+01     6.645609     5.340627  44.40   0.05574029    1.489    0.329
         9 -11.7747     88.8479    203.5902   1.2213272341e+02   2.2476656065e+01    0.4290456     0.217971  54.15  0.002117528    1.754    0.430
        10 -10.0398     90.3214    183.8402   1.1954252147e+02   2.6071897150e+01    0.2528307    0.1347499  60.05  0.001084088    1.967    0.492
        11 -10.7232    206.1672    180.4021   9.5068673520e+01   6.1990753858e+00    0.2199816    0.1996858 -81.32  0.001333409    1.572    0.364
        12 -10.5688    209.0005    177.9971   9.4079104146e+01   6.0340964507e+00    0.3042489    0.1862872  10.35  0.001398151    2.237    0.553
        13 -12.2331     99.5022    180.2517   1.1710307759e+02   2.5395091216e+01    0.3511553    0.2621507 -47.52  0.001366764    1.610    0.379
        14 -19.1295     25.9195    106.0922   1.2502834864e+02   5.0798224665e+01     16.69436    0.7784909 -68.38   0.02794461   16.810    0.941
        15 -10.6954    209.3601    198.8163   9.7822847241e+01   2.9810247398e+00    0.1711293    0.1641951 -50.61 0.0006106991    1.417    0.294
        16 -12.0737     71.6398    174.3343   1.2242273092e+02   3.0652055050e+01     0.539913    0.1897739  52.79  0.002184074    3.028    0.670
        17 -11.6817    195.8806    169.5530   9.4945739077e+01   9.8325548014e+00    0.4061059    0.3758634 -38.05  0.000915885    1.239    0.193
        18 -10.5535    193.2263    164.1751   9.4396047515e+01   1.1229665583e+01    0.3408756    0.2386262 -43.81  0.001279598    1.596    0.373
        19 -12.1073    143.4642    172.1338   1.0627114645e+02   1.9447637131e+01    0.5667564     0.350467 -88.95  0.002183696    3.461    0.711
        20 -11.0145    146.0665    168.3518   1.0503681342e+02   1.9678909514e+01    0.2222345    0.1973161 -27.62 0.0005134413    1.291    0.226
        21 -10.6401      5.6123    161.9821   1.3545156143e+02   4.0212741893e+01    0.2724196    0.1568699  25.61  0.001501525    2.238    0.553
        22 -11.1852    141.2623    158.0400   1.0419625455e+02   2.2590402892e+01    0.2472226    0.2216572  83.50 0.0003718869    1.201    0.168
        23 -11.3239    165.7241    153.6473   9.7932256094e+01   1.8605120189e+01    0.3924316    0.2401925  64.96  0.001630648    2.356    0.576
        24 -12.4584    133.8184    144.9636   1.0335494781e+02   2.6664177593e+01     1.110907    0.3134127 -55.32  0.002989447    5.274    0.810
        25 -10.4467    129.5123    140.4781   1.0346643333e+02   2.8425463821e+01    0.2082621      0.17687   0.52 0.0006218138    1.482    0.325
        26 -12.1494    147.9551    148.8151   1.0087088682e+02   2.3111186222e+01      0.49385    0.3423144  69.23  0.002279351    1.885    0.469
        27  -9.3610     61.2509    199.3211   1.2714584142e+02   2.6998644840e+01   0.09891645   0.08629739 -55.16 0.0001932169    1.534    0.348
        28  -9.8098     81.3683    150.2595   1.1694690623e+02   3.4453081633e+01    0.1222427    0.1043575 -14.20 0.0003849116    1.644    0.392
        29 -10.5428    174.8619    149.0973   9.5028211849e+01   1.7573280608e+01    0.2191755    0.2002974  73.80 0.0006203921    1.252    0.201
        30 -11.5028    154.5036    195.9779   1.0790631409e+02   1.3172942539e+01    0.3264687    0.2260178  79.29  0.001640372    2.245    0.555
        31 -12.5633    193.6364    193.0052   9.9739026094e+01   6.6012498160e+00    0.8393521    0.4831463 -52.45  0.003157819    2.487    0.598
        32 -12.6712    109.6861    139.9058   1.0819299296e+02   3.2190941580e+01    0.5631611    0.3475023 -34.80  0.002514647    2.176    0.541
        33 -12.5057     98.6671    139.8631   1.1093333714e+02   3.4070994314e+01    0.2682723     0.257998  45.54 0.0005216288    1.132    0.117
        34 -10.8704     83.4180    134.3141   1.1382184841e+02   3.7699957292e+01    0.2542768    0.1911791  65.41 0.0007386809    1.393    0.282
        35 -11.6557    106.0949    130.8759   1.0732007201e+02   3.4795852147e+01     0.390677    0.3054395 -63.62   0.00121506    1.282    0.220
        36 -11.3806    104.3917    126.6418   1.0689337757e+02   3.6027866226e+01    0.3101322    0.2331645 -39.02 0.0008787424    1.475    0.322
        37 -12.3933    117.3953    129.8518   1.0423110686e+02   3.2983384749e+01    0.5051913    0.3874132  32.49  0.001656245    1.411    0.291
        38 -12.5130    136.7841    125.3209   9.8406652039e+01   3.0159726158e+01    0.6782182    0.4079652 -37.71  0.002952753    1.833    0.454
        39 -11.0854    160.5438    127.5414   9.3337724060e+01   2.4696975090e+01    0.3289801    0.2509704 -71.56  0.001125903    1.719    0.418
        40 -10.9840    120.5045    124.4876   1.0227612889e+02   3.3557876294e+01    0.2544056    0.1825636 -28.71 0.0008300932    1.741    0.425
        41 -10.7264    111.4096    119.0871   1.0342059854e+02   3.6438333466e+01    0.2643387    0.2124427  43.69 0.0003783166    1.258    0.205
        42 -10.6149    168.0319    112.7099   8.8031250823e+01   2.5904047084e+01    0.3821962    0.2825213 -84.79  0.001380622    2.037    0.509
        43 -10.4772    205.4961    110.1833   7.9756154717e+01   1.7779839358e+01    0.3268599    0.2076029  41.48  0.000974987    1.598    0.374
        44 -12.5816     61.3303    108.7232   1.1518118459e+02   4.6561337915e+01     0.414931    0.2957273 -34.47  0.002259062    1.666    0.400
        45 -12.2114     67.0605    104.5932   1.1268082567e+02   4.6766811380e+01    0.4601716    0.2721027  25.51  0.002239581    2.094    0.522
        46 -10.0393    163.3150    204.0044   1.0740656515e+02   1.0306928174e+01    0.1660264    0.1567185  35.03 0.0004001878    1.124    0.110
        47 -11.2635     41.4069     91.9209   1.1798515037e+02   5.2617558308e+01    0.2034965    0.1861584  -2.72 0.0004121886    1.304    0.233
        48  -9.6089    151.7713     79.9738   8.2754656114e+01   3.5874029336e+01    0.2009802    0.1278213 -36.09 0.0004094969    1.586    0.370
        49 -12.4528    172.8862     71.8232   7.5711199768e+01   3.2146223593e+01    0.5255017    0.3627833 -83.55  0.001040739    2.193    0.544
        50  -9.7500    109.1837     63.2021   8.8629428934e+01   4.8498602563e+01    0.1880253    0.1733545 -79.50 0.0003473535    1.287    0.223
        51 -11.3022     93.7184    205.8408   1.2141546398e+02   2.1355223085e+01    0.3198536    0.2146185 -34.38  0.001731671    2.629    0.620
        52 -10.4710    198.7404    222.7580   1.0365842151e+02   1.5833248354e+00    0.1552597     0.126943  47.44 0.0005055779    1.331    0.248
        53 -11.8925    187.0047    221.1726   1.0553992870e+02   3.7309685279e+00    0.3237235     0.142546  34.14   0.00154133    2.069    0.517
        54 -10.6955    166.9637    187.8770   1.0407851490e+02   1.2285701264e+01    0.2803263    0.1983034 -55.17  0.001074363    1.737    0.424
        55 -11.0013     97.3952    213.5376   1.2152937718e+02   1.9429782182e+01    0.3050128    0.1830338  40.13  0.001793754    1.517    0.341
