#   1 NUMBER                 Running object number                                     
#   2 MAG_AUTO               Kron-like elliptical aperture magnitude                    [mag]
#   3 X_IMAGE                Object position along x                                    [pixel]
#   4 Y_IMAGE                Object position along y                                    [pixel]
#   5 X_WORLD                Barycenter position along world x axis                     [deg]
#   6 Y_WORLD                Barycenter position along world y axis                     [deg]
#   7 A_WORLD                Profile RMS along major axis (world units)                 [deg]
#   8 B_WORLD                Profile RMS along minor axis (world units)                 [deg]
#   9 THETA_WORLD            Position angle (CCW/world-x)                               [deg]
#  10 FWHM_WORLD             FWHM assuming a gaussian core                              [deg]
#  11 ELONGATION             A_IMAGE/B_IMAGE                                           
#  12 ELLIPTICITY            1 - B_IMAGE/A_IMAGE                                       
         1  -9.3699     12.1100     33.6607   1.1137199972e+02   6.9644146402e+01    0.4818372    0.2513615 -53.85  0.002578461    1.525    0.344
         2 -10.4216     50.6113     36.3515   9.2282208598e+01   6.4864104280e+01     1.021767    0.7038699 -85.45   0.00459301    2.653    0.623
         3  -9.1076     39.7596      1.9200   7.9288926223e+01   7.2777117034e+01    0.3288985     0.207195  33.08  0.001779131    1.662    0.398
         4  -9.6072     39.5561      7.4916   8.3063015922e+01   7.1934341634e+01    0.4137639    0.3556582 -14.19  0.002106768    1.020    0.019
         5  -9.5481     39.8592     14.4197   8.7030532044e+01   7.0697912566e+01    0.3901715     0.223712 -30.80  0.001824641    1.702    0.413
         6 -10.8844     39.5685     29.8854   9.4907047593e+01   6.7744052963e+01     0.872328    0.3750696 -48.80  0.003841985    2.024    0.506
         7 -12.0303     44.9525     22.0889   8.8444007876e+01   6.8529021953e+01     1.317256     1.036918 -85.19  0.007056293    2.040    0.510
         8 -10.2215     90.6725     27.8241   7.2610234398e+01   5.8827719231e+01    0.4805807    0.2748332 -43.46  0.002105495    1.823    0.451
         9 -11.5341    128.5026     15.0791   5.7341059053e+01   5.1104128927e+01     1.364829    0.8228985 -31.91  0.006143077    1.639    0.390
        10 -11.6380     77.9532     16.0151   7.1013885758e+01   6.3409575326e+01     1.501734    0.6704657 -25.44  0.005960076    2.354    0.575
        11 -10.4797     71.5580      5.2368   6.7245867959e+01   6.6226870979e+01    0.7374343    0.4054898  37.83  0.003252115    1.869    0.465
        12 -11.9367    115.5328      4.3164   5.5090652781e+01   5.5641472184e+01     2.556543    0.5188148  67.37  0.006800064    4.846    0.794
        13 -10.8530    131.6010      3.4756   5.1880726120e+01   5.1433519605e+01    0.9748971    0.3796204  63.38  0.003680975    2.294    0.564
        14 -13.7792    165.1486     11.7788   5.0354153995e+01   4.1553544895e+01     3.420725     2.111139  61.06   0.01588511    1.564    0.361
        15 -11.5403     84.2154      4.0832   6.2492945419e+01   6.3498644337e+01     1.166982    0.5042239  52.88  0.004846665    2.141    0.533
        16 -10.2504    116.3462     16.5728   6.0502368489e+01   5.4121770860e+01    0.9589567    0.3862359 -38.20    0.0035362    2.488    0.598
        17  -9.7280     93.6073     18.1065   6.7055659864e+01   5.9569427284e+01    0.5587946    0.5032459 -47.96  0.002397345    1.215    0.177
        18  -9.9133    244.6307      8.7982   4.2435102578e+01   2.2140085788e+01    0.4213627    0.2052608  34.26  0.001784022    3.238    0.691
        19  -9.9858    248.6683     15.4982   4.3859633705e+01   2.0654899637e+01     0.368536    0.2580219   2.83  0.002078234    1.689    0.408
        20  -9.8128    250.2985      8.0014   4.1896813944e+01   2.0995990708e+01    0.5316028   0.09419055 -28.87  0.001889626    3.403    0.706
        21 -10.0803     70.3083     14.2405   7.2851289574e+01   6.5284477935e+01    0.4336371    0.3347179 -27.92  0.002379546    1.230    0.187
        22  -9.9683     64.4554     15.8563   7.6068552002e+01   6.6218247171e+01    0.5573013    0.3016559  61.69  0.002326098    2.746    0.636
        23 -10.2035     57.6563      8.2074   7.4534257058e+01   6.8675045528e+01    0.7254272    0.4524547  62.63   0.00347144    2.256    0.557
        24  -8.8249     20.2460     14.0243   9.8668360608e+01   7.3220803510e+01    0.5536415    0.2290267 -39.25  0.002500607    2.270    0.560
        25  -9.7585    104.2677     11.7691   6.1095305551e+01   5.7760045406e+01    0.4312935    0.4044613 -21.63  0.001958601    1.086    0.079
        26 -11.0072    143.5835      3.7906   5.0219649030e+01   4.8154559584e+01     1.022345    0.5930911  61.25  0.004622597    1.610    0.379
        27  -9.8654     60.3894      2.2893   6.9686715235e+01   6.8934611420e+01    0.6040418    0.3018118  44.80  0.002806545    1.968    0.492
        28  -9.1366     52.1827      2.3199   7.3269640464e+01   7.0533128057e+01    0.3118547    0.2218303  -6.33  0.001305709    1.423    0.297
        29  -9.0220    104.7392     25.4665   6.7371818929e+01   5.5880172923e+01    0.5076528    0.4361617   0.99   0.00270066    1.198    0.165
        30 -10.0680    216.3032      2.8569   4.2706230318e+01   2.9168596118e+01    0.5537068    0.2554649  44.92  0.002329942    2.687    0.628
        31  -9.2130     17.3251      2.3992   9.4096383376e+01   7.5764708607e+01    0.3220255    0.2629539 -63.83  0.001919377    1.562    0.360
        32 -10.1059    203.9344      3.7087   4.3864044500e+01   3.2138498675e+01    0.3653255    0.2428689 -81.99  0.001452736    1.574    0.365
        33  -8.6439     26.7801      3.1533   8.7992747902e+01   7.4498549720e+01    0.2778316     0.174216 -34.52  0.001540133    1.379    0.275
        34  -7.4220      1.4656      1.4988   1.0615407038e+02   7.7301018529e+01    0.1203228   0.09306633 -42.74 0.0003471651    1.016    0.016
        35  -8.8108     83.8569     69.0768   9.1059608345e+01   5.2328914569e+01    0.3957992    0.2302696  57.87  0.001650125    2.218    0.549
        36  -9.7093     46.8203     62.9552   1.0314690090e+02   5.9476626353e+01    0.5870404    0.4115309 -13.32  0.002958082    1.985    0.496
        37  -9.6628     33.3211     68.7760   1.1017270330e+02   5.9608108609e+01    0.3268878    0.2216939 -18.99  0.001704934    1.998    0.499
        38  -9.3091     67.3584     63.6922   9.5250904784e+01   5.6366237296e+01     0.315349    0.2092113  -9.10  0.001331685    2.567    0.610
        39  -8.6629     61.6595     63.1302   9.7253970479e+01   5.7383133399e+01    0.2307524    0.1764799 -71.05  0.001208176    1.408    0.290
        40  -9.4205    199.1538     55.4644   5.9790663148e+01   2.7621088053e+01    0.2885781    0.2562945   0.16 0.0004541683    1.152    0.132
        41  -9.0929     66.0316     53.3710   9.2287674140e+01   5.8849440659e+01     0.448784    0.1939549 -58.19  0.001627251    2.819    0.645
        42 -10.0373     84.3017     48.1442   8.3501214186e+01   5.6583898385e+01    0.8115553    0.5032017  56.03  0.003636292    1.902    0.474
        43 -10.3297     81.4521     42.3832   8.2187953708e+01   5.8261377341e+01    0.9106619    0.3166925 -37.79  0.003100731    2.896    0.655
        44  -7.5560     34.6876     52.6685   1.0548109313e+02   6.3281884617e+01    0.1394137   0.08932524 -35.80 0.0007044068    1.676    0.403
        45  -8.2394     22.9120     52.1500   1.1081888166e+02   6.4525805505e+01     0.195884    0.1656456  85.68 0.0007921667    1.261    0.207
        46  -8.2236     45.0584     49.8136   9.9886427728e+01   6.2718862497e+01    0.2275163    0.1509533 -16.01  0.001089146    2.106    0.525
        47  -9.0472    111.1180     45.1932   7.3915232692e+01   5.1248024595e+01    0.4485772     0.223013 -30.64  0.001738915    2.089    0.521
        48 -10.3102      3.5225     40.5816   1.1782986979e+02   6.8540570323e+01    0.5503179    0.4575022  87.94   0.00297138    1.233    0.189
        49  -9.7536    184.2547    246.0576   1.0101007387e+02   4.6713947531e+00    0.2681244    0.1747714  62.27  0.001582228    3.283    0.695
        50 -10.7163    174.5535    239.1562   1.0179646073e+02   6.6891148927e+00    0.3696601    0.2019468 -15.02  0.002082508    3.186    0.686
        51  -9.0176    163.1797    244.3717   1.0429768012e+02   7.6494364420e+00     0.157038   0.07243662  42.85 0.0005769337    1.721    0.419
        52  -9.2133    162.5314    240.6553   1.0399364254e+02   8.1520203179e+00    0.2083581    0.1043356  21.40  0.001140149    2.457    0.593
        53  -8.9526    206.3719    226.5789   9.4940365705e+01   3.6642767769e+00    0.1635735   0.09332874 -47.98 0.0009299336    3.252    0.693
        54  -9.0436    213.9960    223.4953   9.3285315107e+01   2.9321839487e+00    0.1414417   0.08275221  51.35 0.0008106665    2.599    0.615
        55  -9.2286    124.0088    205.9884   1.0700289084e+02   1.8194640581e+01    0.1646691    0.1322133  41.09  0.001148695    1.013    0.012
        56  -9.2245     67.4415     35.9096   8.4766254031e+01   6.2166803545e+01    0.3812907    0.3278267  85.36  0.002095667    1.532    0.347
        57  -8.6478     26.8487     35.2360   1.0375517282e+02   6.8057406420e+01    0.3136159    0.1532622  23.90  0.001500571    2.403    0.584
        58 -10.2978    225.1304     29.0472   4.9258863374e+01   2.4548022008e+01     0.499556    0.4181201  26.58  0.001780562    1.359    0.264
        59  -8.2266     97.8720     26.7665   6.9908651411e+01   5.7333231892e+01    0.4938027    0.2459771 -12.40  0.001668445    3.271    0.694
        60 -10.5285     86.4700     31.3547   7.5621410443e+01   5.9184297377e+01    0.5549446    0.3158132  51.94  0.002460192    1.844    0.458
        61 -11.0517     10.0785    142.6881   1.2670704168e+02   4.4253665290e+01    0.4870485    0.2719037  63.99  0.002932885    1.523    0.343
        62  -8.9444     41.5172    142.0026   1.1849121239e+02   4.1491199420e+01    0.2462002    0.1764099  41.32  0.001270992    1.359    0.264
        63  -7.5174     24.3076    141.6215   1.2297019883e+02   4.3286448939e+01    0.1335281    0.0695133  64.87 0.0007027032    1.784    0.439
        64 -12.7389    241.4469    131.6565   7.2616576138e+01   8.8733348228e+00     1.296252     1.080461  28.00  0.005587396    1.221    0.181
        65 -10.4202     12.0487    129.6778   1.2535279364e+02   4.6974563190e+01    0.3330894    0.1588372  44.68  0.001830562    1.892    0.471
        66  -8.5566     22.8337    125.8452   1.2203718120e+02   4.6960739156e+01    0.1808935    0.1521507 -68.56 0.0007347922    1.246    0.197
        67  -8.5816     58.2275    124.9760   1.1178612293e+02   4.3375442227e+01    0.1758965    0.1015959 -69.11 0.0008780162    1.656    0.396
        68  -8.6948     21.2149     23.5696   1.0244972421e+02   7.1145857145e+01     0.310319    0.2718194  39.09  0.002052022    1.383    0.277
        69  -8.5249      8.6566    119.3201   1.2556545902e+02   4.9575053241e+01    0.1302921   0.06931695  62.18 0.0007049781    1.724    0.420
        70 -10.1324     10.8755    136.4875   1.2612276676e+02   4.5548411070e+01    0.3291237    0.1670863  67.57  0.001829457    1.755    0.430
        71  -9.3188    111.2271     16.3974   6.1596490187e+01   5.5455459862e+01    0.3951202    0.2670274  66.16  0.001863579    1.542    0.351
        72  -9.2708     20.7833    109.6294   1.2105987469e+02   5.0903554784e+01    0.2637305    0.1795156  78.70   0.00156895    1.333    0.250
        73  -9.6612     66.8962     29.5825   8.2092906901e+01   6.3443365516e+01    0.4023313    0.2142015 -32.70   0.00133268    1.884    0.469
        74  -8.7557     10.4921     21.9758   1.0849557061e+02   7.2373496460e+01    0.2538684    0.1363805 -15.69  0.001266569    2.442    0.591
        75  -8.4029     95.7373    112.7587   9.8811233452e+01   4.0497125613e+01    0.2324993    0.1035374  49.66 0.0008909611    2.409    0.585
        76  -9.2187     69.2894    104.7868   1.0498842616e+02   4.6556054243e+01     0.409774     0.213539 -42.98  0.001753203    2.297    0.565
        77  -9.6620     17.0871    104.6509   1.2170555684e+02   5.2374057799e+01    0.3085778    0.2992471 -70.22  0.001976423    1.234    0.189
        78  -9.9104     29.2988    102.3299   1.1746355216e+02   5.1896534554e+01    0.4193977    0.1875708 -49.97  0.001907823    2.401    0.584
        79 -10.2257     46.9613    100.1512   1.1129976554e+02   5.0581684062e+01    0.5038878    0.2037018 -64.07  0.002145946    2.191    0.544
        80  -7.9900     63.6814    100.3165   1.0586616591e+02   4.8404538520e+01    0.1431427   0.09997515  73.17  0.000703986    1.655    0.396
        81  -9.3728      2.3909     88.5913   1.2504387293e+02   5.7158271000e+01    0.4491715    0.2032874 -89.27  0.002230473    1.959    0.489
        82  -8.8271    228.1987     15.3008   4.5261984441e+01   2.5218734765e+01    0.2008622    0.1627188  52.36  0.001098385    1.385    0.278
        83 -12.0936     43.3674     81.4652   1.0900098026e+02   5.5485129706e+01     1.017922    0.9352054  -1.04  0.006384827    1.302    0.232
        84  -7.7255     12.2332     14.2635   1.0418072712e+02   7.3897805344e+01    0.1791789   0.08822326  37.02 0.0009006824    2.498    0.600
        85  -9.3336     15.6607     61.3821   1.1614667143e+02   6.2880921753e+01    0.7738554    0.2571929 -67.66  0.003261821    2.374    0.579
        86  -8.7048    125.6649     28.9916   6.3724308050e+01   5.0128965479e+01    0.3130882    0.2583658   9.94  0.001576549    1.319    0.242
        87 -10.3942      3.9177     76.1268   1.2320061686e+02   6.0051792813e+01    0.4563049    0.3585874  83.31  0.001804191    1.149    0.130
        88 -11.7700     14.4095     73.6848   1.1875935939e+02   6.0001918582e+01     1.030816    0.9096739  31.17  0.006995093    1.336    0.252
        89 -10.1580     24.9316     65.5216   1.1296810773e+02   6.1165825206e+01    0.6125497    0.2664005 -56.99    0.0024058    1.891    0.471
        90  -9.2146      6.7248     35.4303   1.1488890620e+02   6.9571144008e+01    0.2703962    0.1546147  34.12  0.001509698    2.068    0.516
        91  -9.1080    227.9098     78.8130   6.2177872396e+01   1.8062694665e+01    0.4076905    0.2339529  17.80  0.001742485    2.503    0.600
        92  -9.0227    221.0020     79.9940   6.3424861488e+01   1.9382208077e+01    0.2264374    0.1594157 -54.40  0.001127739    1.719    0.418
        93  -8.4519    138.9804     78.0452   7.8059392826e+01   3.8764197472e+01    0.2506608    0.1885602  13.55 0.0007164345    1.705    0.414
        94 -10.0973     75.3135     69.9401   9.4290375814e+01   5.3652095095e+01    0.5979937     0.394353  69.60  0.002618099    2.242    0.554
