#   1 NUMBER                 Running object number                                     
#   2 MAG_AUTO               Kron-like elliptical aperture magnitude                    [mag]
#   3 X_IMAGE                Object position along x                                    [pixel]
#   4 Y_IMAGE                Object position along y                                    [pixel]
#   5 X_WORLD                Barycenter position along world x axis                     [deg]
#   6 Y_WORLD                Barycenter position along world y axis                     [deg]
#   7 A_WORLD                Profile RMS along major axis (world units)                 [deg]
#   8 B_WORLD                Profile RMS along minor axis (world units)                 [deg]
#   9 THETA_WORLD            Position angle (CCW/world-x)                               [deg]
#  10 FWHM_WORLD             FWHM assuming a gaussian core                              [deg]
#  11 ELONGATION             A_IMAGE/B_IMAGE                                           
#  12 ELLIPTICITY            1 - B_IMAGE/A_IMAGE                                       
         1 -10.5716     38.8003      8.5750   6.7009993545e+01   6.9434797134e+01    0.8358101    0.4242074 -17.23  0.004455825    2.134    0.531
         2 -11.2066     39.8442     29.3198   7.6264102808e+01   6.6544037004e+01    0.6101319    0.3370246 -37.85  0.002941335    1.765    0.434
         3 -12.2709     45.0691     22.9822   7.1091472394e+01   6.6706673123e+01    0.9831914    0.8802827 -52.39  0.006380881    1.695    0.410
         4 -11.4699    143.8413      4.0414   3.7586372745e+01   4.8008358441e+01    0.8608319    0.5449564  65.08  0.004909232    1.330    0.248
         5 -11.8206    155.9017     20.9788   4.0792367025e+01   4.3512859758e+01     0.708069    0.3614506  68.10  0.002384431    1.752    0.429
         6 -13.1898    169.1933     16.0728   3.7648717557e+01   4.0867780239e+01     1.459562    0.9279318 -85.85    0.0062586    1.597    0.374
         7 -12.8092    172.0087      5.5761   3.4575094120e+01   4.1241777473e+01     1.590386    0.7155097  75.01  0.007666139    1.967    0.492
         8 -10.2051    128.1609     17.8758   4.4403681830e+01   5.0441675462e+01    0.3656222    0.3008724  61.31  0.001667331    1.065    0.061
         9  -9.9237    129.2298     13.0139   4.2632597644e+01   5.0660985119e+01    0.4228051    0.2604569  62.47  0.002019334    1.391    0.281
        10 -10.1079    116.2409     16.5935   4.6293741655e+01   5.3347608769e+01    0.6690628    0.2780525 -38.94  0.002933075    2.696    0.629
        11 -12.7117    157.7680      7.3358   3.6701739033e+01   4.4425276713e+01      1.65803     1.029713  45.59  0.009085381    1.763    0.433
        12  -9.4104     20.2962     14.1661   7.9099987257e+01   7.1155340157e+01    0.6005041    0.2968937  -8.18  0.002835023    2.851    0.649
        13 -11.4323     83.8213      3.7388   4.8929689542e+01   6.1649922544e+01     0.893627    0.3461358  59.50   0.00362468    2.317    0.568
        14  -9.1473    104.4596     12.3367   4.7298974497e+01   5.6430245899e+01    0.2776475    0.2178262 -10.32  0.001700338    1.443    0.307
        15  -9.4241    250.4797      9.4937   2.9007496772e+01   2.3937296045e+01    0.2252917   0.09360968 -37.47  0.001214907    2.183    0.542
        16 -10.7559    130.9207      3.7241   3.9380363456e+01   5.1076627458e+01     0.757234    0.2763827  59.86  0.002924978    2.144    0.534
        17 -11.3063    121.1904      4.1289   4.1108959685e+01   5.3313214672e+01    0.9364494    0.3894192  68.76  0.004208432    2.179    0.541
        18  -9.6171    112.0138      5.4761   4.3249753272e+01   5.5315770532e+01    0.3680955    0.2308479  77.61  0.001547533    1.689    0.408
        19 -10.7586    106.9778      5.1065   4.4116426990e+01   5.6488751255e+01     0.467752    0.2945255  77.31  0.002526332    1.728    0.421
        20 -11.0952     77.8862     17.4941   5.6377365192e+01   6.1580260925e+01     1.312904    0.4637092 -21.91  0.005139415    3.563    0.719
        21  -8.2220     49.6294      6.6946   6.1434668280e+01   6.7907856644e+01    0.1302111   0.07452513  20.39  0.000703346    1.757    0.431
        22 -10.6067    203.7573      4.0017   3.1213812576e+01   3.4178061070e+01     0.359266    0.1748373  77.93  0.001909246    1.817    0.450
        23 -10.1438     60.5115      2.4973   5.5366369162e+01   6.6371815839e+01    0.4857596    0.2349151  39.90  0.002599526    1.720    0.419
        24  -8.7597     17.7472      2.3769   7.4435149903e+01   7.2984381689e+01    0.2537479    0.1589085 -34.01  0.001664897    1.686    0.407
        25  -8.3515      1.2823      2.5773   8.4528635959e+01   7.4617925318e+01    0.2832386   0.06390037 -39.69  0.001218082    3.577    0.720
        26  -8.9505    217.8342      1.8269   2.9670744325e+01   3.1356523177e+01    0.1715616    0.1083311 -71.05 0.0005727905    1.335    0.251
        27  -9.9327     71.2671      5.6777   5.3327804187e+01   6.4038229462e+01    0.4760955    0.2674691  54.23  0.002175688    1.633    0.388
        28 -11.6796     15.0654     73.5124   1.0232678479e+02   6.0533497080e+01    0.9277003    0.8004612  15.69  0.006161133    1.341    0.254
        29 -10.7786      4.3207     75.9473   1.0730587793e+02   6.0629571720e+01    0.5380622     0.430576  66.58  0.003071533    1.631    0.387
        30  -8.6229    101.3470     84.0994   7.3078847171e+01   4.6335639055e+01    0.2613439    0.2091342  26.80  0.001180184    1.309    0.236
        31  -9.4103    227.0928     79.8581   4.5748493010e+01   1.9032823266e+01    0.3649878    0.2688268 -22.61   0.00197492    1.684    0.406
        32  -9.8754     75.4374     68.3444   7.6636447742e+01   5.4331513077e+01    0.5305642    0.3888084  -7.91  0.002673578    1.577    0.366
        33  -9.3334     83.6818     68.8519   7.3930379370e+01   5.2764072463e+01    0.3106953    0.2741554  39.88  0.001744249    1.187    0.157
        34  -8.7030     70.9799     80.2957   8.2053632993e+01   5.2634342270e+01    0.2013617    0.1851363  -2.75 0.0007123326    1.057    0.054
        35  -9.5708     49.9014     61.0809   8.4010524020e+01   5.9666860346e+01    0.3707863     0.209992  27.74  0.001830189    1.827    0.453
        36  -9.0260     76.4417     59.5953   7.3280956358e+01   5.5795472386e+01     0.360154    0.2020746 -42.52  0.001669312    1.796    0.443
        37  -8.6179    199.0815     55.3190   4.3755423784e+01   2.8912850876e+01    0.1940407    0.1669442 -87.02  0.001152496    1.083    0.077
        38  -9.2414     66.3162     53.9884   7.4993002950e+01   5.8533042695e+01    0.3563181    0.1614667 -48.37  0.001470649    2.539    0.606
        39  -8.9015     35.1050     52.9097   8.7592719003e+01   6.3064092645e+01    0.1813298    0.1749492 -37.91 0.0007673996    1.308    0.236
        40  -8.0339    165.6736     52.6985   4.8183743897e+01   3.7130513892e+01    0.1399773    0.1074533  31.19 0.0003731241    1.640    0.390
        41 -10.0516     85.3622     48.3081   6.6146035980e+01   5.6033879669e+01    0.6491063    0.3748812  52.52  0.003032616    1.897    0.473
        42 -10.4181     81.9869     39.6085   6.3976209327e+01   5.8003703135e+01    0.7940877    0.3728161 -35.10   0.00356007    2.206    0.547
        43 -10.5943      3.2183     40.9180   9.9026975950e+01   6.8065684505e+01    0.4550744    0.3913054 -58.95  0.002876927    1.370    0.270
        44  -9.2349      5.9077     35.7457   9.5931928108e+01   6.8877102521e+01    0.2484727    0.2422428  66.45  0.001684625    1.523    0.343
        45 -10.2725     52.5335     38.8263   7.4667683718e+01   6.3253727411e+01    0.3948263    0.3759008  44.90  0.002611633    1.423    0.297
        46 -10.5939     47.3453     33.8973   7.4853737596e+01   6.4793289479e+01    0.3752533    0.3249982 -20.09  0.001748874    1.188    0.158
        47  -9.0545      5.0196    230.4915   1.2286425861e+02   2.3932078803e+01    0.2291038    0.1159962  21.33  0.001214388    2.798    0.643
        48  -8.2741     31.6818    227.6242   1.1740716596e+02   2.1815975719e+01    0.1150919   0.08813305 -45.73 0.0004880229    1.807    0.447
        49  -8.6855     97.3032     36.9621   5.8277513363e+01   5.5235041979e+01    0.1873471    0.1729572   3.12 0.0006937694    1.093    0.085
        50  -8.8162     66.7691     35.9857   6.7878956639e+01   6.1352828382e+01    0.3186163     0.212361  65.02   0.00150493    2.644    0.622
        51  -9.4157     12.0594     34.0264   9.2064773434e+01   6.8747254352e+01    0.3482077    0.1566748 -46.25  0.001149785    1.841    0.457
        52  -9.5654    196.7404     34.8253   3.9071035543e+01   3.2262818502e+01    0.2772338    0.1706599  84.31  0.001443999    1.627    0.385
        53 -10.5463    213.5691    222.4251   7.7690311778e+01  -3.7468693205e+00    0.2625637    0.1995953  -2.22  0.001166234    1.177    0.150
        54  -9.5057     86.2225     31.4281   5.9446425282e+01   5.8269436321e+01    0.2492979    0.2167147  33.60 0.0009841711    1.046    0.044
        55  -8.4268     90.1418     28.1271   5.6987187995e+01   5.7870722469e+01    0.3489553    0.2342895  30.82  0.001879576    1.465    0.317
        56  -9.5769    225.9726     29.0118   3.4739547405e+01   2.6568767448e+01     0.401456    0.1975332  73.30   0.00209184    1.980    0.495
        57  -9.4886     66.6605     29.4250   6.5211706641e+01   6.2285026399e+01    0.2825983    0.1796985  -8.85  0.001320026    1.805    0.446
        58 -10.2230    145.6558     27.6762   4.4376188239e+01   4.5225570363e+01    0.5480655    0.3779703  47.09  0.002957905    1.451    0.311
        59 -11.1228    207.1366    216.9410   7.7964361591e+01  -1.9284291219e+00     0.393678    0.2714638 -29.13  0.002251275    1.372    0.271
        60 -10.3730    183.7122    218.1149   8.2873230825e+01   1.4413554000e+00    0.3543847    0.2226032 -64.66  0.001571476    2.893    0.654
        61  -9.6185    243.2354    201.9949   6.8618705334e+01  -4.6481575577e+00    0.2316077    0.2164646   4.82   0.00161342    1.344    0.256
        62  -8.9553    102.7399     26.1982   5.2830468437e+01   5.5385661162e+01    0.2806352    0.1561785  46.12   0.00101444    1.596    0.374
        63  -8.5890     37.2359    185.4073   1.1252797611e+02   3.0922621830e+01    0.1877254    0.1089919  45.41 0.0009532009    1.665    0.399
        64  -8.9870     20.0397    155.5041   1.1380152417e+02   4.0065192019e+01    0.1784001     0.132846  25.63    0.0010315    1.588    0.370
        65 -11.5420      9.9925    141.5020   1.1506878032e+02   4.4379717473e+01     0.723431    0.3309026 -69.10  0.003467798    1.743    0.426
        66  -9.3744     40.1397    140.9088   1.0614976788e+02   4.1873264821e+01    0.4906029    0.2778241  59.94  0.002184215    2.180    0.541
        67  -8.9727    111.5184     16.5197   4.7261992949e+01   5.4437666558e+01    0.2671557    0.1886249  37.82  0.001147937    1.376    0.273
        68  -8.8853     53.8748    143.6574   1.0247236911e+02   3.9591515225e+01    0.2614079    0.1787264 -56.05 0.0009193582    1.338    0.253
        69  -9.2927     94.3125     17.3286   5.1639957943e+01   5.8181689245e+01    0.3308638    0.2280037  82.04  0.001724532    2.038    0.509
        70 -12.9487    242.7211    128.0572   5.4007676240e+01   7.8829649443e+00     1.443877     1.185435 -38.57  0.008818841    1.023    0.022
        71  -9.5592     64.8687     16.3499   6.0204305790e+01   6.4202180927e+01    0.2705809    0.1517141  57.90  0.001349865    2.218    0.549
        72  -8.6099     18.4836    127.5154   1.1082462119e+02   4.7275048487e+01    0.2377883    0.1118811 -70.09  0.001086388    1.785    0.440
        73  -8.8693     14.9750    125.4846   1.1164143612e+02   4.8048395476e+01    0.2371512    0.1214963  28.66   0.00116583    2.206    0.547
        74  -9.1783     57.5469    125.5912   9.8034592666e+01   4.3776326722e+01    0.4729612    0.2221939 -28.79  0.001448767    4.316    0.768
        75  -8.2441     23.4807    126.0168   1.0904306802e+02   4.7254518681e+01    0.2068636   0.07478977 -49.46 0.0006622048    2.496    0.599
        76  -9.7663     10.5500    124.7165   1.1291869476e+02   4.8548876180e+01    0.2618807   0.09758486 -65.99  0.001129097    2.057    0.514
        77  -8.4391     74.2960    118.6502   9.1127725151e+01   4.3173569985e+01    0.1522448    0.1166956  81.29 0.0007033618    1.681    0.405
        78 -11.5604    242.3343    108.6676   4.9972639104e+01   1.1282850567e+01     0.435356    0.3296252 -41.86  0.002558187    1.115    0.103
        79  -9.4682     16.9025    104.4794   1.0781746842e+02   5.3130751748e+01    0.3924066    0.2035997 -57.17  0.001932261    1.538    0.350
        80  -9.4587     69.4138    103.9421   8.9193782682e+01   4.7505420052e+01    0.5328043    0.1892409 -37.43   0.00148548    4.444    0.775
        81  -9.7312     46.9834    100.3509   9.6207805670e+01   5.1347534513e+01    0.5001439    0.2151994 -59.66   0.00202388    2.142    0.533
        82  -9.4753     30.4433    101.7420   1.0248426229e+02   5.2711082674e+01    0.4169243    0.2310452 -28.28  0.001913553    2.160    0.537
        83 -12.1083     43.0365     81.2452   9.2901784071e+01   5.6257256171e+01     1.138428    0.9141119 -31.16  0.005855943    1.135    0.119
        84 -10.0943     25.4740     65.0620   9.5679018983e+01   6.1561614859e+01    0.5118656    0.2818146 -47.90  0.002174168    1.508    0.337
        85  -8.6637     69.6300     12.7253   5.6968288262e+01   6.3690152519e+01    0.1339726    0.0784495  27.73 0.0007004489    1.680    0.405
        86  -9.7502      2.4083     87.3831   1.1018027277e+02   5.8093923172e+01    0.7459401    0.2104494 -71.34  0.002748043    3.324    0.699
