#   1 NUMBER                 Running object number                                     
#   2 MAG_AUTO               Kron-like elliptical aperture magnitude                    [mag]
#   3 X_IMAGE                Object position along x                                    [pixel]
#   4 Y_IMAGE                Object position along y                                    [pixel]
#   5 X_WORLD                Barycenter position along world x axis                     [deg]
#   6 Y_WORLD                Barycenter position along world y axis                     [deg]
#   7 A_WORLD                Profile RMS along major axis (world units)                 [deg]
#   8 B_WORLD                Profile RMS along minor axis (world units)                 [deg]
#   9 THETA_WORLD            Position angle (CCW/world-x)                               [deg]
#  10 FWHM_WORLD             FWHM assuming a gaussian core                              [deg]
#  11 ELONGATION             A_IMAGE/B_IMAGE                                           
#  12 ELLIPTICITY            1 - B_IMAGE/A_IMAGE                                       
         1 -13.1526    190.0514     33.2505   5.6175578486e+01   3.3722728347e+01     1.731254     1.081516  16.56  0.007081144    2.306    0.566
         2  -9.2136     46.0000     11.9990   8.5668828200e+01   6.6952367799e+01    0.1980052    0.0565454 -39.27 0.0008059405    2.967    0.663
         3 -11.3168    216.2257      2.8999   4.3862859929e+01   3.0320325858e+01     0.605539    0.4285641  41.13  0.002413677    1.598    0.374
         4 -10.8927    211.1383      2.8557   4.4383786999e+01   3.1637168753e+01    0.4382365    0.3638668  71.58  0.001800471    1.133    0.118
         5  -8.5159     76.0643    232.9330   1.2090399860e+02   1.9398049962e+01    0.1348358    0.1256706  49.71  0.000544247    1.621    0.383
         6 -10.6611    140.1855    249.0144   1.1212736172e+02   7.6547100689e+00    0.3115472    0.2229316  80.21  0.001925332    1.617    0.382
         7 -19.4860     18.2071    142.8869   1.2377071158e+02   4.2996660881e+01     16.98033     2.444888 -73.65   0.05141764    6.352    0.843
         8  -9.3244     99.4883    196.9933   1.1343637417e+02   2.2271838754e+01    0.2137873    0.1567442   1.68  0.001043424    3.540    0.717
         9  -9.5737     81.4373    195.9665   1.1665227716e+02   2.5098020348e+01    0.2816963    0.2121798 -75.75  0.001391233    1.307    0.235
        10  -8.2802    153.2666    193.8452   1.0288890712e+02   1.3796306317e+01    0.2169153    0.1289692  75.07 0.0008913369    2.789    0.641
        11 -10.8184    177.5829    222.2708   1.0264444630e+02   5.1490865547e+00    0.3474253    0.1944568  47.09   0.00132586    1.445    0.308
        12  -9.2077     95.6512    188.2170   1.1312271763e+02   2.4491252095e+01     0.374447    0.1921658  74.28  0.001713825    2.688    0.628
        13  -9.6547     99.4277    180.5856   1.1143497093e+02   2.5380611898e+01    0.2195143    0.1823412  74.54 0.0005932701    1.009    0.009
        14  -8.5369    111.5705    217.7332   1.1358693610e+02   1.6798491488e+01     0.144168    0.1009653 -86.74 0.0005023262    1.518    0.341
        15 -10.3829     79.6709    168.2164   1.1381457311e+02   3.0774835190e+01    0.3700696    0.1748661  54.97 0.0008073531    2.075    0.518
        16 -10.3360     80.5148    175.9762   1.1459782226e+02   2.9089124505e+01    0.2345247    0.2196597 -74.18 0.0005939815    1.341    0.255
        17 -11.0398     83.9550    170.9295   1.1328669132e+02   2.9613793720e+01    0.4729252    0.3228342 -37.15  0.002190866    2.420    0.587
        18  -7.9862    165.2213    171.9494   9.6934971184e+01   1.5319821494e+01    0.1626859    0.1134134 -48.14 0.0004303725    1.587    0.370
        19  -9.4541    193.8600    166.6929   9.0351126401e+01   1.0489567294e+01    0.2750538    0.2519084  42.55  0.000781177    1.056    0.053
        20  -8.7243    204.1958    164.5378   8.7962412842e+01   8.7390893509e+00    0.2658399    0.1785142 -55.26  0.001122575    1.986    0.497
        21  -8.1741    159.9841    164.4774   9.6618187844e+01   1.7694605779e+01    0.1911134    0.1137384  67.05 0.0006707108    2.313    0.568
        22 -10.9155     96.7836    154.4912   1.0827619284e+02   3.1078080960e+01     0.574834    0.3967891 -33.70  0.002127854    2.255    0.556
        23  -7.7463    139.3409    167.6621   1.0141142005e+02   2.1064440054e+01    0.1429895   0.09994021  78.45 -0.0001043041    1.765    0.433
        24  -8.3553    104.3688    223.3013   1.1540193795e+02   1.6975741661e+01    0.1011736   0.08718496  25.41  0.000703278    1.741    0.426
        25  -8.4906    113.4237    152.1964   1.0426479112e+02   2.8817969588e+01    0.1849245    0.1228857 -71.47 0.0006068785    1.607    0.378
        26  -9.6846    134.2319    146.3471   9.8621895640e+01   2.6240489859e+01     0.684532    0.1906896 -54.42  0.002050353    4.356    0.770
        27 -10.4513    108.0375    140.0286   1.0331734927e+02   3.2306183419e+01    0.4389326    0.2977568 -34.11  0.002145773    2.050    0.512
        28 -10.7247     96.3040    139.7467   1.0596415227e+02   3.4295854504e+01    0.2650539    0.2380512 -62.93 0.0005575035    1.161    0.138
        29  -8.9750     94.3064    250.2967   1.1943013867e+02   1.4242740832e+01    0.1798442    0.1092598  54.66 0.0005492404    1.204    0.169
        30  -9.0480    108.0256    203.8071   1.1265776076e+02   1.9730858141e+01    0.1833194    0.1316253  68.61 0.0004169019    1.224    0.183
        31  -9.4460    106.0733    130.5182   1.0197916576e+02   3.4688454969e+01    0.3650269    0.2571229 -58.26  0.001877122    1.353    0.261
        32 -10.1124    115.2032    130.1855   9.9753030687e+01   3.3163014477e+01    0.3205688     0.233501 -44.81 0.0008841855    1.451    0.311
        33  -9.5470    102.7445    126.2610   1.0193860142e+02   3.6176472198e+01    0.3022807    0.2246723 -37.11  0.001588195    1.612    0.379
        34  -8.7621    161.3139    127.6666   8.8677604395e+01   2.4456711157e+01    0.1524258    0.1178276 -86.44 1.924667e-05    1.684    0.406
        35  -9.0051     87.9214    202.4775   1.1615191481e+02   2.2981130225e+01    0.2457546    0.1428393 -75.60  0.001464565    1.754    0.430
        36  -8.8602    110.1995    119.1262   9.8643082065e+01   3.6444898183e+01    0.1996641    0.1864949 -43.91 0.0003860058    1.156    0.135
        37  -8.9835     95.0061    200.3832   1.1464404129e+02   2.2326741159e+01    0.2568825    0.1485665  89.71  0.001018003    2.012    0.503
        38  -8.3359    168.1131    112.7264   8.3579243597e+01   2.5859070982e+01    0.2583318    0.1691722 -82.31 0.0009455433    2.827    0.646
        39 -10.1742    120.5343    111.1585   9.4289865250e+01   3.6261249769e+01    0.3693145    0.1661451  48.77  0.001443966    2.345    0.574
        40  -8.6587    205.6395    110.2631   7.5315271099e+01   1.7551236499e+01    0.2679861    0.1767992  32.65 0.0008123905    1.702    0.413
        41 -10.4397     61.4302    103.8550   1.0807164895e+02   4.7130680669e+01    0.3268898    0.2250961  31.90  0.001883011    1.761    0.432
        42  -9.0997    191.6901    192.3396   9.5475030039e+01   6.8933993301e+00     0.239829    0.2215223 -64.95  0.001557148    1.330    0.248
        43 -10.2569    165.9430     66.3599   7.1022072991e+01   3.4964483707e+01    0.3574103    0.2967036 -85.96  0.001027348    1.454    0.312
        44 -11.3797    175.0750     47.9203   6.3394380628e+01   3.5596719190e+01    0.5482407    0.4544002 -36.00 0.0009293568    1.214    0.176
        45  -8.4888    105.3683    246.3136   1.1738615817e+02   1.3262718817e+01   0.09599276   0.07910807  30.58 0.0007037005    1.773    0.436
        46  -8.2788    141.1904    198.0982   1.0578530856e+02   1.5227570396e+01    0.1685397    0.1312839  72.99  0.000439315    1.300    0.231
        47  -9.7887    124.4973    242.9903   1.1403469254e+02   1.0906951437e+01     0.212921    0.1055214 -68.00  0.001216295    2.708    0.631
