#   1 NUMBER                 Running object number                                     
#   2 MAG_AUTO               Kron-like elliptical aperture magnitude                    [mag]
#   3 X_IMAGE                Object position along x                                    [pixel]
#   4 Y_IMAGE                Object position along y                                    [pixel]
#   5 X_WORLD                Barycenter position along world x axis                     [deg]
#   6 Y_WORLD                Barycenter position along world y axis                     [deg]
#   7 A_WORLD                Profile RMS along major axis (world units)                 [deg]
#   8 B_WORLD                Profile RMS along minor axis (world units)                 [deg]
#   9 THETA_WORLD            Position angle (CCW/world-x)                               [deg]
#  10 FWHM_WORLD             FWHM assuming a gaussian core                              [deg]
#  11 ELONGATION             A_IMAGE/B_IMAGE                                           
#  12 ELLIPTICITY            1 - B_IMAGE/A_IMAGE                                       
         1 -14.5074    195.8464     15.9347   6.9286855301e+01   3.3220688092e+01     2.333619     1.652165  35.74  0.008485688    1.696    0.410
         2 -14.1072    201.1773      8.5916   6.6615257804e+01   3.2553978976e+01     3.263654     1.635069  24.80   0.00151598    3.518    0.716
         3 -10.6992     32.8120      8.1693   1.1157773986e+02   7.4182966761e+01    0.2813477   0.09406333 -50.98  0.001028027    3.484    0.713
         4 -10.4918    162.6239    249.2872   1.2602291638e+02   6.5253885599e+00    0.2150618   0.09699847  42.27 0.0009877004    1.716    0.417
         5 -12.0705    140.4750    249.5837   1.3000595639e+02   9.5085404257e+00    0.4542296    0.1763027  38.46  0.002533245    1.773    0.436
         6 -11.7236    125.3765    244.1499   1.3224949017e+02   1.2254970304e+01    0.2748372    0.1842806  68.05  0.001840565    2.001    0.500
         7 -11.7323    107.6614    248.7075   1.3592833369e+02   1.4011905913e+01    0.4067239    0.1679477  47.05  0.001499349    1.847    0.458
         8 -12.1676     99.5479    248.8457   1.3743821370e+02   1.5045059638e+01    0.4295021    0.2707033  30.68  0.002980592    1.421    0.296
         9 -10.3198     73.8393    250.1790   1.4226599252e+02   1.8048167765e+01    0.2421515    0.1445014  36.54   0.00125244    1.312    0.238
        10 -12.6212     66.4186    243.2373   1.4323264118e+02   1.9952407220e+01    0.5766233     0.312248  23.82  0.001369422    2.280    0.561
        11 -12.5826     79.7719    247.0238   1.4097560354e+02   1.7787353571e+01    0.8684137     0.204845  47.44  0.003981628    2.955    0.662
        12 -11.9673     81.6924    242.6474   1.4032643675e+02   1.8191088944e+01    0.4610093    0.1939648  59.20  0.002484126    2.532    0.605
        13 -11.1709     67.1249    250.0492   1.4348733334e+02   1.8859770415e+01    0.3017603    0.1852978  46.75  0.001154675    1.097    0.089
        14 -10.3588     63.4653    250.5391   1.4418135756e+02   1.9212594167e+01    0.2628629    0.1022469  44.35  0.000603045    1.655    0.396
        15 -13.8787     32.4765    246.1609   1.4959937453e+02   2.3234225510e+01      1.71525    0.4504552  35.95  0.009145739    2.473    0.596
        16 -16.2551      8.9212    240.5804   1.5364603048e+02   2.6357963436e+01     15.63568      1.52195 -82.84   0.03621313   10.353    0.903
        17  -9.4833    186.2928    238.6851   1.2064209264e+02   4.4406146695e+00   0.09941968   0.07393842  47.03 -0.000275831    1.597    0.374
        18 -11.6637     95.1627    240.1045   1.3758907344e+02   1.6851903744e+01     0.306772    0.1819959 -49.01  0.001995576    2.500    0.600
        19  -9.2377    180.2820    232.6439   1.2093802257e+02   5.9541873918e+00    0.1013758   0.07813056  51.81 0.0007016428    1.664    0.399
        20  -9.0702    152.7013    212.9483   1.2355376322e+02   1.2545482436e+01    0.1579539    0.1281311  34.54 0.0003335554    1.069    0.065
        21 -10.7848     36.3429    230.7240   1.4829830078e+02   2.5279476820e+01    0.1796682    0.1248178  71.32 0.0008053411    1.292    0.226
        22 -10.8225     33.5144    228.5224   1.4874956859e+02   2.5935202278e+01    0.1876549    0.1181144  61.39  0.001181153    1.222    0.182
        23 -10.7456    193.3897    195.7294   1.1329521988e+02   8.4387977397e+00    0.6524461    0.3801924 -62.09  0.002333863    6.764    0.852
        24 -11.9972     71.9673    195.9531   1.3874459655e+02   2.7216088470e+01    0.4973292    0.3552318  29.61  0.001806319    1.451    0.311
        25 -11.8238     76.9476    188.7329   1.3695397443e+02   2.7914947527e+01    0.2689338      0.23849 -36.59 0.0008002215    1.565    0.361
        26  -9.9260    120.1146    188.3837   1.2711843730e+02   2.1554945725e+01    0.3474725    0.1862917  21.30  0.001311581    2.768    0.639
        27 -11.1922     85.1764    176.5855   1.3373722957e+02   2.9125099388e+01    0.2390939    0.2043016  49.78 0.0004036892    1.070    0.066
        28 -13.3892     73.0350    174.1075   1.3641024707e+02   3.1328674749e+01    0.4233474    0.2812834 -41.33  0.001649987    2.195    0.544
        29 -12.0083     50.2022    130.0468   1.3759606619e+02   4.3988527042e+01    0.4937663    0.2565656  53.64  0.001574506    1.855    0.461
        30 -12.9200     90.6940    167.2448   1.3124938303e+02   3.0181143991e+01     2.473718    0.5204235  46.37  0.002341786    4.406    0.773
        31 -13.0711     57.1515    129.2739   1.3539212100e+02   4.3318906658e+01     1.790558     0.583903 -79.99   0.00491949    5.920    0.831
        32 -10.7869    138.2402    172.5445   1.2075701998e+02   2.1293235446e+01    0.3508692    0.1165271  37.96  0.001310255    2.660    0.624
        33  -8.7945    193.6693    157.6681   1.0652145714e+02   1.3594042510e+01    0.1404178   0.09334662  12.16 0.0007052027    1.722    0.419
        34 -10.3964    103.0093    151.0129   1.2577100125e+02   3.1559495336e+01    0.3017843    0.2686751  24.27 0.0008315545    1.248    0.199
        35  -9.7026    105.2158    147.1854   1.2456762229e+02   3.1985877845e+01    0.2856174    0.2103098 -32.68  0.001227213    1.814    0.449
        36 -12.1966     91.9399    150.5993   1.2860516401e+02   3.3464352767e+01    0.2685705    0.2482163  15.35 0.0006479419    1.289    0.224
        37 -12.0142     47.1626    149.9946   1.4065104781e+02   3.9757020218e+01    0.3500013    0.2703824  75.15  0.002133516    1.146    0.127
        38  -9.9844    134.3075    147.8419   1.1737364457e+02   2.6559416778e+01    0.4572693    0.1350237 -52.71  0.001433642    4.327    0.769
        39 -11.2614     54.7124    143.5502   1.3787861458e+02   4.0316869839e+01    0.2325728    0.1684838  18.56  0.001285588    1.707    0.414
        40  -8.6516    192.4031    144.4248   1.0409724879e+02   1.5798808452e+01    0.1339828    0.1201359  19.05 0.0001263066    1.036    0.035
        41 -14.0642     10.9121    207.0563   1.5245647189e+02   3.1824353855e+01     1.079716    0.7370589  35.80  0.002646186    1.399    0.285
        42 -10.0048    112.7321    136.4030   1.2065411959e+02   3.2922445554e+01    0.3138615    0.2441829 -20.83  0.001106756    1.760    0.432
        43 -10.7612    100.3930    133.7547   1.2350391783e+02   3.5711756127e+01    0.2678453    0.2368452 -20.37 0.0004296633    1.416    0.294
        44 -11.0358     70.4890    134.9851   1.3223547163e+02   4.0191805032e+01      0.43376     0.147216  41.96  0.001663255    2.561    0.609
        45 -13.3146     67.2682    144.0967   1.3441467540e+02   3.8563645148e+01     1.210101    0.6363035  73.62  0.005194573    2.503    0.601
        46 -12.6264     42.2766    127.9247   1.3975580487e+02   4.5386498693e+01    0.5320287    0.3062026  80.24  0.002656681    1.808    0.447
        47 -12.9844     49.2766    229.7631   1.4576506453e+02   2.4039677715e+01    0.3513392    0.3013783 -89.71 0.0009230018    1.425    0.298
        48  -9.0780    118.1680    128.8357   1.1770383876e+02   3.3497080871e+01     0.199958    0.1757686  -0.82  0.001066066    1.382    0.276
        49 -11.1151    168.2710    113.4884   1.0200904347e+02   2.5904361294e+01     0.386014    0.3158876 -79.57  0.001083112    1.631    0.387
        50  -9.4382    108.9142    123.7564   1.1917097413e+02   3.6355186273e+01     0.205866    0.1876926  30.28 0.0003800539    1.158    0.136
        51  -8.9856    203.6638    111.6516   9.4674853568e+01   1.8464832981e+01    0.1511389     0.103101  14.05 0.0007047451    1.781    0.438
        52 -15.4819     57.9908    216.8586   1.4329363282e+02   2.5204066257e+01     6.705492    0.6394249  38.94   0.02496605    3.907    0.744
        53  -9.3144    154.6565     76.2897   9.4845487068e+01   3.5738330881e+01    0.1586367     0.122624 -80.64 0.0004003531    1.652    0.395
        54  -9.8468    229.8041    230.0809   1.1224549687e+02  -5.7287592200e-01     0.151208    0.1191559  21.38 0.0007482726    1.280    0.219
        55 -11.5894    173.6632    222.1392   1.2077762305e+02   8.1618367282e+00    0.3962508    0.1358098  36.91   0.00187529    2.221    0.550
