#   1 NUMBER                 Running object number                                     
#   2 MAG_AUTO               Kron-like elliptical aperture magnitude                    [mag]
#   3 X_IMAGE                Object position along x                                    [pixel]
#   4 Y_IMAGE                Object position along y                                    [pixel]
#   5 X_WORLD                Barycenter position along world x axis                     [deg]
#   6 Y_WORLD                Barycenter position along world y axis                     [deg]
#   7 A_WORLD                Profile RMS along major axis (world units)                 [deg]
#   8 B_WORLD                Profile RMS along minor axis (world units)                 [deg]
#   9 THETA_WORLD            Position angle (CCW/world-x)                               [deg]
#  10 FWHM_WORLD             FWHM assuming a gaussian core                              [deg]
#  11 ELONGATION             A_IMAGE/B_IMAGE                                           
#  12 ELLIPTICITY            1 - B_IMAGE/A_IMAGE                                       
         1 -13.7462     68.0612    144.0269   1.0479504533e+02   3.7347146498e+01     3.086406     1.465163 -88.22  0.002234184    5.461    0.817
         2 -12.2791    197.6895     46.8019   4.7989262730e+01   2.9928199265e+01     1.161076    0.7636865 -49.07  0.005790696    1.468    0.319
         3 -14.1454    216.4537     28.9403   4.1109219240e+01   2.7817331911e+01     1.695725     1.125442  32.26  0.008434547    2.284    0.562
         4 -13.7287    234.0155     12.0622   3.5564145421e+01   2.5827767669e+01    0.8043302    0.6973181 -46.91  0.002635117    1.207    0.171
         5 -10.7290      2.3569      3.1345   9.0194413067e+01   7.4017699795e+01    0.3407436   0.09883966 -40.13  0.001655962    2.617    0.618
         6  -9.6579    121.4723      2.6070   4.6355206948e+01   5.3601374101e+01    0.2977462    0.1737392 -71.87  0.001328515    2.706    0.630
         7 -12.3031     48.5905    224.6510   1.1889176169e+02   2.1483748797e+01    0.3006221    0.2251161  63.31 0.0008999221    1.081    0.075
         8 -15.0324     85.8094    246.7372   1.1375517506e+02   1.2405989839e+01     7.904928     2.670614  29.39   0.02483879    6.183    0.838
         9 -14.8191      7.2515    239.3354   1.2720034881e+02   2.3149629191e+01      1.97808     1.426011 -78.47   0.01529709    1.438    0.305
        10 -12.8596     18.4781    218.9784   1.2415822468e+02   2.5983432491e+01    0.4861636    0.3653628  78.40  0.001462344    1.039    0.037
        11 -14.3903      9.5600    207.4238   1.2512815692e+02   2.9222724770e+01    0.9608566    0.8972647  63.30  0.002383001    1.410    0.291
        12 -13.0945     28.3275    209.5861   1.2166556882e+02   2.6893923090e+01    0.5196653    0.3620956 -48.35  0.001553934    2.020    0.505
        13 -15.5064     37.3661    196.7850   1.1881402851e+02   2.8660395567e+01     4.756625     1.992397  77.54   0.01829136    3.237    0.691
        14 -10.8579    192.8662    192.8660   8.4295086858e+01   4.6823301745e+00    0.6486682    0.4190487 -54.48   0.00313862    2.035    0.509
        15 -11.8329     57.4830    181.1132   1.1277321665e+02   2.9809909297e+01    0.4053869    0.2742811 -39.54  0.001474225    2.047    0.512
        16 -11.8419     63.2750    175.2788   1.1069098916e+02   3.0422650564e+01    0.3239797    0.2619737 -49.72 0.0007243085    1.413    0.292
        17 -13.2770     80.8781    158.8031   1.0390150311e+02   3.1885420950e+01     2.383497     1.001364  58.54   0.00237269    4.057    0.753
        18 -12.9840     40.2800    234.8317   1.2119764993e+02   2.0474087929e+01    0.9743362    0.3853556  75.00  0.002139069    3.282    0.695
        19 -11.4084     73.4402    165.0731   1.0677891161e+02   3.1458525486e+01    0.3428131    0.2607853 -81.94 0.0004795132    1.260    0.206
        20 -13.4200     60.3147    161.7012   1.0958178325e+02   3.4050597916e+01    0.5200133    0.3159044 -45.10  0.001591963    1.923    0.480
        21 -11.3611     32.7867    155.9329   1.1574483880e+02   3.8602726200e+01    0.2877656      0.21581 -40.77  0.001696462    1.650    0.394
        22 -10.5104    133.8716    145.3619   8.7674096870e+01   2.5755595913e+01    0.9636313    0.2135996 -53.47   0.00206923    6.652    0.850
        23  -9.2754     38.3005    147.3133   1.1326879483e+02   4.0128402735e+01     0.130691   0.09024201 -45.69 0.0002988748    1.609    0.379
        24  -8.9604    137.8168    146.2496   8.6895521725e+01   2.4765803680e+01    0.2493758    0.1664917  88.72 0.0009292067    2.662    0.624
        25 -10.9700     97.1585    142.8717   9.6679814715e+01   3.3158055627e+01    0.6279255    0.4072474 -23.80   0.00256536    2.442    0.591
        26 -11.9935     84.0306    142.6640   1.0019430159e+02   3.5343769276e+01    0.3137718    0.2564183 -51.42 0.0003820581    1.198    0.165
        27 -11.8576     30.0680    143.4495   1.1493214234e+02   4.1891165504e+01    0.3888158     0.252762  29.68  0.002188317    1.819    0.450
        28 -11.4712     74.8838    135.8271   1.0141676590e+02   3.8407698483e+01    0.4888661    0.2859046  62.48  0.001862519    2.294    0.564
        29  -9.4600    158.9347    134.9664   7.9196558973e+01   2.2869941101e+01    0.2458396     0.194199 -84.89 0.0008123649    1.695    0.410
        30 -10.7568    107.0517    131.7319   9.1599999864e+01   3.4102522509e+01    0.4361269    0.3760498  47.83  0.001482632    1.206    0.171
        31 -11.2830     19.4441    130.9293   1.1621221028e+02   4.5867648690e+01     0.277749    0.1723746  39.80  0.000947393    1.819    0.450
        32 -10.6780     95.2712    128.2868   9.4092667676e+01   3.7021899980e+01    0.3291645    0.2639437 -26.19 0.0008852085    1.461    0.316
        33 -11.4515     66.6179    127.3513   1.0214029273e+02   4.1671389516e+01    0.4260993    0.2581126 -67.84  0.001986553    1.607    0.378
        34  -9.8489    114.8880    125.6870   8.8047488138e+01   3.4064226110e+01    0.2464206    0.1987849  13.83  0.001172512    1.516    0.340
        35  -9.6930    105.8290    120.1205   8.9198646513e+01   3.7094539746e+01    0.2211107    0.2073711 -33.32 0.0003911395    1.083    0.077
        36  -9.5339    168.1623    113.2504   7.1605166263e+01   2.5402189584e+01    0.2963787    0.1993595 -65.81   0.00120296    2.013    0.503
        37  -9.9563    205.1864    110.5734   6.3474342531e+01   1.7568935626e+01    0.3472374    0.2479531  36.24  0.001363767    1.594    0.373
        38  -9.5732     35.7307    111.6077   1.0850108165e+02   4.9146372132e+01    0.1684507     0.120333  44.14 0.0005177543    1.618    0.382
        39 -10.0153    137.8352    170.8412   9.2013086198e+01   1.9272841218e+01    0.2058377     0.176316  74.74 0.0007901955    1.307    0.235
        40  -9.5819    134.4774    102.9768   7.6873935922e+01   3.5150757969e+01    0.2449133    0.1520787 -42.75 0.0006078761    1.564    0.361
        41 -12.0825    182.1718    216.1222   9.0623110077e+01   2.5675625606e+00    0.5252717    0.2799923  25.27  0.002417112    2.094    0.522
        42  -9.3097     24.9024     82.7141   1.0639579775e+02   5.6959734192e+01    0.1635401    0.1491064 -49.21 0.0003147712    1.123    0.109
        43  -9.7866    161.4534     81.5203   6.4263572577e+01   3.3187913090e+01    0.1526428    0.1496416 -35.39 9.993781e-05    1.015    0.015
        44  -9.4760     31.3396     62.2480   9.8710503286e+01   6.0929332237e+01    0.2973379    0.1604569 -17.35  0.001383841    2.475    0.596
        45 -10.6699     13.4008     60.2505   1.0550672195e+02   6.2780905388e+01    0.2166569    0.1760672 -55.37  0.000457041    1.134    0.118
        46 -13.1618     31.3845    247.7061   1.2357499340e+02   1.9078952293e+01    0.7740123     0.710714  51.51  0.006089077    1.484    0.326
        47  -9.0867     33.1687     55.1750   9.5792924989e+01   6.2215984357e+01    0.1568599    0.1459859 -62.62 0.0003877775    1.332    0.249
        48 -11.7956     53.8085    240.0557   1.1910970243e+02   1.7854311972e+01    0.4392802    0.3140855 -42.37  0.002196352    2.299    0.565
        49 -11.7494    205.2971     37.3492   4.4498813796e+01   2.9377642933e+01    0.5138366     0.363699  38.43  0.001734007    1.802    0.445
        50 -15.2993      4.8372    180.1357   1.2433397335e+02   3.5523736343e+01     8.744781    0.6734462 -75.96   0.01176192   10.091    0.901
        51  -8.5870     94.6717     46.3362   6.9716182787e+01   5.4434337712e+01    0.1368353    0.1137102 -73.08 0.0007051906    1.726    0.421
        52  -9.0069     25.1540     44.1721   9.5600676646e+01   6.5146557517e+01     0.149278    0.1399638 -45.47  0.000469735    1.321    0.243
        53 -10.9919    133.3323     40.3627   5.7378332257e+01   4.6688073672e+01    0.3913296    0.2744403 -68.97  0.000634155    1.972    0.493
        54 -10.7940     62.2496    236.0094   1.1722514923e+02   1.7551647007e+01    0.2561915    0.1710947  85.73 0.0008414932    1.426    0.299
        55  -9.9978    189.6202     15.5062   4.0601948479e+01   3.5766719663e+01    0.2087858    0.1254044 -29.13 0.0007483906    1.771    0.435
        56 -13.5123     88.2053    228.4021   1.1147596670e+02   1.5466734965e+01     1.429316    0.7685136  58.82  0.002774334    1.832    0.454
