#   1 NUMBER                 Running object number                                     
#   2 MAG_AUTO               Kron-like elliptical aperture magnitude                    [mag]
#   3 X_IMAGE                Object position along x                                    [pixel]
#   4 Y_IMAGE                Object position along y                                    [pixel]
#   5 X_WORLD                Barycenter position along world x axis                     [deg]
#   6 Y_WORLD                Barycenter position along world y axis                     [deg]
#   7 A_WORLD                Profile RMS along major axis (world units)                 [deg]
#   8 B_WORLD                Profile RMS along minor axis (world units)                 [deg]
#   9 THETA_WORLD            Position angle (CCW/world-x)                               [deg]
#  10 FWHM_WORLD             FWHM assuming a gaussian core                              [deg]
#  11 ELONGATION             A_IMAGE/B_IMAGE                                           
#  12 ELLIPTICITY            1 - B_IMAGE/A_IMAGE                                       
         1 -10.3404    249.6304     82.5224   3.0510351998e+01   1.5242080601e+01    0.5620537    0.1058614 -30.81  0.001744558    4.942    0.798
         2  -8.6496     55.7620      9.9114   4.0382660703e+01   7.0674191396e+01     0.239711    0.1789452 -52.17 0.0006512923    1.514    0.340
         3  -8.1092     90.8122      8.7857   2.8915253320e+01   6.2006671676e+01    0.2017294    0.1559416 -65.48 0.0004992565    1.336    0.252
         4  -7.6561     12.7079      8.3656   6.9577880109e+01   7.8872424873e+01    0.1216241    0.1006827  77.95 0.0006911328    1.710    0.415
         5  -7.2402    101.3599      7.6941   2.6285726831e+01   5.9301150826e+01    0.1565961   0.09723309 -64.46 0.0005675467    1.730    0.422
         6  -8.0429     70.4205      6.1776   3.2638672608e+01   6.7556070600e+01    0.1972037    0.1208008 -40.05  0.000940794    1.698    0.411
         7  -8.6683     33.4971      4.9990   4.8617003160e+01   7.6106380518e+01    0.3287636    0.1902276 -54.96  0.001481325    2.538    0.606
         8  -8.4329     79.3159      3.7180   2.8756879311e+01   6.5524001807e+01     0.256587    0.1486079 -36.15  0.001022874    1.759    0.432
         9  -7.7842     44.7268      3.3365   4.0644231513e+01   7.3979812012e+01    0.1304009    0.1012206 -61.66 0.0002500831    1.603    0.376
        10  -8.0858     62.7096      1.5034   3.1987140025e+01   6.9948624481e+01    0.1810285    0.1277293  84.09 0.0009235719    1.548    0.354
        11  -8.7763    131.9921    247.3604   7.8902422141e+01   7.8610152212e+00    0.1761813    0.1341041  48.12 0.0006069354    1.495    0.331
        12  -9.1184    247.8652    234.1621   5.7676434406e+01  -2.9515073255e+00    0.1777879    0.1439777 -37.23  0.001475668    2.162    0.537
        13  -9.4931    246.6416    228.4696   5.7053876892e+01  -2.2718146594e+00    0.3673209    0.1502496 -28.28  0.002065032    2.114    0.527
        14  -8.7192    248.9890    248.8296   5.9490092117e+01  -4.4455478191e+00    0.2502304    0.1139667 -19.02   0.00175442    1.930    0.482
        15  -9.4860    248.7466    242.0581   5.8627509072e+01  -3.7921833255e+00    0.2738647    0.1409676 -31.86  0.001343813    1.930    0.482
        16  -9.4216    211.3550    247.0237   6.4838952318e+01  -7.8772634625e-01    0.2963303     0.193308 -52.14  0.001631075    3.372    0.703
        17  -9.0856    103.7862    246.5089   8.4432587107e+01   1.1286613568e+01    0.3183254    0.1965036 -86.99  0.001862379    2.746    0.636
        18  -9.1579    243.1016    245.9694   5.9942416384e+01  -3.6644738553e+00    0.2775616     0.116365 -22.30  0.001813535    2.197    0.545
        19 -10.0012    223.8973    243.7328   6.2469298483e+01  -1.6684704328e+00    0.3571362    0.1818426 -41.43  0.002315266    2.669    0.625
        20  -9.2434    147.0384    245.8013   7.5855032398e+01   6.3273149688e+00    0.2529754    0.1627797  54.31   0.00143524    2.352    0.575
        21  -9.2489    120.0398    245.0353   8.1018464210e+01   9.5987523640e+00    0.2651317    0.1899613  76.83  0.001697121    2.261    0.558
        22  -9.5272     78.3590    243.3683   8.9448404711e+01   1.4729761765e+01    0.4084871    0.1348159  52.31  0.001680767    3.621    0.724
        23  -8.5118     67.5129    244.5262   9.1817043318e+01   1.5755117130e+01    0.1879074    0.1140961 -76.51   0.00100685    2.087    0.521
        24  -8.5372    139.4309    244.2682   7.7136315933e+01   7.4238803636e+00    0.1249318    0.1106445 -80.73 0.0009433853    1.711    0.416
        25  -8.0645     10.0000    243.9836   1.0389371665e+02   2.1625620886e+01     0.152147   0.05748499 -86.69 0.0007989234    2.918    0.657
        26  -8.7270    201.8825    242.7210   6.5805092545e+01   6.4219971076e-01    0.1709832    0.1328091 -24.67 0.0007374412    1.452    0.311
        27  -8.7112    169.1212    243.0886   7.1470210518e+01   4.1549414893e+00    0.1890531    0.1307381  32.44 0.0007398287    1.354    0.261
        28  -7.4219     34.3483    243.7108   9.8792705661e+01   1.9389475311e+01    0.1256116   0.05596178  49.15 0.0004551356    1.662    0.398
        29  -8.9147    194.4438    240.1200   6.6699101580e+01   1.7246059646e+00    0.2471296     0.186708 -57.80  0.001494411    2.638    0.621
        30  -9.2675    183.1226    240.1086   6.8628197902e+01   2.9595169401e+00    0.3288009    0.2177397  52.37  0.001989823    2.860    0.650
        31  -9.4933    160.1159    240.2133   7.2765025126e+01   5.5574370752e+00    0.2495452    0.2129608  76.09  0.001360051    2.068    0.517
        32  -8.2531    153.6577    242.1310   7.4193270645e+01   6.0526981015e+00    0.1462195    0.1326592  42.01 0.0007085407    1.442    0.307
        33  -8.0981     88.3023    242.1398   8.7261829571e+01   1.3786348193e+01    0.1406518    0.1016894  86.33 0.0006242922    1.823    0.451
        34  -9.3701    146.7663    239.3486   7.5176061068e+01   7.2433942650e+00    0.3022136    0.2237375 -69.10  0.001517089    2.251    0.556
        35  -8.8720    135.4982    238.5086   7.7269140120e+01   8.7112265104e+00     0.180644    0.1283965  49.26 0.0005662341    1.631    0.387
        36  -8.3193    129.4372    238.9097   7.8512990322e+01   9.3829793015e+00     0.134861   0.09592278  74.01 0.0008052196    2.427    0.588
        37  -8.9303    231.0871    236.4997   6.0419446017e+01  -1.6148294496e+00    0.2622012    0.1913892 -44.92   0.00158816    2.458    0.593
        38  -8.9177    217.3077    235.6853   6.2408602008e+01  -1.6479323608e-01    0.2030793    0.1831665 -26.38   0.00115847    1.757    0.431
        39  -9.4657    213.6935    231.6639   6.2427837672e+01   6.5330395294e-01     0.216206    0.2044657  39.05  0.001327083    1.938    0.484
        40  -8.4194    209.1945    238.2255   6.4032900649e+01   3.8659319841e-01    0.1259233    0.1077198   6.65 0.0006330964    1.390    0.281
        41  -8.4395     25.6523    236.3921   1.0036851405e+02   2.1558069202e+01    0.2822594   0.05553423  60.04 0.0009102634    5.731    0.825
        42  -8.1304     13.5161    237.5247   1.0300303730e+02   2.2480422636e+01    0.1170695   0.08097991  48.06  0.000156527    1.024    0.024
        43  -8.9997    203.3429    234.7270   6.4512770793e+01   1.3978142002e+00    0.2134859    0.1830084 -57.61  0.001123474    2.273    0.560
        44  -9.8102    175.6668    233.0994   6.9044038258e+01   4.6827697041e+00    0.3590412    0.2114378 -53.49  0.002150429    2.699    0.630
        45  -7.9270     58.0166    237.0000   9.3372410269e+01   1.8105148356e+01    0.1990637   0.05301968  28.79 0.0008026218    2.944    0.660
        46  -8.1985    170.3759    235.3212   7.0282495659e+01   5.0083376265e+00    0.1249482    0.1040371 -44.19 0.0006093291    1.629    0.386
        47  -9.1215    108.6899    234.2093   8.2266357806e+01   1.2637230832e+01    0.2982869    0.1701264  54.65   0.00101547    2.090    0.521
        48  -8.8660     78.8378    234.6790   8.8684270630e+01   1.6147857589e+01    0.2209399    0.1223798  61.41  0.001217332    2.076    0.518
        49  -9.2812    130.7019    232.7606   7.7583146251e+01   1.0150935959e+01     0.320059    0.1967318  20.69 0.0009778771    1.455    0.313
        50  -8.3107    123.0225    234.0085   7.9279463059e+01   1.0907006315e+01     0.179801    0.1228369  53.71 0.0007934284    1.730    0.422
        51  -8.1480     99.6563    234.2915   8.4179514470e+01   1.3726107501e+01    0.1875706    0.1115599  53.36  0.001084588    1.791    0.442
        52  -8.1244      8.2816    234.3580   1.0404276214e+02   2.3531751341e+01   0.09472205   0.08466278 -38.51 0.0007015904    1.667    0.400
        53  -8.0071    163.9986    233.4860   7.1220049035e+01   6.0002444116e+00    0.1584762   0.08126736  10.91 0.0008085155    2.414    0.586
        54  -8.6401    242.7394    236.0129   5.8655508607e+01  -2.6643998955e+00    0.2536837    0.1079834  -0.31  0.001205352    4.029    0.752
        55  -8.8787    140.1568    230.0724   7.5379234098e+01   9.3841952290e+00    0.2136609    0.1304175  42.63 0.0007649887    1.624    0.384
        56  -8.7312     93.1339    232.1305   8.5376165169e+01   1.4880443015e+01    0.2765434    0.1649882  66.18  0.001527009    2.242    0.554
        57  -9.1499     68.6236    232.2976   9.0736834170e+01   1.7752383920e+01    0.4099246    0.1481336  52.85  0.001803629    2.876    0.652
        58  -8.6711     37.2801    232.6277   9.7676989966e+01   2.1102151920e+01    0.3411161   0.06501931  52.97  0.001180192    4.543    0.780
        59  -8.0888    194.2334    232.2492   6.5696529368e+01   2.6820391665e+00     0.128864    0.1120639  14.48  0.000448774    1.355    0.262
        60  -9.3534    186.2832    230.3783   6.6809921442e+01   3.8075621236e+00    0.2331919    0.1913715 -58.30 0.0009507562    2.113    0.527
        61  -8.5757    157.9405    231.9400   7.2159936859e+01   6.9361791419e+00    0.1617704    0.1267746  49.85 0.0006479601    1.688    0.408
        62  -8.9268    235.9789    230.6515   5.8890581157e+01  -1.4807781203e+00    0.1675438    0.1174841 -21.60 0.0003943344    1.353    0.261
        63  -8.5256      1.4559    230.6664   1.0543320369e+02   2.4810932002e+01    0.1874067   0.09118108  78.68 0.0009225798    1.944    0.486
        64  -8.9731    151.4841    228.9908   7.3026769427e+01   8.1406195402e+00    0.2139693    0.1734302  67.05  0.001326396    1.954    0.488
        65  -9.4504    148.6317    224.2101   7.2982902399e+01   9.1969917471e+00    0.3193964    0.2340349  67.40  0.001728228    2.381    0.580
        66  -7.9123    229.9614    228.9437   5.9542145828e+01  -7.0953744283e-01    0.1295191     0.117165  10.10 0.0008210918    1.690    0.408
        67  -8.9403    161.8040    227.4911   7.0865842329e+01   7.0870650910e+00    0.2673455    0.1669307  44.00  0.001479329    1.834    0.455
        68  -8.7440    128.0627    227.1858   7.7486840211e+01   1.1343948653e+01    0.2589565    0.1689857  58.24  0.001489673    2.111    0.526
        69  -8.0997    223.5343    226.3167   6.0145788051e+01   2.2866529066e-01    0.1745791   0.08780964 -35.20 0.0008316584    2.009    0.502
        70  -7.8360    120.2159    227.2649   7.9123756924e+01   1.2324010982e+01    0.1506395   0.09909955 -75.08 0.0004356604    2.368    0.578
        71  -8.7472    206.0332    225.3978   6.2789701577e+01   2.2004817542e+00     0.209498    0.1312268 -39.51 0.0009808482    1.888    0.470
        72  -8.0428    200.1268    226.1196   6.3866792534e+01   2.7687646672e+00    0.1311005    0.1141835   1.84 0.0004518025    1.311    0.237
        73  -7.8413     49.2335    226.2833   9.4671255542e+01   2.1034140657e+01    0.1691398   0.08625817  81.10 0.0008780878    2.354    0.575
        74  -8.8904     94.3082    224.2619   8.4385901563e+01   1.6098883428e+01    0.4132047    0.1619721  49.92   0.00179641    2.801    0.643
        75  -8.7117    216.4991    223.2006   6.0796631740e+01   1.3211924597e+00    0.1903538    0.1611551 -44.29 0.0009912542    1.946    0.486
        76  -8.7637    180.5761    223.8498   6.6931523009e+01   5.3155921003e+00    0.2110272    0.1708662  35.35  0.001025156    1.447    0.309
        77  -7.9932    113.9562    224.0050   8.0088410574e+01   1.3656107109e+01    0.1866321    0.1242027  53.22 0.0006804267    1.659    0.397
        78  -8.7716    104.9200    223.7539   8.2009812874e+01   1.4850260791e+01    0.2381728    0.1708908  65.48  0.001430025    1.721    0.419
        79  -7.9801     38.3582    224.2226   9.7026895112e+01   2.2585804839e+01    0.1594801   0.09416514  73.73 0.0004365192    1.715    0.417
        80  -7.7136    233.4873    223.5425   5.8250179493e+01  -4.8135538313e-01    0.1013662   0.07440896  -1.41 0.0003609148    1.053    0.051
        81  -9.4278    192.4960    221.3462   6.4490552468e+01   4.2349177975e+00     0.257273    0.2203749  54.67  0.001052785    1.977    0.494
        82  -8.5352    173.0218    222.8414   6.8162087855e+01   6.3616654102e+00    0.1784517    0.1499565 -22.88 0.0006000784    1.293    0.226
        83  -8.7548    163.0280    222.5124   6.9981116628e+01   7.6385438407e+00    0.2617593     0.151573  48.34  0.001443451    2.336    0.572
        84  -8.7518    159.1873    220.4164   7.0434434995e+01   8.4223693473e+00    0.2364697    0.1619598  51.78 0.0009534039    2.019    0.505
        85  -9.1865    239.4117    221.5854   5.7101407088e+01  -8.6226392884e-01    0.2243879    0.1943912  32.21  0.001871792    1.914    0.478
        86  -9.2796    225.6033    221.6283   5.9158491614e+01   5.3700021660e-01    0.1858585    0.1626663   5.82  0.001175786    1.472    0.320
        87  -8.1043    140.2035    222.2503   7.4417859788e+01   1.0567878076e+01    0.1542488    0.1260607  45.97 0.0009984908    1.368    0.269
        88  -8.6951     82.8325    220.4913   8.6601590838e+01   1.8206642101e+01    0.2265474    0.1445498  69.70  0.001229843    1.900    0.474
        89  -8.1267     73.2545    220.4887   8.8783917867e+01   1.9375811931e+01    0.2957132    0.1316833  61.95  0.001282688    3.010    0.668
        90  -7.6989     27.5232    220.9612   9.9352416429e+01   2.4320681274e+01    0.1491542   0.08639898 -50.35 0.0008094085    2.495    0.599
        91  -7.8675    202.7878    219.8085   6.2529805838e+01   3.2415431850e+00    0.1326063    0.1159004   9.62 0.0005231855    1.329    0.248
        92  -8.9545    120.5229    219.1165   7.8131659924e+01   1.3627199923e+01    0.3960082     0.196187  54.01  0.001805419    2.874    0.652
        93  -8.7776    243.4557    215.4913   5.5629083410e+01  -6.1217227486e-01    0.1386913   0.07775858  15.57 0.0003065024    1.612    0.380
        94  -8.2977    210.2269    219.1604   6.1216354529e+01   2.4826625723e+00    0.1297895    0.1148992  -1.14 0.0004375024    1.380    0.275
        95  -7.7312    151.6463    218.6949   7.1674782364e+01   9.6404443439e+00    0.1221974   0.08069037   1.37 0.0005629989    1.712    0.416
        96  -9.2360    132.8783    215.8118   7.5116629943e+01   1.2549281859e+01    0.4007971    0.2561854  67.64  0.001992544    2.928    0.658
        97  -8.4985     62.3778    217.3939   9.1052896857e+01   2.1260179283e+01    0.2981976    0.1223844  54.10  0.001028904    2.412    0.585
        98  -8.5569     51.8662    217.1962   9.3496460516e+01   2.2503054147e+01    0.2652994     0.153903  61.20   0.00108642    1.636    0.389
        99  -8.7611    169.3727    216.0072   6.7895808958e+01   7.7711678542e+00    0.2316219     0.194467 -86.61 0.0009990926    2.198    0.545
       100  -9.1992    248.1834    216.9513   5.5178567808e+01  -1.2329453706e+00    0.3227821    0.2584472 -52.48  0.002326405    2.890    0.654
       101  -8.6709    142.6964    215.9488   7.3107836438e+01   1.1230645955e+01    0.1819684    0.1660874  87.91  0.000695175    1.529    0.346
       102  -8.6376    232.1997    214.5686   5.7129185965e+01   6.4036624061e-01    0.1733145    0.1480513 -33.02 0.0008566095    1.730    0.422
       103  -8.6563    154.0425    214.5358   7.0643517758e+01   9.9616057971e+00    0.1946072    0.1711102 -75.84  0.001024518    1.697    0.411
       104  -7.6812     41.6597    215.3473   9.5782490286e+01   2.3990367392e+01    0.1400721   0.06621654  53.71 0.0007046312    1.789    0.441
       105  -8.4752    185.8198    214.1609   6.4628654181e+01   5.9780665793e+00    0.1600428    0.1395186  14.92 0.0006854252    1.232    0.189
       106  -8.7953     92.9683    213.7878   8.3645002078e+01   1.8169071240e+01    0.2655226    0.1423353  57.08  0.001164741    2.187    0.543
       107  -9.4062     73.5602    211.9943   8.7986812697e+01   2.0970924894e+01    0.7075177    0.1882346  50.57  0.002264307    4.646    0.785
       108  -9.4121    214.0748    211.5812   5.9478137595e+01   2.9687116698e+00    0.3098162    0.2711861 -26.27  0.001786059    1.500    0.333
       109  -8.6460    161.4247    212.0819   6.8859491144e+01   9.3684373548e+00    0.1998426    0.1798368 -78.77 0.0007662321    1.696    0.410
       110  -8.9672    204.2632    210.9669   6.0985563252e+01   4.1795854712e+00    0.1915641    0.1614135 -29.46  0.000756095    1.436    0.304
       111  -7.8236    106.4813    212.5314   8.0446846321e+01   1.6627646110e+01    0.1277023    0.1031673  40.69 0.0008078247    1.094    0.086
       112  -9.2717    175.5374    209.8069   6.5858528733e+01   7.8745548450e+00    0.3027483    0.2404705  69.32  0.001715009    2.384    0.581
       113  -8.8271    147.9618    210.2261   7.1270435118e+01   1.1439465705e+01    0.2492957    0.2007972 -80.44  0.001527982    1.973    0.493
       114  -8.8340    116.4076    210.3693   7.7983098551e+01   1.5684713815e+01    0.3181784     0.178818  56.77  0.001041714    2.381    0.580
       115  -8.3189    192.2103    210.1948   6.2920766242e+01   5.7285417631e+00    0.1367857    0.1273096   0.59 0.0004994156    1.366    0.268
       116  -8.4784     85.7908    209.6132   8.4883603536e+01   1.9889433915e+01    0.2416659    0.1423915  66.76  0.001218799    2.146    0.534
       117  -8.2477     46.8583    209.7198   9.4196807019e+01   2.4569910669e+01    0.2560887    0.1200702  61.74  0.001232399    2.142    0.533
       118  -7.9574     32.5031    210.4838   9.7698801623e+01   2.5942888246e+01    0.1309996    0.0926774  51.41 6.284064e-05    1.104    0.095
       119  -8.9043      6.0098    208.0180   1.0393482572e+02   2.8942689639e+01    0.3779252    0.1045042  70.48  0.001494502    3.497    0.714
       120  -8.9732    236.7162    208.2224   5.5507833931e+01   8.8158183300e-01    0.1969574    0.1726328 -40.93  0.001295958    1.915    0.478
       121  -9.3012    246.3627    207.0553   5.3950745278e+01   1.0177930527e-02     0.238656    0.1374145 -20.69 0.0006995189    1.395    0.283
       122  -9.2910    250.2602    201.7894   5.2600137893e+01   1.9008530069e-01    0.3294884    0.1323696 -30.36  0.001373011    2.072    0.517
       123  -9.7697    245.8516    193.6187   5.1922334563e+01   1.5732826204e+00    0.3341459    0.2559235 -59.77  0.001645296    3.213    0.689
       124  -7.8279    156.5674    207.7818   6.9201936611e+01   1.0669473105e+01    0.1400005    0.1180018 -57.56 0.0006434612    1.587    0.370
       125  -8.2230    139.2799    208.0636   7.2763365845e+01   1.2966728252e+01    0.2264821    0.1400287  52.71  0.001109601    2.063    0.515
       126  -7.8078    126.4277    208.2412   7.5523732319e+01   1.4694634453e+01     0.149995    0.1222778 -80.23   0.00068563    1.673    0.402
       127  -9.1527     99.5513    205.9711   8.1281991954e+01   1.8772070732e+01    0.3570116     0.215745  65.44  0.001124963    2.233    0.552
       128  -7.9907     12.3153    206.6766   1.0239315545e+02   2.8675601367e+01    0.1365451   0.06233127  53.28 0.0007042163    1.664    0.399
       129  -9.2630    194.7994    203.2901   6.1422654001e+01   6.3410707893e+00    0.2855044    0.2327281 -34.71  0.001132923    1.421    0.297
       130  -9.3490    192.4764    197.2033   6.0874104741e+01   7.4810734425e+00    0.2988987    0.2404855 -54.41  0.001264197    1.847    0.459
       131  -8.9677    183.8268    203.7311   6.3432536025e+01   7.6761048018e+00    0.2422149     0.203411  50.39  0.001254502    1.693    0.409
       132  -9.6496    163.9377    202.8511   6.7033995639e+01   1.0441150872e+01    0.4114381    0.2387696  49.92  0.001149268    2.348    0.574
       133  -8.7444    131.3710    203.7923   7.3865550381e+01   1.4784592602e+01    0.2781456    0.1987609  65.16  0.001257041    2.000    0.500
       134  -8.0952    109.0047    204.9675   7.8988931314e+01   1.7674850360e+01    0.2002514    0.1384833  60.60 0.0006838343    1.709    0.415
       135  -8.4948     56.2384    205.1232   9.1587001571e+01   2.4451248710e+01    0.2612006    0.1148091  50.34 0.0009983832    1.983    0.496
       136  -9.1142    243.2544    200.4796   5.3372403620e+01   1.0672514734e+00    0.2946424    0.1315141 -32.10   0.00138512    1.925    0.480
       137  -8.8416    140.6252    201.0282   7.1503100700e+01   1.3963822592e+01    0.3224747    0.2218883  64.12  0.001202486    2.273    0.560
       138  -7.8459     73.3004    202.6205   8.7190906179e+01   2.2883581714e+01    0.1405125   0.08162167  58.72 0.0007024217    1.767    0.434
       139  -8.1994     48.4025    202.1583   9.3304017146e+01   2.5979450057e+01    0.1767354    0.1067326  77.46 0.0009427079    1.750    0.429
       140  -7.6405     41.3133    202.6491   9.5100475404e+01   2.6662313808e+01    0.1422466   0.07200837  55.72 0.0007046068    1.726    0.421
       141  -7.6212     10.2932    202.3242   1.0274685714e+02   2.9781662254e+01    0.1069152   0.09194302 -44.00 0.0003663368    1.617    0.382
       142  -8.0894    221.9811    200.9752   5.6601436962e+01   3.3652943997e+00    0.1395975    0.1294369 -26.76 0.0005323987    1.597    0.374
       143  -8.3321     79.7282    200.8017   8.5442265553e+01   2.2428347237e+01    0.2524582     0.141627  75.00  0.001162936    2.497    0.600
       144  -9.4814    149.6241    198.5368   6.9261787234e+01   1.3115079618e+01    0.3566663    0.2677688  82.51  0.001273654    2.442    0.590
       145  -8.7428    124.2702    199.0283   7.4777660118e+01   1.6633440492e+01    0.2849162    0.2020505  76.48  0.001131717    2.196    0.545
       146  -9.1736    113.0749    198.3858   7.7229857447e+01   1.8342904619e+01    0.4200699    0.2293473  60.17  0.001843175    2.754    0.637
       147  -9.2587    237.0946    198.3024   5.3912267551e+01   1.9837253067e+00    0.2200019    0.1248735 -33.66  0.001015718    1.645    0.392
       148  -8.3890    177.0758    198.6565   6.3889731112e+01   9.3048975149e+00    0.1793987    0.1590721 -37.12 0.0005710882    1.360    0.265
       149  -8.9242     88.6729    198.4474   8.3013921347e+01   2.1718397994e+01    0.3182116    0.2011787  68.89  0.001380019    1.965    0.491
       150  -8.4554    202.3522    197.8248   5.9274922224e+01   6.1353238385e+00    0.1850481     0.170771 -45.97  0.001316239    1.610    0.379
       151  -9.2671     61.2507    196.9163   8.9664960462e+01   2.5585176348e+01    0.4453415    0.2006865  59.74  0.001817424    2.478    0.597
       152  -7.7571     29.4534    197.4766   9.7775288003e+01   2.9029781250e+01    0.1317472    0.1000405  53.67  0.000250252    1.044    0.042
       153  -8.7728    215.9921    195.5168   5.6673015007e+01   4.7598695325e+00     0.188496    0.1422373 -38.86 0.0007347571    1.584    0.369
       154  -8.1929    133.0568    195.9591   7.2406767298e+01   1.5927932687e+01    0.1924384    0.1485154  64.11 0.0008283398    1.692    0.409
       155  -8.7300    224.7673    193.8485   5.5035745395e+01   3.9249995060e+00    0.2645326    0.1330708 -42.33   0.00110393    2.292    0.564
       156  -7.6363    209.4897    195.4745   5.7714306992e+01   5.5602380985e+00    0.1121285   0.09159864  -3.12 0.0001360164    1.064    0.060
       157  -8.8661    185.1611    194.6419   6.1769892021e+01   8.8138611968e+00    0.1974193      0.17655 -57.59 0.0006150889    1.626    0.385
       158  -8.2573    230.9005    194.1265   5.4155594478e+01   3.1780853415e+00    0.1527317    0.1279008 -14.19 0.0005002978    1.260    0.206
       159  -8.9113    160.8103    193.7901   6.6269206125e+01   1.2311678241e+01    0.2311498    0.2034343  70.50 0.0009598215    1.626    0.385
       160  -8.7599     77.0775    193.8095   8.5373693373e+01   2.4230951729e+01    0.2314379    0.1843467  49.13 0.0005692734    1.090    0.083
       161  -8.9956     43.7381    193.2065   9.3850600939e+01   2.8452186266e+01    0.4270023     0.165909  57.31  0.001699066    2.552    0.608
       162  -8.3291    210.9941    201.9614   5.8499095264e+01   4.5322818253e+00    0.1451282    0.1399257 -52.10 0.0007383781    1.734    0.423
       163  -8.3800    172.7793    191.6711   6.3596354980e+01   1.0960375685e+01    0.2026508    0.1638399 -75.18  0.001006611    2.110    0.526
       164  -9.0731    139.7383    190.5427   7.0152486288e+01   1.5921222923e+01    0.3301061    0.2363656  61.75  0.001541334    1.929    0.482
       165  -7.9729    205.3716    191.3199   5.7718623323e+01   6.6360110433e+00    0.1459234    0.0988302 -39.03    0.0006114    1.583    0.368
       166  -8.2398    179.2187    191.2463   6.2313977653e+01   1.0129848351e+01    0.1453572     0.141568 -25.51 0.0005138058    1.349    0.259
       167 -10.3288     92.5788    188.8243   8.0922900685e+01   2.3157678185e+01    0.9678305    0.2073418  42.31  0.003030882    3.924    0.745
       168  -8.4265     22.0209    191.5223   9.9379086001e+01   3.1087179192e+01     0.208269   0.05191239  44.72 0.0008101673    2.669    0.625
       169  -8.4502      6.8459    191.0274   1.0326506769e+02   3.2560300587e+01    0.2285123   0.09106747  59.89  0.001075014    2.031    0.508
       170  -8.5879    148.6521    189.3143   6.8060816283e+01   1.4822832387e+01    0.2050506    0.1595771 -62.91   0.00109316    1.688    0.408
       171  -9.0025    216.5889    187.8337   5.5321810586e+01   5.6876114612e+00    0.2354741    0.2002666 -49.10  0.001147462    1.751    0.429
       172  -8.8084    129.2630    188.4303   7.2149394568e+01   1.7862517656e+01    0.2536332    0.2080681  72.19   0.00069939    1.565    0.361
       173  -8.1328    198.9458    191.5250   5.8836871631e+01   7.4372537652e+00    0.1719458    0.1338622 -23.58 0.0004350739    1.200    0.167
       174  -8.2507    237.4402    188.1425   5.2224812898e+01   3.1549833949e+00    0.1583286   0.08665973 -30.15 0.0007948862    1.547    0.354
       175  -8.8563    191.3770    186.9680   5.9401913126e+01   9.1001426270e+00    0.2591781    0.1932619 -60.66  0.001055724    2.212    0.548
       176  -9.1353    155.8938    187.3119   6.6239160355e+01   1.4099229061e+01    0.2680068    0.2119116 -62.87 0.0008975698    1.700    0.412
       177  -9.5661    120.6732    185.9664   7.3753600933e+01   1.9619601047e+01    0.4362407    0.2710629 -76.90   0.00202563    2.569    0.611
       178  -9.1061     54.7538    186.6127   9.0440176545e+01   2.8647865208e+01    0.4325345    0.1964059  65.18  0.001421733    2.634    0.620
       179  -8.7240     34.1031    187.6805   9.6000286410e+01   3.0745412936e+01    0.3206157     0.142147  61.56  0.001436062    2.162    0.538
       180  -8.2244    230.6472    187.1856   5.3059600286e+01   4.0631491440e+00    0.1596685    0.1176495 -33.42 0.0008223928    1.430    0.301
       181  -8.7658    165.0328    186.5938   6.4280017963e+01   1.2879678747e+01    0.2253155    0.1968492  86.78  0.001042049    1.738    0.425
       182  -9.2541    109.7109    186.0992   7.6368476538e+01   2.1231160405e+01    0.3688183    0.2229324  62.63  0.001261757    2.253    0.556
       183  -9.1537    249.3376    185.2442   5.0085374441e+01   2.1627811772e+00     0.238895    0.1417993 -33.14 0.0008961209    1.524    0.344
       184  -8.7638    202.7045    184.4728   5.7025631829e+01   7.9342960754e+00    0.2015848    0.1706508 -54.38 0.0008706991    1.739    0.425
       185  -8.5372    182.9962    184.6228   6.0521902014e+01   1.0614455413e+01    0.2064154    0.1651753 -51.13 0.0006846643    1.607    0.378
       186  -9.0151     66.9929    184.4508   8.6993985991e+01   2.7597019970e+01    0.3946363    0.1883437  51.31  0.001047129    1.984    0.496
       187  -8.7127    210.1088    183.9544   5.5711611070e+01   7.0336072040e+00    0.1928814    0.1404948 -26.32 0.0005124998    1.235    0.190
       188  -8.5096    197.2599    183.4655   5.7783556055e+01   8.8104293555e+00     0.181707     0.141615 -52.28 0.0007044505    1.779    0.438
       189  -8.8910    174.3210    183.5013   6.1959809592e+01   1.2030573965e+01    0.2203627    0.2051612 -85.61 0.0007569535    1.550    0.355
       190  -7.9308    242.6858    183.2965   5.0679912818e+01   3.1395747054e+00   0.09173879   0.08018921 -35.12 0.0003085996    1.603    0.376
       191  -8.4875    224.0590    182.9504   5.3342655701e+01   5.3989891398e+00    0.1969608    0.1327228 -27.68 0.0007485706    1.291    0.225
       192  -8.8838     44.7375    182.3148   9.2764168351e+01   3.0813934217e+01    0.3801879    0.1688051  56.12  0.001026167    2.137    0.532
       193  -8.1089      1.9409    183.4973   1.0432491647e+02   3.4671165103e+01     0.188924    0.1043223  31.65  0.001025346    1.590    0.371
       194  -9.2505    147.5213    180.5299   6.6892191345e+01   1.6545380850e+01    0.3201054    0.2493811 -82.69   0.00101534    1.985    0.496
       195  -7.9336    235.3459    181.1400   5.1361549462e+01   4.2597008452e+00    0.1522224   0.08527997 -38.40  0.000579441    1.778    0.438
       196  -8.6569    137.5285    179.0212   6.8830698173e+01   1.8368464572e+01    0.3362783    0.2225785  62.07  0.001217857    2.185    0.542
       197  -7.8558     90.3491    181.3324   8.0539070570e+01   2.5071036852e+01    0.1372623    0.1051156 -13.98  0.000704823    1.772    0.436
       198  -9.5497     25.9753    179.1192   9.7671863977e+01   3.3567634378e+01    0.6440665    0.2059823  67.66  0.002206073    3.772    0.735
       199  -8.6139    250.5764    172.3168   4.7752604591e+01   3.5540272553e+00    0.1953675    0.1069808 -29.80 0.0005463684    1.461    0.315
       200  -9.3672    248.9299    177.3133   4.8820948339e+01   3.1440958698e+00    0.2886705    0.1792932 -37.88   0.00135823    1.659    0.397
       201  -8.6702    247.4641    173.5325   4.8376635210e+01   3.7681929656e+00    0.1974788    0.1362452   1.57 5.981858e-05    1.344    0.256
       202  -9.5009    191.5444    178.0050   5.7845069587e+01   1.0412802589e+01    0.2728147    0.2368315 -60.63 0.0007771153    1.667    0.400
       203  -9.1359     36.1627    176.5354   9.4680881577e+01   3.3128865324e+01    0.6153259     0.216508  68.42  0.002071502    3.824    0.739
       204  -8.7644    205.2897    177.6379   5.5420544202e+01   8.5575200158e+00    0.1872048    0.1690277 -21.80 0.0005840461    1.263    0.208
       205  -8.1874    169.1953    178.2339   6.2056807724e+01   1.3644581788e+01    0.1574809    0.1511733  67.25 0.0005355968    1.362    0.266
       206  -8.6196    129.3643    177.1371   7.0380021505e+01   2.0005844414e+01    0.3196945      0.21984  86.77  0.001073965    2.533    0.605
       207  -8.5826    231.1824    176.7281   5.1216123602e+01   5.3226159437e+00    0.1859718    0.1259027 -32.99 0.0005673391    1.377    0.274
       208  -8.5138    217.3812    176.8374   5.3328593238e+01   7.0593635916e+00    0.1942635     0.156475 -41.82 0.0007481277    1.526    0.345
       209  -7.8483     97.3443    177.2931   7.8205304404e+01   2.4915854654e+01    0.1358097    0.1064484  -7.54 0.0007029324    1.661    0.398
       210  -9.0188     89.1200    176.8475   8.0269525434e+01   2.6231505870e+01    0.3067888    0.1706035  55.89 0.0008404303    1.970    0.492
       211  -9.9139     57.5564    173.3188   8.8410363710e+01   3.1382778485e+01     0.889591    0.3512332  69.59  0.002656314    4.834    0.793
       212  -8.7585     13.2792    176.7905   1.0104766091e+02   3.5301969810e+01    0.3028167    0.1316452  49.32 0.0009751838    1.808    0.447
       213  -8.0915    211.5090    176.0330   5.4122221575e+01   7.9457543583e+00    0.1694098    0.1013197 -34.27 0.0005153521    1.526    0.345
       214  -8.9826    183.0743    175.8471   5.8999874526e+01   1.1968837360e+01    0.2202827    0.1937767 -49.35  0.000608528    1.418    0.295
       215  -9.2936    158.7610    174.5085   6.3510557536e+01   1.5877169058e+01    0.3482241    0.2589572 -77.55  0.001072975    2.282    0.562
       216  -9.3975    104.3415    174.5076   7.6026360721e+01   2.4451752148e+01    0.5496513    0.2747051  58.66  0.001808501    2.917    0.657
       217 -10.5542     76.1063    171.1171   8.3010829030e+01   2.9407839758e+01    0.9782819    0.4465159 -88.01  0.003220234    4.168    0.760
       218  -9.1493     74.2035    160.1869   8.2108089957e+01   3.2274285482e+01    0.2996149    0.2014097 -27.73  0.001131447    2.232    0.552
       219  -8.4492    224.6207    173.7918   5.1683516840e+01   6.5324433833e+00    0.2275602    0.1212016 -38.09 0.0008164866    1.769    0.435
       220  -8.0204    241.4596    173.5241   4.9197194898e+01   4.4783569741e+00    0.1103441   0.08480544 -14.89 8.737486e-05    1.037    0.036
       221  -9.5200    175.6323    171.8782   5.9694806259e+01   1.3722627990e+01    0.3189566    0.2398161 -41.66 0.0009789653    1.385    0.278
       222  -8.6997    142.8229    172.4983   6.6566114586e+01   1.8761490198e+01     0.238244    0.1744734  80.64 0.0009950838    2.276    0.561
       223  -8.5672    134.8184    171.5152   6.8198547712e+01   2.0235333494e+01      0.24312     0.184027 -78.23 0.0008012491    1.845    0.458
       224  -9.0724     45.1433    170.9202   9.1690441517e+01   3.3471392912e+01     0.337259    0.1671503  67.73  0.001266905    2.194    0.544
       225  -9.1446    230.3473    168.8776   4.9968350759e+01   6.4488352530e+00     0.391932    0.1628438 -42.14  0.001960754    2.522    0.603
       226  -9.5797    121.2400    170.0653   7.1149945643e+01   2.2716864381e+01    0.3388167    0.2600251 -83.70 0.0008731253    1.708    0.414
       227  -8.6146    237.2661    169.3074   4.9051383761e+01   5.5210009539e+00    0.1905204    0.1296712 -28.30  0.000678588    1.234    0.190
       228  -8.3610    205.8503    170.1137   5.3996650409e+01   9.5649225025e+00    0.1717076    0.1516528 -35.79 0.0005874818    1.329    0.248
       229  -8.4042    198.3727    169.9941   5.5233694405e+01   1.0644937630e+01    0.1892329    0.1750483  67.08  0.000853874    1.590    0.371
       230  -8.5130    149.9436    169.5058   6.4491216448e+01   1.8176477172e+01    0.2335136    0.1904826 -72.54 0.0009459122    1.640    0.390
       231  -7.5587     68.3301    170.6473   8.5104609539e+01   3.0598293381e+01    0.1559873   0.09193069  60.81  0.000704679    1.776    0.437
       232  -8.6143    244.6280    169.0815   4.7992806531e+01   4.6503070679e+00    0.1668365    0.1162211 -36.30  0.000680575    1.458    0.314
       233  -9.1383    167.0306    168.4131   6.0751457100e+01   1.5642252323e+01     0.290119    0.2171187  64.38  0.001213225    2.000    0.500
       234  -8.2408     88.5994    168.7344   7.9294883075e+01   2.8130943707e+01    0.2347771    0.1806933 -86.91  0.001200064    1.453    0.312
       235  -8.6075    218.8303    168.1393   5.1566788036e+01   8.0611402503e+00    0.1673775    0.1429119 -24.34 0.0004357311    1.205    0.170
       236  -7.9684    211.3761    168.1899   5.2750102995e+01   9.0722331744e+00    0.1625762   0.09931031 -42.06 0.0007365932    1.699    0.411
       237  -8.7447    111.7926    167.3154   7.3031491696e+01   2.4818626733e+01    0.3384032    0.2243925  80.17  0.001044021    2.327    0.570
       238  -8.9274    191.8446    166.3357   5.5704214150e+01   1.2163180301e+01    0.2710618    0.1630517 -41.72 0.0007564686    1.658    0.397
       239  -8.6067    184.9642    166.4440   5.6962205153e+01   1.3184815436e+01    0.2228612    0.1683039 -50.62  0.000582263    1.584    0.369
       240  -8.9214     20.5631    166.1761   9.8452306506e+01   3.7220790371e+01     0.399064    0.1202196  49.83  0.001489382    2.676    0.626
       241  -8.2969    140.6605    166.2894   6.5965848023e+01   2.0299335235e+01    0.2077151    0.1891552  57.77 0.0006809762    1.219    0.179
       242  -9.3735    136.0060    163.8155   6.6586079435e+01   2.1556890425e+01    0.3889499    0.2543993  58.86  0.001136382    1.978    0.494
       243  -9.9723     94.9497    162.5597   7.6668332824e+01   2.8563795496e+01    0.8582406    0.4373983  69.67  0.002754856    4.148    0.759
       244  -8.1573    233.9808    164.9463   4.8744749198e+01   6.4997602212e+00    0.1569547    0.1271486 -45.44 0.0005482824    1.614    0.380
       245  -9.4912     33.6681    163.1854   9.4382991424e+01   3.6658982955e+01    0.6498331    0.1910577  50.05  0.002011379    3.005    0.667
       246  -8.1973    240.1300    163.8302   4.7683833337e+01   5.8648499809e+00    0.1619516    0.1309372 -30.56 0.0005453758    1.292    0.226
       247  -8.6112    212.9396    163.4024   5.1628442725e+01   9.5399973816e+00      0.21163     0.146078 -41.84 0.0004868891    1.525    0.344
       248  -8.5448    159.4500    164.1030   6.1505003357e+01   1.7621179960e+01    0.2198429    0.1848482  66.57   0.00093522    1.560    0.359
       249  -8.7091    246.0085    162.9515   4.6730465745e+01   5.2476174840e+00     0.169466    0.1283908 -20.41 0.0004881399    1.060    0.057
       250  -8.6032    204.9239    162.5431   5.2766678557e+01   1.0812425063e+01     0.210448    0.1530814 -43.79 0.0004926242    1.503    0.334
       251  -9.0903     60.3765    160.9448   8.6231332408e+01   3.4014528031e+01      0.45381    0.4201195  -2.65  0.002643612    1.320    0.242
       252  -9.4619      3.3862    162.0830   1.0328719670e+02   3.9678540507e+01    0.5015795    0.1617189  51.24  0.001686918    2.389    0.581
       253  -8.8692    151.7595    160.7637   6.2511109488e+01   1.9509475624e+01    0.3066102    0.2383584 -85.76  0.001227562    1.969    0.492
       254  -8.0246    221.9904    161.2989   4.9841837698e+01   8.5809522752e+00    0.1601754    0.1335718 -11.43 0.0005083294    1.050    0.048
       255  -9.1143    177.3429    160.3859   5.7252608768e+01   1.5374520937e+01    0.2629107    0.2088115 -54.63 0.0007565097    1.526    0.345
       256  -8.3184    242.4446    159.5672   4.6604821283e+01   6.1198500271e+00    0.1656777   0.08550681 -24.48 0.0001151942    1.681    0.405
       257  -9.8456    250.1945    157.7642   4.5257182816e+01   5.3827609965e+00    0.2816994    0.1241401 -33.04 0.0008786386    1.805    0.446
       258  -9.1984    246.5805    155.4717   4.5314987618e+01   6.1208845225e+00    0.2106334    0.1431723 -17.90 0.0008671549    1.206    0.170
       259  -8.8416    237.2799    159.3327   4.7269673931e+01   6.8102828754e+00    0.1981569    0.1173082 -43.23  0.001040457    1.838    0.456
       260  -8.6956    227.4818    158.9506   4.8594884515e+01   8.1572301717e+00    0.2718673    0.1525339 -49.35  0.001111531    2.444    0.591
       261  -9.6781    106.0661    157.8928   7.2943491317e+01   2.7824208210e+01    0.5484321    0.3318134  67.24  0.001418209    2.397    0.583
       262  -8.3184    128.3342    158.9870   6.7523186112e+01   2.3831752572e+01    0.2557608     0.185974  61.00  0.001177533    1.645    0.392
       263  -8.4869    196.6736    157.9374   5.3290143212e+01   1.2745369796e+01    0.1915376    0.1772083 -85.55 0.0009051274    1.557    0.358
       264  -8.2586    188.1411    157.4425   5.4694619606e+01   1.4147574912e+01    0.1970215    0.1650697 -47.93 0.0007228064    1.367    0.268
       265  -9.1415    167.5928    157.2058   5.8545579515e+01   1.7515532089e+01     0.286201    0.2386751 -85.17  0.001210435    1.758    0.431
       266  -9.6974     81.5698    155.0331   7.9243006008e+01   3.2421864478e+01    0.5327009    0.4199895  89.27   0.00175842    1.347    0.257
       267  -9.0891     78.2098    146.9197   7.8967670715e+01   3.4932692108e+01    0.4723437    0.2536022  69.76  0.001413631    2.766    0.638
       268  -8.6323    218.0078    156.4240   4.9541581127e+01   9.8233967989e+00    0.2206654    0.1442916 -43.71 0.0007128305    1.630    0.386
       269  -8.9989    157.7351    155.6063   6.0257679522e+01   1.9464768408e+01    0.3571264    0.1774203 -50.44  0.001404695    2.209    0.547
       270  -9.2678    119.5330    155.0844   6.8978016066e+01   2.6166455248e+01    0.3862525    0.2675564 -89.84  0.001387912    2.181    0.541
       271  -9.0952     49.6970    155.0047   8.8756906229e+01   3.6879688032e+01    0.4531583    0.1844709  52.53  0.001719789    2.448    0.592
       272  -8.7964    233.6132    147.5674   4.5596331123e+01   8.8715735982e+00    0.2343908    0.1292112 -38.12 0.0008889791    1.597    0.374
       273  -8.0365    237.3685    150.2180   4.5579632357e+01   8.0033289450e+00    0.1492219    0.1214375 -37.13 0.0004317689    1.326    0.246
       274  -9.1740    242.5804    154.5184   4.5670959649e+01   6.7528225573e+00    0.1654261    0.1468719  34.90 0.0005107559    1.491    0.329
       275  -8.4250    239.7252    152.7011   4.5720906306e+01   7.3614715420e+00    0.1706506    0.1226737 -26.31  0.000204271    1.118    0.105
       276  -7.8810    204.9544    155.2914   5.1394855901e+01   1.1897775198e+01     0.165391     0.142682 -13.42 0.0004393917    1.028    0.028
       277  -8.8705    144.6702    153.8493   6.2757656009e+01   2.2053297050e+01    0.3988759    0.2449749 -39.23  0.001028426    1.691    0.409
       278  -9.8387     68.0640    153.1516   8.2942777425e+01   3.4890217919e+01    0.5192378    0.3161269  84.95  0.001973602    1.978    0.494
       279  -9.6785    132.7209    152.5762   6.5277840618e+01   2.4402755287e+01    0.4245163    0.3053571  69.54  0.001111853    1.902    0.474
       280  -8.7620    133.5152    148.4556   6.4288173598e+01   2.5118906001e+01    0.2694932    0.2403842  -5.81 0.0009816281    1.219    0.180
       281  -7.9778    232.6815    153.3631   4.6814949356e+01   8.2128801463e+00    0.1631415      0.12677 -50.89 0.0008442893    1.714    0.416
       282  -9.7204     29.3995    150.3090   9.4647479355e+01   4.0389208997e+01    0.5934896    0.2147674  64.92  0.001990956    3.296    0.697
       283  -8.5479     20.6271    152.4157   9.7576247570e+01   4.0692495589e+01    0.2256621    0.1250855  56.69 0.0006879442    1.581    0.368
       284  -8.0848      9.6439    152.7220   1.0102014983e+02   4.1552856287e+01    0.1272433   0.09891963 -40.98  0.000350432    1.655    0.396
       285  -8.9777    189.5826    150.1116   5.3007720442e+01   1.5112782828e+01    0.2642954    0.1988221 -57.98 0.0008691068    1.734    0.423
       286  -8.1178    182.4176    151.2065   5.4521664938e+01   1.6100703469e+01    0.1779331    0.1170762 -48.57 0.0006092305    1.649    0.394
       287  -8.3927    162.7877    150.5251   5.8209537562e+01   1.9537682463e+01    0.2566762    0.1773625 -59.62 0.0008711276    1.832    0.454
       288  -8.4410     98.4406    150.7616   7.3776090276e+01   3.0731311582e+01    0.2833584    0.2118279  69.36 0.0008345953    1.509    0.337
       289  -8.8157      2.9612    150.1712   1.0298741550e+02   4.2708177558e+01    0.2650037    0.1362338  71.58  0.001027373    1.687    0.407
       290  -9.4304    248.9330    149.0548   4.3840004864e+01   6.6392052092e+00    0.2654184    0.1291979 -31.90 0.0007833682    1.619    0.382
       291  -8.8583    243.3130    149.8217   4.4709732976e+01   7.2675402393e+00    0.2042239    0.1100484 -34.26  0.000841657    1.516    0.340
       292  -8.2723    213.0745    149.6696   4.9014247936e+01   1.1523784761e+01    0.1968347    0.1473384 -38.61 0.0004192826    1.301    0.232
       293  -9.7720     39.8665    147.5172   9.1038875952e+01   3.9985929788e+01    0.6760792     0.261461  59.55  0.002110595    2.987    0.665
       294  -8.6911    198.9017    148.5564   5.1089589711e+01   1.3871456116e+01    0.2268687    0.1615449 -48.12 0.0006098986    1.557    0.358
       295 -10.4373    148.8946    144.9415   6.0041577481e+01   2.3060902810e+01       0.5533    0.3890861 -88.52  0.001571123    2.531    0.605
       296 -10.0130     89.2680    146.1374   7.5573630437e+01   3.3356852881e+01    0.6944994    0.3884681  82.08  0.002419536    3.261    0.693
       297 -10.4582     54.9979    144.3269   8.5799992201e+01   3.8949078533e+01    0.9734011    0.4588933  70.50  0.003041037    3.002    0.667
       298  -8.4332    223.1765    146.6406   4.6903237549e+01   1.0477314866e+01    0.1918458    0.1383723 -35.38  0.000379383    1.253    0.202
       299 -10.0604    106.7865    143.7380   7.0200971481e+01   3.0935279508e+01    0.7784098    0.5272417 -80.79  0.002580451    1.943    0.485
       300  -9.4812     13.4235    146.0963   9.9471552901e+01   4.2960183562e+01     0.425377    0.2051802  60.56  0.001630972    1.855    0.461
       301  -8.0551    206.8503    146.1855   4.9314845017e+01   1.2994682273e+01     0.178035    0.1547259 -38.34  0.000588621    1.226    0.185
       302  -8.0510    175.7590    146.0099   5.4728258124e+01   1.8113467605e+01    0.2047862    0.1510689 -67.96 0.0008750598    1.996    0.499
       303  -9.7990    139.0756    144.8715   6.2258434954e+01   2.4857120256e+01    0.3887002    0.2799565 -80.66  0.001361915    2.071    0.517
       304  -8.7494    240.3787    145.2274   4.4238534218e+01   8.2621152551e+00     0.169395     0.117422 -28.11 0.0003051405    1.150    0.130
       305  -9.3512    243.2907    142.1039   4.3267258779e+01   8.2823144206e+00    0.3505047    0.1350562 -31.03  0.001451012    2.154    0.536
       306  -8.8264    247.1417    143.5165   4.3040294772e+01   7.5837947395e+00     0.217574      0.12776 -33.99 0.0006354044    1.378    0.274
       307  -7.9990    194.4677    143.9623   5.0922580080e+01   1.5318989228e+01    0.1736003    0.1050591 -56.96 0.0008078798    2.407    0.585
       308  -8.8769    165.5529    143.8615   5.6292775782e+01   2.0279928917e+01    0.2432775    0.2111422  86.34 0.0007235542    1.517    0.341
       309  -9.9168    124.9245    141.8220   6.5065700347e+01   2.8093608609e+01    0.6470584    0.3495278 -60.82   0.00165527    2.230    0.552
       310  -9.3549      2.9066    141.8861   1.0267647193e+02   4.4852694805e+01    0.4276122    0.1534752  59.38  0.001118417    2.438    0.590
       311  -8.4320    182.0616    141.5108   5.2622061806e+01   1.7811418713e+01    0.2501364    0.1698331 -51.84 0.0006258724    1.656    0.396
       312 -10.3951     69.5090    140.7421   8.0660945674e+01   3.7824426989e+01    0.6072617    0.3719865  79.91  0.002010901    2.028    0.507
       313  -9.7056     69.6406    133.7133   7.9466958448e+01   3.9621677085e+01     0.340711    0.2628564 -17.33  0.001362129    1.819    0.450
       314  -9.9773     23.3318    137.7279   9.5589692346e+01   4.4304015851e+01    0.6182223    0.2354136  61.77  0.001891163    2.796    0.642
       315  -8.5527    172.3299    137.8673   5.3693440301e+01   2.0162793058e+01    0.2996729    0.2112782 -67.30  0.001030749    2.075    0.518
       316  -9.4322    139.2780    137.6495   6.0708010910e+01   2.6311541630e+01    0.4429127    0.2816071 -11.84  0.001713236    2.892    0.654
       317  -7.8351    218.5746    138.4774   4.5974375299e+01   1.2344042062e+01    0.1232583    0.1019134 -25.57 0.0003341587    1.039    0.038
       318  -8.2567    207.6242    137.6720   4.7479639982e+01   1.4180510890e+01    0.2605446    0.1333482 -42.08   0.00100518    1.819    0.450
       319  -8.6927    197.5673    137.2558   4.9022272159e+01   1.5891055009e+01     0.271806    0.1662029 -49.76 0.0008484955    1.823    0.452
       320  -8.4576    162.7836    136.3084   5.5262264351e+01   2.2186691505e+01    0.2325429    0.1841368 -54.35 0.0006830131    1.357    0.263
       321  -8.0603     80.4809    137.5131   7.6695023353e+01   3.6932268554e+01    0.1514292     0.140301  68.68 -3.999008e-05    1.004    0.004
       322  -9.1823    248.6877    134.9208   4.1220935060e+01   8.4948020191e+00    0.2528653    0.1461511 -37.67  0.001072105    1.459    0.315
       323  -8.7846    250.7862    129.9911   4.0021356086e+01   8.8512449543e+00    0.3671314   0.09081421 -30.54  0.001353892    3.835    0.739
       324  -7.5638    192.4853    136.4982   4.9724041716e+01   1.6870927005e+01    0.1312354    0.1162396 -22.57 0.0007153671    1.006    0.006
       325  -9.3003     38.9263    135.6173   9.0042860406e+01   4.3248793903e+01    0.3692125    0.2184941  62.83 0.0009944816    1.672    0.402
       326 -10.3727     83.4170    132.6250   7.4892357095e+01   3.7682165640e+01    0.6665095     0.364112 -74.38   0.00128968    2.257    0.557
       327  -8.5436     84.6614    122.6394   7.2517335163e+01   4.0002245425e+01    0.4008243    0.2669778 -16.92  0.001526339    2.722    0.633
       328  -8.8352    179.5943    133.8335   5.1454390904e+01   1.9577016437e+01    0.2461457    0.1908022 -61.11 0.0008439039    1.579    0.367
       329  -9.1611    112.8673    132.5349   6.6288045160e+01   3.2423741790e+01    0.4525934    0.3059511 -52.80  0.001599389    1.497    0.332
       330 -10.8087     60.5401    125.9817   8.1199490711e+01   4.3025510974e+01     1.042082    0.5254109  83.99  0.003491587    3.167    0.684
       331  -8.3405    237.4452    133.2798   4.2323814210e+01   1.0281766521e+01    0.1649854   0.09145555 -39.94 0.0009367967    1.588    0.370
       332  -7.8385    231.4540    133.5793   4.3177723003e+01   1.1112213573e+01    0.1199971   0.09653804 -22.03 9.258208e-05    1.023    0.022
       333  -9.0689    143.1253    131.7324   5.8529003796e+01   2.6801906964e+01    0.3149156    0.2380699 -74.38  0.000779651    1.714    0.416
       334 -10.2552    132.2235    130.7487   6.0898750834e+01   2.9117968833e+01    0.6230893    0.3664963 -65.38  0.001522459    2.320    0.569
       335 -10.0609     97.8988    127.8875   6.9548135449e+01   3.6311747548e+01     1.045555    0.2449907 -51.67  0.002894246    4.101    0.756
       336 -10.1336     12.8072    128.2539   9.8533140949e+01   4.7759318400e+01    0.7782447    0.3225605  78.20  0.002651765    2.445    0.591
       337  -8.6105    246.9488    129.9720   4.0479993825e+01   9.3825372874e+00    0.1805954    0.1348455 -31.26  0.000579965    1.102    0.092
       338  -8.0942    204.5152    130.0185   4.6379279666e+01   1.5883835324e+01    0.1918655    0.1113457 -38.65 0.0004861937    1.519    0.342
       339  -8.0902    192.8796    130.1158   4.8301211667e+01   1.7859110317e+01    0.1928166    0.1674446 -50.89 0.0004058035    1.250    0.200
       340  -9.5986    168.1773    129.2555   5.2632153383e+01   2.2498563793e+01     0.308955    0.2508302 -74.18  0.000759464    1.586    0.370
       341  -9.9320    152.9636    127.4473   5.5370797562e+01   2.5759355902e+01     0.797316    0.2605492 -45.35  0.002517496    2.982    0.665
       342  -9.8181     73.1846    129.1103   7.7500867464e+01   4.0263665095e+01    0.4496628    0.2802844  78.32  0.001147681    2.062    0.515
       343  -8.3838    211.6856    129.0353   4.5068758448e+01   1.4849802352e+01    0.2037308    0.1348752 -46.85 0.0008394247    1.546    0.353
       344 -10.8620     45.1724    123.4910   8.6250053209e+01   4.5787407658e+01     1.310069    0.5436265  68.85  0.003826333    4.167    0.760
       345 -10.0129    117.8463    124.5802   6.3195048420e+01   3.3295661309e+01    0.6231735    0.4589493 -78.02  0.001787278    1.678    0.404
       346  -7.7171    228.4923    125.4476   4.1937332688e+01   1.2709221367e+01    0.1225032   0.09991872 -29.13 0.0002631609    1.041    0.039
       347  -8.9179    179.1689    124.4989   4.9478474014e+01   2.1298189065e+01    0.2623183    0.2336361 -75.68 0.0004912855    1.346    0.257
       348 -10.5219     28.5713    122.0368   9.2182332377e+01   4.8060962609e+01    0.9616029    0.4811544  80.90  0.003884173    2.163    0.538
       349  -8.8089    243.9340    124.0998   3.9693814262e+01   1.0591262616e+01    0.1765315    0.1303449 -39.09 0.0005559257    1.241    0.194
       350  -7.9601    188.5126    123.9959   4.7708963985e+01   1.9663810677e+01    0.1835085    0.1070257 -57.23 0.0005823906    2.313    0.568
       351  -7.8784    195.0066    121.7669   4.6123420862e+01   1.8863915902e+01    0.1929817    0.1264584 -50.46 0.0004433133    1.612    0.380
       352  -9.0176    158.7115    121.3318   5.2740982413e+01   2.5826451232e+01    0.3267809    0.2405772 -76.99  0.001037944    1.917    0.478
       353  -7.6533    203.2572    121.6503   4.4779869522e+01   1.7424607161e+01    0.1288945   0.09289958 -55.19 0.0001922638    1.601    0.375
       354  -8.4337    171.8742    121.1402   5.0075602868e+01   2.3286171559e+01    0.2067094    0.1821028 -59.96 0.0003740107    1.220    0.180
       355 -10.0181    131.2436    118.7377   5.8369431041e+01   3.1910806969e+01    0.5649205    0.3655244  79.15  0.001901567    2.646    0.622
       356  -9.7161     70.9604    119.4294   7.6401483870e+01   4.3157459628e+01     0.446818    0.2994396 -88.65   0.00147993    1.733    0.423
       357  -9.8506    141.6452    118.2960   5.5768099509e+01   2.9877419301e+01    0.4617222    0.3106586 -69.13  0.001154639    1.984    0.496
       358  -9.7188      2.8114    116.6962   1.0149462793e+02   5.1588757756e+01    0.6431046    0.2162042  66.13  0.002286582    2.992    0.666
       359  -8.1568    231.5126    117.4781   3.9898049923e+01   1.3372935182e+01    0.1235077   0.09923652 -30.66 0.0008100021    1.027    0.026
       360  -9.9741    109.4876    114.2909   6.3083748100e+01   3.7347068125e+01    0.5457866    0.3621463 -77.87  0.001852177    2.046    0.511
       361  -8.1717    185.7763    115.7962   4.6323519025e+01   2.1571772504e+01    0.1833477    0.1506941 -57.36 0.0004870901    1.315    0.239
       362 -11.0903    248.7984    108.4009   3.5974583613e+01   1.1972226191e+01    0.5785837    0.2629808 -35.33  0.003122114    1.671    0.401
       363  -8.7797     59.7158    114.7514   7.9469022685e+01   4.6164242554e+01    0.3380965     0.223024  -2.81  0.001335007    2.550    0.608
       364  -8.0955    167.3762    114.2066   4.9310744746e+01   2.5449311067e+01     0.202492    0.1247581 -48.89 0.0003915808    1.604    0.377
       365 -10.2775     92.8414    111.1983   6.7341643208e+01   4.1379589109e+01    0.9696926    0.4138035 -55.16  0.002686375    2.332    0.571
       366  -9.9672     78.8662    112.1013   7.2146025037e+01   4.3731660690e+01    0.6186488    0.3867322  87.89  0.001696469    2.258    0.557
       367  -8.6105     78.4658    105.0295   7.0637427740e+01   4.5632238012e+01    0.3635446    0.2691424 -15.84  0.001549088    2.061    0.515
       368  -8.3240    192.9181    115.1359   4.4975120672e+01   2.0344191912e+01    0.2030124    0.1685082 -55.35 0.0004972573    1.286    0.222
       369 -10.1190    133.7507    108.9668   5.5330774672e+01   3.3492690488e+01    0.6750394    0.3152602 -51.41  0.002394794    2.212    0.548
       370  -9.9490    122.0334    111.8925   5.9045621641e+01   3.5323569817e+01    0.5280478    0.3074164 -49.16  0.001286771    1.694    0.410
       371  -8.4913    174.8389    111.5744   4.7271866643e+01   2.4439002068e+01    0.2842507    0.1673308 -53.71 0.0006997586    1.884    0.469
       372  -8.7056    159.2262    111.7702   5.0343152297e+01   2.7567424767e+01     0.252503    0.2175587 -50.20 0.0005940144    1.119    0.106
       373 -10.1452     14.7061    111.0216   9.6408788576e+01   5.2338687421e+01    0.5594986    0.2842694  67.55  0.002225399    1.966    0.491
       374 -10.1596     66.4207    109.2363   7.5902729696e+01   4.6597678613e+01    0.6744698    0.3819816 -61.67  0.002234454    1.712    0.416
       375  -8.9370     42.8170    109.3301   8.4914530691e+01   4.9974351952e+01    0.3621763    0.1533486  13.46  0.001096716    4.122    0.757
       376  -8.4888      2.4867    109.4746   1.0119891857e+02   5.3580742290e+01    0.1411979    0.1189358  76.54 0.0001217176    1.022    0.022
       377  -8.2954    189.2667    107.8245   4.3876399592e+01   2.2260563760e+01    0.2497694    0.1470401 -41.11  0.000733473    1.511    0.338
       378  -8.8666    108.7481    107.6087   6.1627556226e+01   3.9069968112e+01    0.2403975    0.1938906  -1.33  0.001094908    1.744    0.427
       379 -11.0404    109.2623     99.0418   5.9206377090e+01   4.0960416950e+01     1.438492    0.6939927  66.12  0.001950297    4.664    0.786
       380  -9.0017    108.3687     92.1503   5.7524377767e+01   4.2739422747e+01    0.6215126    0.3086105  32.56  0.002053145    3.043    0.671
       381 -10.7660     23.0410    102.6058   9.2023802157e+01   5.3983914898e+01    0.8771365    0.3764027  61.86  0.002378537    2.727    0.633
       382  -9.5940    150.7058    103.1684   4.9953501425e+01   3.1042465576e+01    0.4691744     0.287977 -63.29  0.001279475    2.113    0.527
       383  -9.3091    139.8653    104.4467   5.2705701899e+01   3.3129769580e+01    0.3780774    0.2861168  89.02 0.0008825799    1.707    0.414
       384 -10.5925     45.5362    101.9123   8.2484980175e+01   5.1672012013e+01     0.925267    0.4382702  66.20  0.003060718    3.178    0.685
       385  -9.3083     46.2593     92.1293   8.0167607810e+01   5.4258196265e+01    0.5248063    0.3118449  -6.59  0.001876414    3.198    0.687
       386  -8.4625    166.7970    104.0678   4.6932426485e+01   2.7448391935e+01    0.2254751    0.1814812 -58.80 0.0004845237    1.283    0.221
       387  -9.8521    128.5850    102.1227   5.4818847168e+01   3.6077167585e+01    0.4068044    0.3035419  83.27  0.001163743    1.706    0.414
       388  -9.3035      6.7087    102.7486   9.8985719662e+01   5.5183872006e+01    0.3697846    0.1658791  54.23  0.001269097    2.160    0.537
       389  -8.0586    175.5227    101.9449   4.4795475179e+01   2.6021715632e+01    0.2174559    0.1285794 -41.14   0.00056825    1.532    0.347
       390  -8.4666    159.7884    100.9237   4.7495637217e+01   2.9521143268e+01    0.2703352    0.1874895 -57.71 0.0006771453    1.543    0.352
       391  -9.1978     82.0657     99.8115   6.8080009858e+01   4.6301979761e+01    0.4199345     0.289267 -89.08 0.0008858177    1.858    0.462
       392  -7.4531    153.3140    115.2986   5.2441920699e+01   2.8094269812e+01    0.1447306    0.1158563   0.53  0.000311733    1.607    0.378
       393  -9.4070     95.0979     96.7081   6.2888887766e+01   4.4494035771e+01    0.4093202    0.2585393 -61.44 0.0005513123    1.658    0.397
       394 -10.1122     63.9698     95.7697   7.3734279635e+01   5.0582445532e+01    0.6069654    0.3667349  82.77  0.001432079    2.425    0.588
       395  -8.5468      7.3159     97.3277   9.8265047337e+01   5.6647392199e+01    0.1470381   0.09385347 -48.36  0.000391161    1.675    0.403
       396  -7.3308    183.6830     96.3457   4.2006317434e+01   2.5317218456e+01    0.1469481    0.1018551 -64.00 0.0007048499    1.722    0.419
       397  -8.6245    150.6265     95.2487   4.7869939858e+01   3.2613178465e+01    0.2785635    0.1966805 -32.87  0.001212541    1.477    0.323
       398  -8.2842    164.9978     93.9816   4.4674755691e+01   2.9687246424e+01    0.2306269    0.1667884 -66.75  0.000453703    1.611    0.379
       399  -9.7295    139.1735     91.9495   4.9472990795e+01   3.5844014949e+01    0.4846533    0.2510848 -53.71  0.001375061    2.089    0.521
       400  -7.9356    188.5627     93.4692   4.0509547532e+01   2.4803286248e+01    0.1405073    0.1218244 -45.36 0.0003015288    1.037    0.035
       401  -8.4782    176.4748     93.1327   4.2398894055e+01   2.7372614081e+01    0.2264365    0.1835291 -64.80 0.0004213033    1.308    0.235
       402 -10.1072    123.5922     91.1401   5.3037406094e+01   3.9556933044e+01    0.6124509     0.427012  39.00  0.001242463    1.618    0.382
       403  -9.2912     22.5689     90.2566   9.0481265993e+01   5.7470294686e+01    0.4955669    0.3043345 -43.32  0.001928503    1.807    0.447
       404  -9.4668      5.0952     91.7280   9.8766978655e+01   5.8326909996e+01     0.446178    0.1854672  58.11  0.001538603    2.480    0.597
       405  -8.1556    157.7281     91.4176   4.5384976191e+01   3.1763126247e+01    0.2685457    0.1650243 -50.03 0.0006071797    1.583    0.368
       406  -9.6654     34.9189     89.7469   8.4701382298e+01   5.6344608716e+01    0.5568233     0.282499  81.80   0.00150967    2.716    0.632
       407  -7.8764    191.5223    249.4877   6.8370574946e+01   9.5918610638e-01    0.1025589   0.07663198  12.71 0.0002304138    1.084    0.078
       408 -10.0767     86.4981     86.2468   6.2760533640e+01   4.8801935032e+01    0.5968999    0.4131158 -77.54  0.001837253    1.779    0.438
       409  -8.4961     65.0247     87.4685   7.1163947424e+01   5.2582689489e+01    0.3103887    0.2068713  15.55  0.001267367    2.154    0.536
       410  -8.5545     69.8029     86.1982   6.8915062282e+01   5.2059692220e+01    0.4583251    0.1639225  40.51   0.00150146    2.764    0.638
       411  -9.7178     48.5331     84.1101   7.7278413978e+01   5.6107931045e+01     0.575395    0.3151116  66.93  0.001703882    2.641    0.621
       412  -7.8143    179.3013     85.6152   3.9977113944e+01   2.8058650660e+01    0.1543149   0.09979991 -61.78 0.0007019061    1.784    0.439
       413  -9.6782    104.7404     82.8212   5.5798630589e+01   4.5660896232e+01    0.5265523      0.34139 -74.59 0.0008625886    2.129    0.530
       414  -8.5750    106.0104     76.4834   5.3396782363e+01   4.6770972276e+01    0.3054916    0.2051854  -4.77  0.001034471    3.329    0.700
       415  -8.4232    158.0210     83.9450   4.3267210838e+01   3.3080212755e+01    0.2279879    0.2043351 -53.57 0.0005198194    1.027    0.026
       416  -7.3851    170.6405     83.3242   4.0809910712e+01   3.0345909487e+01    0.1555104    0.1058764 -68.66 0.0007043395    1.778    0.438
       417  -9.3322    140.9007     82.1325   4.6253713002e+01   3.7393124196e+01     0.460815    0.2154571 -40.85  0.001506141    2.042    0.510
       418  -8.2355     64.0586     82.4726   7.0155001337e+01   5.4043303163e+01    0.2450581    0.1989388 -66.81 0.0005296833    1.195    0.163
       419  -9.5239      9.8867     80.8476   9.5294844722e+01   6.1051824870e+01    0.4500327    0.2164412  61.40  0.001829248    2.269    0.559
       420  -8.2026     36.3410     82.2909   8.2477001214e+01   5.8223938938e+01    0.1521614    0.1097793 -33.35 0.0007025388    1.649    0.394
       421  -9.6149     24.8488     80.4413   8.7702220498e+01   5.9976896971e+01    0.5422019    0.2927517  73.12  0.001375819    2.268    0.559
       422  -8.9625    119.4260     79.6561   5.0668168106e+01   4.2958204250e+01    0.4505949    0.2334325 -45.52  0.001580467    1.872    0.466
       423  -8.9305     74.7886     80.1966   6.5198649800e+01   5.2629436258e+01     0.375192    0.2345402 -75.84 0.0009693135    2.115    0.527
       424  -8.1699    150.2410     80.2413   4.3735103107e+01   3.5562170326e+01    0.2166688    0.1642215 -63.18  0.001043476    1.367    0.268
       425  -8.1560    166.8508     79.1899   4.0329408683e+01   3.1915737889e+01    0.2246017     0.178272 -55.11 0.0006993749    1.188    0.158
       426  -7.8953    184.4402     77.9850   3.7171404674e+01   2.8211551939e+01    0.2171039    0.1247223 -37.08  0.000919587    1.541    0.351
       427  -7.8581    157.1892     76.1929   4.1214434044e+01   3.4672421445e+01    0.2114703    0.1626774 -64.20  0.000480291    1.331    0.248
       428  -8.6150    140.5267     75.3230   4.4287711042e+01   3.8788059947e+01    0.3377517    0.2163714 -65.80 0.0008719801    1.888    0.470
       429  -9.2683    128.0940     75.1335   4.7057434559e+01   4.1815524662e+01    0.3771332     0.248392 -62.86 0.0005976867    1.717    0.418
       430  -9.9981     63.0774     73.1474   6.7726677877e+01   5.6582410348e+01    0.5704672    0.3178953 -66.62  0.001201655    2.050    0.512
       431  -9.6871     82.5467     72.4232   5.9757982346e+01   5.2917043283e+01    0.4668106    0.3000107 -70.46  0.000949728    1.959    0.490
       432  -8.3936    163.4986     72.9752   3.9153275647e+01   3.3760751587e+01    0.2303411    0.1348864 -39.30  0.001021733    1.562    0.360
       433  -8.0410    151.3809     73.1883   4.1430276515e+01   3.6582792158e+01    0.2251961    0.1260899 -48.37 0.0006557413    1.704    0.413
       434  -8.7892    115.8150     72.6377   4.9368610876e+01   4.5271099480e+01    0.2628993     0.209338 -38.00 0.0005816612    1.311    0.237
       435  -8.2151     42.8805     72.7490   7.6912746723e+01   5.9935344430e+01    0.2843256    0.1841642  81.86 0.0007740448    1.998    0.499
       436  -7.8540    175.5304     72.4619   3.7035552123e+01   3.1083267991e+01    0.1447785    0.1290874 -51.18 0.0002708357    1.013    0.013
       437  -9.0323    105.7623     71.5032   5.1811261838e+01   4.7897882412e+01    0.3076411     0.253399 -87.13 0.0006581607    1.313    0.239
       438  -9.3887     95.0457     70.6926   5.4849567959e+01   5.0556582856e+01    0.5152048    0.2681178 -59.62  0.001370721    2.353    0.575
       439  -9.1673     29.3738     70.3293   8.3192970781e+01   6.2265159046e+01    0.6117538    0.2835579 -26.49  0.001872406    4.401    0.773
       440  -9.3906     51.4285     69.3708   7.1773436349e+01   5.9526538587e+01    0.5283053    0.3019812 -81.86  0.001376107    2.625    0.619
       441  -8.9296     16.5814     69.9165   9.0053631504e+01   6.3578662069e+01    0.2773728    0.1931351  59.01 0.0008977732    1.517    0.341
       442  -8.6926    138.4838     65.6823   4.1695261573e+01   4.1071186034e+01    0.3406335    0.2089176 -63.45 0.0007691042    1.927    0.481
       443  -8.7786    121.6689     65.6990   4.5532453799e+01   4.5227133407e+01    0.3122093    0.2148342 -60.59 0.0006414588    1.545    0.353
       444  -8.7452    147.1537     68.1830   4.0729640769e+01   3.8496332323e+01    0.3290127    0.1939045 -44.67 0.0007741485    1.578    0.366
       445  -9.0562    110.2021     63.3401   4.7706207184e+01   4.8506619612e+01    0.3291193    0.2322771 -56.04  0.000616216    1.435    0.303
       446  -8.9545     37.0969     63.8550   7.7296488109e+01   6.3044312489e+01    0.3037003    0.2302372  80.56  0.001495674    1.504    0.335
       447  -7.7055     85.6503     63.6658   5.5525662772e+01   5.4218011320e+01    0.1588935    0.1278836   2.28 0.0007047415    1.779    0.438
       448  -8.5402     64.1910     63.0075   6.3761450880e+01   5.8842036962e+01    0.2538754    0.1719276 -27.77 0.0008505771    2.015    0.504
       449  -8.0900    158.1787     61.6646   3.6718754220e+01   3.6932823991e+01    0.2123295    0.1653397 -51.14   0.00041631    1.171    0.146
       450  -9.4693     97.5788     60.4637   5.0356549862e+01   5.2135741398e+01     0.336631     0.263784  78.65  0.000883359    1.405    0.288
       451  -9.6903     73.4325     59.3568   5.8504692302e+01   5.7823074290e+01    0.4666778    0.2858314 -61.27   0.00103113    1.849    0.459
       452  -8.2950    147.3511     59.0950   3.7831191380e+01   4.0022376472e+01    0.2270334    0.1209567 -46.90 0.0005536175    1.765    0.433
       453  -7.9404     88.9919     59.0410   5.2616078397e+01   5.4446544200e+01    0.2538123    0.1858494 -80.25 0.0006401851    1.710    0.415
       454  -8.1367    130.8257     57.7512   4.0691383206e+01   4.4404538423e+01    0.2189866    0.1686823 -67.98 0.0005668917    1.334    0.250
       455  -9.8566     23.4316     56.1954   8.2876102432e+01   6.6624937074e+01    0.5173696    0.2967942  73.25  0.001914659    2.433    0.589
       456  -9.5845      7.3531     56.9181   9.3089282813e+01   6.7697173404e+01    0.3708838    0.2293313  64.39  0.001238032    1.787    0.440
       457  -8.3964    140.0333     56.0304   3.8217830369e+01   4.2373780279e+01     0.249467    0.1664313 -64.61 0.0005432582    1.628    0.386
       458  -9.3507    119.2103     55.2594   4.2468863020e+01   4.7791306000e+01    0.4336535    0.2321124 -51.08  0.001214347    1.925    0.480
       459  -8.7600     44.1990     55.5172   7.0681096312e+01   6.4124897392e+01    0.2736945    0.2209181  83.74 0.0007780464    1.434    0.303
       460  -8.1988    151.0103     88.9711   4.6065242567e+01   3.3737784430e+01    0.2414966    0.1756009 -72.77 0.0004992478    1.655    0.396
       461  -9.2074     62.9176     54.5119   6.1053621577e+01   6.1050248925e+01    0.3545025    0.2141611 -57.99 0.0006827927    1.752    0.429
       462  -9.2203     54.0010     53.4391   6.4825872165e+01   6.2974951391e+01    0.4684088    0.2156982 -62.26  0.001643867    2.760    0.638
       463  -8.5888    105.6304     52.9911   4.5137810018e+01   5.1626915912e+01    0.3416294    0.2354432 -73.15 0.0008623706    1.784    0.440
       464  -8.0061    163.2948     52.6895   3.3160863310e+01   3.7116731963e+01    0.1546155   0.09991571 -62.25 0.0002820129    1.592    0.372
       465  -9.4325     92.5171     50.3772   4.8006964481e+01   5.5347598679e+01    0.4441633    0.2498008 -52.92  0.001027296    1.911    0.477
       466  -8.2434    144.8694     48.8408   3.4919873429e+01   4.2319721541e+01    0.2169601    0.1584259 -58.56 0.0005527535    1.317    0.240
       467  -8.1770    129.9522     48.9814   3.7804322030e+01   4.6125928291e+01    0.2541175    0.1689007 -66.46  0.000534422    1.669    0.401
       468  -8.1669    120.9344     47.0246   3.9028420910e+01   4.8780461120e+01    0.2246796    0.1877722  19.92 0.0006159758    1.564    0.361
       469  -8.3740    112.2183     46.6776   4.0954528916e+01   5.1086345444e+01    0.2640351     0.191897 -52.53  0.000635054    1.358    0.264
       470  -8.9389     82.2392     46.2733   4.9745681598e+01   5.8584145911e+01    0.3351682    0.2418334 -58.99 0.0007441017    1.492    0.330
       471  -8.4245     45.0147     44.5033   6.5776448207e+01   6.6582980644e+01    0.2657585    0.1979003 -71.33 0.0006370583    1.549    0.355
       472  -8.9900     16.7533     44.4415   8.3745359598e+01   7.0262634376e+01    0.2553895    0.1982874  72.44  0.000742063    1.468    0.319
       473  -8.3210    132.6498     43.1955   3.5190974517e+01   4.6353199892e+01    0.2011404    0.1431311 -24.49 0.0004252606    1.597    0.374
       474  -8.7713     58.3377     42.2956   5.7847655780e+01   6.4602499596e+01    0.3465534    0.2362661 -71.46  0.001031843    1.990    0.497
       475  -9.8476      5.1024     41.4462   9.1416853685e+01   7.1847911602e+01    0.4985222    0.2218868 -89.01  0.002000185    2.667    0.625
       476  -8.9619    106.0764     41.2072   4.0313152227e+01   5.3588115703e+01    0.2812319    0.2112716 -58.07 0.0007335708    1.353    0.261
       477  -8.4674     74.9517     51.5415   5.4743759312e+01   5.9183542800e+01    0.4408579    0.2560277  22.77  0.001255012    3.506    0.715
       478  -9.2102     69.5599     41.2090   5.2325177940e+01   6.2452848717e+01    0.3994438    0.2749288 -66.27   0.00133034    1.818    0.450
       479  -8.3838    149.7017     41.3044   3.1598491910e+01   4.2227887487e+01    0.1566825    0.1009863 -63.20 0.0003927384    1.587    0.370
       480  -7.8409    140.3593     41.1722   3.3077438858e+01   4.4656181425e+01    0.2183536    0.1213631 -44.53 0.0003919219    1.668    0.401
       481  -8.3931     36.9584     40.5411   6.8740218409e+01   6.8769412116e+01    0.2630812    0.1968312 -75.83 0.0007292039    1.592    0.372
       482  -7.8643    160.6221     39.7362   2.9499246544e+01   3.9684120549e+01    0.2108017    0.1157382 -43.31 0.0004980603    1.612    0.380
       483  -8.5482     95.6168     37.8364   4.1719582460e+01   5.6821088775e+01    0.2952873    0.2053394 -64.14 0.0006693405    1.633    0.387
       484  -8.0820     80.7950     36.7433   4.5919838128e+01   6.0675405532e+01    0.2088007    0.1710841 -74.09 0.0004945341    1.347    0.258
       485  -7.6941    133.5150     36.4558   3.2579148087e+01   4.7137556753e+01    0.1499354    0.1376207 -75.64  4.43099e-05    1.025    0.025
       486  -9.2935     26.2266     35.3046   7.3502219569e+01   7.1461743947e+01    0.3056072    0.2267313 -82.81 0.0007506643    1.663    0.399
       487  -8.3992    126.0410     35.3072   3.3520342105e+01   4.9274958498e+01    0.2091445    0.1860216 -85.95  0.000417236    1.052    0.049
       488  -8.1689    111.8675     34.2085   3.6019904014e+01   5.3180928039e+01    0.2412499     0.186611 -69.33 0.0005946348    1.326    0.246
       489  -8.4879    119.3811     33.1401   3.3980975336e+01   5.1352119746e+01    0.2218904    0.1233592 -45.32 0.0006755794    1.739    0.425
       490  -8.6664     60.8427     32.3432   5.1691784717e+01   6.6026847940e+01    0.2378686    0.1954667 -58.06 0.0005748472    1.301    0.231
       491  -8.8945     48.5477     32.8872   5.8151156219e+01   6.8420592131e+01    0.2637782    0.2227231 -65.71 0.0007615085    1.314    0.239
       492  -8.4818     72.3092     30.8826   4.6120682536e+01   6.3696514055e+01    0.2765887    0.2079281 -66.00 0.0007820418    1.560    0.359
       493  -8.9097     12.9530     29.9855   8.1486300662e+01   7.4129055395e+01    0.3582219    0.1904985 -80.55  0.001551738    2.433    0.589
       494  -8.0227     42.3664     30.1052   6.0183673240e+01   7.0113237586e+01    0.1973671     0.129391 -57.28 0.0005560684    1.701    0.412
       495  -8.6184    101.4993     29.0762   3.6245505838e+01   5.6660571153e+01    0.2210087    0.1435028 -36.94  0.000659499    1.542    0.351
       496  -8.9223     81.5911     27.2036   4.0963477163e+01   6.2037862176e+01    0.3266131    0.2177627 -59.80 0.0008149411    1.747    0.428
       497  -9.1657      3.7692     27.3879   8.8564350808e+01   7.5410441599e+01    0.2837406    0.1799184 -85.18   0.00101224    1.715    0.417
       498  -8.7703     91.8850     26.2594   3.7430854007e+01   5.9566658942e+01     0.324841    0.1822631 -47.94 0.0007634443    1.863    0.463
       499  -7.9107     34.6034     22.8290   6.0898550553e+01   7.2889419403e+01    0.1899835    0.1273646 -57.77 0.0005233157    1.710    0.415
       500  -8.0984    104.4579     22.4998   3.2593674639e+01   5.6779693403e+01    0.1509718    0.1339974 -75.37 0.0008079869    1.078    0.072
       501  -8.7731     48.4359     21.3697   5.1532127107e+01   7.0567498501e+01    0.2512745    0.2289977 -63.00 0.0009079768    1.209    0.173
       502  -8.8156     63.7307     20.7252   4.3914649665e+01   6.7321004942e+01    0.3116821     0.179702 -48.48 0.0009848974    1.926    0.481
       503  -8.0689     19.4409     21.2150   7.1626210029e+01   7.5432194179e+01    0.1785771    0.1263131 -68.17 0.0005489667    1.638    0.389
       504  -7.7484    120.5398     20.5281   2.8644849757e+01   5.2718856422e+01     0.150346    0.1311131 -72.74 0.0002796578    1.058    0.055
       505  -8.8926     74.3545     19.5183   3.9262031703e+01   6.4947678068e+01    0.3037675    0.2179834 -58.91 0.0007328586    1.580    0.367
       506  -7.9689     39.1125     18.1801   5.4913180024e+01   7.2942442383e+01    0.1789193    0.1625169 -76.99 0.0004774881    1.310    0.236
       507  -7.8000    112.7990     16.7958   2.8409764783e+01   5.5244216035e+01    0.2032155    0.1535073 -63.28 0.0003931043    1.303    0.233
       508  -8.1171     87.8957     17.2083   3.3988246516e+01   6.1813216975e+01     0.222496     0.185054 -72.21 0.0005518644    1.242    0.195
       509  -8.1421     30.1990     15.7788   5.9396938296e+01   7.4949996447e+01    0.2034038     0.145356  87.27 0.0009254429    2.642    0.621
       510  -8.1240     97.0030     14.9461   3.0671801614e+01   5.9689195074e+01    0.2372474    0.1565688 -60.85 0.0005090487    1.637    0.389
       511  -7.7158      7.6576     15.3371   7.9530004879e+01   7.7931749732e+01     0.128689   0.09531421  61.16 0.0007050005    1.766    0.434
       512  -7.6185     17.3062     13.6953   6.8812977905e+01   7.7252254901e+01    0.1223953    0.1024217  71.23  0.000279895    1.603    0.376
       513  -8.0207    183.9932    250.0000   6.9703898706e+01   1.6919573179e+00    0.1715679   0.04654738  30.71 0.0008045528    2.957    0.662
       514  -9.0774    175.5808    247.5414   7.0861410691e+01   2.8880093632e+00    0.2178354     0.189715  57.11  0.001205312    1.955    0.488
       515  -8.3039    113.2265    248.3731   8.2698599911e+01   9.9040959028e+00    0.1689917    0.1264599  68.66  0.001157001    1.834    0.455
       516  -8.4132     93.8435    249.1464   8.6683282775e+01   1.2029797251e+01    0.1808557    0.1179164  46.51 0.0009936002    1.367    0.268
       517  -8.8060    232.6473    247.0884   6.1601374370e+01  -2.8282623248e+00    0.1842462    0.1204961 -32.68 0.0007170222    1.819    0.450
       518  -8.4640    234.4991    243.4588   6.0851539765e+01  -2.6411581205e+00     0.177873    0.1102851   8.91  0.001411775    1.216    0.178
       519  -8.5417    218.5173    247.1934   6.3743801898e+01  -1.5063983359e+00    0.2305599   0.08489192 -35.50  0.001373324    2.771    0.639
       520  -8.6681    156.0264    247.9785   7.4424954627e+01   5.0110051618e+00    0.1549345    0.1157655  45.69 0.0006101207    1.667    0.400
