#   1 NUMBER                 Running object number                                     
#   2 MAG_AUTO               Kron-like elliptical aperture magnitude                    [mag]
#   3 X_IMAGE                Object position along x                                    [pixel]
#   4 Y_IMAGE                Object position along y                                    [pixel]
#   5 X_WORLD                Barycenter position along world x axis                     [deg]
#   6 Y_WORLD                Barycenter position along world y axis                     [deg]
#   7 A_WORLD                Profile RMS along major axis (world units)                 [deg]
#   8 B_WORLD                Profile RMS along minor axis (world units)                 [deg]
#   9 THETA_WORLD            Position angle (CCW/world-x)                               [deg]
#  10 FWHM_WORLD             FWHM assuming a gaussian core                              [deg]
#  11 ELONGATION             A_IMAGE/B_IMAGE                                           
#  12 ELLIPTICITY            1 - B_IMAGE/A_IMAGE                                       
         1 -12.8957    197.2887     32.9777   6.1948556510e+01   3.1567920283e+01     1.144976    0.7504055  45.16  0.005457241    1.566    0.362
         2 -13.6693    212.4288     15.1133   5.4926723500e+01   2.9679443798e+01      1.34812     0.955382  23.85  0.006928717    1.722    0.419
         3 -11.3416      2.2354     14.6287   1.2126802803e+02   7.2418535379e+01    0.4605046     0.138866 -63.81  0.002006549    2.839    0.648
         4 -11.7750      3.6500      4.3189   1.1643088517e+02   7.4392556315e+01    0.4900376    0.3476295 -22.33   0.00340897    1.247    0.198
         5 -10.2545    142.8801    248.9858   1.1944493287e+02   8.2818329086e+00    0.2919846    0.1246446  46.14  0.001608758    1.946    0.486
         6 -10.8588    184.9429    250.3704   1.1218868184e+02   2.1881230649e+00     0.392085    0.1094595  39.16  0.001800805    2.622    0.619
         7 -10.9275    169.6568    248.6816   1.1466099863e+02   4.5425093083e+00    0.2980424    0.1890932  11.11 0.0007407563    1.921    0.479
         8 -11.1586    149.9377    248.3514   1.1812073617e+02   7.3734498440e+00    0.3029257    0.2562626 -73.19  0.002353014    1.743    0.426
         9 -11.6097    100.0735    247.7181   1.2693373245e+02   1.4216775595e+01    0.7019424    0.3220535  48.77  0.004261717    1.707    0.414
        10 -10.3275     84.8356    240.7980   1.2909530421e+02   1.7156561569e+01    0.2898997    0.2258843  63.89  0.002286567    1.176    0.150
        11 -11.1582    116.7946    238.4008   1.2309675495e+02   1.3339922389e+01    0.5192468    0.2438237 -43.40  0.002813015    3.252    0.692
        12 -11.5170    122.3771    233.0106   1.2152471939e+02   1.3350981475e+01    0.4248463    0.2971464  48.75   0.00292847    1.195    0.163
        13 -11.4338    133.6989    248.6140   1.2104228578e+02   9.6037362756e+00    0.6002763    0.2253781  40.19  0.003219201    1.926    0.481
        14 -12.6860    124.6332    242.8957   1.2210494248e+02   1.1626904505e+01    0.8421606    0.6578963 -24.27  0.006106295    1.876    0.467
        15 -11.2989     84.8219    230.8091   1.2831885894e+02   1.8704943703e+01    0.4810266    0.2446308 -74.61  0.002879582    2.469    0.595
        16 -11.4602     98.6970    232.5271   1.2589389426e+02   1.6649916671e+01    0.9199715    0.4128367 -81.40  0.004052559    4.726    0.788
        17 -11.3269    113.2782    231.0198   1.2302875906e+02   1.4913828322e+01    0.3817071    0.2837211  26.32  0.001727665    1.408    0.290
        18 -10.4809    115.3244    250.3704   1.2446766352e+02   1.1855085389e+01    0.4105877    0.1629923  38.23  0.001281449    1.867    0.464
        19 -11.6705    109.2220    245.9600   1.2516205003e+02   1.3276018912e+01    0.6489719    0.3585032  87.80 0.0008096472    3.410    0.707
        20 -11.4194    104.9967    227.6326   1.2426114419e+02   1.6566993549e+01    0.4806638    0.2820649  59.86  0.002927789    1.759    0.431
        21 -10.6964     98.6546    223.4013   1.2506735058e+02   1.8092676231e+01    0.3606555    0.2221333  41.57  0.001476289    1.286    0.222
        22 -10.6912     96.8797    239.6929   1.2684359347e+02   1.5799812831e+01    0.2654738    0.2316074   0.90  0.001219322    1.639    0.390
        23 -10.3978     91.2104    241.7640   1.2803131460e+02   1.6214534677e+01    0.2314341    0.1751929  43.44 0.0008637322    1.108    0.097
        24 -10.6487     89.8189    238.2103   1.2799941956e+02   1.6925540280e+01    0.2271922    0.1995588  70.78 0.0008340855    1.229    0.186
        25 -10.1578     81.9548    246.7701   1.3003971348e+02   1.6617598684e+01    0.2561689    0.1808872  84.48  0.001958085    1.573    0.364
        26  -9.7330     91.2544    250.3627   1.2868345562e+02   1.4952847568e+01    0.3081859    0.1195874  34.69    0.0016828    2.208    0.547
        27 -10.8567     86.9778    248.1563   1.2926428139e+02   1.5800465822e+01    0.2741755    0.2189428  27.34 0.0007937879    1.462    0.316
        28  -9.3136     62.5198    250.4572   1.3360377461e+02   1.8342823301e+01    0.1517765    0.1096225  26.93  0.000587736    1.683    0.406
        29 -11.2904     60.3220    245.8448   1.3370814092e+02   1.9279313062e+01    0.3840881    0.2613694  53.03  0.001755062    1.059    0.056
        30  -9.9082     67.2182    243.8466   1.3240324533e+02   1.8799601952e+01    0.2919725    0.1236939  34.35  0.001705227    2.097    0.523
        31 -11.9515     57.3696    208.4903   1.3180906491e+02   2.5772087551e+01     1.313316    0.3843012  42.57  0.006382925    2.508    0.601
        32 -12.9991      3.4534    186.0137   1.4101775675e+02   3.5067690484e+01     1.856387    0.3624449 -79.88  0.007733261    4.360    0.771
        33 -11.9836     18.7178    216.8265   1.3946415619e+02   2.8224319004e+01    0.5659103    0.3465948  14.77  0.002084667    2.712    0.631
        34 -12.9569     11.9110    207.3447   1.4029092548e+02   3.0475083446e+01    0.8671127    0.7525394 -34.54  0.006419663    1.854    0.461
        35 -13.0412      6.8099    226.4504   1.4184797210e+02   2.7646635965e+01     1.131296    0.6438212  59.38  0.008860813    1.248    0.199
        36 -11.3370     41.6422    205.8898   1.3467770755e+02   2.7942293907e+01    0.4847568    0.1705164  46.30  0.002257667    2.159    0.537
        37 -13.4527     28.4874    246.6335   1.3902518156e+02   2.2476526003e+01     1.211017    0.5847316  41.57  0.008743004    1.574    0.364
        38 -13.3037     39.9819    243.2620   1.3699775738e+02   2.1852005162e+01     1.017004    0.6242629  64.36  0.007066026    1.280    0.219
        39 -13.0888      3.8961    245.3755   1.4285683246e+02   2.4899628899e+01    0.7896037    0.3456861  68.00  0.005755253    1.743    0.426
        40 -12.6300     13.7865    239.7146   1.4113783918e+02   2.4912394102e+01    0.5216096    0.4219388  85.77  0.001656616    1.353    0.261
        41 -12.8357     32.2762    227.3564   1.3755908894e+02   2.5170222424e+01    0.4164784    0.2758336 -71.11   0.00204271    1.718    0.418
        42 -14.0431     39.1841    218.6010   1.3588258652e+02   2.5954456377e+01     1.067854    0.7977294  40.41  0.008320012    1.326    0.246
        43 -10.4119    137.0822    214.2873   1.1655198612e+02   1.4021842960e+01    0.2301276    0.1824823  73.92  0.001237822    1.608    0.378
        44 -11.2185    132.1127    223.4060   1.1862460394e+02   1.3376751100e+01    0.4425466    0.2093422  40.58  0.002404973    1.645    0.392
        45 -13.1308    135.6838    241.0470   1.1990702933e+02   1.0340414067e+01     1.194906    0.2967291  42.35  0.005076002    2.984    0.665
        46  -9.9877    136.1307    225.1546   1.1805631460e+02   1.2525873298e+01    0.1708874    0.1391747  26.95 0.0002722197    1.185    0.156
        47 -11.9162    135.3896    236.1447   1.1943551143e+02   1.1058112606e+01    0.4386545    0.3393948   2.68  0.002574156    1.708    0.415
        48 -11.3731    134.9573    231.3212   1.1898418430e+02   1.1802267555e+01    0.4028222    0.2495193 -28.23  0.001939667    2.611    0.617
        49 -11.3744    166.2635    242.2226   1.1449463073e+02   5.8054701876e+00    0.3313353    0.1252517  40.07  0.001704393    1.979    0.495
        50 -10.3505    244.3825    240.7890   1.0083765089e+02  -5.0145777181e+00    0.1452569   0.08342188  -7.48 0.0006808972    1.722    0.419
        51 -10.5315     53.8977    240.5161   1.3450199255e+02   2.0807514793e+01    0.1888383    0.1317635 -86.85 0.0006976555    1.514    0.340
        52  -9.7122     55.2115    235.7489   1.3399931760e+02   2.1413347220e+01    0.2473286    0.1237499  54.02  0.001427784    1.541    0.351
        53  -9.3048     61.4638    238.8612   1.3309285417e+02   2.0224742823e+01    0.1869383    0.1127694  43.09 0.0007053182    1.293    0.226
        54  -9.5901    173.1520    236.1751   1.1249678614e+02   5.5458746331e+00    0.1468849    0.1146509  44.42 0.0002561574    1.322    0.244
        55 -10.5115    165.5230    235.4767   1.1379988170e+02   6.7586153058e+00     0.195254    0.1157038 -41.80  0.000964618    2.193    0.544
        56 -10.0520    162.0002    232.9615   1.1413310718e+02   7.6046128964e+00    0.1770698    0.1242924  56.30  0.001127784    1.730    0.422
        57 -10.6672    156.7074    231.8535   1.1497681191e+02   8.5366233460e+00    0.2151868    0.1845797  13.40 0.0004769935    1.237    0.192
        58  -8.5294     78.2314    233.3792   1.2972722236e+02   1.9114869003e+01   0.08805963   0.08093107 -27.52 0.0006350309    1.617    0.382
        59 -10.5781    141.4760    231.2156   1.1774781444e+02   1.0869350261e+01     0.235967    0.1852401   3.97   0.00117831    1.587    0.370
        60  -8.1316     92.3034    232.6448   1.2708807784e+02   1.7464366405e+01    0.1153286    0.0664055  60.85 0.0004963276    1.712    0.416
        61  -9.2957    250.3232    231.3299   9.8438034217e+01  -4.9292624683e+00    0.1185583   0.06297643  12.19 0.0007049709    1.698    0.411
        62  -8.7608     73.2142    247.0426   1.3157317360e+02   1.7621080855e+01    0.2041362   0.09436361  42.83  0.001301099    1.565    0.361
        63  -9.0656     45.8594    231.1178   1.3537656369e+02   2.3167894199e+01    0.1688939   0.09653364  57.99  0.001190513    1.355    0.262
        64 -11.1355    142.2322    221.5684   1.1645217050e+02   1.2145163148e+01     0.456395     0.229864  32.25 0.0009550026    1.750    0.429
        65  -9.3517     77.4224    220.5744   1.2887865144e+02   2.1296891078e+01    0.2000756    0.1326915  59.49 0.0001313483    1.299    0.230
        66 -10.0037     80.6940    226.6958   1.2875531662e+02   1.9881243296e+01      0.26749    0.2155502 -17.11  0.001265252    2.064    0.515
        67  -9.6668     78.9732    224.5473   1.2890571130e+02   2.0445810547e+01    0.1759417    0.1669368 -24.25 0.0006764262    1.503    0.335
        68 -10.4761    117.2275    224.5008   1.2161146099e+02   1.5358125537e+01    0.2372162    0.1923951  39.85 0.0003353211    1.075    0.069
        69 -10.0549     91.6236    225.5323   1.2660122099e+02   1.8678073717e+01    0.3601321    0.1294411  47.87  0.001354496    2.272    0.560
        70  -9.3320     65.0224    224.5023   1.3150566732e+02   2.2130430988e+01    0.1769272    0.1401112 -53.90  0.000967918    1.714    0.416
        71  -9.6067    160.0106    223.8159   1.1333356677e+02   9.1308977708e+00    0.2086726    0.1202596  18.70  0.001098903    2.125    0.529
        72  -8.9103    110.6494    222.6734   1.2268781999e+02   1.6568137266e+01    0.1100263   0.08532389   8.58 0.0007048433    1.760    0.432
        73  -9.6244    246.0025    218.5004   9.7098462252e+01  -3.1033721543e+00     0.216118    0.0994704   9.60 0.0009931405    2.968    0.663
        74 -10.3993     69.9834    217.9981   1.3009262942e+02   2.2639067810e+01    0.5186377    0.2615297  86.66  0.002842905    2.593    0.614
        75  -8.6286     99.3148    218.2883   1.2444794477e+02   1.8835755438e+01    0.1039992   0.08572559  11.63 0.0003183287    1.588    0.370
        76  -8.8255     89.0360    218.3348   1.2645291046e+02   2.0195581399e+01    0.1629965    0.1200371  47.97 0.0005932997    1.077    0.072
        77  -8.8135     62.4885    218.0086   1.3151721532e+02   2.3520286559e+01     0.132413   0.09922806 -78.23 0.0004048823    1.447    0.309
        78  -8.5714    159.7986    213.8962   1.1203457552e+02   1.0562541186e+01    0.1336346    0.0978215 -38.10 0.0005774637    1.674    0.402
        79  -9.3941     88.1491    212.8834   1.2612357573e+02   2.1233837029e+01    0.2048305    0.1413437  84.27 0.0008862263    1.636    0.389
        80  -9.6685    112.5029    208.2147   1.2075047394e+02   1.8663694024e+01    0.2037369    0.1693196  31.50 0.0006955269    1.195    0.163
        81  -9.9029     73.7768    242.9750   1.3120503410e+02   1.8165765529e+01    0.4688411    0.3179802  -3.29   0.00259586    3.836    0.739
        82 -10.2560     92.6844    204.9503   1.2443323543e+02   2.2009229478e+01    0.6082793    0.2149662  41.67  0.002430333    2.245    0.554
        83  -8.5178     32.8516    206.9354   1.3641199245e+02   2.8636825859e+01     0.138521    0.1222679  85.18 0.0003985571    1.267    0.211
        84  -8.9579    125.6423    205.8513   1.1779036413e+02   1.7109160798e+01    0.1516138    0.1155925 -76.18 0.0007793106    1.697    0.411
        85  -8.8513     75.0389    203.4203   1.2787997210e+02   2.4581301862e+01    0.2668974    0.1739894  10.10  0.000899142    2.682    0.627
        86 -10.3876    250.1223    201.4124   9.3519312472e+01  -1.9210514368e+00    0.3205603     0.131422 -16.74  0.001467115    2.954    0.661
        87  -9.5143    103.9625    203.0743   1.2191442534e+02   2.0772890000e+01    0.1802571    0.1595241  36.55 0.0006567365    1.159    0.137
        88  -9.2879     74.9564    208.3114   1.2832897189e+02   2.3715937801e+01    0.2210178    0.1148743  39.01  0.001283617    1.620    0.383
        89  -9.7733     84.4407    201.2280   1.2574952113e+02   2.3774019517e+01    0.3382517    0.2167306 -35.44  0.001737295    2.573    0.611
        90  -8.8995     85.7797    195.6156   1.2489983389e+02   2.4624337889e+01    0.1702204    0.1315528  48.26 0.0002676565    1.096    0.088
        91  -8.7803     64.6079    201.7755   1.2984981253e+02   2.6149791071e+01    0.1401647   0.09617224  85.18 0.0002675978    1.459    0.315
        92  -9.4699    183.0348    200.2511   1.0544387671e+02   8.7673323685e+00    0.1849466    0.1612078  16.92 0.0003699197    1.116    0.104
        93  -8.7108    127.8034    199.7904   1.1656316633e+02   1.7790983450e+01    0.1608985    0.1270505  55.64 0.0004111274    1.248    0.198
        94  -9.3696     44.7293    199.2096   1.3363938172e+02   2.8844968624e+01    0.2722426    0.2119495  19.47   0.00193143    1.702    0.412
        95  -9.7868    118.1324    198.7506   1.1844816812e+02   1.9448561268e+01    0.4081545    0.1360869  46.68  0.001655988    2.776    0.640
        96 -10.1424     28.4992    197.2610   1.3670756152e+02   3.0823570283e+01    0.2892687    0.2581984  -5.55  0.002285346    1.712    0.416
        97  -8.7884    145.3408    198.1427   1.1269707266e+02   1.5284261378e+01    0.1514913    0.1204859 -66.40 0.0003938872    1.662    0.398
        98 -10.3152    102.8354    196.1217   1.2135025259e+02   2.2169549481e+01    0.2604345    0.2139369  -8.09 0.0005259733    1.712    0.416
        99  -9.9431     96.4621    195.9445   1.2267879148e+02   2.3105242186e+01    0.2865804    0.1495164  41.66 0.0009168168    1.607    0.378
       100 -11.7752     58.7188    194.9145   1.3048561496e+02   2.8112690026e+01    0.4775979    0.3703146  -8.03  0.002157293    2.148    0.534
       101 -11.8634    176.5749    242.3605   1.1266479889e+02   4.2973775425e+00    0.4864237    0.2055866  46.06  0.002479661    2.268    0.559
       102 -10.2351    249.8574    194.0334   9.2248324134e+01  -1.0842148801e+00     0.278401    0.1906119  -5.40  0.001371351    1.252    0.201
       103  -8.7547     20.7684    195.1384   1.3809159557e+02   3.1925839078e+01    0.1486607    0.1004426 -60.31 0.0006927192    1.788    0.441
       104  -8.8958     20.0221    191.2354   1.3803762439e+02   3.2724606824e+01    0.2142598      0.11145  60.47  0.001372035    1.578    0.366
       105 -10.9547     22.3851    200.5798   1.3805530161e+02   3.0775272554e+01    0.3765123    0.1823263  82.05  0.002124952    1.913    0.477
       106  -8.8975    118.9952    194.0000   1.1765299583e+02   2.0149092634e+01    0.2076003   0.06198832  37.77 0.0007896319    2.854    0.650
       107  -9.4582    113.1296    190.6391   1.1847018448e+02   2.1643796700e+01    0.3795084    0.2575887 -53.23  0.002224242    1.698    0.411
       108  -8.6560     72.5563    192.9623   1.2742491818e+02   2.6826039874e+01    0.1504578    0.1091078 -73.49  8.87331e-05    1.452    0.311
       109  -9.6593     25.9170    192.4070   1.3694195085e+02   3.1974019910e+01    0.2074713    0.1377725  70.84 0.0008116611    1.226    0.184
       110  -9.5317    191.4605    191.4852   1.0233710714e+02   8.6003584393e+00     0.220871    0.1800829  21.45 0.0005684741    1.014    0.014
       111  -8.7125     38.5813    192.1760   1.3439736576e+02   3.0800313753e+01    0.1351386   0.09246755 -69.28 0.0003183311    1.536    0.349
       112  -9.5045     40.8911    188.4538   1.3367009664e+02   3.1280580132e+01    0.2575977    0.1693907  65.09  0.000652212    1.293    0.227
       113  -9.6095     15.6609    191.7819   1.3891352395e+02   3.2997914687e+01    0.2025166    0.1145368  74.75 0.0006739287    1.475    0.322
       114  -9.5242     31.6432    189.9866   1.3565774232e+02   3.1898310205e+01    0.3427755    0.1019212  43.03  0.001467725    2.528    0.605
       115  -9.8601     28.8558    184.3612   1.3587615024e+02   3.3247321647e+01    0.2492006    0.2428008  40.54   0.00114277    1.379    0.275
       116  -9.3150     24.1011    184.1100   1.3683338088e+02   3.3729474301e+01    0.1671509    0.1395271  38.74 0.0006570615    1.351    0.260
       117  -9.9142    250.1624    187.8028   9.1058151476e+01  -4.3740398237e-01    0.2669173    0.1493474 -17.49  0.001516703    1.685    0.407
       118  -9.3726     77.0198    188.5708   1.2603878346e+02   2.7098263765e+01    0.1657519    0.1431737  76.91 0.0002073164    1.103    0.093
       119 -10.8723     83.7476    186.8499   1.2439763657e+02   2.6548207899e+01    0.2069652    0.1767048  62.11 0.0002265461    1.031    0.030
       120 -11.5095     66.0244    186.9164   1.2824344546e+02   2.8785822516e+01    0.2350078    0.2265157 -88.62 0.0004841768    1.244    0.196
       121  -8.7003     65.7509    182.0236   1.2783429075e+02   2.9778150952e+01    0.1596265     0.132956  76.48            0    1.088    0.081
       122  -8.4463     45.2674    186.6727   1.3263030085e+02   3.1173295767e+01    0.1175104   0.06840248  65.91 0.0004453982    1.574    0.365
       123  -9.0499    140.2311    183.0804   1.1150781913e+02   1.8666471974e+01     0.171397    0.1586421  40.71 0.0003263968    1.086    0.079
       124 -10.8124    127.8166    182.6925   1.1415970615e+02   2.0783041075e+01    0.2152589    0.1958178  50.48 0.0002794548    1.079    0.073
       125  -9.2436    107.7926    182.6249   1.1858091200e+02   2.3934471793e+01    0.1865553    0.1676458 -48.21 0.0004940779    1.294    0.227
       126  -9.0939     36.4929    182.9562   1.3419860368e+02   3.2792874848e+01     0.164019   0.09698829 -77.68  0.001029919    1.594    0.372
       127 -12.9937    247.7137    100.6209   7.2805848457e+01   1.1049679526e+01      2.59047    0.9270504 -19.17   0.00822427    4.024    0.751
       128 -11.7904    247.8150    142.2305   8.2292836907e+01   5.4958915535e+00    0.7254515    0.5359222  35.38  0.004284836    1.371    0.271
       129 -12.6899    248.6159    133.6884   8.0294295270e+01   6.4697007248e+00     1.481522    0.5036353 -28.23  0.005813593    2.739    0.635
       130 -10.1545    249.6928    117.9012   7.6561976874e+01   8.3606332893e+00    0.4051719    0.2476339  -3.96  0.001502839    1.802    0.445
       131 -10.9742    248.5582    113.0212   7.5605876978e+01   9.2252053425e+00    0.4610271    0.3459115  19.13  0.002185605    1.319    0.242
       132 -10.1967     86.2418    180.3083   1.2310302965e+02   2.7482424079e+01    0.2142561    0.1768289  69.93 0.0002614992    1.145    0.126
       133 -12.8622    246.3343    159.8253   8.6242781653e+01   3.5016355954e+00     1.630955    0.8104699 -41.33   0.00757248    2.645    0.622
       134  -8.9959     47.4761    179.7196   1.3161244278e+02   3.2311223603e+01    0.1857871   0.09374239  33.02 0.0006021456    1.952    0.488
       135  -8.4317     92.6636    178.2380   1.2140579724e+02   2.6996100436e+01    0.1281863   0.08246787  57.92 0.0001808477    1.544    0.352
       136  -8.7531     12.4785    178.4693   1.3889344241e+02   3.5816604291e+01    0.1583137   0.08198728  84.01 0.0009027849    1.672    0.402
       137 -10.3782     11.9273    173.7182   1.3876459175e+02   3.6797900988e+01    0.2944418    0.1400726 -61.22  0.001489586    2.229    0.551
       138  -8.9214    125.9773    177.2827   1.1375074823e+02   2.2075336476e+01     0.180849    0.1500957  44.59 0.0002250502    1.074    0.069
       139 -10.6827    103.0541    176.0880   1.1876410431e+02   2.5902932375e+01    0.2079987    0.1854701  44.04   0.00134039    1.063    0.060
       140 -11.0330    107.7232    172.7798   1.1723018503e+02   2.5840755338e+01    0.2271993    0.2160509  68.65   0.00034161    1.081    0.075
       141 -11.0337     65.3283    175.9222   1.2731962568e+02   3.1049953331e+01    0.2397585     0.203691  43.40 0.0004364277    1.184    0.155
       142 -11.0041     62.9540    172.6831   1.2752584449e+02   3.1993460147e+01    0.2507721    0.2074198  45.62  0.000483794    1.171    0.146
       143 -10.7373     76.2800    174.9006   1.2472887170e+02   2.9886139784e+01    0.2326175    0.1954469  67.60 0.0004022157    1.069    0.064
       144 -10.3535     18.9770    173.0583   1.3725147833e+02   3.6356886099e+01    0.3581377    0.1747409  69.01  0.002019136    1.871    0.465
       145 -11.0671     14.5169    167.1539   1.3786035050e+02   3.7913004977e+01    0.3154843    0.2410083  54.91  0.001795509    1.198    0.165
       146 -10.9580     45.9698    172.2631   1.3131817675e+02   3.3978594085e+01    0.3315091    0.2076781 -56.56 0.0003351743    1.779    0.438
       147 -10.5018     43.7002    168.6985   1.3152193659e+02   3.4948027438e+01    0.2405051    0.2016631 -72.78  0.001012082    1.242    0.195
       148 -10.1579     27.8771    171.5788   1.3525089121e+02   3.5881631152e+01    0.2891455    0.1718952 -63.56  0.001160945    1.725    0.420
       149  -8.5041     52.6136    170.7813   1.2968985385e+02   3.3568847464e+01     0.103907   0.09039029  -7.29 0.0006857168    1.613    0.380
       150 -10.9319      7.1105    166.7616   1.3941936411e+02   3.8558194340e+01    0.3364341    0.1295472 -76.68  0.001839043    2.202    0.546
       151  -8.7184    134.0034    167.6836   1.1038340017e+02   2.2523076001e+01    0.1858239    0.1565336  37.77 0.0004694515    1.064    0.060
       152 -11.6495     84.3182    166.3961   1.2182840641e+02   3.0550537277e+01    0.5817799    0.4299537  37.54  0.003465011    1.305    0.234
       153  -8.1342    100.2796    163.6664   1.1764823002e+02   2.8804315978e+01    0.1332746   0.09516948  70.66 0.0003152303    1.610    0.379
       154  -9.6990     45.0000    164.9503   1.3089487148e+02   3.5594802882e+01    0.2097812    0.1460994 -75.34 0.0004162971    1.350    0.259
       155  -8.3242     58.4636    162.5008   1.2750435843e+02   3.4639570029e+01    0.1225568    0.1044219  72.41 -5.174337e-06    1.025    0.025
       156 -10.2881     12.1671    161.1726   1.3802717419e+02   3.9320307791e+01    0.2082293    0.1344146  78.52  0.001406002    1.281    0.219
       157 -12.4720     11.3779    152.9926   1.3771655966e+02   4.1084558535e+01     0.505317    0.3085059 -87.52  0.002355887    1.364    0.267
       158 -10.0498     89.5709    160.0250   1.1970362423e+02   3.1138802196e+01    0.2016313    0.1585914  41.90 0.0005169593    1.201    0.167
       159  -9.1980     16.0462    158.4731   1.3700089918e+02   3.9581503738e+01    0.1474718    0.1021513  36.55 0.0004392432    1.514    0.339
       160  -8.6873     47.6934    157.7169   1.2957759476e+02   3.6847047326e+01    0.1097225   0.08979618 -40.08 0.0001889864    1.562    0.360
       161 -10.9685     31.9596    155.6596   1.3312935287e+02   3.8831398475e+01    0.3126395    0.2588072 -68.69  0.001028567    1.256    0.204
       162 -10.9131     24.0537    155.0024   1.3492964434e+02   3.9663283680e+01    0.3133543    0.1812627  29.36  0.001903332    1.886    0.470
       163  -8.4950    228.4021    155.5024   8.8437940406e+01   7.1700343244e+00    0.1340019    0.1119789   3.90 0.0001869129    1.044    0.043
       164  -9.8156     84.9210    155.2811   1.2017109260e+02   3.2802693688e+01     0.175777    0.1556217  48.80 0.0002808794    1.084    0.078
       165 -10.2372     89.9733    153.1515   1.1860057760e+02   3.2535990462e+01    0.2518553     0.205407 -42.57 0.0003440337    1.400    0.286
       166  -8.9915    104.4825    153.2754   1.1500498787e+02   3.0304849875e+01    0.1706585    0.1297734 -78.70 0.0009184416    1.510    0.338
       167  -9.0957    113.8330    151.2147   1.1233837440e+02   2.9213727660e+01    0.2672491    0.1661977 -70.95   0.00122976    2.118    0.528
       168 -10.1705     96.9290    151.0544   1.1653069875e+02   3.1947847242e+01    0.3150643    0.2515974 -48.92  0.001062842    1.347    0.258
       169 -10.4527     23.2711    150.1453   1.3474631356e+02   4.0767347140e+01    0.2354015    0.1771368 -26.97  0.001048126    1.930    0.482
       170  -9.8088     86.0000    149.8958   1.1911155539e+02   3.3808271012e+01    0.2559465    0.1499644 -86.60 0.0008529597    2.398    0.583
       171  -9.2898     55.4832    150.4705   1.2689606106e+02   3.7570530306e+01    0.1252367    0.1066217  75.44 0.0001691803    1.052    0.049
       172 -12.1415     68.4858    144.4453   1.2282174749e+02   3.7354372175e+01    0.6165661    0.4226095  72.61   0.00213621    1.588    0.370
       173  -9.2871    100.4828    146.3878   1.1486081199e+02   3.2395578140e+01    0.2670261    0.1779062 -27.53  0.001255642    2.168    0.539
       174  -9.6106     40.8200    147.4794   1.3023381786e+02   3.9768566649e+01    0.2134431    0.1036361  36.69 0.0008283163    1.998    0.500
       175 -12.0286      7.4599    120.6858   1.3644681447e+02   4.8386414085e+01    0.3792309    0.2521968  54.70  0.002480309    1.499    0.333
       176 -12.3683      2.8756    142.6658   1.3907347920e+02   4.3855227416e+01    0.7341217    0.2484152 -77.05  0.003660991    2.372    0.578
       177 -11.9668      8.8690    143.2132   1.3768791096e+02   4.3343797830e+01    0.3681389    0.2779376  13.33  0.002589345    1.758    0.431
       178 -11.5893      2.5946    131.6264   1.3847639928e+02   4.6255447613e+01    0.4200548    0.2442884 -79.17  0.001998135    1.390    0.281
       179  -9.9074    236.1071    146.0039   8.5065043055e+01   7.0782899125e+00    0.2346319    0.1735597  25.93 0.0006635775    1.237    0.192
       180  -8.7447     52.5637    146.4604   1.2716855040e+02   3.8776924294e+01    0.1221532    0.1085781  86.97 6.984395e-05    1.031    0.030
       181  -9.8968    133.4390    141.2007   1.0558532458e+02   2.7803903030e+01    0.4961549    0.2460128 -53.85  0.002029587    2.327    0.570
       182  -8.6187     35.2936    148.6716   1.3171494828e+02   4.0034539138e+01    0.1254164   0.07528667  67.43 0.0007021775    1.627    0.385
       183  -9.4163     32.5766    145.1257   1.3205832897e+02   4.1059227637e+01    0.2130047    0.1321117 -38.80  0.001180871    2.220    0.550
       184  -8.4440    104.9464    142.7756   1.1308596267e+02   3.2457327584e+01    0.1707288    0.1098109  36.57 0.0002255429    1.515    0.340
       185 -11.9663     16.5694    138.9970   1.3551825590e+02   4.3713131880e+01    0.4619176    0.2031709  45.04  0.002498721    2.153    0.536
       186  -9.0793     37.1566    140.1865   1.3041987827e+02   4.1733660125e+01    0.1710848    0.1228908  71.11  0.000707513    1.311    0.237
       187 -11.0730     60.2489    136.6839   1.2392800110e+02   4.0095390367e+01     0.269093    0.2179513  65.84  0.001652077    1.202    0.168
       188  -8.5538     50.9520    138.0248   1.2657828489e+02   4.0835964489e+01    0.1474907    0.1312823  82.53  0.000376508    1.021    0.020
       189  -9.7608    109.2078    136.1485   1.1074583109e+02   3.3176968489e+01    0.3504026    0.2508695  -2.69  0.001336662    2.105    0.525
       190  -9.1967     46.3046    137.0316   1.2768700872e+02   4.1547103714e+01    0.2077008   0.05530976 -51.29            0    4.202    0.762
       191 -10.3399     32.7621    140.5513   1.3157989180e+02   4.2053349196e+01    0.2881747    0.1654862  78.87 0.0009507431    1.764    0.433
       192  -9.4367     18.3028    148.3018   1.3579030107e+02   4.1561212092e+01    0.1072969   0.07830203 -51.97  0.000304331    1.590    0.371
       193 -10.7660     44.9553    130.7157   1.2728527180e+02   4.3117685368e+01    0.3873933    0.2063455  68.15  0.001499531    2.278    0.561
       194 -10.2256    241.9378    130.4960   8.0659998810e+01   8.1134722390e+00    0.4122675    0.1848922  24.44  0.001487093    3.461    0.711
       195  -9.5669     75.2018    129.0331   1.1867363496e+02   3.9953147981e+01    0.2239634    0.1461063  79.16  0.001072522    1.977    0.494
       196 -10.8759     66.9684    128.4744   1.2088073776e+02   4.1151658605e+01      0.29496    0.2479993 -83.35   0.00178146    1.141    0.123
       197 -10.3518     59.4516    128.0905   1.2292355268e+02   4.2148832193e+01    0.2563418     0.191185  49.60 0.0001493097    1.354    0.262
       198 -10.2800     30.1682    126.6321   1.3084844179e+02   4.5411730048e+01    0.2007693    0.1109194  26.71 0.0008126145    2.042    0.510
       199 -10.0667     23.8656    127.3704   1.3262926005e+02   4.5752939636e+01    0.2213897    0.1418699 -89.78 0.0008170287    1.396    0.284
       200 -11.6144      2.2092    123.1864   1.3801808144e+02   4.8133462934e+01    0.6770906    0.1435452 -80.43  0.002474035    4.065    0.754
       201 -10.0479    209.9402    125.6992   8.5180002022e+01   1.5084403697e+01    0.2637365    0.2136274 -15.69 0.0005386458    1.164    0.141
       202  -8.4830     48.4669    126.4607   1.2576654440e+02   4.3735010835e+01    0.1269194    0.1109225  88.59 7.170811e-05    1.040    0.038
       203  -8.6318     50.3263    122.6613   1.2471539979e+02   4.4417667476e+01    0.1363092   0.08843727  69.21 0.0007051546    1.728    0.421
       204 -11.6668     22.4017    121.3624   1.3243435693e+02   4.7229704471e+01    0.3078504    0.2299375   9.51  0.001787082    1.743    0.426
       205  -9.9573    231.9681    116.3198   7.9025060255e+01   1.2006079673e+01    0.1966208    0.1716019  11.45 0.0006679193    1.068    0.064
       206 -11.6348      9.7737    112.3860   1.3511360453e+02   5.0123095936e+01     0.268409    0.2159095 -23.04  0.001179174    1.604    0.376
       207 -11.8482      3.7960    109.6276   1.3656923987e+02   5.1084177310e+01    0.3791049      0.26526 -76.81  0.002545618    1.145    0.127
       208 -10.1487    168.0319    113.1687   9.0788206855e+01   2.6201754327e+01    0.3323352    0.2825497  81.94  0.000920804    1.583    0.368
       209 -11.6021     11.1637    115.8200   1.3502927227e+02   4.9258509412e+01    0.2908579    0.1988559 -54.39  0.001187801    1.463    0.316
       210  -8.9271    203.4940    111.5070   8.2938557022e+01   1.8685423962e+01    0.1503197    0.1338464   5.37 -2.192855e-05    1.023    0.022
       211  -8.8531     29.2979    109.3182   1.2907824081e+02   4.9478236858e+01    0.1253912   0.08121566 -46.22 0.0002438685    1.614    0.380
       212 -11.5564     14.8114    105.0345   1.3292666687e+02   5.1501562297e+01    0.3127522      0.21801  67.27  0.001007322    1.459    0.315
       213 -12.0688    248.1918    172.6013   8.8491678118e+01   1.6329005624e+00    0.6238565    0.3993678 -18.11  0.003679062    1.423    0.297
       214  -8.4035     71.7533    100.0129   1.1418417122e+02   4.7137407862e+01    0.1728968    0.1107334 -58.36 0.0002562514    1.460    0.315
       215 -10.1219     16.9989     99.0105   1.3157945980e+02   5.2759637511e+01    0.1817446     0.150014 -75.61            0    1.009    0.009
       216  -9.1326     12.6870     94.3157   1.3238909898e+02   5.4110125489e+01    0.1214105   0.07877568  69.22 0.0007034414    1.641    0.391
       217  -8.7694     30.7088     90.2819   1.2589870526e+02   5.3833440283e+01    0.1212624   0.08856491  72.15 0.0002714441    1.531    0.347
       218 -10.8636    249.5285    151.0374   8.3892094962e+01   4.0711007380e+00    0.4463755    0.2588755 -24.28   0.00238811    1.570    0.363
       219 -11.6549    199.5822    246.7599   1.0919347938e+02   5.1837219284e-01    0.3607654     0.239844  36.44  0.002534353    1.263    0.208
       220 -10.3848    192.5202    248.7362   1.1066976723e+02   1.3000768211e+00    0.2282658    0.1413529  24.69 0.0009427172    1.274    0.215
       221  -9.6742     16.4931     25.5141   1.1680413424e+02   6.9427526660e+01    0.1754589    0.1058803  30.72 0.0007381847    2.038    0.509
       222 -10.0561    193.9800    245.0368   1.0993850933e+02   1.4955131754e+00    0.1587055    0.1146939  26.09 0.0003867284    1.019    0.018
