#   1 NUMBER                 Running object number                                     
#   2 MAG_AUTO               Kron-like elliptical aperture magnitude                    [mag]
#   3 X_IMAGE                Object position along x                                    [pixel]
#   4 Y_IMAGE                Object position along y                                    [pixel]
#   5 X_WORLD                Barycenter position along world x axis                     [deg]
#   6 Y_WORLD                Barycenter position along world y axis                     [deg]
#   7 A_WORLD                Profile RMS along major axis (world units)                 [deg]
#   8 B_WORLD                Profile RMS along minor axis (world units)                 [deg]
#   9 THETA_WORLD            Position angle (CCW/world-x)                               [deg]
#  10 FWHM_WORLD             FWHM assuming a gaussian core                              [deg]
#  11 ELONGATION             A_IMAGE/B_IMAGE                                           
#  12 ELLIPTICITY            1 - B_IMAGE/A_IMAGE                                       
         1 -14.2919     68.4875    144.2916   1.0001815490e+02   3.7329265787e+01     4.727378     2.214314  64.37   0.01344481    4.999    0.800
         2 -13.4211    201.3046     41.6901   4.1336890371e+01   3.0036032703e+01     1.246549     1.067191 -24.20  0.004913847    1.395    0.283
         3 -12.9950      2.3548     11.9166   9.0528883286e+01   7.3012703567e+01     1.627175     0.516486 -47.38  0.007899909    2.724    0.633
         4 -11.7605      1.9932     43.9740   1.0245307248e+02   6.7282064381e+01     1.377293     0.133198 -60.44  0.003654642    7.507    0.867
         5 -12.7512    237.7292      5.6930   2.9980652858e+01   2.6404922577e+01    0.8021637    0.5595223 -87.82  0.005416663    1.236    0.191
         6 -13.5046    212.1431     31.2239   3.7613073638e+01   2.8928410683e+01    0.9252721    0.8339137  23.34  0.002032089    1.533    0.348
         7  -8.3014    224.0007    206.7275   7.4651799991e+01  -2.8867962379e+00    0.1511111    0.1047465  27.37 0.0003435843    1.404    0.288
         8 -10.3458    139.9774    249.6776   9.8619341661e+01   2.7847234706e+00    0.2594782    0.2147221  34.19   0.00167968    1.017    0.017
         9  -9.9895    102.3300    250.0209   1.0641475474e+02   8.2888218273e+00    0.2327511    0.1969136  50.22  0.001035574    1.030    0.029
        10 -10.6370    101.5717    244.2958   1.0594563089e+02   9.4599062650e+00    0.3626162    0.1945706 -62.07  0.001887087    2.150    0.535
        11 -13.0026     52.9756    187.0197   1.1043195898e+02   2.8630213719e+01     1.149479    0.9800576 -80.94  0.006975919    1.090    0.083
        12 -13.9515     40.9438    196.4392   1.1429402562e+02   2.7812686882e+01     3.483126     1.331522  63.35   0.01061018    3.730    0.732
        13 -16.8188     15.5207    243.5791   1.2291464819e+02   2.0387251973e+01     6.591158     2.176877  25.40   0.02634075    4.853    0.794
        14 -10.5533    111.4614    203.8289   9.8496930181e+01   1.6213381464e+01    0.3566082    0.2465751  89.72 0.0009669767    1.937    0.484
        15 -10.2932    107.2112    203.2295   9.9415201968e+01   1.7031784080e+01    0.2749115    0.1949217  63.09  0.001064629    1.557    0.358
        16  -9.3190     31.4839    204.4426   1.1714086224e+02   2.7008678546e+01    0.3081566     0.133906  63.07  0.001372546    2.461    0.594
        17  -8.1735     96.3019    201.6762   1.0179080815e+02   1.9101474641e+01    0.1455711    0.1008077  68.23 0.0006559983    1.635    0.388
        18 -10.9375    193.0856    195.2539   7.8563631944e+01   3.9717818610e+00     0.976691    0.5418723 -64.92  0.003070168    5.302    0.811
        19  -9.8257    121.0176    196.0197   9.4988349903e+01   1.6353206324e+01    0.2793002    0.2087126 -71.23 0.0007185651    1.546    0.353
        20  -9.8236    121.6856    199.6366   9.5417149545e+01   1.5443162279e+01    0.2626642    0.2006506  -0.95  0.001121661    1.732    0.423
        21  -9.0044     21.0494    195.1813   1.1871142862e+02   3.0198006829e+01    0.2386957    0.1353187  55.02  0.001229465    1.618    0.382
        22 -14.3291      9.8666    206.8842   1.2193088015e+02   2.8602134150e+01     1.069688    0.7328826  13.53  0.006532632    2.143    0.533
        23  -9.4206    147.3733    186.8767   8.7085989800e+01   1.3721877376e+01    0.2649627    0.1806787 -40.53 0.0009532066    1.528    0.346
        24  -9.1372     80.0072    183.0219   1.0313938822e+02   2.5948415752e+01    0.3186699    0.1839332  86.47  0.001287457    2.482    0.597
        25 -15.4149      6.7976    165.2112   1.1964404176e+02   3.8546727997e+01     8.698669     1.233568 -74.09   0.02535783    5.233    0.809
        26  -9.6372     99.4526    180.9380   9.7851423455e+01   2.3435545372e+01    0.2778601    0.2140163  39.53 0.0006367867    1.275    0.215
        27 -10.8236     41.2446    176.6463   1.1216794952e+02   3.2531814793e+01    0.4458316    0.3207862 -27.36  0.002356157    1.986    0.497
        28 -12.9180     68.7380    154.4732   1.0171575950e+02   3.4691768099e+01    0.6540187    0.4526949 -51.76  0.001124611    1.408    0.290
        29  -8.8253     34.5888    171.6616   1.1330103050e+02   3.4474968011e+01    0.2105998    0.1340518  57.13 0.0003221407    1.572    0.364
        30  -9.8353    187.3143    175.8154   7.5907960346e+01   8.6855128766e+00    0.3602133    0.2914979 -47.17  0.001333072    1.313    0.238
        31  -9.8956    240.7522    169.5513   6.4415411205e+01   6.9523770646e-01    0.1619778    0.1295503  49.04 0.0009482405    1.624    0.384
        32  -8.6702    110.6923    167.9681   9.2653210567e+01   2.4659318319e+01    0.2130746    0.1928255 -62.84 0.0004090179    1.106    0.096
        33 -12.5969     80.3449    159.3167   9.9287860774e+01   3.1779576490e+01     1.508211    0.7313353  59.62 0.0007595135    3.180    0.686
        34  -8.3236    120.5140    165.5602   8.9625591372e+01   2.3480627369e+01    0.1512029    0.1469368  66.52 0.0001250637    1.033    0.032
        35 -13.4266     20.1235    221.0540   1.2073508371e+02   2.4530446995e+01    0.9169825    0.7708901  53.04  0.003815191    1.232    0.188
        36  -9.7825     33.2831    156.0052   1.1183425397e+02   3.8517330935e+01    0.2601541    0.2264995  42.89  0.001077498    1.267    0.211
        37 -11.5701     87.9452    152.8401   9.5989392667e+01   3.2234462158e+01    0.6654353    0.4786454 -14.99  0.002966717    1.994    0.499
        38 -10.4948     54.0927    148.9264   1.0500015373e+02   3.8021752095e+01    0.4249548     0.294272 -76.30  0.002145292    1.393    0.282
        39 -11.5205     56.8811    144.9364   1.0354436851e+02   3.8699585773e+01     0.545647     0.416745  67.03  0.002851164    1.432    0.301
        40 -10.5872    133.7571    145.0735   8.1816358252e+01   2.5812814630e+01     1.178475    0.3255547 -54.94  0.002781455    5.349    0.813
        41  -9.1545    174.5304    149.0124   7.2878909796e+01   1.6639498254e+01    0.2336378    0.1464063 -44.38 0.0005334133    1.550    0.355
        42  -8.3017    111.3801    149.5963   8.8803142426e+01   2.9016616626e+01    0.3056822    0.1211329  50.23 0.0008632505    3.249    0.692
        43 -10.4924     28.7147    143.8659   1.1157886678e+02   4.2022512922e+01    0.3426518    0.2375972  47.00   0.00188827    1.553    0.356
        44  -9.8566    100.6730    139.6905   8.9681640615e+01   3.3391791727e+01    0.3245052    0.2886058 -21.55  0.001248803    1.231    0.188
        45  -9.3044    103.3376    136.9873   8.8318325688e+01   3.3586051983e+01    0.3392384    0.2096197 -38.96  0.001411817    1.754    0.430
        46 -11.5422     89.1747    138.2329   9.2717393338e+01   3.5722557946e+01    0.3175568    0.2647835 -39.50 0.0004609544    1.228    0.185
        47 -10.5314     26.0866    137.6171   1.1151844836e+02   4.3839340036e+01    0.3882644    0.1851462  37.60  0.001485215    2.250    0.556
        48 -11.3889     67.6281    172.6058   1.0483630450e+02   3.0268018068e+01    0.4621741    0.2996271 -34.21  0.002122686    2.090    0.521
        49 -10.1294    105.9611    130.9921   8.6188131471e+01   3.4580723545e+01    0.4180966    0.3149935 -56.24  0.001808669    1.316    0.240
        50  -9.5415    111.2424    129.5153   8.4319579228e+01   3.3946338690e+01    0.3371156    0.2690741  -0.49 0.0008086746    1.568    0.362
        51 -10.1176    135.6230    128.5902   7.7410080278e+01   2.9269430801e+01    0.4091462    0.2425714 -50.05  0.001662754    1.689    0.408
        52 -10.3316     67.3994    125.2150   9.6637449724e+01   4.2346273605e+01    0.3705325    0.2411161 -50.74  0.001408472    1.414    0.293
        53 -11.3390     71.9064    167.9206   1.0299908709e+02   3.0844641606e+01    0.3801012     0.284917 -49.52 0.0007997808    1.383    0.277
        54  -9.2048    160.5079    128.4962   7.1214158654e+01   2.3981554255e+01    0.1563318    0.1516631 -38.07 0.0008105907    1.014    0.014
        55 -10.0737     28.2336    128.1081   1.0952799442e+02   4.6057531575e+01    0.2776487    0.1917083  32.84  0.001520835    1.638    0.389
        56 -10.2218     98.2950    125.4168   8.7126945867e+01   3.7344060725e+01    0.3122203    0.2637564 -10.92 0.0008123023    1.366    0.268
        57  -8.5282    147.9660    174.0759   8.4462366215e+01   1.6405633941e+01    0.1769462    0.1714418  13.38 0.0003500962    1.008    0.008
        58  -9.9163    116.9950    124.0199   8.1341177838e+01   3.4142226575e+01    0.2562612    0.1950814 -10.34 0.0008207122    1.715    0.417
        59  -8.8652    135.0000    119.9856   7.5398531733e+01   3.1364645507e+01     0.265772    0.0892949 -45.80 0.0006301674    2.918    0.657
        60  -9.1065     86.3594    120.0035   8.9487450021e+01   4.0740729431e+01    0.2819343    0.2102555  64.49  0.001082572    1.681    0.405
        61  -9.2401    107.5803    118.5395   8.2676436608e+01   3.7282742288e+01    0.2490041    0.2080591   6.60 0.0003503697    1.387    0.279
        62 -10.5721    124.9379    247.0272   1.0139583537e+02   5.5023918803e+00    0.4606019    0.1561364 -58.67   0.00181477    3.866    0.741
        63 -10.1081    231.2237    113.7060   5.4063417683e+01   1.2096938960e+01    0.2768673    0.2675195 -39.30 0.0007910103    1.112    0.101
        64 -10.8535     53.2689    110.5590   9.8147392251e+01   4.7872543144e+01    0.4392895    0.2694466 -70.13  0.001441114    1.747    0.428
        65  -9.2723    205.4550    110.1884   5.7485364785e+01   1.7940627253e+01    0.2434245    0.2104064  51.75 0.0007258745    1.260    0.206
        66 -10.4496    247.5516    108.3030   5.0525681043e+01   9.9681657854e+00    0.2718804    0.1062155 -42.36  0.001143595    2.118    0.528
        67 -10.4739     33.6289    108.3282   1.0442357847e+02   5.0532267544e+01    0.3015129    0.2334088 -88.43  0.001674072    1.432    0.302
        68  -8.0925    137.6342    104.2689   7.0518977913e+01   3.4252857935e+01    0.1588014    0.1256254  84.41 0.0003016437    1.658    0.397
        69  -9.0230     41.2910    103.6692   1.0081362657e+02   5.0924541290e+01    0.1355144    0.1047537  78.24  0.000327216    1.627    0.385
        70  -9.9053     33.0214    100.0536   1.0299972774e+02   5.2618354463e+01    0.2273203    0.2043038  50.94 0.0007802456    1.309    0.236
        71 -10.1486    115.6320    108.2268   7.7616729192e+01   3.8086636840e+01    0.3013982    0.2072023 -36.95  0.001325722    1.488    0.328
        72  -9.0658     75.0263     85.0307   8.3952902291e+01   5.0812504443e+01    0.2154017    0.2122216 -30.69 0.0006549105    1.126    0.112
        73  -8.8337    159.0169     82.9718   5.9469106609e+01   3.3561429391e+01    0.1824176    0.1787251 -75.90 0.0003938196    1.001    0.001
        74  -8.7241    151.0634     82.8626   6.1198929469e+01   3.5460262136e+01    0.2270559    0.1987179 -79.59 0.0004568929    1.265    0.209
        75  -8.8290    111.0454     81.0297   7.1038796224e+01   4.4865106996e+01    0.2337763    0.1893592  83.44  0.000847259    1.672    0.402
        76  -8.6758     69.2467     81.2904   8.4901373792e+01   5.2544583393e+01    0.1810007    0.1672119  73.31 0.0006853572    1.357    0.263
        77  -8.4128    184.3004     77.3274   5.2985663355e+01   2.8586447922e+01    0.1436131    0.1166921  13.69 0.0006775163    1.639    0.390
        78 -10.4376     13.4181     59.8639   1.0146673332e+02   6.3343935441e+01    0.2554641    0.1942358 -53.48 0.0004898638    1.186    0.157
        79 -12.9394    191.4844     48.7788   4.4411199739e+01   3.1348815260e+01     1.130007    0.7669071  45.54  0.002799195    1.712    0.416
        80 -11.7952    117.6439    245.6465   1.0274738397e+02   6.8412675128e+00    0.6068329    0.4201625   7.77  0.003172958    2.033    0.508
        81 -11.3067      2.2599     29.4366   9.7658948480e+01   7.0042153165e+01    0.4740012    0.2640791  -6.73  0.002451515    1.785    0.440
        82  -9.1459     70.4667    247.9149   1.1266849430e+02   1.3091839114e+01    0.1749451    0.1606005  31.36 0.0007364472    1.319    0.242
        83  -9.0972    198.0263     23.5338   3.7298269700e+01   3.3064590134e+01    0.2139989    0.1847412  -6.71 0.0006700896    1.559    0.359
        84 -10.7764    183.7023    213.1171   8.3807749451e+01   2.2974923292e+00    0.2584784    0.2207461 -37.95  0.001482214    1.283    0.221
        85  -8.6874    189.4993     14.9385   3.6112303371e+01   3.6000833595e+01    0.1747502    0.1228503 -34.51 0.0006199955    1.535    0.348
        86  -9.2407     89.3088    211.2259   1.0471338221e+02   1.8029070096e+01    0.2098063     0.178677 -81.89 0.0004209607    1.196    0.164
