#   1 NUMBER                 Running object number                                     
#   2 MAG_AUTO               Kron-like elliptical aperture magnitude                    [mag]
#   3 X_IMAGE                Object position along x                                    [pixel]
#   4 Y_IMAGE                Object position along y                                    [pixel]
#   5 X_WORLD                Barycenter position along world x axis                     [deg]
#   6 Y_WORLD                Barycenter position along world y axis                     [deg]
#   7 A_WORLD                Profile RMS along major axis (world units)                 [deg]
#   8 B_WORLD                Profile RMS along minor axis (world units)                 [deg]
#   9 THETA_WORLD            Position angle (CCW/world-x)                               [deg]
#  10 FWHM_WORLD             FWHM assuming a gaussian core                              [deg]
#  11 ELONGATION             A_IMAGE/B_IMAGE                                           
#  12 ELLIPTICITY            1 - B_IMAGE/A_IMAGE                                       
         1 -14.5142    151.0273     58.2396   8.7376299703e+01   3.9810659574e+01     1.480562     1.159807  19.89  0.002725561    1.324    0.245
         2 -14.8882    162.3429     43.5735   7.9819417991e+01   3.9227941423e+01     1.409022     1.093756  -7.23   0.00360009    1.303    0.232
         3 -14.8018    175.6607     11.1848   6.5963703126e+01   3.9543634244e+01     1.373856     1.221803  41.42  0.004561892    1.061    0.058
         4 -12.7503    189.9635     14.5286   6.5061190840e+01   3.5383527886e+01    0.4995045    0.2639322  -6.65  0.002004889    2.158    0.537
         5 -10.8713    160.4472    242.5446   1.2255339552e+02   8.6777445940e+00    0.1407342   0.09776019 -23.92 0.0005542922    2.105    0.525
         6 -20.0861     76.3147    175.5470   1.3079967311e+02   3.0219336492e+01      13.9107     5.921065 -68.86   0.07198471    2.529    0.605
         7 -10.6122    130.8050    213.5199   1.2445948300e+02   1.6593627044e+01    0.1613609    0.1307167  77.45 0.0006677273    1.462    0.316
         8 -10.8891     16.0369    209.4745   1.4412326087e+02   3.0627428401e+01   0.09573358   0.08328374  33.68  0.000459258    1.597    0.374
         9 -13.0665     11.4999    206.0858   1.4472965894e+02   3.1554974131e+01    0.3585149    0.1969952  35.79  0.002242377    1.821    0.451
        10 -10.3794     22.6999    205.1208   1.4284596160e+02   3.0745068013e+01    0.1487718    0.1103112 -44.43  0.001164526    2.281    0.562
        11 -11.1753    139.2751    250.0993   1.2673889291e+02   1.0732379183e+01    0.2452513    0.1780003 -53.40  0.001994375    1.940    0.485
        12 -11.0971    139.8091    200.3225   1.2123018411e+02   1.7155691388e+01    0.2978595    0.1742869  38.52 0.0008122607    1.409    0.291
        13 -10.9008    133.5796    248.4573   1.2750174839e+02   1.1685382565e+01    0.1216622   0.09150925  51.03 0.0001075502    1.157    0.136
        14 -11.4762    200.2082    161.7626   1.0342669609e+02   1.2407720350e+01    0.4484232    0.4023225  66.95   0.00276744    1.584    0.369
        15 -14.1319    204.7363    176.5748   1.0536032239e+02   9.6386891710e+00     1.033553    0.6443934 -52.57  0.005131145    2.862    0.651
        16 -12.0038    202.4771    170.4621   1.0465597407e+02   1.0828529740e+01    0.2619257    0.2306906  -3.71  0.000880938    1.201    0.168
        17 -11.7468    205.2685    169.0043   1.0386664027e+02   1.0519407304e+01    0.4630039    0.2676285 -43.42  0.002315837    2.303    0.566
        18 -13.1096    153.1653    184.8443   1.1653208700e+02   1.7339387593e+01     0.461523     0.301808 -68.38  0.002471027    2.504    0.601
        19 -12.0679    134.2071    244.2640   1.2701463308e+02   1.2101340007e+01    0.2132591    0.1546121 -34.62  0.001545989    2.075    0.518
        20 -10.6544     24.9843    185.4927   1.4148579098e+02   3.3860824875e+01    0.1411258    0.1053266  81.37  0.000357517    1.112    0.101
        21 -12.6318    118.4464    181.6289   1.2296535275e+02   2.3345234987e+01    0.5487429    0.2740413  63.13  0.002404235    3.153    0.683
        22 -11.3723     27.5184    179.7338   1.4069657608e+02   3.4656559164e+01    0.2478908    0.1961313 -37.02  0.001896599    2.025    0.506
        23 -12.6847    199.0520    178.6920   1.0678211770e+02   1.0360230235e+01    0.5250057    0.3720418 -64.43  0.002645783    2.999    0.667
        24 -13.2905    195.3737    168.8324   1.0568334434e+02   1.2322464111e+01    0.4167741    0.3503651  14.94 0.0007067684    1.069    0.065
        25 -12.5785    193.0013    164.2825   1.0528154478e+02   1.3382649067e+01    0.4392709    0.2595117  34.88  0.001919581    1.466    0.318
        26 -13.2088    177.6798    171.6617   1.0959407232e+02   1.5093829717e+01    0.5366756    0.2901071 -55.60    0.0023699    3.241    0.691
        27 -12.5969    173.5719    175.0950   1.1098885753e+02   1.5317912924e+01    0.2824519    0.1887159  25.20 0.0009968365    1.461    0.316
        28 -14.5196    144.9317    169.1267   1.1573913182e+02   2.1195233107e+01    0.9276574    0.5566642  60.91  0.004556263    2.202    0.546
        29 -12.0264    141.4823    174.4979   1.1728985405e+02   2.0891121783e+01    0.2370409    0.1992611  53.59 0.0007257942    1.163    0.141
        30 -13.5333    138.0658    171.1733   1.1747724671e+02   2.2003549033e+01    0.5948265    0.3753745  48.23  0.002165633    1.446    0.308
        31 -11.7218     26.2116    173.2944   1.4056215872e+02   3.5941731634e+01    0.2281128    0.1662197  74.34 0.0008525993    1.071    0.066
        32 -12.0367    125.9894    171.9721   1.2009440432e+02   2.3821186301e+01    0.2660584    0.2348665 -83.86   0.00104589    1.281    0.219
        33 -11.0437     30.9789    182.7627   1.4023033327e+02   3.3799877959e+01    0.2407642    0.1417469  24.18  0.001536363    2.265    0.559
        34 -11.1682    165.6895    172.0953   1.1202926290e+02   1.7144497703e+01    0.1742365    0.1597136   7.65  0.001147494    1.139    0.122
        35 -12.2007    230.1572    166.9597   9.9019020407e+01   6.3526035210e+00    0.3216912    0.1716193 -39.48  0.001592798    2.463    0.594
        36 -12.0092    138.1888    242.3316   1.2618076258e+02   1.1793707062e+01    0.2699696    0.2375224  75.56  0.001811987    1.407    0.289
        37 -12.1148    122.2184    165.6083   1.1994705088e+02   2.5528448163e+01    0.4280442    0.1937675  52.97  0.001123162    2.459    0.593
        38 -11.9283    130.3344    161.6222   1.1759785373e+02   2.4919979183e+01    0.2818855    0.1874027  60.66 0.0006628108    1.722    0.419
        39 -11.7017     17.4183    156.8506   1.4130108748e+02   3.9772199354e+01    0.4153731    0.2139908 -66.84  0.002673703    1.829    0.453
        40 -11.3436    191.1460    157.9534   1.0441992853e+02   1.4625989111e+01    0.3850229    0.1999132  27.41  0.001718379    2.104    0.525
        41 -14.4493    134.1666    146.2307   1.1412507588e+02   2.7040651866e+01     1.328463    0.4735982 -57.04  0.004415073    4.434    0.774
        42 -12.5404    160.3158    152.3143   1.0957462936e+02   2.1258516812e+01    0.2922793    0.2392291 -20.47 0.0009903846    1.351    0.260
        43 -10.6917     22.9886    156.0782   1.4011090771e+02   3.9467080593e+01     0.157063    0.1252209  78.89 0.0004306298    1.033    0.032
        44 -11.0983    126.8741    250.7371   1.2877521054e+02   1.2300420626e+01     0.130325   0.06208418  44.09 0.0008558538    1.479    0.324
        45 -12.6594    162.8483    154.8227   1.0951871378e+02   2.0378600325e+01    0.3108926    0.2477978  27.94 0.0008243793    1.155    0.134
        46 -14.2189    143.7060    143.8360   1.1154784977e+02   2.5774039099e+01     0.910288    0.4491336 -57.73  0.003722489    2.902    0.655
        47 -10.5480     12.8964    242.6448   1.4573129769e+02   2.5941895286e+01    0.1200308    0.1027816 -75.86  0.001019288    1.689    0.408
        48 -11.9496    174.2993    148.5124   1.0591610006e+02   1.9247412978e+01    0.3089584    0.2595519 -56.36   0.00108854    1.543    0.352
        49 -12.0689     27.8515    145.4332   1.3830304019e+02   4.1157034156e+01    0.3026524    0.2323774  -4.69  0.002098929    2.073    0.518
        50 -13.0489    134.6532    110.3369   1.0649889428e+02   3.3794758100e+01     1.329967    0.1898135 -44.82  0.002978025    7.158    0.860
        51 -14.1963    135.7410    127.9191   1.1017547992e+02   3.0188367420e+01     1.433429    0.3687323 -49.92  0.004250854    4.641    0.785
        52 -10.7012    172.4736    138.5363   1.0423114311e+02   2.1216912233e+01    0.1409238    0.1258958  24.59 4.121602e-05    1.017    0.017
        53 -10.5128    151.0944    241.5557   1.2398388762e+02   1.0102662521e+01    0.1431895    0.1145395  37.41 0.0006238394    1.118    0.106
        54 -12.6013    160.7673    128.0539   1.0447466394e+02   2.5325670865e+01    0.3775532    0.3452555 -75.87    0.0020047    1.370    0.270
        55 -11.1676     28.6859    239.8748   1.4334166892e+02   2.4912857904e+01    0.1215775   0.07567935  63.19  0.000379091    1.131    0.116
        56 -12.2186    140.2867    120.6582   1.0752111126e+02   3.0712300879e+01    0.2886426    0.2310063  78.57 0.0006672577    1.672    0.402
        57 -11.6950     21.7204    238.2983   1.4431268191e+02   2.5775868940e+01     0.100691   0.08748571  67.21 0.0008630215    1.407    0.289
        58 -11.3711    131.1263    235.4471   1.2668455692e+02   1.3609908259e+01     0.153035    0.1373682  82.34 0.0006018952    1.375    0.273
        59 -10.9894    167.6119    112.6406   9.9328149470e+01   2.6610369071e+01    0.2861015    0.2230929 -84.26  0.001111925    2.069    0.517
        60 -10.1569    145.0494    234.9660   1.2430235264e+02   1.1735398407e+01    0.1095818    0.0985106  44.23 0.0003307702    1.226    0.184
        61 -10.6898    205.4994    110.1925   9.0918596440e+01   1.8785706255e+01    0.2650247    0.1948698  39.88 0.0005974453    1.299    0.230
        62 -10.5157    163.1160    250.2619   1.2293626652e+02   7.4628666868e+00    0.1554204    0.1045991  32.19  0.000544663    1.196    0.164
        63 -10.4258    133.2267    228.9890   1.2568654915e+02   1.4149669627e+01    0.1587261    0.1150644  54.68 0.0006911546    1.261    0.207
        64 -11.0888     17.2481    224.4553   1.4449386492e+02   2.8200601171e+01   0.08399764   0.05932622  76.33 0.0001443431    1.168    0.144
        65 -12.8778     22.8190    220.0076   1.4345854715e+02   2.8381136143e+01    0.2260244    0.1405063 -71.36  0.001858468    1.809    0.447
        66 -10.8272    160.8209    247.3274   1.2299945738e+02   8.0973355376e+00    0.3489695    0.1528562  26.53  0.001340769    3.216    0.689
        67  -9.6013     15.5695    246.8533   1.4547774503e+02   2.5126377021e+01    0.1409755   0.06016689  81.27  0.001050564    2.127    0.530
        68 -13.1189    166.2521     35.1103   7.6061028286e+01   3.9360879729e+01    0.4734755    0.4302087  -1.39 0.0008297514    1.057    0.054
        69 -11.1978     13.5474     59.9724   1.3249026077e+02   6.0709052007e+01    0.1868995    0.1513889  59.78 0.0004243868    1.469    0.319
        70 -10.5886    144.7226     34.0490   8.0207086327e+01   4.5029531126e+01    0.2417355    0.2119441  67.67 0.0002697462    1.309    0.236
        71 -13.5786    125.1504    241.3888   1.2823007321e+02   1.3668150945e+01    0.3831778    0.1542829 -53.47   0.00228774    3.331    0.700
