#   1 NUMBER                 Running object number                                     
#   2 MAG_AUTO               Kron-like elliptical aperture magnitude                    [mag]
#   3 X_IMAGE                Object position along x                                    [pixel]
#   4 Y_IMAGE                Object position along y                                    [pixel]
#   5 X_WORLD                Barycenter position along world x axis                     [deg]
#   6 Y_WORLD                Barycenter position along world y axis                     [deg]
#   7 A_WORLD                Profile RMS along major axis (world units)                 [deg]
#   8 B_WORLD                Profile RMS along minor axis (world units)                 [deg]
#   9 THETA_WORLD            Position angle (CCW/world-x)                               [deg]
#  10 FWHM_WORLD             FWHM assuming a gaussian core                              [deg]
#  11 ELONGATION             A_IMAGE/B_IMAGE                                           
#  12 ELLIPTICITY            1 - B_IMAGE/A_IMAGE                                       
         1 -14.5681    245.4480    101.8460   8.4956697196e+01   1.0150512203e+01     3.276794    0.9935127 -28.37   0.01061314    3.423    0.708
         2 -13.8768    177.0621     27.1222   7.4711529512e+01   3.7254543770e+01     1.310216    0.8815662  11.63     0.004977    1.912    0.477
         3 -13.3180    180.7567     20.4467   7.2094152275e+01   3.7047038640e+01    0.7696375    0.6973644  25.57  0.001160876    1.170    0.145
         4 -13.4492    105.5650     19.9693   8.6375128370e+01   5.5478701865e+01     1.072381    0.7359998  28.39  0.005640349    1.435    0.303
         5 -12.7046    243.6611     32.5696   6.7960700418e+01   2.0033730102e+01    0.5985098    0.4658739 -60.93  0.003442721    1.238    0.193
         6  -9.4513     10.6269    213.7798   1.5041864381e+02   2.9983777346e+01   0.07843954   0.07405319  88.16 0.0004606966    1.590    0.371
         7 -11.8164    243.2174    248.9389   1.1463477328e+02  -8.3001420715e+00    0.4589215    0.2424556  31.64   0.00220747    1.443    0.307
         8 -19.4187     40.9802    144.4573   1.3876816963e+02   4.0827355707e+01     18.44845      2.31281 -67.29   0.04798192    7.267    0.862
         9 -11.2620     91.0364    180.8628   1.3250727800e+02   2.6624883603e+01    0.3012273    0.1943697 -48.67  0.001667573    1.832    0.454
        10 -11.6894     93.8246    175.8929   1.3124303108e+02   2.7203566925e+01    0.4096922    0.2639402 -42.15   0.00100898    2.050    0.512
        11  -9.7816     99.5032    180.5169   1.3070134668e+02   2.5397275890e+01    0.1277885    0.1115639  72.40 -1.576186e-05    1.002    0.002
        12 -10.6329    113.4600    169.3203   1.2604360651e+02   2.5368330811e+01    0.2285604    0.1451068  61.40 0.0007012832    1.694    0.410
        13 -11.6468     98.6905    166.7236   1.2884495284e+02   2.8324158687e+01    0.3609004    0.3307976   3.58 0.0006818714    1.447    0.309
        14 -15.9037    186.1182    217.5899   1.1944126939e+02   4.3233558952e+00     8.685396     2.311878  37.06   0.02930517    4.134    0.758
        15 -12.3519    103.2995    158.3798   1.2647731285e+02   2.9320302375e+01    0.5952934    0.2923404 -43.72  0.001714643    2.480    0.597
        16 -10.1933      1.4164    155.7949   1.4849710476e+02   4.1971755443e+01    0.1511797   0.07623191 -69.73 0.0005047514    1.608    0.378
        17 -12.6248     11.4391    206.5553   1.4989432770e+02   3.1211289863e+01    0.4944217    0.2926285  46.93  0.002841153    1.584    0.369
        18 -11.3965     92.7458    197.4237   1.3425649698e+02   2.3149225573e+01    0.2491344    0.2041482 -83.93  0.001167596    1.190    0.160
        19 -10.7924      5.8402    206.5989   1.5082489162e+02   3.1718792887e+01    0.1777609    0.1126402  71.99 0.0007038031    1.155    0.134
        20 -11.4550    133.6963    146.6004   1.1738249474e+02   2.6341236371e+01    0.6311716    0.2709171 -57.14  0.002297918    2.903    0.656
        21  -9.0435     91.6542    148.2608   1.2743945983e+02   3.3350050186e+01    0.1362936   0.09563775  71.68 0.0006364323    1.599    0.375
        22 -11.5815    101.7299    142.8155   1.2408103429e+02   3.2903849869e+01     0.258721    0.2523417  41.19 0.0004929997    1.155    0.134
        23 -11.6284    112.5012    141.7958   1.2132757056e+02   3.1269980554e+01    0.4127142    0.2347198 -32.37  0.001676445    2.686    0.628
        24 -10.6163    118.0174    132.0036   1.1798991948e+02   3.2364497824e+01    0.2177404    0.2124107 -53.43  0.000567905    1.065    0.061
        25 -11.0926    106.1591    129.4217   1.2034234025e+02   3.5059513493e+01    0.4299982    0.2643821 -47.73   0.00139937    1.602    0.376
        26 -11.4299     97.3290    190.8856   1.3253884040e+02   2.3705860996e+01    0.3199703    0.2319824  87.76   0.00145736    1.432    0.302
        27 -11.7613     92.6119    187.4753   1.3304985804e+02   2.5080565500e+01    0.4345147    0.2583399  63.51  0.001137499    1.735    0.423
        28 -11.8095      2.5880    120.8430   1.4520203131e+02   4.9285118001e+01    0.6930505    0.1889645 -68.98  0.003195954    2.551    0.608
        29 -11.0686    120.6149    248.7583   1.3486329451e+02   1.0429188269e+01    0.2332502    0.1464586  37.07 0.0007161555    1.542    0.351
        30  -9.6286     84.5151    121.4648   1.2419424037e+02   4.0370198210e+01    0.1363334    0.1245304 -68.13 7.042158e-05    1.013    0.013
        31  -9.8830    112.5067    120.4883   1.1678925013e+02   3.5859707896e+01     0.142785    0.1369968 -65.08 6.584745e-05    1.008    0.008
        32 -12.2705      7.9037    114.0690   1.4313087877e+02   5.0399838775e+01    0.8401646    0.2120724 -69.09  0.003600953    2.822    0.646
        33 -11.8989    164.1684     41.9343   8.1625496600e+01   3.8708160069e+01    0.3819434    0.3426099 -20.28 0.0008927142    1.133    0.117
        34 -11.7030    114.4693     38.0219   9.1174558936e+01   5.1179885200e+01    0.2903546    0.2155319  16.37   0.00147591    1.454    0.312
        35 -10.9842    105.0126    239.4033   1.3655860616e+02   1.4117638330e+01    0.1939997    0.1455794  87.55  0.000448083    1.405    0.288
        36 -11.0843     88.9952    239.0546   1.3922688685e+02   1.6438770284e+01     0.168106    0.1250839  62.73 0.0004367345    1.041    0.039
        37 -10.1567     21.4195    214.6632   1.4870307290e+02   2.8772723811e+01    0.1987088    0.1104642  46.55  0.000976706    1.623    0.384
