#   1 NUMBER                 Running object number                                     
#   2 MAG_AUTO               Kron-like elliptical aperture magnitude                    [mag]
#   3 X_IMAGE                Object position along x                                    [pixel]
#   4 Y_IMAGE                Object position along y                                    [pixel]
#   5 X_WORLD                Barycenter position along world x axis                     [deg]
#   6 Y_WORLD                Barycenter position along world y axis                     [deg]
#   7 A_WORLD                Profile RMS along major axis (world units)                 [deg]
#   8 B_WORLD                Profile RMS along minor axis (world units)                 [deg]
#   9 THETA_WORLD            Position angle (CCW/world-x)                               [deg]
#  10 FWHM_WORLD             FWHM assuming a gaussian core                              [deg]
#  11 ELONGATION             A_IMAGE/B_IMAGE                                           
#  12 ELLIPTICITY            1 - B_IMAGE/A_IMAGE                                       
         1 -11.1803      7.0371     84.7091   1.1069865440e+02   5.7594504998e+01    0.5761601    0.1510391 -45.24  0.002009728    3.006    0.667
         2 -12.3400    167.1368     77.3656   5.8420189949e+01   3.2552610532e+01    0.6793563    0.3879079 -15.18  0.002473288    2.869    0.652
         3  -9.2634     97.6008     12.2412   5.2444108412e+01   5.7682350380e+01    0.1740853     0.117238   0.90 0.0009441439    1.650    0.394
         4 -11.7448    237.8835    241.0848   8.0648613477e+01  -9.2362780676e+00    0.3656709    0.2755719  30.06  0.001896076    1.460    0.315
         5 -11.7385    246.8153    248.0640   8.0238524941e+01  -1.1214164054e+01    0.5243194    0.3216574  30.00  0.002970336    1.551    0.355
         6 -12.0083    250.1468    241.7679   7.8623359247e+01  -1.0855726974e+01    0.6044207    0.2610161 -39.68  0.003131911    2.699    0.629
         7 -14.9571    127.4343    220.8024   9.9436355867e+01   1.0660397111e+01     2.713681     1.867294  -7.42  0.008544474    2.293    0.564
         8  -9.1569    171.0635    225.7423   9.0940262161e+01   2.7498614622e+00     0.174305    0.1507717  15.45 0.0003693931    1.024    0.024
         9 -10.9010     61.1642    237.2504   1.1515944945e+02   1.6970914663e+01    0.2402373    0.1285654  53.12  0.001083201    1.615    0.381
        10  -9.9987     39.6774    224.7380   1.1837849089e+02   2.2043905139e+01    0.2426977    0.1146583  78.65  0.001172917    2.431    0.589
        11 -11.2051     60.1932    223.5176   1.1412864324e+02   1.9842920070e+01     0.254158    0.1622099  68.72  0.001126815    1.517    0.341
        12 -15.2502     88.6853    194.0660   1.0441958702e+02   2.2312761492e+01     2.626733     1.151944 -67.62   0.01055118    2.631    0.620
        13  -9.7552    157.0877    221.5248   9.3183374203e+01   5.7335823801e+00    0.2073234    0.1183981  35.93 0.0006439163    1.560    0.359
        14 -15.2860    133.1257    194.3987   9.4019372764e+01   1.5045428190e+01     5.412771      2.46006  20.41    0.0152073    5.248    0.809
        15 -12.4547     62.5928    216.9876   1.1299947330e+02   2.0899319711e+01    0.3996664    0.2513278  89.75  0.001798399    1.671    0.401
        16 -15.8572     95.8992    183.4074   1.0110687913e+02   2.3645164012e+01     2.847209     1.873454 -67.06   0.01400222    1.592    0.372
        17 -10.0408    160.4968    226.9857   9.3326304162e+01   4.2244017970e+00    0.2403731    0.2305513  25.24 0.0009549939    1.156    0.135
        18 -15.3378     77.7154    176.2516   1.0453150234e+02   2.8046559772e+01      2.96489     1.439007 -45.73   0.01235163    2.375    0.579
        19 -12.3714     56.8351    204.5257   1.1298274620e+02   2.4316683997e+01    0.4917217    0.2452772 -71.69  0.001974489    1.965    0.491
        20 -10.6970     47.3180    208.5674   1.1544418511e+02   2.4579798200e+01    0.3151219    0.1626864 -72.85  0.001642558    1.842    0.457
        21 -10.6250    237.4762    231.6006   7.9114950805e+01  -7.9454961008e+00    0.2284069    0.1996733   5.00  0.001464131    1.317    0.240
        22  -9.0162    170.5303    232.4214   9.2107790429e+01   1.7241340618e+00    0.1305967    0.1083958  18.81 7.636978e-05    1.046    0.044
        23 -10.9542    123.9947    205.8726   9.7978259819e+01   1.4192123919e+01    0.2114536    0.1985678 -63.59  0.001280113    1.148    0.129
        24  -9.6876    167.5309    242.4931   9.4236688119e+01   5.6901643425e-01    0.1267548    0.1054876  23.67 0.0001075409    1.005    0.005
        25 -10.4071     49.5122    226.6629   1.1657530942e+02   2.0508844828e+01    0.2573332    0.1284431  69.86  0.001283385    2.203    0.546
        26 -12.5559    152.8400    198.9276   9.0322772752e+01   1.0702710391e+01    0.8339433    0.4952605  19.54  0.003628728    2.132    0.531
        27 -14.2816     98.9598    226.3641   1.0629441659e+02   1.3947583640e+01     1.026778    0.7739944  21.44  0.004861542    1.539    0.350
        28 -10.6703     49.0016    200.9308   1.1434803858e+02   2.6063778596e+01    0.3721158    0.1574546 -72.26  0.001696755    2.288    0.563
        29  -9.8221     41.4276    201.7553   1.1608609817e+02   2.6753175285e+01    0.2387245    0.1106139 -78.74  0.001137689    2.128    0.530
        30 -11.9489    185.8764    185.2602   8.0544443084e+01   7.4951847749e+00     1.642194    0.7119485 -22.03  0.003446973    9.552    0.895
        31 -10.0880    174.3053    192.2985   8.4384517782e+01   8.2197698202e+00    0.2712099     0.192242  17.60 0.0005448711    1.503    0.335
        32 -11.5802     61.0444    198.2153   1.1136190055e+02   2.5194399475e+01    0.3254599    0.1812404 -65.06   0.00161075    1.728    0.421
        33  -9.6164    250.5246    197.5200   7.0644500789e+01  -4.9316699759e+00    0.1268519    0.1006691 -10.19 3.953364e-05    1.021    0.020
        34 -12.9493     66.9105    192.6894   1.0936387424e+02   2.5687881415e+01    0.6785004    0.3114513 -67.44  0.003039054    2.147    0.534
        35 -15.2352     88.0419    226.6774   1.0864108882e+02   1.5462918101e+01     2.755909     1.630628  66.43   0.01410968    1.955    0.489
        36 -11.5995    173.0016    195.9368   8.5351603222e+01   7.7597432195e+00    0.5531164    0.4552391  30.51  0.001648632    1.147    0.128
        37 -11.1852     43.6630    191.8344   1.1463464387e+02   2.8736829708e+01    0.5098035    0.2112384 -71.06  0.002309694    2.234    0.552
        38  -9.3573    203.8074    188.5997   7.7530180928e+01   3.7649426715e+00    0.1890295    0.1269959  45.67 0.0009491324    1.698    0.411
        39 -12.0253     54.4986    186.1222   1.1150322637e+02   2.8783867400e+01    0.4842693    0.2718168 -89.21  0.002107203    2.012    0.503
        40 -11.1202     55.3280    181.3549   1.1074059536e+02   2.9800803953e+01    0.2835773    0.2340302  13.39  0.001668796    1.550    0.355
        41 -10.3069     34.1009    186.4167   1.1627926768e+02   3.1022393630e+01    0.4034558    0.1484576 -78.39  0.001644212    2.798    0.643
        42 -10.3795    212.7168    183.0347   7.4668519190e+01   3.2252301753e+00    0.2933297    0.1879165  29.86  0.001032608    1.569    0.363
        43 -11.1326    198.4392    183.6998   7.7632785682e+01   5.5633784910e+00    0.3066458    0.2445946 -42.46  0.001685261    1.346    0.257
        44  -9.6636     18.1530    182.2132   1.1951337424e+02   3.3543194117e+01    0.3265519    0.1606747 -36.36  0.001380575    3.851    0.740
        45 -11.2526     44.3308    179.8881   1.1321367896e+02   3.1437874279e+01    0.6092988    0.1736389 -64.07  0.002325671    2.939    0.660
        46  -9.1866     13.7653    185.4120   1.2074100506e+02   3.3203417398e+01    0.1371143    0.1186835   9.63  0.000519825    1.598    0.374
        47 -10.3487    204.2721    176.2168   7.4934393281e+01   5.8920008494e+00    0.2842041    0.2198608 -23.89  0.001177966    1.210    0.174
        48 -10.5736    164.6306    226.3811   9.2372178029e+01   3.6678316781e+00    0.3992822    0.3150526  25.34  0.002394469    1.115    0.103
        49 -12.9910    160.7702    165.8664   8.2103985356e+01   1.6031581421e+01    0.7328775    0.5544807  61.99  0.003485428    1.676    0.403
        50 -12.7191    151.2872    170.6716   8.5311337053e+01   1.6819528860e+01    0.7906415    0.4391786  17.91  0.002804868    2.989    0.665
        51 -11.7661    144.9401    159.7092   8.4541884106e+01   2.0420125939e+01    0.3310543    0.3181944  84.88  0.001059404    1.145    0.127
        52 -12.0528    145.7087    155.8277   8.3517998206e+01   2.1130245719e+01    0.5340631    0.3674662  81.75  0.002083296    2.618    0.618
        53 -11.5959    148.5312    163.9999   8.4584733348e+01   1.8786217341e+01    0.3696584    0.3032688  51.64  0.001135917    1.305    0.234
        54 -12.5618    152.3130    161.8356   8.3225858554e+01   1.8527340099e+01    0.5654732    0.4018913  61.68  0.002541201    1.816    0.449
        55 -12.5062     60.1428    174.8820   1.0874045283e+02   3.0741011119e+01    0.5712351    0.2990852 -54.77  0.002683369    1.861    0.463
        56 -10.1823     12.5020    175.4312   1.2023137358e+02   3.5599149225e+01    0.3086259   0.09940324 -74.27  0.001319614    2.565    0.610
        57  -9.5752     23.7787    173.1186   1.1740724100e+02   3.5144524390e+01    0.3640722   0.09282976 -63.11  0.001411904    3.018    0.669
        58 -10.5596     44.8713    170.3789   1.1198141549e+02   3.3644157263e+01    0.4287763    0.1609242 -66.18  0.001784319    2.330    0.571
        59 -10.0614    209.0298    169.0021   7.2489778702e+01   6.3521214033e+00    0.4278241    0.2512549 -10.07  0.001731715    2.558    0.609
        60 -10.9221    170.1226    170.0189   8.0855208480e+01   1.3381647722e+01    0.3375634    0.2110714  33.95  0.001432089    1.614    0.380
        61 -10.5964     54.7893    169.1476   1.0932953831e+02   3.2786202839e+01    0.4124452    0.2159026 -85.21  0.001766917    2.311    0.567
        62 -10.6539     55.4723    164.4961   1.0852565404e+02   3.3834273126e+01    0.2683183    0.2318874 -52.82  0.001091676    1.213    0.176
        63 -12.3877    140.4319    166.0400   8.6960904895e+01   1.9877927335e+01    0.4973246    0.3545043  53.37  0.001921426    1.555    0.357
        64 -15.9679    120.6390    172.0166   9.3013132279e+01   2.2147916137e+01     2.895803     2.008177 -40.00   0.01378677    1.549    0.354
        65 -10.9869    218.2052    165.6255   7.0019920654e+01   5.3293099207e+00    0.4169286    0.2839531  64.56  0.001902774    2.531    0.605
        66 -12.6697     79.1781    161.2188   1.0179143791e+02   3.1464778315e+01    0.8285225    0.4315194 -69.96  0.003441162    2.124    0.529
        67 -12.5506     81.9916    152.3196   9.9484925127e+01   3.3232243631e+01    0.7501169    0.4357664 -53.80  0.003396148    1.623    0.384
        68 -10.4440    228.8214    161.5065   6.7204147024e+01   4.2026453329e+00    0.6290481    0.2197506 -27.08  0.001754357    5.129    0.805
        69 -10.9867     47.4408    161.3719   1.1018923214e+02   3.5541792069e+01     0.759111    0.1229575 -61.94  0.002277137    4.278    0.766
        70 -10.4201     49.1818    154.3637   1.0876624745e+02   3.7066739843e+01     0.441854    0.2482213  84.95  0.001916807    2.322    0.569
        71 -10.7088     49.3373    150.3429   1.0814171539e+02   3.8044031810e+01    0.4066108    0.2426441 -27.62  0.001795673    2.551    0.608
        72 -10.8747     38.1557    161.5640   1.1261331302e+02   3.6502993137e+01    0.6915827   0.07537685 -57.41  0.001966519    5.090    0.804
        73 -11.9499     70.0784    160.9596   1.0416697038e+02   3.2813932752e+01    0.5716718    0.2165066 -56.61  0.002208808    2.378    0.580
        74 -11.0380    179.9200    161.8904   7.6959420517e+01   1.3145414758e+01    0.5005685    0.2232101  41.46  0.001923081    2.273    0.560
        75 -11.4756     62.0928    158.7452   1.0595040226e+02   3.4417024574e+01    0.5805899    0.1994681 -60.11  0.002181489    2.550    0.608
        76 -15.1487    106.1726    155.6441   9.3581797441e+01   2.8514522743e+01     1.807609     1.699635  21.63  0.009972639    1.120    0.107
        77 -10.0237    199.2896    158.6735   7.2199756331e+01   1.0059465541e+01    0.3601446    0.2152155  27.09  0.001578515    1.952    0.488
        78 -12.0258    169.6312    158.2995   7.8449352911e+01   1.5887553040e+01    0.4935981    0.3024498  43.47  0.002087762    1.668    0.400
        79 -10.1600    219.2282    156.2248   6.7814460326e+01   6.8185664088e+00    0.2649767    0.2099456 -41.55 0.0002434618    1.265    0.210
        80 -13.4116    119.6412    155.8478   9.0087764883e+01   2.6074198131e+01     1.094821    0.4414344 -46.33  0.003883764    2.486    0.598
        81 -10.0470     22.7608    157.1630   1.1604169623e+02   3.9045892643e+01    0.3770317   0.09239859 -61.99  0.001420567    2.994    0.666
        82 -11.4153    158.0111    157.0131   8.0837308185e+01   1.8452273138e+01    0.3136605    0.2162185  40.20  0.000908059    1.456    0.313
        83 -10.4466    213.4375    155.6600   6.8774622135e+01   7.9761715404e+00    0.2584769    0.1713474  35.75 0.0007337181    1.595    0.373
        84 -13.0216    133.6320    152.3834   8.5766098426e+01   2.4250580767e+01    0.7082187    0.4096697 -53.45  0.002574336    1.799    0.444
        85 -11.1838     67.4663    152.2987   1.0347084643e+02   3.5304139480e+01    0.5156994    0.2517964 -63.69  0.002191307    1.931    0.482
        86 -11.7555    163.1349    151.4595   7.8406615522e+01   1.8617257609e+01    0.3196771    0.2885407  43.63  0.000965177    1.156    0.135
        87 -10.9564    192.0952    151.1165   7.1987986584e+01   1.2902608864e+01    0.5097582    0.2225897  41.84  0.001946749    2.382    0.580
        88 -11.2651     91.3412    149.5640   9.6399785893e+01   3.2457940105e+01    0.4248377    0.2521411 -51.30  0.001889602    1.612    0.380
        89 -11.3151    142.9812    149.5300   8.2795699094e+01   2.3070200232e+01     0.293623    0.2260452 -44.92 0.0008493749    1.286    0.222
        90 -13.1747    149.5161    144.8687   8.0130898077e+01   2.2797101187e+01    0.6924347    0.5687733  81.41    0.0021952    1.597    0.374
        91 -10.4113     28.7018    149.7072   1.1363953293e+02   4.0326280920e+01    0.3490881    0.1486157 -87.53  0.001317361    3.117    0.679
        92  -9.8383    202.4829    149.5159   6.9530411181e+01   1.1185055474e+01    0.2942827    0.1442481  43.08  0.001206829    2.154    0.536
        93 -12.2607    113.1221    131.6070   8.6496242957e+01   3.3008341515e+01     1.057352    0.4091741 -38.42   0.00323473    3.326    0.699
        94 -12.7574    118.4857    122.2570   8.2736160186e+01   3.4165254327e+01    0.9983754    0.5686395 -33.86  0.003911835    2.024    0.506
        95 -12.6069    106.8899    144.7956   9.1165080100e+01   3.0994103051e+01    0.6880584    0.4962094  81.94  0.002866078    1.964    0.491
        96 -12.1580    107.7089    137.9814   8.9456573905e+01   3.2484442421e+01    0.5539371    0.4018432   9.08  0.002467312    1.840    0.457
        97 -11.4694    176.8003    146.9503   7.4295931538e+01   1.6794869130e+01    0.3371601    0.2210891  47.13  0.001220233    1.619    0.383
        98 -10.6978     78.2373    145.1385   9.9206507942e+01   3.5564104876e+01    0.5380756    0.2341708 -50.47  0.002103162    2.161    0.537
        99 -10.8617     81.2782    137.6707   9.6887751624e+01   3.6958217355e+01    0.5838273    0.2067324 -49.85  0.002037766    2.615    0.618
       100 -11.3194     83.0634    131.1321   9.5011168221e+01   3.8296500152e+01     0.584609    0.3222525 -64.73  0.002169093    1.979    0.495
       101 -11.2844     84.5914    122.9095   9.2739942294e+01   4.0067628978e+01    0.6512254    0.4219925 -16.94  0.002677201    2.331    0.571
       102 -11.4853     55.4144    144.7351   1.0558514078e+02   3.8724026321e+01    0.5433872     0.316138 -90.00  0.002219844    2.276    0.561
       103 -11.4540     56.4987    137.6740   1.0409142991e+02   4.0353500872e+01    0.4962025    0.2859234 -34.52  0.002177626    2.209    0.547
       104 -12.1772    166.4061    144.8251   7.6133421332e+01   1.9358000753e+01    0.4456746    0.3191443  64.44  0.001545752    1.868    0.465
       105 -10.1483     13.4004    142.9273   1.1693432290e+02   4.3253102575e+01    0.6517543    0.1442084 -63.05  0.002448183    3.036    0.671
       106 -11.9006    138.1085    144.1246   8.2789426437e+01   2.5254906394e+01    0.4047635    0.2661683 -50.01  0.001106149    1.528    0.346
       107 -13.2725    125.0669    140.9771   8.5437708191e+01   2.8534673774e+01     1.011359     0.471307 -50.58  0.003678612    2.136    0.532
       108 -11.1899     87.7060    143.1567   9.6152980864e+01   3.4609035427e+01    0.3739181    0.3030618 -75.73  0.001650669    1.300    0.231
       109 -11.4356     88.6550    138.1875   9.4872362932e+01   3.5679791385e+01     0.495403    0.3457766 -15.58  0.002178357    2.050    0.512
       110 -11.2433     39.2918    144.4100   1.1005549481e+02   4.0603925318e+01    0.8060023    0.2751647 -61.37  0.003219499    2.366    0.577
       111 -12.0248    173.1029    139.0180   7.3258407451e+01   1.9187909120e+01    0.3968489    0.3356228 -89.31  0.001404367    1.556    0.357
       112 -11.7899     69.0532    136.2151   1.0015924248e+02   3.9088469497e+01    0.7365384    0.3137724 -53.60  0.002924413    2.090    0.522
       113 -11.7938    138.8605    137.8854   8.1146353298e+01   2.6515503647e+01     0.406561    0.2625738 -36.20  0.001741732    1.617    0.382
       114 -12.5996    143.5927    130.3919   7.8142492359e+01   2.7220508982e+01    0.7597612     0.350368 -38.08  0.002457863    2.311    0.567
       115 -11.8451    162.8257    137.1634   7.5149458955e+01   2.1722590832e+01    0.3176638    0.2824329 -81.40   0.00115052    1.355    0.262
       116 -11.5555    179.8008    198.6803   8.4411575533e+01   6.0708633457e+00    0.7155277    0.4154069  19.89  0.003181217    2.063    0.515
       117  -9.8381     22.4409    136.7547   1.1372906064e+02   4.4049788598e+01    0.4099353    0.1898127  84.09  0.001603029    3.138    0.681
       118 -10.4637     23.0936    131.2754   1.1281943043e+02   4.5341823088e+01    0.4478314    0.1838623 -43.38  0.001877701    2.708    0.631
       119 -10.4552    188.9035    136.5024   6.9273259812e+01   1.6419471640e+01    0.2228642    0.1499986  44.23 0.0009155403    1.560    0.359
       120 -11.2992    197.1429    143.0034   6.9112065359e+01   1.3478737161e+01    0.5299278    0.3203646 -24.10 0.0005209646    1.904    0.475
       121 -10.5253     41.1291    130.1886   1.0735715304e+02   4.3948460565e+01    0.5205131    0.2597477 -25.79  0.001929615    3.640    0.725
       122 -11.8405    180.2680    134.4836   7.0610998789e+01   1.8618699985e+01    0.3523893    0.3076632  40.35   0.00111063    1.192    0.161
       123 -11.4206    183.0621    142.7409   7.1964997129e+01   1.6374436696e+01    0.5035986    0.2413203  53.19  0.001849688    2.610    0.617
       124 -12.9815    132.3362    129.0823   8.0704410588e+01   2.9832714423e+01    0.9990163    0.4607176 -44.20  0.003666147    2.125    0.530
       125 -12.6589    130.7781    117.1018   7.8079972602e+01   3.2847768956e+01    0.8285253    0.4676695 -38.97  0.003327089    1.791    0.442
       126 -11.3345    133.4256    108.2338   7.5017111416e+01   3.4231230917e+01    0.5910815    0.2957214 -43.51  0.002256007    1.955    0.489
       127 -12.8882    169.1088    130.0446   7.1985524322e+01   2.1890479276e+01      0.71163    0.5046592  83.08  0.002881577    2.388    0.581
       128 -13.2003    167.0499    102.3655   6.5328307744e+01   2.7952407569e+01     1.183058    0.6124884 -19.09  0.003570518    3.888    0.743
       129 -13.1089    158.9380    120.7685   7.1996449780e+01   2.6023979387e+01    0.8955079    0.5180298 -60.14  0.003330407    2.419    0.587
       130 -12.4975    159.5971    110.4425   6.9156516246e+01   2.8019045762e+01    0.7851596    0.3600971 -33.32  0.002742277    2.466    0.595
       131 -11.8202    175.7850    101.9563   6.3358917373e+01   2.6044611835e+01    0.4334068    0.2836502 -43.66   0.00124377    1.483    0.326
       132 -12.6371    183.8271     96.1419   6.0212510270e+01   2.5303313960e+01    0.9115404    0.2370678 -39.09  0.002664461    3.590    0.721
       133 -13.4135    176.9482     93.5347   6.0882865361e+01   2.7360217968e+01    0.9611269    0.4896526 -46.80   0.00380316    2.004    0.501
       134 -11.2350    182.2683     68.1298   5.3009137769e+01   3.0495131848e+01    0.3548821    0.2062422 -36.01  0.001590124    1.692    0.409
       135 -12.4206    179.5200     85.3546   5.8179456880e+01   2.8241433816e+01    0.6706942    0.3308452 -48.96  0.002599467    2.186    0.543
       136 -12.3768    179.9837     76.5996   5.5722140434e+01   2.9644650971e+01    0.9235786    0.2289167 -33.95  0.002548118    4.357    0.770
       137 -12.4201    184.2298     76.4355   5.4904190840e+01   2.8674247490e+01    0.7693051    0.3255577 -28.14   0.00267069    2.938    0.660
       138 -13.2830    185.7920     83.0670   5.6390864053e+01   2.7182381665e+01    0.8727698    0.3773184 -41.45  0.003338342    2.197    0.545
       139 -10.4037    193.6696    131.0681   6.7012277965e+01   1.6497640974e+01     0.287092    0.2218652  35.10 0.0007784569    1.374    0.272
       140 -12.9889    153.1885    128.1465   7.5225776876e+01   2.5690324305e+01    0.8049508    0.3769684 -44.97  0.002667966    2.095    0.523
       141 -10.6393    186.7657    130.4199   6.8263364716e+01   1.8067230867e+01    0.2800445    0.1500602  49.98 0.0009393652    2.035    0.509
       142 -11.7012     98.4618    127.1109   8.9602353610e+01   3.6736093826e+01    0.5771555     0.370516 -76.48  0.002303341    2.303    0.566
       143 -11.5517     99.6059    120.0743   8.7587441539e+01   3.8215949211e+01    0.7988346    0.4704338  11.88   0.00284041    3.012    0.668
       144 -10.7353     72.5174    128.5102   9.7601591947e+01   4.0515552444e+01    0.3012698    0.2100456 -68.36  0.001453684    1.469    0.319
       145 -10.8090     72.6749    125.6472   9.6955350786e+01   4.1199954725e+01    0.4204521     0.269562  -8.14  0.001737366    2.513    0.602
       146 -10.8845     13.1500    121.7282   1.1445005239e+02   4.8422185715e+01    0.6658839    0.1275194 -51.50  0.002254601    3.895    0.743
       147 -12.2107    180.2684    125.7396   6.8485315693e+01   2.0379413804e+01    0.4548634    0.3624173  52.03  0.001597429    1.356    0.262
       148 -11.0767     58.9444    123.3343   1.0069304886e+02   4.3619400968e+01    0.6434085    0.3325419 -84.30   0.00215385    3.769    0.735
       149 -10.0362     58.9872    115.3439   9.9033784723e+01   4.5581628286e+01     0.475567    0.2580855 -27.23  0.001869569    2.717    0.632
       150 -11.3083    189.7259    124.6998   6.6270281323e+01   1.8565062663e+01    0.3131597    0.2728559  62.30  0.001063615    1.307    0.235
       151 -11.2313     42.7631    120.6525   1.0521688781e+02   4.6143622631e+01    0.8306888    0.3489054 -79.46  0.002600221    4.309    0.768
       152 -10.6246     28.3614    122.1078   1.0991516636e+02   4.7154971033e+01    0.5972185     0.273012  78.59  0.001800034    5.528    0.819
       153 -10.5300    203.9024    123.1436   6.3135078679e+01   1.5884503526e+01    0.2255114    0.2033816 -70.46  0.001158044    1.275    0.215
       154 -11.2140    195.4863    122.6940   6.4636897776e+01   1.7731530470e+01      0.31038    0.2639744 -81.81  0.001438996    1.479    0.324
       155 -12.3510    172.5545    121.9735   6.9213651554e+01   2.2806752682e+01    0.5042508    0.3598546  47.13  0.002292462    1.460    0.315
       156 -12.3884    141.8181    119.0814   7.5732835763e+01   3.0083759853e+01    0.7619873     0.378052 -50.39  0.002591677    2.136    0.532
       157 -11.9220    141.8098    112.7724   7.4078335876e+01   3.1450281540e+01    0.5890002    0.3886771  16.49  0.002318723    2.227    0.551
       158 -10.1101     71.1386    117.1212   9.5570706061e+01   4.3510681479e+01    0.5280985    0.2875242 -43.01  0.002275698    1.802    0.445
       159 -11.8146    186.5966    116.9237   6.4984300032e+01   2.0750689581e+01    0.3712868    0.2902384 -38.77  0.001059196    1.212    0.175
       160 -11.5912    193.7889    116.3831   6.3423046132e+01   1.9297551077e+01     0.340825    0.2920026  59.19  0.001215101    1.294    0.227
       161 -10.0554    203.5630    116.7072   6.1650697679e+01   1.7154103435e+01    0.2523053    0.1352347  50.51 0.0009898143    2.027    0.507
       162 -11.5845    167.9081    114.1299   6.8239061756e+01   2.5419134381e+01    0.3468679    0.2592745 -47.61  0.001404992    1.339    0.253
       163 -10.9803    108.9802    113.6936   8.3237526355e+01   3.7979128967e+01    0.4882711    0.3279822 -71.45  0.002000316    2.124    0.529
       164 -10.8875    108.8834    108.0882   8.1783362188e+01   3.9276654225e+01    0.5951108    0.4081266  10.81  0.002496799    2.037    0.509
       165 -12.1074    174.9243    111.8805   6.6129549230e+01   2.4308823549e+01    0.4765542    0.3254141 -48.47  0.001457604    1.483    0.326
       166 -10.7765      2.1135    111.4718   1.1644412621e+02   5.1565628145e+01    0.5269389    0.0880191 -62.94  0.001911731    3.257    0.693
       167 -11.7514    122.9265    109.8261   7.8272133694e+01   3.6086897539e+01    0.7790704    0.4511606 -24.94  0.002867385    2.446    0.591
       168 -10.3594     92.2838    112.0752   8.7790302100e+01   4.1388878649e+01    0.4741953    0.2709064 -64.23  0.001866129    2.215    0.548
       169 -10.7785     92.9106    104.9180   8.5737185639e+01   4.2945745689e+01    0.7267819    0.4545233   9.56  0.002849471    2.508    0.601
       170 -10.7205     78.4406    111.3850   9.1926099009e+01   4.3812013992e+01    0.5829689    0.3086441 -68.86  0.002146056    2.727    0.633
       171 -11.2828     14.4495    108.3265   1.1212764117e+02   5.1577161424e+01    0.6553012    0.2508916 -59.04  0.002996106    1.946    0.486
       172 -12.2495    189.5448    108.5357   6.2289149898e+01   2.1710028409e+01     0.463272    0.3076684 -59.34  0.001678173    1.832    0.454
       173 -11.4832    183.1052    109.4180   6.3794844841e+01   2.2968404737e+01    0.3126831    0.2176314 -46.38  0.001016399    1.412    0.292
       174 -10.4871     66.5823    107.0245   9.4694021430e+01   4.6591226530e+01    0.6735097    0.2558685 -46.24  0.002488355    2.422    0.587
       175 -10.4581    202.7875    109.5935   6.0059764130e+01   1.8629683505e+01    0.2024423    0.1441728  66.82 0.0009506799    1.732    0.423
       176 -10.9352    197.3291    108.6428   6.0829916303e+01   1.9983861527e+01    0.2314567    0.1759177 -71.31 0.0008383932    1.681    0.405
       177  -9.4431     60.7914    106.3905   9.6451680280e+01   4.7521472709e+01    0.1922159     0.137325   9.48  0.000950022    1.694    0.410
       178 -12.8156    150.4155    100.4337   6.8605324188e+01   3.2113125644e+01     1.122983    0.3959052 -39.07  0.003598072    2.842    0.648
       179 -12.2207    140.3123    102.0785   7.1547006974e+01   3.4034691636e+01    0.8560019    0.4836557 -26.57  0.003211725    2.276    0.561
       180 -10.7909     22.5217    102.3768   1.0848062825e+02   5.2429143998e+01    0.5431534    0.2953038  78.26   0.00225971    3.155    0.683
       181 -10.9086    201.2858    104.0009   5.8951505977e+01   1.9972624232e+01    0.2169826    0.1862561 -41.23 0.0008853683    1.087    0.080
       182 -10.1233    206.9339    131.5116   6.4543224887e+01   1.3700170683e+01    0.3603491    0.1470327  47.68  0.001345301    2.662    0.624
       183 -10.4035     44.2614    100.9631   1.0079330728e+02   5.0782285488e+01     0.521327    0.3030934  78.11  0.001950847    3.656    0.727
       184 -12.0397    160.0244     99.6189   6.6146560311e+01   3.0092190014e+01    0.6905096    0.2751707 -35.96  0.002323651    2.626    0.619
       185 -12.1668    164.8433     93.4122   6.3377044098e+01   3.0180886779e+01    0.4838446    0.3250186 -33.88  0.001556013    1.497    0.332
       186 -11.2524    129.4258     99.2050   7.3568761532e+01   3.7009978535e+01    0.7296891    0.4763835 -16.41  0.002907236    2.166    0.538
       187 -10.6657    107.8855     97.6137   7.9175303809e+01   4.1796983209e+01    0.4334749      0.30168 -60.69  0.001552227    1.725    0.420
       188 -10.5993    109.0098     91.6695   7.7119420741e+01   4.2848638257e+01    0.6423967    0.3781401  25.03  0.002546899    2.204    0.546
       189 -10.7928     82.4558     95.4673   8.6493742191e+01   4.6878485356e+01    0.6579632    0.2976871 -36.00  0.002387048    2.566    0.610
       190 -10.4228     95.9716     92.5356   8.1335130762e+01   4.5169405609e+01    0.7750514     0.370382 -27.29  0.002440472    3.571    0.720
       191 -10.0839     63.0877     95.1371   9.2910350658e+01   4.9870520796e+01    0.4157573    0.2349738 -73.80  0.001576233    2.970    0.663
       192 -10.7143     21.4663     92.7799   1.0704443967e+02   5.4787791128e+01    0.5965521    0.1823008 -38.99  0.002075302    3.817    0.738
       193 -10.3725     44.7502     92.4543   9.8669250269e+01   5.2739188664e+01    0.3975953    0.2590093  -9.80  0.001961316    1.941    0.485
       194 -11.0241    138.9759     89.8265   6.8394934855e+01   3.6808027712e+01    0.6889208     0.383737 -28.36  0.002672498    2.121    0.529
       195 -11.0394    140.9863     81.2720   6.5375431136e+01   3.7986482950e+01    0.5693153    0.3462274 -26.69  0.002311005    1.880    0.468
       196 -11.2151    158.0505     90.6043   6.4092602308e+01   3.2285873413e+01    0.4779094     0.233926 -35.49   0.00181928    2.082    0.520
       197 -11.2660    125.3088     86.8660   7.1078394213e+01   4.0424095613e+01     1.009402    0.5898247 -15.62  0.003553348    2.919    0.657
       198 -10.4634     36.0752     81.9275   9.9272770842e+01   5.6050471155e+01    0.5365828    0.2257409 -34.57  0.002140498    2.727    0.633
       199 -11.1210    151.3458     87.5680   6.4757813732e+01   3.4413827806e+01    0.5231147    0.2868678 -24.60  0.001952391    2.386    0.581
       200 -10.4265     66.1809     87.0106   8.9640813550e+01   5.1285524928e+01    0.6163674     0.274987  18.88  0.002101583    3.673    0.728
       201 -10.8090    166.4400    248.8481   9.5370614770e+01  -2.5244925672e-01    0.2410914    0.1533665  33.05  0.001404051    1.306    0.235
       202 -12.4142    193.5401     55.7287   4.7873494598e+01   2.9724465398e+01    0.5115311    0.2733295 -29.23  0.002262753    2.014    0.503
       203 -11.4616    193.8386     68.1190   5.1065049408e+01   2.7776828207e+01    0.2975856    0.1993244 -36.23 0.0009963776    1.455    0.313
       204 -11.8744    170.7622     82.9746   5.9254974072e+01   3.0713487990e+01    0.3879377    0.2774616 -33.69  0.001842465    1.401    0.286
       205 -11.1583    158.2701     81.9784   6.1596332129e+01   3.3831173515e+01    0.4922174    0.3023301 -22.78  0.001995108    2.001    0.500
       206  -9.8195    103.8343     82.0145   7.5748108854e+01   4.5874824596e+01    0.3751675    0.2083444 -51.75  0.001523793    2.047    0.511
       207 -10.2901    105.3970     76.9927   7.3699819552e+01   4.6558914800e+01    0.5912105    0.2804311  32.20  0.002155953    2.597    0.615
       208 -11.5812    215.6415     81.4966   5.1047839332e+01   2.0710358323e+01    0.2700851    0.2208967 -32.05  0.001483849    1.207    0.171
       209 -10.8562    150.3332     78.8783   6.2465406177e+01   3.6253752289e+01    0.5032091    0.2834564 -30.12  0.001922441    1.933    0.483
       210 -10.4651     88.6141     80.1315   7.9958108989e+01   4.9137540985e+01     0.702464    0.2990543  25.13  0.002084627    4.333    0.769
       211  -9.5033     24.1802     80.7375   1.0349097194e+02   5.7365797005e+01    0.2445788    0.1433233 -76.41  0.001185448    2.111    0.526
       212 -12.0648    175.0021     77.6997   5.6962315040e+01   3.0633193122e+01    0.5606782    0.2793473 -39.11  0.001768004    1.942    0.485
       213 -12.1178    175.6663     71.0737   5.5005933817e+01   3.1586480483e+01    0.5816324    0.2365516 -29.79  0.002031928    2.845    0.648
       214 -12.1805    174.8245     56.4638   5.1085555646e+01   3.4074257962e+01     1.034053    0.3611911 -21.83  0.002345863    7.848    0.873
       215 -11.1176    206.6970     78.9353   5.1785410184e+01   2.3101954841e+01    0.2096307    0.1761333 -45.92 0.0009672637    1.105    0.095
       216  -9.8870     49.3407     77.6316   9.3117026940e+01   5.5572655040e+01    0.4264955    0.2293298 -11.15  0.001656469    3.144    0.682
       217 -10.7999    211.7132     76.9348   5.0522228436e+01   2.2309372545e+01    0.2067629    0.1740002 -46.12  0.001003773    1.094    0.086
       218 -10.2199    157.5487     75.1729   5.9788048232e+01   3.5206985206e+01    0.3824524    0.2700096 -11.27   0.00170435    1.849    0.459
       219 -11.9225    193.4708     62.9658   4.9776456393e+01   2.8661409862e+01    0.4832828     0.196152 -46.32  0.001836112    2.498    0.600
       220 -12.0906    163.3745     71.4048   5.7484165056e+01   3.4463216683e+01    0.6770308    0.2567818 -32.74  0.002323999    2.821    0.645
       221 -10.3407    140.7397     73.3312   6.3039730521e+01   3.9483948654e+01    0.4653464    0.3126982 -13.29  0.002000431    1.963    0.491
       222 -10.8783    128.5421     71.6727   6.5550557330e+01   4.2577260757e+01    0.7364603    0.4493077 -15.84  0.002940885    2.305    0.566
       223 -10.0118     10.0411     74.6914   1.0759379438e+02   5.9699510248e+01    0.1690219    0.1396161 -37.56 0.0003235754    1.117    0.104
       224 -11.0656    206.6931     74.1963   5.0602476014e+01   2.3868085584e+01    0.2309954    0.1623001 -51.64 0.0008130286    1.380    0.275
       225 -10.3849     27.5062     71.4274   9.9913294934e+01   5.9169576767e+01    0.7330174    0.2796443 -22.94  0.002010961    6.895    0.855
       226  -9.6275    151.3510     72.3873   6.0317605374e+01   3.7157016585e+01    0.3006194    0.2375614 -19.42  0.001048444    1.393    0.282
       227  -9.2010    239.9579     73.0000   4.5778698132e+01   1.6931674108e+01    0.1964517   0.07524332  60.98 0.0007994363    2.922    0.658
       228 -11.2438    214.8493     70.5783   4.8511866471e+01   2.2618846974e+01    0.2982091    0.1512381 -50.23  0.001072603    1.973    0.493
       229  -9.7664    116.0636     70.0013   6.8362134816e+01   4.5639379541e+01    0.4220983    0.2418353 -13.81  0.001522932    2.906    0.656
       230 -11.0356    157.3047     68.6555   5.7933534975e+01   3.6371718079e+01    0.3393843    0.2608428  -8.32  0.001227076    1.592    0.372
       231 -10.8929    187.6590     68.5776   5.2204542979e+01   2.9150754040e+01    0.2927229    0.1693149 -38.38  0.001091943    1.665    0.399
       232 -11.8109    208.9070     65.3244   4.8067153494e+01   2.4752428398e+01    0.7021239    0.0649291 -38.35  0.001698553    6.204    0.839
       233 -10.6374    138.8543     63.9442   6.0584567654e+01   4.1528119505e+01    0.4598875    0.3441613  -5.69  0.002194029    1.645    0.392
       234  -9.4809     94.7252     65.2460   7.3133488690e+01   5.0897502794e+01    0.3069801    0.1731028 -18.12  0.001186138    2.559    0.609
       235  -9.9410     83.6415     64.9034   7.6650512437e+01   5.3033006302e+01    0.4430692    0.2659299   1.73  0.001720627    2.809    0.644
       236 -11.3628    198.4000     64.1848   4.9330276933e+01   2.7328031279e+01     0.298971    0.1747571 -36.31  0.001080124    1.650    0.394
       237 -11.0733    200.6906     61.6811   4.8345231811e+01   2.7178300482e+01    0.2079246    0.2031642   0.59 0.0007235851    1.164    0.141
       238 -10.0286    122.1609     62.6792   6.4320807302e+01   4.5574908426e+01    0.4641564    0.3044789   5.88  0.001928707    2.284    0.562
       239 -11.0668    187.8410     62.5847   5.0575430501e+01   3.0043359365e+01    0.3272408    0.2007112 -32.03  0.001233994    1.667    0.400
       240 -10.3083    110.7342     59.8233   6.6481747020e+01   4.8566658533e+01    0.4699228    0.2980594   1.56  0.001915123    2.432    0.589
       241 -11.4330    203.5519     66.6479   4.9180343985e+01   2.5765176583e+01    0.2777408    0.2317211 -60.41  0.000897048    1.159    0.137
       242 -10.3613    147.5937     57.1603   5.6522269492e+01   4.0536095610e+01     0.288455    0.1908199 -12.59   0.00127948    1.966    0.491
       243 -11.4049    211.6873     55.3371   4.5228345738e+01   2.5601239458e+01    0.4035124    0.1118461 -43.88   0.00138079    3.276    0.695
       244 -10.0188    130.9935     55.4556   5.9735169530e+01   4.4723975306e+01    0.3653631    0.2359049  -1.55  0.001533981    2.293    0.564
       245 -10.4698      7.5235     97.6458   1.1273170783e+02   5.4551727571e+01    0.3719802   0.09613141 -46.52  0.001425573    3.162    0.684
       246  -9.8942    100.5834     54.8741   6.7725792272e+01   5.1527505406e+01     0.288726    0.2165944  -0.76  0.001032652    1.496    0.331
       247 -11.3489    147.5856     65.3886   5.9044693695e+01   3.9228394035e+01    0.5685469    0.3517546 -14.63  0.002341996    2.239    0.553
       248 -10.1020    158.3776     59.8062   5.5101663039e+01   3.7535164186e+01    0.2095177    0.1409121 -19.20 0.0009521234    1.774    0.436
       249 -10.2822    139.9104     54.0350   5.7217229426e+01   4.2845002710e+01    0.3297541    0.2174125 -11.44  0.001473594    1.968    0.492
       250 -10.7122    201.4687     52.9426   4.6012578761e+01   2.8276762694e+01    0.2096317    0.1305308 -34.50 0.0007822518    1.590    0.371
       251  -9.8947    119.5136     77.9615   6.9937655178e+01   4.3414696571e+01    0.4827808    0.2955968 -13.09  0.001838616    2.540    0.606
       252  -9.7936    164.3091     52.3314   5.1772623756e+01   3.7222077197e+01    0.1466337    0.1093987  24.61 0.0004966119    1.668    0.400
       253 -11.6258    164.4799     59.4982   5.3825218608e+01   3.6110830748e+01    0.2965778    0.2228283  24.19  0.001280403    1.651    0.394
       254 -10.6844    232.7312     50.7474   4.1622358282e+01   2.1648491001e+01    0.2850831    0.1107195 -51.05  0.001167205    2.566    0.610
       255 -11.0154    173.6121    243.2571   9.3138804521e+01  -4.6962460189e-01    0.2739999      0.19751 -50.36  0.001647269    1.777    0.437
       256  -9.5277     75.9908     50.4885   7.4164801914e+01   5.6962017958e+01    0.2046764    0.1099181  19.15 0.0008101986    2.643    0.622
       257  -9.0669    106.3364     49.3287   6.4079577765e+01   5.1198898452e+01    0.1521714    0.1048129  15.82 0.0003697303    1.728    0.421
       258  -9.2309     45.7391     49.3895   8.5484851696e+01   6.1731981672e+01    0.1802121    0.1145837  12.66 0.0009484198    1.686    0.407
       259  -9.7659    130.1776     46.6706   5.7036662296e+01   4.6221925263e+01    0.2679855    0.1792099   8.55 0.0007778057    2.063    0.515
       260  -9.2738     64.3424     47.2267   7.7216143058e+01   5.9462028221e+01    0.2891548    0.1457907  11.14 0.0009602963    4.221    0.763
       261 -10.4232    204.5235     46.5152   4.3987326300e+01   2.8466175772e+01    0.1342897    0.1224446 -72.34 0.0002651848    1.009    0.009
       262  -9.6206     23.2128     46.6538   9.4420332250e+01   6.4651353561e+01    0.1655038    0.1048243   1.90 0.0009014255    1.668    0.400
       263 -10.5694    225.2721     45.1782   4.1178704340e+01   2.4003360563e+01    0.1938418    0.1635956 -18.60  0.000861256    1.441    0.306
       264  -9.5921     26.0016     54.9958   9.5861852894e+01   6.2760000639e+01    0.2183923    0.1214307 -27.53  0.001038024    1.747    0.427
       265 -10.0125    113.5822     42.3554   5.9631893654e+01   5.0633059208e+01    0.3432423    0.2283508  12.14  0.001281285    1.925    0.480
       266 -13.5406    194.2813     81.7532   5.4539856083e+01   2.5448093136e+01    0.8496802    0.4269872 -37.05  0.003555411    1.894    0.472
       267  -9.8482    123.2569     41.4864   5.6916048645e+01   4.8553402234e+01    0.3557259    0.2316364  14.14  0.001610154    2.058    0.514
       268  -9.5345      5.3281     42.6672   1.0151672720e+02   6.6723253047e+01    0.1037036    0.0914944  75.94  0.000705172    1.717    0.418
       269  -9.5001    133.0313     40.9533   5.4497920017e+01   4.6338601904e+01    0.2376397    0.1624209  24.31   0.00113389    1.748    0.428
       270  -9.5585     84.1412     40.0778   6.7413046494e+01   5.7109642785e+01    0.2170624    0.1641328  11.29 0.0005143909    1.322    0.244
       271  -8.4631    228.3471     37.3061   3.9062615261e+01   2.4369690512e+01    0.1201555    0.0971148  34.21 0.0007042452    1.698    0.411
       272  -9.7072    106.3401     37.1592   5.9676357590e+01   5.2943226175e+01    0.2491855    0.1667894  39.80 0.0005600461    1.390    0.280
       273  -9.2708    202.0000     35.9213   4.1665880142e+01   3.0437623451e+01    0.2067237   0.07273357 -31.40 0.0007920736    2.871    0.652
       274  -8.2558    217.6953     34.3212   3.9489929503e+01   2.7076816918e+01     0.137189   0.08466282 -64.10 0.0006128878    1.635    0.388
       275  -9.1338    127.5131     31.9598   5.2685404594e+01   4.8783405270e+01    0.1970895    0.1162914   8.33 0.0008099212    2.627    0.619
       276  -9.2588    112.2296     31.1778   5.5963737142e+01   5.2399658707e+01    0.2449386    0.1266725  25.03 0.0009502915    2.804    0.643
       277  -8.7173     44.2708     25.6594   7.6578514983e+01   6.5861963876e+01    0.1074687   0.09862489 -45.05 0.0003400841    1.607    0.378
       278  -8.8407    118.4954     24.5800   5.2109670589e+01   5.1737049426e+01    0.1368709    0.1193575  41.37 0.0001433892    1.027    0.026
       279  -8.8400    110.4911     24.5571   5.3966916638e+01   5.3564613143e+01     0.136546    0.1189211  36.16 0.0001761007    1.020    0.020
       280  -8.7242     84.5562     21.5113   5.9825002230e+01   5.9454622492e+01    0.1313277    0.1135184  21.64 7.617439e-05    1.025    0.024
       281  -9.3619     40.8568     21.2005   7.6088593966e+01   6.6972778839e+01    0.1709409    0.1184051  -1.67  0.000360411    1.302    0.232
       282  -9.5691     13.0693     21.2125   8.9833056862e+01   7.0060505809e+01    0.1845524    0.1235502 -15.63 0.0008345591    1.232    0.189
       283  -9.6404     40.9438     13.9826   7.2649977986e+01   6.7927552573e+01    0.1854555    0.1393155   4.60 0.0003019911    1.077    0.072
