#   1 NUMBER                 Running object number                                     
#   2 MAG_AUTO               Kron-like elliptical aperture magnitude                    [mag]
#   3 X_IMAGE                Object position along x                                    [pixel]
#   4 Y_IMAGE                Object position along y                                    [pixel]
#   5 X_WORLD                Barycenter position along world x axis                     [deg]
#   6 Y_WORLD                Barycenter position along world y axis                     [deg]
#   7 A_WORLD                Profile RMS along major axis (world units)                 [deg]
#   8 B_WORLD                Profile RMS along minor axis (world units)                 [deg]
#   9 THETA_WORLD            Position angle (CCW/world-x)                               [deg]
#  10 FWHM_WORLD             FWHM assuming a gaussian core                              [deg]
#  11 ELONGATION             A_IMAGE/B_IMAGE                                           
#  12 ELLIPTICITY            1 - B_IMAGE/A_IMAGE                                       
         1 -11.6813     39.6568     22.5286   4.6432224269e+01   6.9602359029e+01    0.6770037    0.4110978  -8.83  0.003057773    2.143    0.533
         2 -11.6816     32.4492     18.8799   4.8503024917e+01   7.1257893496e+01    0.5521409     0.376243 -19.35  0.001451408    1.400    0.285
         3 -11.9091     44.4553     11.2403   3.7277287333e+01   7.0681487481e+01    0.4792943    0.3568074 -44.92  0.002736655    1.625    0.385
         4 -10.3039    130.1478     22.9151   1.5946801687e+01   5.0076065304e+01    0.2893426    0.2007959 -33.78 0.0006945713    1.422    0.297
         5 -10.1518     14.1863     15.0946   5.8238308716e+01   7.4021429855e+01    0.3163772    0.2263244  82.76  0.001516792    3.366    0.703
         6 -11.9321     92.3226      9.9279   1.8683909640e+01   6.0930361928e+01    0.5850031    0.2242333  56.84            0    2.359    0.576
         7 -10.7275     54.4756      4.9020   2.8563059970e+01   6.9693492927e+01    0.3809806     0.202278 -45.86  0.001711175    2.633    0.620
         8  -9.8979     57.7418     11.6778   3.1309136892e+01   6.8219703697e+01    0.1880455    0.1652038  24.57  0.000369408    1.117    0.104
         9 -10.5347     54.9725      9.0442   3.0922956868e+01   6.9091381725e+01    0.2524425    0.1736307 -29.06 0.0003371647    1.413    0.292
        10 -10.1675     35.5183     12.0000   4.2617751765e+01   7.1985552457e+01    0.2438323      0.11419 -41.90 0.0005539159    2.110    0.526
        11 -10.8747     35.6625      8.2122   4.0112350470e+01   7.2543156389e+01    0.2580582    0.1484259  40.81  0.001359099    1.879    0.468
        12  -9.9248    203.3293     11.2050   2.7944021899e+00   3.3102575863e+01    0.2072264    0.1736092  71.56 0.0006951348    1.304    0.233
        13 -10.1003    192.7293      9.9825   3.3468098385e+00   3.5745344564e+01    0.1863762     0.156771 -51.01 0.0001770826    1.065    0.061
        14 -10.5171     85.8028      9.7890   2.0393481298e+01   6.2467974672e+01    0.3475216    0.2027136 -44.87 0.0005976997    2.023    0.506
        15 -10.1731     81.5138      8.4759   2.0957745427e+01   6.3589465519e+01    0.2089605    0.1131715  47.09 0.0001102729    1.711    0.416
        16  -9.5288    168.9589      9.4684   5.5017293142e+00   4.1654563621e+01    0.2094808    0.1001116 -73.85 0.0008097363    2.642    0.622
        17  -9.2155    116.5278      8.5428   1.2659641048e+01   5.5133662428e+01    0.1363536    0.1317362  79.35 0.0001509584    1.041    0.040
        18  -9.6092     16.0017      8.0061   5.2782363320e+01   7.5148573303e+01    0.1696085    0.1457621 -57.13  0.001101353    1.601    0.375
        19 -10.1505     61.6872      6.6555   2.6695550424e+01   6.8060899030e+01    0.2652277    0.1467348   7.02 0.0009177205    2.470    0.595
        20  -9.3276    171.6814      6.3337   4.2248752524e+00   4.1291251702e+01    0.1504043   0.08727098 -58.40 0.0007048611    1.696    0.410
        21 -10.6343     70.7904      5.1843   2.2534984525e+01   6.6313181835e+01    0.2268756    0.1747643   5.38  0.000356644    1.269    0.212
        22 -10.8140     45.2631      4.7888   3.2727944309e+01   7.1417559607e+01    0.3325828    0.2669154  67.39  0.001935313    1.890    0.471
        23 -11.1496     39.0720      3.9327   3.5346438941e+01   7.2593982701e+01    0.2427608    0.1758614  40.49 0.0003897314    1.469    0.319
        24 -11.9405     29.5920      4.8283   4.1462232315e+01   7.3949109563e+01    0.2857788    0.1992373 -38.00 0.0003629191    1.487    0.327
        25 -10.7886    193.9432      4.8300   1.7857087095e+00   3.5997549265e+01    0.2054571    0.1806757 -61.57 0.0003252719    1.045    0.043
        26 -12.1399    204.9590      2.6716   3.7156384483e-01   3.3632682004e+01    0.2446701    0.1955623 -58.66 0.0002672499    1.040    0.038
        27  -9.4106    120.4697      3.4748   9.8191686633e+00   5.4608916429e+01    0.1354469    0.1285172 -88.10 2.976143e-05    1.059    0.056
        28  -9.9124    148.9000      2.3031   5.3657617500e+00   4.7447015911e+01    0.1946521    0.1599228  74.89  0.000586897    1.154    0.134
        29  -9.5140     80.2243      1.7026   1.7692159671e+01   6.4553281645e+01    0.1810522    0.1357014  24.54 0.0006855972    1.295    0.228
        30 -10.1133     19.8427      1.6521   4.5706324414e+01   7.5747215268e+01    0.1822272    0.1352467  -9.74 0.0004494753    1.143    0.125
        31  -9.2620    245.4237      1.3728   3.5766386305e+02   2.5024235886e+01    0.1193413   0.09144972 -55.45 0.0001243893    1.028    0.027
        32  -9.6119    100.8802      1.4258   1.2560697462e+01   5.9676404343e+01    0.2013154    0.1262622  66.55 0.0006583385    1.536    0.349
        33 -11.3017     74.9890    126.4626   6.5622789447e+01   3.9307153521e+01    0.2779469    0.2044271 -63.29  0.001336526    1.238    0.192
        34 -11.4892     24.1340    249.5146   8.9857214504e+01   1.7206098170e+01    0.2534376    0.1536483  43.87  0.001786062    1.305    0.234
        35 -11.4984     26.7693    117.3012   7.9575842783e+01   4.7569120579e+01    0.3705153    0.2103134 -47.99 0.0004131239    1.827    0.453
        36 -10.7319     69.1832    115.8724   6.5316112791e+01   4.3022813366e+01    0.4426813    0.2471527 -67.94 0.0008963377    1.740    0.425
        37  -9.9338     17.6554    117.0091   8.2517327979e+01   4.8389552301e+01    0.2503659   0.03712166 -56.58 0.0007049559    4.488    0.777
        38 -12.2199      2.8351    111.8024   8.6805983259e+01   5.0759874121e+01    0.2803409    0.2243905  70.09 0.0003284714    1.231    0.188
        39 -11.2070     26.4283    111.1307   7.8847493044e+01   4.9283267392e+01     0.429591     0.214449 -77.94 0.0009841413    1.761    0.432
        40 -10.1654     39.7084    105.7173   7.3364422390e+01   4.9504471273e+01    0.3484008    0.1873766  68.21  0.001370498    2.553    0.608
        41 -12.8251      1.9415    104.7297   8.6441870030e+01   5.2695462607e+01    0.3763947    0.2316305 -52.02 0.0008769621    1.577    0.366
        42 -10.3015      4.2648     97.4089   8.4866682949e+01   5.4531691795e+01    0.2656837    0.1767105  71.43 0.0007566566    1.515    0.340
        43  -9.8578     88.9966    105.2558   5.6395357432e+01   4.2656009635e+01    0.2008564    0.1401376  37.93 0.0008876257    1.560    0.359
        44 -10.0222    103.9801    101.4489   5.0676119555e+01   4.0835331731e+01    0.2347122    0.2056509 -51.21 2.243708e-05    1.059    0.056
        45 -11.7683     19.9788     98.2899   7.9262143076e+01   5.3300681785e+01    0.4456747    0.3118273  31.51  0.002416314    1.675    0.403
        46  -8.9693    218.2968     98.2697   2.4210878353e+01   1.6864569911e+01    0.1358372    0.1067242  -2.59 0.0002468156    1.520    0.342
        47 -10.0629     37.2043     97.5029   7.2749008078e+01   5.2006721596e+01    0.3053464    0.1783279 -88.29  0.001316955    1.948    0.487
        48  -9.9036    107.7574     96.1320   4.8018173177e+01   4.1395421318e+01    0.3486504    0.2061545 -41.69   0.00119109    1.645    0.392
        49 -10.1781    119.1793     93.8226   4.3990090147e+01   3.9559564896e+01    0.2405793    0.2177701 -73.47 0.0003191675    1.167    0.143
        50 -11.1141     93.5196     92.8509   5.1529577949e+01   4.5001961030e+01    0.4289833    0.3217888   4.92  0.001208699    1.863    0.463
        51  -9.6394     10.6018     94.2485   8.2159252976e+01   5.5024170528e+01    0.1943023   0.09945638 -64.72 0.0003833087    1.522    0.343
        52 -11.2197    146.2396     91.2549   3.6140259840e+01   3.4085308271e+01    0.3278281    0.2616093  89.90 0.0009989771    1.593    0.372
        53 -11.2365     66.6350     91.7391   6.0515497749e+01   4.9866242723e+01    0.2619236    0.2368272 -59.43 0.0002924156    1.018    0.018
        54 -11.3058     57.6844     91.9176   6.3860405948e+01   5.1097899891e+01    0.3576829    0.2306445  22.33 0.0006160033    1.889    0.470
        55  -9.9619      7.4847     91.2199   8.2929454391e+01   5.6016092029e+01    0.2033528     0.141012 -52.18 0.0004542768    1.344    0.256
        56 -10.1324    173.0586     85.5386   2.8618516655e+01   2.9026689198e+01    0.2387482    0.1955909 -39.71 0.0003351405    1.104    0.094
        57 -11.2586     91.9881     85.1514   4.9722119490e+01   4.7198679084e+01    0.2524701    0.2112267 -49.77 0.0003227903    1.101    0.092
        58 -10.3414     80.8852     85.2878   5.3572211108e+01   4.9204159859e+01    0.2939287    0.2842278 -60.59  0.001574764    1.069    0.064
        59 -12.4363     65.4482     82.0203   5.8259321945e+01   5.2568611147e+01    0.2872079    0.2591594 -50.66 0.0003748489    1.016    0.016
        60  -9.9818    136.3560     82.8454   3.5994311198e+01   3.8172937981e+01    0.2327096    0.1463018 -32.84 0.0005362167    1.635    0.388
        61  -9.6653    143.3673     81.7107   3.3913657590e+01   3.6771954648e+01    0.1658204    0.1257681 -78.53 0.0007024063    1.707    0.414
        62 -10.5110     18.7741     81.0794   7.6867091255e+01   5.8022018981e+01    0.1994206    0.1783968 -60.98 0.0002771387    1.109    0.099
        63 -10.7839    181.5900     79.6453   2.5310426055e+01   2.8157559913e+01    0.3464133    0.2617757 -81.07 0.0008997647    1.669    0.401
        64  -9.5793    149.5146     80.0114   3.1945098573e+01   3.5666758614e+01    0.2382022    0.1257554 -57.51 0.0008098527    2.492    0.599
        65 -10.2584     48.1602     78.7056   6.4148676118e+01   5.5810862416e+01    0.2957955     0.193705 -39.18 0.0003681688    1.527    0.345
        66  -9.1224    162.7278     77.6641   2.8357950512e+01   3.2979737016e+01    0.1560606    0.1239768  -2.07  0.000698977    1.600    0.375
        67 -12.0968     11.7718     74.7390   7.8664660343e+01   6.0152653660e+01    0.3945014    0.3346469 -86.13   0.00146013    1.173    0.147
        68 -11.4249      5.1392     73.2359   8.1269289165e+01   6.0899358256e+01    0.2333114    0.1912686  86.22 0.0002148426    1.239    0.193
        69 -10.0976      1.7437     70.4397   8.2302980751e+01   6.1779446165e+01    0.1658374    0.1155227 -27.31 0.0009435004    1.618    0.382
        70  -9.9069    152.3618     71.1868   2.8524793390e+01   3.6721315000e+01    0.2365508    0.1336918 -46.56 0.0006194711    1.703    0.413
        71 -10.6615     37.2440     69.3379   6.6220442345e+01   5.9477674505e+01    0.3234849    0.2136544 -83.06            0    1.850    0.459
        72 -10.7582     14.9148     54.6813   7.2832678997e+01   6.5098283784e+01     0.435906    0.1398895 -62.71  0.001714619    2.356    0.576
        73 -11.1741     17.5750     62.9372   7.3587769044e+01   6.2840603449e+01    0.6833807    0.2963988 -42.78  0.001333942    2.120    0.528
        74 -10.6427     13.4994     66.4689   7.6284221607e+01   6.2202515410e+01    0.3143996    0.1868428 -61.38 0.0005822717    1.314    0.239
        75 -11.0919      9.9810     66.0101   7.7811268646e+01   6.2526790050e+01    0.2833753     0.211058 -60.62 0.0004636086    1.063    0.059
        76 -12.3271      7.7214     62.9694   7.8257814422e+01   6.3428031942e+01    0.6325086    0.2010925 -57.88 0.0004275933    2.172    0.540
        77  -9.6974    166.9996     64.2890   2.3392220539e+01   3.4416009872e+01    0.2088566    0.2026868 -71.96 0.0005408675    1.074    0.069
        78  -9.8780    176.1997     76.9468   2.5512198216e+01   2.9915840871e+01    0.3092589    0.2424634  58.42  0.001334769    1.406    0.289
        79 -10.0394     97.7871     60.6706   3.9383967211e+01   5.1591458970e+01    0.2478762    0.2019718  57.55 0.0002944125    1.379    0.275
        80 -11.5639     57.9670     58.9969   5.3777034266e+01   5.9344067247e+01    0.2312128    0.2236533 -39.07            0    1.115    0.103
        81 -10.5887     42.3041     58.9179   6.0748576577e+01   6.1498176834e+01    0.3681555    0.1922289 -39.96  0.001604691    1.828    0.453
        82 -10.5146     37.9721     59.3235   6.2900242013e+01   6.1902723734e+01    0.2578391    0.1830507 -40.31 0.0003197099    1.266    0.210
        83  -9.0805     81.0364     67.0228   4.7523467246e+01   5.3573394777e+01     0.183162    0.1670309 -38.55 0.0009561594    1.004    0.004
        84  -9.4024    120.8835     57.6601   3.1443860192e+01   4.6930798423e+01    0.2011672    0.1484524  67.65            0    1.578    0.366
        85 -11.3489     85.4741     54.5384   4.1199985753e+01   5.5426909187e+01     0.445928    0.3668211  88.65  0.001384466    1.659    0.397
        86 -10.3520    127.0512     53.5670   2.8354284542e+01   4.6194674818e+01    0.3414988    0.2516267  16.92  0.001501162    1.803    0.445
        87 -12.1292     61.9324     49.9985   4.8592154218e+01   6.0726919325e+01    0.3810223    0.2147631 -43.67  0.000399006    1.600    0.375
        88  -9.3681    214.3929     53.1326   1.3029079885e+01   2.5065476487e+01    0.1956958    0.1086642 -43.34 0.0002756138    1.503    0.335
        89  -9.7176    143.1441     51.8210   2.4028407766e+01   4.2507290502e+01    0.2415552    0.2007081 -63.19 0.0005757486    1.259    0.206
        90 -11.4952    138.2128     50.2004   2.4522611388e+01   4.4017038344e+01    0.2641163    0.2549161 -31.32 0.0002450638    1.042    0.041
        91 -10.3034     92.9966     50.0144   3.6780772102e+01   5.4755003635e+01    0.2221494    0.2109403 -16.20  0.001203957    1.018    0.018
        92  -9.6943     78.2551     50.0044   4.2008822369e+01   5.7782202552e+01     0.202262    0.1881222 -27.61 0.0004796006    1.029    0.028
        93  -9.1028    102.2406     47.9882   3.3014592777e+01   5.3084782161e+01    0.1897591    0.1245011 -36.37 0.0008385863    1.459    0.315
        94  -9.8997     51.2810     48.4041   5.2696969307e+01   6.2734279053e+01    0.2393642    0.1406604  27.44 0.0007060042    1.931    0.482
        95 -10.6978     16.8603     46.1142   6.9365822340e+01   6.7050056981e+01    0.2843388    0.1719812 -54.72 0.0004629647    1.312    0.238
        96  -9.3024     71.6323     45.3064   4.2592332681e+01   5.9984828692e+01     0.211894    0.1433405 -53.76 0.0009771559    1.662    0.398
        97 -10.5295     70.7565     41.4696   4.1255162753e+01   6.0896044459e+01    0.3217344      0.24602  44.51  0.001170281    1.429    0.300
        98  -9.0663    120.6240     44.2416   2.6433643036e+01   4.9379478417e+01    0.1523282    0.1179056 -80.32 0.0004588817    1.627    0.386
        99 -11.3940     91.3986     40.5876   3.3335968972e+01   5.6831382411e+01    0.6549992    0.3615198 -57.75  0.002122073    2.849    0.649
       100 -12.1053     85.6726     42.7961   3.6240773293e+01   5.7668646031e+01    0.2707354    0.2452862 -24.20 0.0002513423    1.036    0.035
       101 -10.6863    109.3287     41.0474   2.8126782522e+01   5.2639312642e+01    0.5651967    0.4211923  71.73   0.00268264    1.595    0.373
       102 -10.4136    116.5744     40.6135   2.6028157327e+01   5.0962906907e+01    0.3512563     0.249513 -62.60  0.001041744    1.736    0.424
       103  -9.6031     52.9724     42.9176   4.9615521598e+01   6.3656848669e+01    0.1727393    0.1425174 -34.81 0.0004778685    1.070    0.066
       104 -11.2377     38.9494     41.9473   5.6071014538e+01   6.5820856357e+01    0.2058115    0.1909689 -14.05  0.001259046    1.131    0.116
       105  -9.5590     28.2496     42.5628   6.1956483083e+01   6.6890388175e+01    0.1682861    0.1225282  -7.80 0.0005768484    1.515    0.340
       106 -10.6493    183.8210     41.2185   1.3555789986e+01   3.3979492680e+01    0.2307013    0.1812619 -83.15   0.00043156    1.334    0.250
       107 -10.5870     62.0589     41.0537   4.4702199937e+01   6.2549306880e+01    0.2100642    0.1863892 -21.28 -0.001320134    1.011    0.011
       108  -8.9404    226.6804     40.2439   8.3526353269e+00   2.4225480794e+01    0.1355506   0.08563748 -60.70 0.0001834098    1.521    0.343
       109  -9.6310     80.9778     38.7094   3.6103512483e+01   5.9384210165e+01    0.1963865    0.1848441  21.29   0.00030306    1.089    0.081
       110  -9.1207    130.4356     38.5088   2.1920051833e+01   4.7850335824e+01    0.1498299    0.1434078 -51.04  9.23895e-05    1.026    0.026
       111 -10.9198    122.0299     37.4305   2.3418493381e+01   5.0118867424e+01    0.2983322    0.2101306 -31.06  0.000418287    1.396    0.284
       112 -11.1826     67.2177     35.8186   4.0099228420e+01   6.2614255764e+01    0.2822111    0.2487576 -37.40 0.0002962532    1.151    0.131
       113 -10.4589     22.8496     34.5600   6.1836076923e+01   6.9202967059e+01    0.2206035    0.1528854 -48.27 0.0001329392    1.205    0.170
       114  -9.9183      6.1546     34.8091   7.1931198579e+01   7.0387334479e+01     0.182811    0.1576143 -61.13 0.0005326275    1.173    0.148
       115 -10.3725     46.6883     33.3056   4.8264712806e+01   6.6550676848e+01    0.3289012    0.2243942  51.71 0.0009819142    2.029    0.507
       116  -9.7332      2.2425     34.4413   7.4206166207e+01   7.0669350575e+01    0.1446283    0.1188349  24.97 0.0004152434    1.523    0.344
       117 -10.5239    102.6448     30.5206   2.5504616006e+01   5.5873576969e+01    0.4669277    0.2077347  39.26  0.001226157    2.693    0.629
       118 -10.3463    117.7296     28.7441   2.0917237005e+01   5.2451444816e+01    0.3130147    0.2405912 -54.02  0.000976061    1.416    0.294
       119  -9.9982     97.5400     29.9187   2.6690285405e+01   5.7162195239e+01    0.2210675      0.19185  49.62 0.0003608478    1.168    0.144
       120 -10.8181     11.4295     29.9776   6.6940278272e+01   7.1150247076e+01    0.1847281    0.1610189 -31.63  0.001219177    1.122    0.109
       121  -9.5846    201.4760     28.4820   7.7371758082e+00   3.1470459835e+01    0.1406655    0.1194403 -54.90 0.0002504826    1.006    0.006
       122 -10.7720     80.5447     27.0244   3.0760163879e+01   6.1401726879e+01    0.3366266    0.2293456 -37.61   0.00167176    1.464    0.317
       123  -9.2609    144.2546     27.6297   1.5153959440e+01   4.5859333679e+01    0.1556581    0.1014716 -55.33 0.0004923953    1.639    0.390
       124 -11.5642     91.2571     26.4355   2.6970182718e+01   5.9117884224e+01     0.334556    0.2324593 -31.22 0.0004315688    1.409    0.290
       125 -11.6088    216.9920     25.7069   5.5028463911e+00   2.8259812282e+01    0.2305086    0.1829028 -46.89 0.0002387596    1.060    0.057
       126 -11.1580    213.0221     23.9220   5.3853485899e+00   2.9376958952e+01    0.2414998    0.1758029 -56.47 0.0003003564    1.182    0.154
       127 -10.6411    182.9936     25.5230   8.9126306282e+00   3.6304154183e+01      0.24653    0.1917836 -35.37 5.842902e-05    1.222    0.181
       128  -9.9576     31.3317    248.3352   8.8521076400e+01   1.6678053945e+01   0.09061695   0.08321732 -32.73 0.0007052186    1.733    0.423
       129 -10.6284     33.7326     24.7584   5.0935912931e+01   7.0004095012e+01    0.3633978    0.2719129 -73.57  0.001871626    2.286    0.563
       130 -10.7160     82.7340    120.4932   6.1990450507e+01   3.9694860382e+01     0.470103    0.3045351 -72.21  0.001198539    1.632    0.387
       131 -10.0013    147.0338    243.9557   6.6156864556e+01   3.1736216115e+00    0.1848332    0.1521344  21.62  0.001318814    1.059    0.056
       132 -10.4402    126.5767     24.7193   1.7363768256e+01   5.0758585930e+01    0.4943468    0.2230558  68.98  0.001184933    2.456    0.593
       133  -9.7347     14.8259    244.1821   9.1310193522e+01   1.9076614458e+01    0.1294136    0.1145486  73.57  0.001065994    1.339    0.253
       134 -10.8074     15.8675     20.8975   6.0073129861e+01   7.2722487774e+01    0.3352595    0.2420559 -35.38  0.002052539    1.112    0.101
       135  -9.9378    100.8171     20.3791   2.1439181590e+01   5.7694536315e+01    0.2313961    0.1923917 -23.74 0.0006694522    1.202    0.168
       136 -10.5848     63.4924     21.5921   3.4473478914e+01   6.5702658525e+01    0.2642775    0.2104118   4.70  0.000543386    1.243    0.196
       137  -9.7255      2.2720     21.6205   6.9744942250e+01   7.3542635992e+01    0.2397525   0.09867486 -44.68 0.0007566098    1.817    0.450
       138  -9.7756    162.9937     20.5147   9.8220346051e+00   4.1938200885e+01    0.2903736    0.1563179  24.36  0.001035189    3.475    0.712
       139  -9.6501     77.8721     20.8428   2.8598384314e+01   6.2874505778e+01    0.1800425    0.1615699 -45.97 0.0003662134    1.271    0.213
       140 -10.3416    112.8995     21.3127   1.8899933684e+01   5.4625660387e+01    0.3212496    0.1998346 -34.93  0.001504509    1.597    0.374
       141 -10.5609    212.3330     17.8007   3.8244976757e+00   3.0273406078e+01    0.3882291    0.1709981 -43.52 0.0009636866    1.834    0.455
       142  -9.5788     70.6682     18.6838   3.0071411385e+01   6.4692696813e+01    0.1466976   0.09935988  15.63 0.0004042656    1.685    0.407
       143  -8.9856     24.9992     16.7601   5.1885986364e+01   7.2575482393e+01    0.1348051    0.1019917  16.12  0.000341408    1.368    0.269
       144 -12.1261      3.2869    241.0741   9.3250390010e+01   2.0723851583e+01    0.5737076    0.1831097  78.37  0.002852383    2.963    0.663
       145  -9.1212     25.2852     13.6836   4.9911407595e+01   7.3093159375e+01    0.1107357    0.1010595 -63.07 0.0001978207    1.585    0.369
       146  -9.2930    153.2790     12.6791   8.4495243194e+00   4.5305346427e+01    0.1474606   0.09576599 -57.85 0.0002165182    1.582    0.368
       147  -9.0857    148.2867     12.2725   8.9825092940e+00   4.6630139741e+01    0.1365687     0.102539  38.06            0    1.506    0.336
       148  -9.7044     36.8199    240.5221   8.7141165663e+01   1.7507660542e+01    0.2351447   0.09047516  60.92  0.001202814    2.331    0.571
       149 -10.9261     17.9799    235.0670   9.0399073689e+01   2.0454062533e+01    0.1668739    0.1244065  60.16 0.0004368038    1.056    0.053
       150  -9.9085     28.2420    232.4100   8.8358947441e+01   1.9928193546e+01    0.1656532   0.07511044  45.06 0.0007344817    1.658    0.397
       151 -10.4224     56.3076    230.6192   8.2787783113e+01   1.7181551248e+01    0.2911799    0.1947125 -19.88  0.001506473    3.243    0.692
       152 -11.2904      7.5735    229.1557   9.2108009495e+01   2.2572284294e+01    0.2681041    0.1361335  87.69  0.001246713    1.728    0.421
       153 -11.0838      1.8310    220.1561   9.2887906938e+01   2.4859818983e+01     0.278099    0.1248236  83.76  0.001595857    1.889    0.471
       154  -9.4425    244.4624    215.0277   4.4331059950e+01  -5.4076668475e+00     0.164897   0.09196108 -27.43 0.0006854186    1.554    0.356
       155 -10.0848     77.7172     11.4529   2.3725278962e+01   6.4107126827e+01    0.2016705    0.1149178  43.27  0.000954101    1.669    0.401
       156  -9.4467      2.9382     11.4983   6.4695676287e+01   7.5609148708e+01    0.1463124    0.1101707  -0.91 0.0009573041    1.373    0.272
       157  -8.9901      8.3040    201.7204   9.0927474540e+01   2.8127527432e+01    0.1245342   0.06328943  60.65 0.0004001999    1.550    0.355
       158  -9.9247     53.1280     23.7849   4.0261787751e+01   6.7244681337e+01    0.1944682    0.1840497 -24.55 0.0006455967    1.211    0.174
       159  -9.7588    125.7000     10.6967   1.1893062127e+01   5.2591456876e+01    0.1444653    0.1004293  34.37 0.0001868477    1.588    0.370
       160  -9.1079     65.3149     12.3497   2.8616938433e+01   6.6633293786e+01    0.1454387   0.09510951  15.10 0.0007046974    1.727    0.421
       161  -9.5684    237.4825    186.9412   4.0485260599e+01  -8.1084929381e-01    0.1858921    0.1011109 -29.81 0.0007643746    1.564    0.360
       162  -9.7116    240.4622    163.4880   3.5434210594e+01   2.2219314240e+00    0.1305433    0.1018251 -17.32 0.0001664222    1.005    0.005
       163 -10.4898      7.0311    153.9423   8.8761247610e+01   3.9478411247e+01    0.2460414     0.141689  57.89  0.001333286    1.563    0.360
       164  -8.8366    232.2858    152.6810   3.4526057001e+01   5.1410738336e+00    0.1229907   0.09781627 -50.14 0.0002804526    1.592    0.372
       165  -9.1368     40.9635    152.0314   7.9512975043e+01   3.6855280298e+01    0.1647066    0.1391357  85.67 -0.001877172    1.011    0.011
       166 -10.4836     11.9803    152.5605   8.7380729578e+01   3.9443920771e+01    0.1689874    0.1264725  31.72 0.0003247233    1.546    0.353
       167 -10.4812     23.2454    147.9993   8.3987016728e+01   3.9665048811e+01    0.2566568    0.1906047 -66.15  0.001096127    1.295    0.228
       168 -11.8383      3.7110    146.0364   8.9134506509e+01   4.1727281231e+01    0.5073797    0.2993865  79.13  0.001644774    1.409    0.290
       169  -9.0150    218.6639    143.3354   3.4797379325e+01   8.9228263565e+00    0.1338058    0.1064036 -61.15 0.0007051944    1.745    0.427
       170 -10.5366     15.7934    138.3926   8.5223843232e+01   4.2812111355e+01    0.3154593      0.17045 -60.02  0.001364785    1.726    0.421
       171 -10.0276      3.5829    138.9026   8.8702736870e+01   4.3571262517e+01    0.2170137    0.1735012 -33.80 0.0009948194    1.660    0.398
       172 -12.4448     69.2560    135.8714   6.9091537172e+01   3.7620972374e+01    0.3000154    0.2543799 -70.79 0.0004576728    1.072    0.067
       173 -10.4395     26.9188    136.0058   8.1759825964e+01   4.2498385404e+01     0.201794    0.1681297 -84.39 0.0003060535    1.036    0.034
       174  -9.9151     59.0163    131.4396   7.1437286128e+01   4.0199976105e+01    0.2228255    0.1752691 -70.50 0.0001003988    1.130    0.115
       175  -8.9540     37.2653    132.3077   7.8220951989e+01   4.2490903198e+01    0.1399132   0.09610941 -50.22 0.0006938001    1.532    0.347
       176 -11.1452    246.3778    127.6050   2.6927760492e+01   6.9094070367e+00    0.2465536    0.1862052 -19.09 0.0005074819    1.166    0.142
       177 -10.7722     40.4778    128.0278   7.6653359548e+01   4.3315649848e+01    0.2478552    0.2058415  -9.29 0.0009227913    1.597    0.374
       178  -9.7992      7.8623    126.6902   8.6538973464e+01   4.6487928243e+01    0.1730696    0.1452563  80.52 0.0003946989    1.110    0.099
