#   1 NUMBER                 Running object number                                     
#   2 MAG_AUTO               Kron-like elliptical aperture magnitude                    [mag]
#   3 X_IMAGE                Object position along x                                    [pixel]
#   4 Y_IMAGE                Object position along y                                    [pixel]
#   5 X_WORLD                Barycenter position along world x axis                     [deg]
#   6 Y_WORLD                Barycenter position along world y axis                     [deg]
#   7 A_WORLD                Profile RMS along major axis (world units)                 [deg]
#   8 B_WORLD                Profile RMS along minor axis (world units)                 [deg]
#   9 THETA_WORLD            Position angle (CCW/world-x)                               [deg]
#  10 FWHM_WORLD             FWHM assuming a gaussian core                              [deg]
#  11 ELONGATION             A_IMAGE/B_IMAGE                                           
#  12 ELLIPTICITY            1 - B_IMAGE/A_IMAGE                                       
         1  -8.3682    166.8444      2.7466   3.5819705371e+01   4.2516395210e+01    0.1958184    0.1676417 -56.82 0.0004190114    1.231    0.188
         2  -7.8640    236.4372    244.4363   7.7770470894e+01  -9.6611763290e+00     0.154226    0.1473288   4.05 0.0001233508    1.576    0.365
         3  -8.6741    197.3588    249.4055   8.5721059686e+01  -5.2038489163e+00    0.2115304    0.1801859  29.38 0.0001705938    1.255    0.203
         4  -7.7507     84.4189    250.6367   1.0875784932e+02   1.1184347199e+01     0.216922   0.09274694  40.85  0.001049364    1.878    0.468
         5  -8.5167      6.4984    242.9260   1.2338457634e+02   2.2050297478e+01    0.2331468    0.0840271 -72.50  0.001107882    2.571    0.611
         6  -8.9257      7.1499    236.1239   1.2293323771e+02   2.3338800088e+01    0.2084425    0.1246378  81.39 0.0009806211    1.383    0.277
         7  -9.0438    196.4019    231.6472   8.3116777567e+01  -2.3855341215e+00    0.3142901    0.2581494  69.94    0.0013044    2.031    0.508
         8 -10.2905    216.5648    225.9008   7.8307635222e+01  -4.4174116139e+00    0.2338753     0.200377   5.62 0.0003799938    1.087    0.080
         9  -9.0696    184.6653    226.0143   8.4530222411e+01   3.0538085981e-01    0.3241644     0.187125  40.52  0.001667264    1.673    0.402
        10  -8.9759    185.9859    221.4561   8.3508326792e+01   8.6714704922e-01     0.255541    0.1825498 -30.54 0.0001517131    1.447    0.309
        11  -8.4022    186.7452    216.9408   8.2591234228e+01   1.5192845773e+00    0.2284029    0.1890815 -11.99 0.0003820793    1.183    0.154
        12  -9.2346     10.9618    222.3958   1.2146082730e+02   2.5798854873e+01    0.2252457    0.1846381  82.31  0.001623862    1.128    0.114
        13  -9.0382     14.1191    219.8178   1.2067445052e+02   2.6036755082e+01     0.400942    0.1714978  54.40  0.002090824    1.984    0.496
        14  -7.0319     75.7423    222.6963   1.0775455350e+02   1.8008725802e+01    0.1148331    0.1011247 -31.08 0.0001446089    1.513    0.339
        15  -7.7476    106.5838    219.9763   1.0051162001e+02   1.3989457124e+01    0.1847323    0.1321996 -63.22 0.0003862861    1.535    0.348
        16  -6.9316     55.9833    220.0000   1.1183872385e+02   2.1245399074e+01    0.1827736    0.0662367  33.72 0.0007541183    2.618    0.618
        17  -6.8481    196.3260    217.7021   8.0799270840e+01  -1.1366302285e-01    0.1192824    0.1038213  63.65 0.0007025923    1.631    0.387
        18  -7.8542    213.6724    213.9580   7.6789539446e+01  -2.1376255548e+00    0.1746753    0.1454837 -17.07 0.0003591403    1.110    0.099
        19 -10.1222    153.4589    210.9114   8.8627962353e+01   8.1133166653e+00    0.2601023    0.2462516 -32.04 0.0004428863    1.138    0.121
        20  -7.0736    201.5134    207.5158   7.7986878509e+01   7.9211959772e-01    0.1322101      0.11633   2.21 -0.000475641    1.014    0.014
        21  -8.4645    105.4988    206.9814   9.8978791561e+01   1.6930947804e+01    0.2470669    0.1863334  40.19 -0.0004375876    1.226    0.184
        22  -7.6402    138.9477    199.0059   8.9909642731e+01   1.3016638335e+01    0.2073255     0.166809  -4.40 0.0003176428    1.516    0.340
        23  -7.7752    132.9865    198.9667   9.1287376847e+01   1.4061926466e+01     0.201153    0.1877291  43.63  0.001159455    1.017    0.017
        24  -8.6553    175.9943    196.2981   8.1173699842e+01   7.0631301701e+00    0.2229323    0.1910054 -25.47 0.0003134324    1.171    0.146
        25  -9.2311     37.8236    195.0933   1.1359557837e+02   2.9067737607e+01    0.2126816    0.1844815 -80.55  0.001364034    1.147    0.128
        26  -8.0166    161.7321    194.3831   8.3926918058e+01   9.9456189552e+00    0.2821343    0.1979818 -47.55  0.001420066    1.502    0.334
        27  -7.4395    104.0356    191.9819   9.7100716298e+01   2.0525200809e+01    0.1728857    0.1609595 -83.43 0.0005378835    1.089    0.081
        28  -7.5039     44.5014    191.5255   1.1165561919e+02   2.9133639372e+01    0.1320922    0.1139472  79.59 2.437957e-05    1.012    0.012
        29  -6.8985    229.5144    190.3811   6.9573540210e+01  -6.8996872281e-01    0.1292678    0.1081499  -6.53 9.471809e-05    1.066    0.062
        30  -7.5500    222.9538    187.9749   7.0297250166e+01   7.2573168145e-01    0.1834279    0.1614689 -10.88  0.001150505    1.030    0.029
        31  -7.1255    204.8298    187.5997   7.3638912581e+01   3.7371928863e+00    0.1696623    0.1268858  45.11 0.0004329203    1.490    0.329
        32  -7.3240     84.8390    184.1644   1.0070750925e+02   2.5411081933e+01    0.1796882    0.1635485 -38.41 0.0003079306    1.272    0.214
        33  -7.6372    103.6734    183.1491   9.5782615689e+01   2.2631029581e+01    0.1976979    0.1762462 -53.16 0.0006454982    1.181    0.153
        34  -7.5935    108.7330    179.9505   9.3971110126e+01   2.2523474802e+01    0.1987423    0.1849973 -71.39 0.0002913412    1.091    0.084
        35  -8.9085     39.9505    179.4269   1.1148450740e+02   3.2552406673e+01    0.2287463     0.170641 -75.50 0.0003490792    1.216    0.178
        36  -7.3197    197.1182    174.1415   7.2516566286e+01   7.5540271484e+00    0.1749117    0.1648073 -62.24 0.0003543925    1.246    0.197
        37  -8.2656     50.4423    169.3367   1.0757678361e+02   3.3790824357e+01    0.3994304    0.2160268 -35.97  0.001639123    2.859    0.650
        38  -7.8033    135.1545    166.0159   8.4745557148e+01   2.0958469943e+01    0.2228609    0.1998403  -8.92 0.0002550811    1.246    0.198
        39  -9.6697    182.4000    143.4160   6.9012441482e+01   1.6428903915e+01    0.2992707    0.2484362 -41.55 0.0001828247    1.162    0.140
        40  -8.2167    187.6427    140.2362   6.7223093840e+01   1.6003600880e+01    0.2685497    0.2306551  15.00 0.0006690089    1.306    0.234
        41  -8.9542    125.9864    141.0559   8.1802616135e+01   2.8518443926e+01    0.2222373    0.2205675 -46.35   0.00119522    1.023    0.022
        42  -6.9513    180.2655    132.7058   6.7024552372e+01   1.9045129076e+01    0.1444064    0.1168041 -76.63 0.0001918159    1.508    0.337
        43  -7.9785     89.0305    132.1605   9.0194602164e+01   3.7505040882e+01    0.2191574    0.2111302 -82.67 0.0003759832    1.028    0.028
        44  -7.1681     88.9986    123.5402   8.8284961792e+01   3.9608856232e+01    0.2212554    0.1486368  37.53 0.0006614629    1.531    0.347
        45  -7.4999    131.3861    115.3088   7.4203917479e+01   3.3272075694e+01    0.2096968    0.1469227 -55.35 0.0006945795    1.499    0.333
        46  -8.5675    238.2210    113.4243   5.2590071299e+01   1.1019084119e+01    0.3278116    0.1636188  48.72  0.001537453    2.312    0.567
        47  -8.7611     73.9339    110.6482   9.0008290317e+01   4.5165558799e+01    0.2789256    0.2204028 -71.91 0.0001761819    1.389    0.280
        48  -8.0715    107.9377     99.7088   7.6564844633e+01   4.1573875773e+01    0.3320047    0.2367679  18.32  0.001472916    1.798    0.444
        49  -8.8597    187.8522     96.6121   5.6897541561e+01   2.4395869561e+01    0.3669325    0.2409058 -31.31 0.0008439375    1.668    0.401
        50 -10.2988     91.9817     92.1279   7.9320009872e+01   4.6305483811e+01    0.2578757    0.2447681 -22.32  0.001436059    1.031    0.030
        51  -7.7231    103.5128     91.8659   7.5683160919e+01   4.4139011357e+01    0.2162776      0.14669 -44.98  0.000462827    1.472    0.321
        52  -7.5059    163.9731     84.7487   5.8470546010e+01   3.2053983995e+01    0.2020216    0.1845106  69.48 0.0003437562    1.077    0.071
        53  -7.1479     56.9764     84.2270   8.9136375816e+01   5.3697061096e+01    0.1657597    0.1134987  29.34 0.0002468073    1.532    0.347
        54  -7.1172    140.0348     70.0969   5.9557213406e+01   4.0279349464e+01    0.1670931    0.1639584 -60.49 0.0002947353    1.053    0.050
        55  -6.6608    202.3157     53.7456   4.4174695211e+01   2.8143955373e+01     0.135893   0.09267487 -74.43            0    1.530    0.346
        56  -7.0945    172.0146     50.0298   4.7673019633e+01   3.5776791198e+01    0.1616537    0.1436996  81.60            0    1.034    0.033
        57  -7.1016    123.5607     47.5385   5.6474296682e+01   4.7703274601e+01    0.1402228    0.1292049  44.94 0.0001692113    1.036    0.034
        58  -7.8154    162.0165     43.6590   4.7588436601e+01   3.9070731937e+01    0.1935998    0.1635493  66.66 0.0005636109    1.100    0.091
        59  -8.1403    154.9090     41.9434   4.8329283181e+01   4.1018419278e+01    0.2003503    0.1839631  63.37 0.0003175346    1.075    0.070
        60  -8.9326    123.2087     35.4824   5.2634838252e+01   4.9421798538e+01     0.264964    0.2436716 -46.10 -0.000137596    1.195    0.163
        61  -8.7077    228.3392     30.6662   3.6120351528e+01   2.5536524962e+01    0.2122041    0.1762988  63.65 0.0003049702    1.407    0.289
        62  -7.8851    240.4636     25.7720   3.4081951840e+01   2.3637467474e+01    0.1929352    0.1407541  85.82 0.0003343714    1.270    0.213
        63  -7.3774    117.0116     20.3756   4.8938587335e+01   5.2613579131e+01    0.1768919    0.1502385  63.03  0.001078222    1.082    0.076
        64  -6.7821     91.3299     20.6525   5.5270011059e+01   5.8281404343e+01    0.1252783    0.1006006 -75.42 0.0007049486    1.761    0.432
        65  -7.6453     15.0398     18.2061   8.5161416046e+01   7.0807425289e+01    0.1508192    0.1187032  -6.21  0.001081859    1.063    0.059
        66  -7.1052    190.1584     15.6129   3.6495272375e+01   3.5784239750e+01    0.1675458    0.1015094  63.89 0.0003789456    1.533    0.348
        67  -6.8355    212.1987     11.6146   3.3486822464e+01   3.1248317421e+01    0.1512526   0.09875398  69.64 0.0002606282    1.450    0.311
