#   1 NUMBER                 Running object number                                     
#   2 MAG_AUTO               Kron-like elliptical aperture magnitude                    [mag]
#   3 X_IMAGE                Object position along x                                    [pixel]
#   4 Y_IMAGE                Object position along y                                    [pixel]
#   5 X_WORLD                Barycenter position along world x axis                     [deg]
#   6 Y_WORLD                Barycenter position along world y axis                     [deg]
#   7 A_WORLD                Profile RMS along major axis (world units)                 [deg]
#   8 B_WORLD                Profile RMS along minor axis (world units)                 [deg]
#   9 THETA_WORLD            Position angle (CCW/world-x)                               [deg]
#  10 FWHM_WORLD             FWHM assuming a gaussian core                              [deg]
#  11 ELONGATION             A_IMAGE/B_IMAGE                                           
#  12 ELLIPTICITY            1 - B_IMAGE/A_IMAGE                                       
         1 -14.8869      3.1466     91.1361   1.2884271391e+02   5.5009127200e+01      3.83818    0.5759684 -69.20   0.01140419    6.538    0.847
         2 -14.9606      3.6348    135.1604   1.3402900391e+02   4.5883035492e+01     4.418842      1.27363 -82.65   0.01602767    4.763    0.790
         3 -13.5700    203.3149     29.4799   6.0776309977e+01   3.0605045876e+01     1.410185     1.275463  38.61  0.005839605    1.212    0.175
         4 -12.2877      2.3739     10.5664   1.1024637809e+02   6.9886781766e+01    0.8386693    0.1010256 -49.46  0.003112942    5.075    0.803
         5 -12.2648      3.7802      2.9906   1.0674161101e+02   7.0920706273e+01    0.3990128    0.3054253  23.86  0.003266348    1.738    0.425
         6 -13.5766    219.9226     11.7078   5.4106846930e+01   2.8499774791e+01    0.9867843    0.8375575  50.67   0.00235799    1.283    0.221
         7 -12.9140     41.0993    211.7012   1.3365948208e+02   2.7011333459e+01     0.579213    0.3914439  81.69  0.002598088    1.151    0.131
         8 -13.3862    244.6101    246.6395   1.0214202336e+02  -1.0919886800e+01     1.127898    0.5883442  35.42  0.006687204    1.504    0.335
         9 -11.8979    144.0185    249.5207   1.1977181085e+02   5.4692323597e+00    0.4091031     0.144491  47.85  0.001920454    2.203    0.546
        10 -12.8531      9.6636    207.1100   1.3850272150e+02   3.1163768159e+01    0.6026825    0.4382795  43.22  0.003218964    1.677    0.404
        11 -14.8016     14.0887    241.7399   1.3977509619e+02   2.4635697578e+01     2.508275     1.249987  56.02   0.01844652    1.536    0.349
        12 -11.2282     62.4989    245.4519   1.3278561638e+02   1.8377408949e+01    0.2338029    0.1332351  69.32  0.001166353    1.429    0.300
        13 -11.9532    124.4369    249.9022   1.2312838202e+02   8.6046592439e+00    0.4833297    0.1356271  42.43  0.001997278    3.115    0.679
        14 -14.7460     28.9517    224.7786   1.3657369639e+02   2.5989198076e+01    0.8540106     0.753908 -71.71  0.007212009    1.640    0.390
        15 -12.3763    111.6788    231.4514   1.2331700346e+02   1.3619112639e+01    0.5088903    0.1499508  48.83  0.002145715    2.770    0.639
        16 -11.6935     91.8630    227.7719   1.2639223860e+02   1.7314483881e+01    0.4017511    0.1106366  51.17   0.00164911    3.136    0.681
        17 -11.7463     57.8554    213.5036   1.3094351457e+02   2.4635368197e+01    0.4342968    0.2321051  70.19  0.002556127    1.753    0.430
        18  -8.8594    152.5103    213.0625   1.1344215359e+02   9.7594645515e+00    0.1613932    0.1298507 -56.90 0.0003134996    1.441    0.306
        19 -10.6068     34.3017    202.9536   1.3412743522e+02   2.9432860824e+01    0.1984807   0.09700159 -57.05  0.001142575    2.405    0.584
        20 -11.9056     54.0309    196.6304   1.3006510310e+02   2.8357962008e+01    0.2372393    0.1929889 -80.55 0.0004908206    1.216    0.178
        21 -12.1408     61.0895    188.2715   1.2788667579e+02   2.9135006793e+01    0.2370118     0.198511 -84.93 0.0004230945    1.149    0.130
        22 -11.1434    198.5692    247.0225   1.1003623723e+02  -3.4368190955e+00    0.2882467    0.1705778 -56.32  0.001573106    2.764    0.638
        23 -13.2228     58.5286    173.5592   1.2673918561e+02   3.2483187322e+01    0.4621466    0.2501351 -49.21   0.00214803    2.289    0.563
        24 -10.9728     72.5632    175.5492   1.2411451193e+02   3.0224564319e+01    0.2266492    0.1900729  87.55 0.0002877246    1.023    0.023
        25 -12.1101     80.4077    166.7553   1.2128384166e+02   3.0974148219e+01    0.6545941    0.4268908 -52.60  0.003645819    1.635    0.388
        26 -10.5179     90.0085    167.5547   1.1933323775e+02   2.9373585466e+01    0.3438242    0.1961657  63.32  0.001003472    1.958    0.489
        27 -10.6825     94.2861    151.5407   1.1582889885e+02   3.2152612356e+01    0.2730344    0.2497863  77.65 0.0007371636    1.061    0.057
        28  -9.4644     97.8809    147.4603   1.1428746958e+02   3.2464516633e+01    0.2184561      0.17201 -53.59 0.0003884694    1.277    0.217
        29 -12.2252     82.6157    150.2683   1.1829427047e+02   3.4211514082e+01    0.2848397    0.2215412 -54.61  0.001276371    1.304    0.233
        30 -11.8929     68.4708    143.4753   1.2048070110e+02   3.7668170255e+01    0.4854171    0.3529425  87.85  0.001758602    1.404    0.288
        31 -10.9677     64.6804    141.6919   1.2108686316e+02   3.8550387202e+01    0.2970738    0.2248655 -47.35 0.0008808858    1.446    0.309
        32 -12.4680      6.7905    118.8918   1.3157075453e+02   4.9045266221e+01    0.4741292    0.3603999  88.80  0.001421998    1.206    0.171
        33  -9.9722    107.2451    136.9016   1.1007879877e+02   3.3197552370e+01    0.3948361    0.2725691 -11.61  0.001236174    2.792    0.642
        34 -10.6010     94.1585    133.9216   1.1266762271e+02   3.6033759693e+01     0.234974    0.1991032 -53.61 0.0003457488    1.164    0.141
        35 -10.4658     70.9291    125.4074   1.1682484474e+02   4.1318741310e+01    0.3244279    0.2019059  63.16  0.001280543    2.004    0.501
        36  -9.1271    105.1945    123.4951   1.0780245872e+02   3.6481702810e+01    0.1831221    0.1389009  44.14 0.0003429497    1.373    0.272
        37 -10.1576    160.2587     78.0074   8.2505020684e+01   3.4164870035e+01    0.2114962    0.2035588 -35.99 0.0005154322    1.060    0.057
        38 -10.0402     54.0592     74.4248   1.1054731882e+02   5.4233180261e+01    0.4161123    0.2147422  57.39  0.001657404    4.226    0.763
        39  -9.6528     39.5786     65.5366   1.1287372589e+02   5.7488505212e+01     0.233785    0.1680782  73.32  0.001148966    2.357    0.576
        40 -11.2212    180.6381    245.7311   1.1296668832e+02  -2.0690840579e-01    0.3020435    0.1559422 -31.09  0.001523212    3.038    0.671
        41 -12.1923    177.4927    250.0000   1.1408502156e+02  -2.3998175344e-01     1.084877   0.05396218  44.60  0.001887467   15.538    0.936
        42 -11.1021      6.7254    185.7157   1.3760165858e+02   3.5473582010e+01    0.2372684    0.1269656  63.92  0.001147809    1.636    0.389
        43 -11.3829    163.2522    249.0479   1.1641542038e+02   2.3075198260e+00    0.2562731    0.1700732  56.27    0.0016026    1.349    0.259
        44 -12.9117     98.1202    247.8617   1.2729007042e+02   1.2996835799e+01    0.6273273    0.3132951  56.48  0.003709166    1.607    0.378
