#   1 NUMBER                 Running object number                                     
#   2 MAG_AUTO               Kron-like elliptical aperture magnitude                    [mag]
#   3 X_IMAGE                Object position along x                                    [pixel]
#   4 Y_IMAGE                Object position along y                                    [pixel]
#   5 X_WORLD                Barycenter position along world x axis                     [deg]
#   6 Y_WORLD                Barycenter position along world y axis                     [deg]
#   7 A_WORLD                Profile RMS along major axis (world units)                 [deg]
#   8 B_WORLD                Profile RMS along minor axis (world units)                 [deg]
#   9 THETA_WORLD            Position angle (CCW/world-x)                               [deg]
#  10 FWHM_WORLD             FWHM assuming a gaussian core                              [deg]
#  11 ELONGATION             A_IMAGE/B_IMAGE                                           
#  12 ELLIPTICITY            1 - B_IMAGE/A_IMAGE                                       
         1 -13.2124    192.3105     30.6113   6.9798996435e+01   3.3512123062e+01       1.1728     1.077563 -85.71  0.006654929    1.057    0.054
         2 -13.8983    205.6207     12.9007   6.3689372808e+01   3.2325939584e+01     1.616496     1.118086  41.18  0.008832797    1.824    0.452
         3 -13.0667      4.6920     10.3981   1.1570842662e+02   7.0676132970e+01     1.416737    0.4734082 -38.38  0.007835608    2.238    0.553
         4 -10.8004    125.1608    244.5934   1.3098271261e+02   7.0407605594e+00    0.1868368    0.1516109 -60.35 0.0009915993    1.455    0.313
         5 -11.7157    140.3245    249.4181   1.2875030451e+02   3.6559581737e+00     0.426148    0.2145674  49.58  0.002187624    1.661    0.398
         6 -11.5590     98.0067    248.8141   1.3644604706e+02   1.0693103915e+01    0.4171043    0.2152233  57.15  0.002258074    1.669    0.401
         7 -11.6866    101.0972    245.6441   1.3555356579e+02   1.0778947453e+01    0.4542056     0.244213 -74.55  0.002409057    2.190    0.543
         8 -11.7334     82.6545    248.4513   1.3914036444e+02   1.3092667028e+01    0.4449652    0.2735353  35.94  0.002577779    1.932    0.482
         9  -9.6860     66.9986    250.2905   1.4201344605e+02   1.5007696408e+01    0.1662723    0.1174858  61.90 0.0003886274    1.102    0.092
        10 -10.7161     46.3918    249.2848   1.4537618405e+02   1.7939301069e+01    0.2591074    0.1504342  73.72  0.001569317    1.405    0.288
        11 -14.2459     30.0792    247.6866   1.4789767414e+02   2.0228849705e+01     10.77852     3.708339  30.51   0.03039215   11.630    0.914
        12 -11.0832     49.6204    234.7778   1.4371919931e+02   2.0264701456e+01    0.3569961    0.1841862 -69.60  0.001257554    1.849    0.459
        13 -11.1904    238.8137    248.5503   1.1045344290e+02  -1.2546060277e+01    0.2453175    0.1629138   7.36  0.001510377    1.504    0.335
        14 -10.9769    140.5276    230.9448   1.2624196677e+02   6.8200207125e+00    0.2630721    0.1732546  32.44  0.001387945    1.651    0.394
        15  -9.1473    229.5572    229.7666   1.0892323048e+02  -8.6355086198e+00    0.1588477    0.1176198 -45.78 0.0009409646    1.735    0.424
        16 -14.9413      5.8237    239.5735   1.5121088442e+02   2.4389694013e+01     16.91007    0.2816125 -74.33   0.04088855   13.023    0.923
        17 -15.2087      8.8684    204.2522   1.4856395492e+02   3.1007724134e+01     5.714722     1.594495 -71.99    0.0184393    2.759    0.638
        18 -10.2628     85.5910    219.2417   1.3555414214e+02   1.8294058931e+01    0.3156011    0.1442174  42.00  0.001504595    2.062    0.515
        19 -11.6638    106.0102    246.7657   1.3477838498e+02   9.7964851655e+00    0.3261258     0.286617 -19.31  0.001764568    1.869    0.465
        20 -11.9332    123.9711    249.6774   1.3181296436e+02   6.3587790743e+00    0.7724316    0.1366819  43.58  0.002458311    4.431    0.774
        21  -9.3033     92.1616    213.9809   1.3362522081e+02   1.8351450280e+01     0.265327    0.1452445  84.67  0.001176752    2.484    0.597
        22  -8.7682    152.7169    212.9801   1.2107368104e+02   7.9316027453e+00    0.1775165    0.1689032  83.55 0.0003117622    1.112    0.101
        23 -10.7673     81.6328    243.6859   1.3886732110e+02   1.4120952053e+01    0.2307114    0.1818318  21.84  0.001424563    2.086    0.521
        24 -10.0584    194.0026    196.6210   1.0969186227e+02   3.0388663135e+00    0.5363908    0.2648075 -63.29  0.001525714    5.849    0.829
        25 -11.5023     65.4277    196.2424   1.3693810765e+02   2.6142083946e+01    0.3501071    0.2427671 -48.43  0.001288527    1.844    0.458
        26  -9.1640     47.7467    193.0392   1.4020496139e+02   2.9162882946e+01    0.1668182    0.1296455 -86.55 0.0002017856    1.068    0.064
        27 -11.5840     70.9103    188.7177   1.3485990544e+02   2.7041902102e+01    0.2892184    0.2245346 -57.93 0.0006599604    1.401    0.286
        28 -10.4332    120.4995    239.0310   1.3118027334e+02   8.8139974458e+00    0.1748914    0.1234799 -64.44 0.0005530097    1.591    0.371
        29 -10.8041     80.2960    176.3948   1.3108913016e+02   2.8464694196e+01    0.2424202    0.2142717 -73.01 0.0003738448    1.137    0.121
        30 -13.0781     67.3808    174.2156   1.3370501945e+02   3.0841778129e+01    0.4905611    0.2741296 -46.20  0.001484034    2.213    0.548
        31 -11.7902     87.4361    167.2618   1.2801492290e+02   2.9478585113e+01     0.696528    0.5364453  63.80  0.003818979    1.282    0.220
        32 -12.5152     39.8603    230.0399   1.4503530354e+02   2.2414660992e+01    0.2993048    0.2326564 -81.31 0.0007924029    1.290    0.225
        33  -9.8528     99.6892    151.3572   1.2221028685e+02   3.1193855362e+01    0.3025911    0.2579943 -53.19 0.0009104756    1.181    0.154
        34  -9.1410    102.3730    147.3293   1.2074818022e+02   3.1676947618e+01    0.2119579    0.1696401 -25.86 0.0004789747    1.618    0.382
        35 -11.9500     88.3820    150.5359   1.2488320550e+02   3.3267395707e+01    0.2897391    0.2513118 -42.79  0.001000718    1.287    0.223
        36 -12.4679     67.3722    144.0122   1.2903021914e+02   3.7929991025e+01    0.7848865    0.5198401  75.50  0.003901408    1.832    0.454
        37 -11.6727     57.2813    130.3448   1.2925121069e+02   4.2459842994e+01     1.537738    0.4797812 -70.88  0.003445104    8.350    0.880
        38  -8.4791    192.2412    144.0488   9.8918878677e+01   1.3630943070e+01    0.1925686    0.1288413 -40.42 0.0003577967    1.490    0.329
        39  -9.6889    110.6662    136.7090   1.1640873717e+02   3.2671103697e+01    0.3510773    0.2464797 -22.87  0.001089579    2.083    0.520
        40 -10.3521     98.1047    133.8199   1.1905462717e+02   3.5601333802e+01    0.2564203    0.2088118 -41.69 0.0004170561    1.282    0.220
        41 -10.6217     50.3876    129.8842   1.3100895283e+02   4.3387579159e+01    0.2348883    0.2058115  64.43 0.0006707442    1.245    0.197
        42  -9.3518    107.5917    123.7312   1.1426858672e+02   3.6252336666e+01    0.2122587     0.198995  21.12 0.0008455237    1.181    0.153
        43 -10.2949    168.0700    113.0415   9.6548208339e+01   2.5612080995e+01    0.3619707    0.2895603 -82.90 0.0008821865    1.513    0.339
        44  -9.1905    203.4856    111.4955   8.8822745083e+01   1.7517964511e+01    0.1519583    0.1484373 -47.56 2.135709e-05    1.039    0.037
        45 -14.4680     46.4590    221.1220   1.4313626683e+02   2.3378469393e+01     1.743634     1.644981  74.92  0.008872475    1.455    0.313
        46 -11.0483    249.5096    248.6125   1.0859206594e+02  -1.4124282571e+01    0.3398855    0.2155536 -17.01  0.002139314    1.593    0.372
        47 -10.7610     22.9843    237.4091   1.4837882006e+02   2.2963715226e+01    0.3182632    0.2363573 -50.54  0.002214832    2.236    0.553
