#   1 NUMBER                 Running object number                                     
#   2 MAG_AUTO               Kron-like elliptical aperture magnitude                    [mag]
#   3 X_IMAGE                Object position along x                                    [pixel]
#   4 Y_IMAGE                Object position along y                                    [pixel]
#   5 X_WORLD                Barycenter position along world x axis                     [deg]
#   6 Y_WORLD                Barycenter position along world y axis                     [deg]
#   7 A_WORLD                Profile RMS along major axis (world units)                 [deg]
#   8 B_WORLD                Profile RMS along minor axis (world units)                 [deg]
#   9 THETA_WORLD            Position angle (CCW/world-x)                               [deg]
#  10 FWHM_WORLD             FWHM assuming a gaussian core                              [deg]
#  11 ELONGATION             A_IMAGE/B_IMAGE                                           
#  12 ELLIPTICITY            1 - B_IMAGE/A_IMAGE                                       
         1 -14.3603    245.3580     73.8890   3.5923217611e+02   1.8378670730e+01     1.463638    0.7522206 -32.01  0.008344991    1.709    0.415
         2 -13.5124    219.2993     61.0900   3.5891851628e+02   2.4583914225e+01     1.803931    0.5512904 -45.19  0.007721955    2.518    0.603
         3 -13.2933    243.3709     44.2266   3.5340613408e+02   2.2504943389e+01     1.026804     0.570811 -61.66   0.00638935    1.631    0.387
         4 -14.5313    191.8788     31.0723   3.5439067312e+02   3.3956803561e+01     1.644556    0.3170371 -45.86  0.005756777    3.676    0.728
         5 -12.9622    176.0647     15.9440   3.5182288327e+02   3.9162025572e+01     0.361645    0.2437198 -58.85  0.001313705    1.246    0.198
         6 -12.2927    167.6732     15.7286   3.5247294141e+02   4.1098432342e+01    0.3154494    0.2420253  74.57  0.001165685    1.312    0.238
         7 -12.9477    162.4753     11.6879   3.5178663221e+02   4.2729187613e+01       0.3424    0.1563032  74.06   0.00163828    2.042    0.510
         8 -13.3065      7.4983      2.4924   3.6014338410e+01   7.8932196864e+01    0.5502754    0.4384179  42.48  0.003566291    1.495    0.331
         9 -13.6441    142.2863      3.9944   3.5128586543e+02   4.8298002953e+01    0.5757108    0.3225245  59.04   0.00297562    1.824    0.452
        10 -13.6941    153.6049      3.7122   3.5020731622e+02   4.5598170565e+01    0.5008789      0.32596 -88.36  0.001864469    1.362    0.266
        11 -12.0068    162.3166      1.8736   3.4900432778e+02   4.3717163930e+01    0.2183769    0.1459151 -77.69 0.0005904744    1.287    0.223
        12 -11.3417    111.3205    212.6773   4.9810178486e+01   1.5140631821e+01    0.1327593   0.09453022  55.62 0.0007045366    1.674    0.403
        13 -10.5258    104.5220    225.4860   5.2969102276e+01   1.3541313464e+01    0.1282774    0.1094606  25.63 0.0003953481    1.010    0.009
        14 -12.5837    231.4734    201.6291   2.4652445847e+01   2.0165967040e+00    0.4718348     0.263042 -41.88  0.002938878    1.835    0.455
        15 -12.1685     82.6356    202.6578   5.5621626438e+01   2.0997061425e+01     0.268801    0.1760096 -78.26  0.001221279    1.865    0.464
        16 -11.2292     94.4891    195.4779   5.1673743915e+01   2.0989747271e+01    0.1379757    0.1258927  31.46 0.0001755302    1.001    0.001
        17 -11.7938    247.8336    188.0938   2.0088474314e+01   2.1094530856e+00    0.1646568    0.1269848 -28.88  0.001259864    1.239    0.193
        18 -10.7638    113.2248    181.8268   4.4883990055e+01   2.1284350602e+01     0.243023    0.1462143  66.29 0.0009574275    2.866    0.651
        19 -11.6218    244.6342    179.1160   1.9036811007e+01   3.6577648562e+00    0.3180851    0.1528371 -27.00  0.001834486    1.793    0.442
        20 -11.5918    191.6328    177.0950   2.7060661429e+01   1.0545898448e+01    0.2379245    0.1778684  15.92  0.001177407    1.361    0.265
        21 -11.5112    216.8183    171.2695   2.1767979673e+01   8.1116387725e+00    0.6678195     0.498293  73.34  0.003644828    3.059    0.673
        22 -13.4371    210.7543    161.2493   2.0898428338e+01   1.0488544771e+01     1.181448    0.6316267  31.66  0.006323497    2.174    0.540
        23 -12.0828     15.4977    161.6457   7.0778847755e+01   3.8627510745e+01    0.4635446    0.1952216  72.14  0.001764793    2.660    0.624
        24 -13.3967    204.8992    152.3926   2.0161860503e+01   1.2759897064e+01      1.21727    0.4460217  48.52  0.004940147    3.786    0.736
        25 -11.3730    162.3265    149.6498   2.7456424272e+01   2.0029692803e+01    0.2100019     0.173029 -87.49  0.001117953    1.709    0.415
        26 -11.3628    210.9365    137.4921   1.6280403842e+01   1.4297163197e+01     0.377042    0.1777957 -52.21  0.001665833    2.623    0.619
        27 -11.9446    219.1164    141.7639   1.5903799124e+01   1.2397026333e+01    0.2784471    0.2249802   9.55   0.00183988    1.405    0.288
        28 -11.3341    173.3693    138.0052   2.2812882421e+01   2.0360923132e+01    0.3611623    0.2241473 -62.68  0.001618423    2.287    0.563
        29 -10.8679    204.3116    140.6557   1.7944451294e+01   1.4794962381e+01    0.1245292    0.0947291 -62.81 0.0005390074    1.705    0.413
        30 -12.9661    181.9733    124.9829   1.8402366422e+01   2.1246416676e+01    0.6883379    0.2325232 -43.22  0.002584625    2.632    0.620
        31 -12.8247    193.9756    128.4737   1.7106542714e+01   1.8540218369e+01     1.028809    0.3847549 -41.19  0.004250932    2.308    0.567
        32 -13.4542    187.5020    121.9704   1.6783704316e+01   2.0800672680e+01    0.4115752    0.2800203 -50.02  0.002203697    1.411    0.291
        33 -12.6063    186.9241    117.3631   1.5861768534e+01   2.1717893068e+01    0.6289626    0.4097019  50.04   0.00332107    1.758    0.431
        34 -12.7557    182.9736    134.4263   2.0267091185e+01   1.9361030841e+01    0.3647603    0.1786146 -41.97  0.001659886    1.818    0.450
        35 -11.4947    238.1357    131.4843   1.1339610400e+01   1.1268977243e+01    0.3123782    0.2008946 -13.42  0.001829414    1.898    0.473
        36 -10.9113    165.9621    127.7341   2.2012384328e+01   2.3646794273e+01    0.1931212    0.1883939 -33.76  0.001163186    1.068    0.064
        37 -12.3624    169.4807    126.5059   2.1049578976e+01   2.3232341558e+01    0.2886607    0.2205452 -59.55  0.001531131    1.432    0.301
        38 -13.6494    245.9848    117.6780   7.7643793412e+00   1.2181564408e+01    0.6599508    0.5626296 -39.47  0.004964553    1.143    0.125
        39 -11.4350     67.9165    120.2264   4.7044720535e+01   4.3649170073e+01    0.2517118    0.2181502 -70.38 0.0004511133    1.143    0.125
        40 -12.7704     87.3639    116.7003   3.9622212012e+01   4.1238257025e+01    0.6887185    0.3873179 -82.08  0.002182248    3.528    0.717
        41 -11.8557    135.4143    115.2157   2.5711492502e+01   3.2142047708e+01     0.219608    0.1378156 -55.86   0.00080059    1.674    0.403
        42 -12.1279    223.6940    111.3493   9.1874979213e+00   1.6447009459e+01    0.5473368    0.3399172  64.32  0.003098968    2.252    0.556
        43 -11.3199    223.1673    106.6434   8.2829442709e+00   1.7252283285e+01     0.512609    0.3327658  67.99  0.002959901    2.145    0.534
        44 -11.7444      2.3931    111.2252   7.1421010417e+01   5.3272329254e+01    0.2089277    0.1200336  84.98 0.0009544169    1.693    0.409
        45 -10.8718    203.3225    122.0273   1.4257919603e+01   1.8063654529e+01    0.1931916     0.146062 -39.68  0.001060312    1.118    0.106
        46 -13.7721    186.3882    128.1928   1.8328971974e+01   1.9891239200e+01    0.4739667    0.2973021 -34.51  0.002442064    1.469    0.319
        47 -10.7818    199.2961    106.6522   1.1528444196e+01   2.1321898305e+01    0.1350767   0.09173042 -61.35 0.0006248472    1.676    0.403
        48 -12.5017    142.8589    104.5488   2.1300918932e+01   3.2820031388e+01    0.2675683    0.1717854 -48.51  0.001223363    1.488    0.328
        49 -11.7480    236.7319    103.2398   5.9830350457e+00   1.5622235673e+01    0.2921767    0.2330773  78.42  0.002005728    1.670    0.401
        50 -13.6165     18.9195     99.2300   6.2801172335e+01   5.5447320608e+01    0.9461645    0.3746628 -52.40  0.003617046    2.327    0.570
        51 -11.9260     10.0592    102.1491   6.7169265141e+01   5.5308988541e+01    0.3724828    0.1922048 -68.41  0.001647033    1.715    0.417
        52 -11.6207    151.5038    102.5080   1.8920178869e+01   3.1413268525e+01    0.1464669     0.136012 -55.21 7.008925e-05    1.006    0.006
        53 -11.5247    160.5508     97.9043   1.5951441887e+01   3.0400969434e+01    0.5059021    0.2544889 -59.62  0.001887094    2.763    0.638
        54 -12.2275      2.3706    104.3931   7.0783775929e+01   5.5151986190e+01    0.2744006    0.2296758  72.78  0.001043412    1.164    0.141
        55 -11.4673    241.5392     96.7421   4.1648958689e+00   1.5819844117e+01    0.3551964    0.2440697 -14.16  0.002158707    1.886    0.470
        56 -11.7889    237.0294     95.7375   4.4414566561e+00   1.6660961258e+01    0.3187436    0.2200029 -10.50  0.001871744    2.036    0.509
        57 -11.7915    150.8337     91.8681   1.6292169267e+01   3.3598445747e+01    0.2219959    0.2047405 -15.42  0.001225091    1.239    0.193
        58 -12.4336     31.9534     87.7005   5.4581104494e+01   5.7294098446e+01    0.3095446    0.1877558  28.41  0.000841114    1.685    0.406
        59 -10.6963    183.7972    245.1785   3.9136237366e+01   1.0949856413e+00    0.1556379    0.1040474  -3.98 0.0007190685    1.297    0.229
        60 -11.6775    143.4401     81.2742   1.4904666113e+01   3.7211882812e+01    0.2569639    0.1829213  87.46  0.001193354    1.757    0.431
        61 -12.3023     59.4574     78.9654   3.9778186479e+01   5.5589692466e+01    0.3207687    0.2375686  37.38  0.001418765    1.358    0.264
        62 -12.0469    212.1176     76.4270   3.0844505254e+00   2.3729526146e+01    0.3185168    0.2774177   4.77  0.002065544    1.558    0.358
        63 -10.8605     80.9957    238.9928   5.9778026018e+01   1.3813042254e+01    0.1562496    0.1297456  32.27 0.0003124857    1.011    0.011
        64 -10.4384     11.4605     76.4196   6.2522391511e+01   6.2168252706e+01    0.1382404    0.1277535 -54.62  7.96766e-05    1.014    0.013
        65 -10.3495    158.6770     75.3301   1.0360421957e+01   3.4849972254e+01    0.1515478    0.1023089 -68.97 0.0007049663    1.698    0.411
        66 -11.5206    206.8931     73.3991   2.9969141474e+00   2.5155026701e+01    0.2512872    0.1703424 -34.43  0.001040431    1.359    0.264
        67 -11.3810    146.6643     69.3323   1.0858467638e+01   3.8601182668e+01    0.1555731    0.1049365 -71.06 0.0007052165    1.736    0.424
        68 -13.4040    195.9134     58.2820   6.8617361610e-01   2.9517808892e+01     1.097263    0.5659418 -59.12  0.005274185    1.998    0.499
        69 -11.9385    151.0000     76.0205   1.1942711777e+01   3.6451697035e+01    0.2428769   0.07800438 -38.63 0.0008036162    2.951    0.661
        70 -13.5318    159.9339    234.2752   4.2185252539e+01   5.2898927612e+00    0.3566934    0.2992426 -71.82  0.002372986    1.966    0.491
        71 -11.3601    175.9692     46.9192   1.1961518398e-01   3.5371472182e+01    0.3213792    0.2065698 -58.42  0.001696265    1.430    0.301
        72 -11.2676     77.2231     47.4185   2.1209534070e+01   5.8733406155e+01    0.2141883    0.1365755  61.33 0.0009612908    1.697    0.411
        73 -11.7537    149.9775    229.0023   4.3477763477e+01   7.3001719397e+00     0.194126    0.1617366   9.67  0.001318354    1.027    0.027
        74 -12.5398    170.5001     28.9984   3.5587920208e+02   3.8933839413e+01    0.2594734     0.197758 -11.02  0.001465335    1.783    0.439
        75 -10.3123    128.6916     32.7297   2.5910135740e+00   4.8509727594e+01     0.133725    0.1036706  40.97 0.0001787216    1.542    0.352
        76 -12.0449     78.0336     34.7527   1.5503959100e+01   6.0640096817e+01    0.2402006    0.2106538 -35.24 0.0004813564    1.215    0.177
        77 -11.9475    173.2649     25.5691   3.5466488443e+02   3.8712505256e+01    0.3353612    0.1583876 -63.76  0.001520841    2.193    0.544
        78 -10.8059    246.5200    225.5020   2.6098833214e+01  -2.4749232570e+00    0.1034257   0.07277694 -12.74 0.0005292357    1.023    0.023
        79 -13.1620    136.6009    217.1363   4.4677538830e+01   1.0995517175e+01    0.8284286    0.2746914 -55.07    0.0032002    3.792    0.736
        80 -12.3675    201.0551    222.8069   3.2897371394e+01   2.3558339745e+00    0.3019192    0.1544701 -24.71  0.001719626    1.894    0.472
        81 -11.5572     54.2794     10.7494   1.1836063426e+01   6.9252030418e+01    0.2238152   0.08295026  47.93 0.0008966342    2.387    0.581
        82 -11.7018    237.6951    231.6882   2.8300822123e+01  -2.4245789646e+00    0.1959457    0.1219053  -9.87  0.001440539    1.267    0.211
        83 -12.5073    195.0858    219.3461   3.3423158809e+01   3.5069659274e+00    0.2067032    0.1352551 -22.39  0.001332035    1.351    0.260
        84 -10.8477     62.9921    217.0402   6.2091399581e+01   2.0290045361e+01    0.1598321    0.1366117  40.60 0.0004926081    1.001    0.001
