#   1 NUMBER                 Running object number                                     
#   2 MAG_AUTO               Kron-like elliptical aperture magnitude                    [mag]
#   3 X_IMAGE                Object position along x                                    [pixel]
#   4 Y_IMAGE                Object position along y                                    [pixel]
#   5 X_WORLD                Barycenter position along world x axis                     [deg]
#   6 Y_WORLD                Barycenter position along world y axis                     [deg]
#   7 A_WORLD                Profile RMS along major axis (world units)                 [deg]
#   8 B_WORLD                Profile RMS along minor axis (world units)                 [deg]
#   9 THETA_WORLD            Position angle (CCW/world-x)                               [deg]
#  10 FWHM_WORLD             FWHM assuming a gaussian core                              [deg]
#  11 ELONGATION             A_IMAGE/B_IMAGE                                           
#  12 ELLIPTICITY            1 - B_IMAGE/A_IMAGE                                       
         1  -9.3288      9.0365      9.5108   7.8568591763e+01   7.4566129373e+01    0.1550178    0.1227029  71.22   0.00092757    2.561    0.610
         2 -11.5903     14.3329     16.0173   7.8384867729e+01   7.2963307223e+01    0.4242922    0.2790055 -69.24  0.001419205    2.773    0.639
         3 -11.0763    229.4318     18.8716   2.6098692257e+01   2.6626849380e+01    0.3347269    0.2053235 -18.43  0.001482315    2.197    0.545
         4 -10.7386    122.6966      1.9454   3.2701126199e+01   5.3558087019e+01    0.2596186    0.2225009  71.12 0.0005112874    1.034    0.033
         5 -11.7033    125.1187     17.1998   3.7806772015e+01   5.1499848025e+01    0.2646826    0.2342229  48.13 0.0002909506    1.132    0.117
         6 -11.9003    125.7161     10.3665   3.5249749141e+01   5.2052575378e+01    0.5901983    0.2651347 -50.18   0.00125077    2.677    0.626
         7 -11.7274    235.1184     14.8050   2.4806032927e+01   2.5910391596e+01     0.275124    0.2198301  82.61 0.0008547917    1.302    0.232
         8 -10.8301     82.9253     16.0418   4.7188151275e+01   6.1519870062e+01    0.2517935    0.1928313   7.45 0.0003301862    1.441    0.306
         9 -10.9659     85.6398     11.3657   4.4318769644e+01   6.1433476858e+01    0.3286909    0.2205966  23.86  0.001744894    1.666    0.400
        10 -11.4926    207.9187     13.1265   2.6426393453e+01   3.1937381553e+01    0.2759073    0.1975624 -62.86 0.0004096469    1.192    0.161
        11 -10.9579    176.7397     13.4875   2.9405726660e+01   3.9168907683e+01    0.3779149    0.1958762  87.11  0.001762709    1.992    0.498
        12 -11.4413     34.8352     12.1728   6.4399281861e+01   7.0999786343e+01    0.3323942    0.2675251  56.43  0.001352279    1.784    0.440
        13 -11.5594     29.3832      7.9586   6.4991188633e+01   7.2381671577e+01    0.4184178    0.2726637   2.84  0.001089305    1.668    0.400
        14  -9.7066     97.2409     11.0764   4.1235404125e+01   5.8823129170e+01    0.2628666    0.1509997  11.37  0.001163463    2.568    0.611
        15 -11.3997    191.6163     10.1408   2.7065517331e+01   3.5989380639e+01      0.29159    0.1874518 -85.10 0.0004108966    1.454    0.312
        16 -12.9976    116.7477      8.5014   3.6141215311e+01   5.4425184579e+01    0.2975039    0.2711379 -84.34 0.0005208298    1.120    0.107
        17 -10.3763    182.3172      9.9175   2.7867836379e+01   3.8205932165e+01      0.22579    0.1565415 -86.90 0.0005545106    1.322    0.244
        18 -10.5246     56.1028      8.6426   5.2734486479e+01   6.7838419057e+01    0.2877035    0.1680387 -19.98 0.0009394222    1.818    0.450
        19 -10.9128     45.3900      9.7996   5.7917203650e+01   6.9627184149e+01    0.2168694      0.18192  20.28 0.0003141664    1.058    0.055
        20  -9.6180     22.0548      9.4194   7.0091131424e+01   7.3151959103e+01    0.2789474    0.1492385  13.68   0.00141419    2.315    0.568
        21 -10.3002     15.3178      8.6665   7.3908086561e+01   7.4059401783e+01    0.2565437    0.1628556   5.17  0.001547951    1.628    0.386
        22 -10.2928      3.3385      6.6715   8.1095839989e+01   7.5539754775e+01    0.2355805    0.2042241  -1.05  0.001228346    1.212    0.175
        23 -10.0816    165.5926      7.2527   2.8830501905e+01   4.2509773180e+01    0.1663329    0.1284647  -6.02 0.0009468594    1.683    0.406
        24 -10.3894     38.8049      5.5824   5.8673160142e+01   7.1250294440e+01    0.2318533    0.2226162 -26.19   0.00165836    1.359    0.264
        25 -10.7669    199.0856      2.9929   2.4646419810e+01   3.4992632644e+01    0.3689888    0.1234497 -33.33  0.001619354    2.631    0.620
        26  -9.2663     70.5092      5.4845   4.6002840365e+01   6.5300923837e+01    0.1290831    0.1093544  31.59 -8.555584e-05    1.051    0.049
        27 -10.8789    105.0079      3.5678   3.6449936473e+01   5.7697257292e+01    0.3213101    0.2151874  22.35 0.0008433496    1.771    0.435
        28 -10.6328     53.5199      2.9873   5.0701719994e+01   6.8944729695e+01    0.2020874    0.1837621  45.67  0.000410558    1.222    0.182
        29 -12.1381     19.2735      2.4814   6.7746092898e+01   7.4498941348e+01    0.4342643    0.2009306  30.10  0.001028856    2.127    0.530
        30 -10.1311    220.3070      3.3446   2.3246585981e+01   3.0253071773e+01    0.1093151   0.09102046  40.62 0.0007043043    1.694    0.410
        31  -9.9929     59.5103      3.0032   4.8448570688e+01   6.7785279262e+01    0.2207675     0.169937  66.00  0.000748803    1.540    0.351
        32 -10.6745    237.8443      2.1465   2.1937724820e+01   2.6719428669e+01    0.1414909    0.1312573 -86.62 0.0004588094    1.318    0.241
        33 -10.5626    162.4435      2.3821   2.7744135181e+01   4.3738653070e+01    0.2611606    0.1472911  79.47  0.001328877    1.611    0.379
        34 -11.0887    115.7721      1.3794   3.3620961075e+01   5.5293471343e+01    0.5631998    0.1275457  70.92  0.001669264    4.653    0.785
        35  -9.4370     80.9928      1.4985   4.1038203480e+01   6.3409927930e+01     0.185087    0.1163486  63.69 0.0005993362    1.519    0.342
        36 -10.2180     29.3601      1.3429   6.1066438414e+01   7.3249198737e+01    0.2793164    0.1013472  42.82  0.001283034    2.706    0.631
        37 -10.0373    194.0914    202.0978   7.1205255146e+01   4.2954169836e+00    0.2200876    0.1814616  34.70  0.001161611    1.258    0.205
        38 -10.2776    110.0260    250.5838   9.4708467565e+01   8.6211043049e+00    0.1845263   0.09494314  35.59 0.0005330164    1.571    0.363
        39 -11.0272     29.0062    250.5079   1.1054393671e+02   1.8611804305e+01    0.2854291   0.08885147  32.86  0.001364654    2.735    0.634
        40 -11.7603     18.2834    248.7700   1.1246651699e+02   2.0041052251e+01    0.2750747    0.2205788 -64.51   0.00208736    1.651    0.394
        41 -11.9885      3.4782    247.2613   1.1512577247e+02   2.1757356291e+01    0.8336431    0.2452076  43.71  0.004496538    2.197    0.545
        42 -11.9923     11.1254    244.3044   1.1361342031e+02   2.1574848351e+01    0.3524854    0.2232765  36.50  0.002432748    1.487    0.328
        43 -13.0632      6.4239    240.2464   1.1433505647e+02   2.2785716774e+01    0.7433587    0.4067679  27.58  0.004633089    2.015    0.504
        44  -9.3187     22.4942    200.5387   1.0907541482e+02   2.9341787431e+01    0.1248849   0.09678536  67.68 1.286535e-05    1.034    0.033
        45  -9.3256     14.5857    192.8420   1.1038668598e+02   3.1815753564e+01    0.1664871   0.09343405  79.93  0.000376286    1.582    0.368
        46  -9.7969      6.3016    191.8526   1.1221201258e+02   3.2780037351e+01    0.1971465    0.1161001  73.66  0.001022537    1.425    0.298
        47  -9.4476      1.0000    190.8661   1.1335396811e+02   3.3446716294e+01    0.1844508   0.05720222 -81.24 0.0007850068    2.823    0.646
        48  -9.1644     18.4412    182.5556   1.0881409989e+02   3.3798817230e+01     0.124068    0.1029474  78.05 8.593284e-05    1.040    0.039
        49  -8.9080     14.0000    181.9961   1.0984161739e+02   3.4337795210e+01    0.2003208   0.06139183 -78.09 0.0007916883    2.924    0.658
        50  -8.8047     68.3058    179.9401   9.6144156803e+01   2.8654494390e+01    0.2257398    0.1022905  87.69 0.0003799479    4.363    0.771
        51  -9.6133      6.6814    168.3178   1.1074218730e+02   3.8164380141e+01    0.1346484   0.07317431  62.94            0    1.658    0.397
        52  -9.6261    240.4454    162.5023   5.5867635104e+01   3.4607003816e+00    0.1252687    0.1029791 -19.17 0.0002909791    1.012    0.012
        53 -10.8126      4.9785    153.3244   1.1015916039e+02   4.1893054768e+01    0.2489866     0.126882  40.10  0.001307085    1.901    0.474
        54  -9.9239      6.2532    145.3771   1.0920808248e+02   4.3740706131e+01     0.166469    0.1047985  42.26 0.0005639743    1.599    0.375
        55 -10.1903     28.9940    143.0410   1.0244160432e+02   4.2388345155e+01    0.1964322    0.1699145  89.80  0.001198793    1.004    0.004
        56 -10.0716     53.0426    141.9312   9.5163407752e+01   3.9988667862e+01    0.2095246    0.1834465  84.22  0.001200951    1.059    0.056
        57  -9.6750    236.0061    138.4758   5.1764115249e+01   7.8945268852e+00    0.1723876    0.1279068  42.73  0.001018184    1.550    0.355
        58  -9.9166     96.1305    133.8696   8.1002035787e+01   3.5492885747e+01    0.2296046    0.2025696  85.19 0.0005957833    1.170    0.145
        59  -9.8635     61.8884    130.6878   9.0631138789e+01   4.1676427278e+01    0.1962494      0.17711  60.27 0.0003961975    1.114    0.102
        60  -9.6486    212.8502    133.6404   5.4424001254e+01   1.2735005028e+01    0.1798431    0.1302181  60.21 0.0009439273    1.730    0.422
        61  -9.4080     44.9732    129.6906   9.5765431395e+01   4.4078158450e+01    0.1819608    0.1685907  74.46 0.0002235998    1.078    0.072
        62 -10.5276     38.4912    126.4836   9.7336233949e+01   4.5621555373e+01    0.2006791    0.1227469  42.05 0.0002541615    1.688    0.408
        63 -12.1890     28.4622    128.0128   1.0075236201e+02   4.6245957779e+01    0.2438592    0.2305464  76.34  0.001545239    1.115    0.103
        64 -10.1382     12.5033    128.9687   1.0586927727e+02   4.7358883497e+01    0.2058711    0.1108847 -75.70  0.001028728    1.578    0.366
        65  -9.2953    226.4921    124.5330   5.0272518552e+01   1.1792531157e+01    0.1335444    0.1160692 -36.98 0.0001307055    1.038    0.037
        66 -11.3926     10.6938    121.4023   1.0563125822e+02   4.9392014858e+01    0.3944293    0.2664726  40.00  0.001328854    1.585    0.369
        67 -10.5963     69.0587    116.7690   8.5648557227e+01   4.4155702861e+01    0.2526176    0.1982801 -64.00 0.0006472747    1.210    0.174
        68  -9.5123    233.3290    116.3404   4.7501122957e+01   1.1899039607e+01    0.1322781   0.09798629  -2.88 0.0007051601    1.739    0.425
        69 -10.5735      1.9201    114.0289   1.0771075572e+02   5.1804323532e+01    0.1934199    0.1567179 -78.55 0.0004155468    1.022    0.022
        70 -10.7007     24.9297    111.5071   9.9595132182e+01   5.0760936802e+01    0.1807458    0.1354636  22.81 0.0005994444    1.534    0.348
        71 -11.4865     13.1330    108.4874   1.0326336382e+02   5.2462877941e+01    0.3759847    0.1637953 -54.15  0.001717267    2.020    0.505
        72 -11.3085     16.9438    104.7749   1.0140591330e+02   5.3113404598e+01    0.2717977    0.1787722   6.11  0.001071059    1.917    0.478
        73 -11.0383      4.2304    108.6440   1.0635734212e+02   5.3007454948e+01    0.3184373    0.2111317   5.96  0.001803671    1.906    0.475
        74 -10.1947     44.7424    104.9748   9.1481548648e+01   5.0381115010e+01    0.1930739    0.1662017 -66.92 0.0003223224    1.058    0.055
        75 -10.1472     39.5058    105.0013   9.3354288583e+01   5.0968314439e+01     0.202592   0.09100588 -44.96 0.0007753608    2.342    0.573
        76 -10.2576      1.4307    104.1802   1.0682348018e+02   5.4276283766e+01    0.2414599   0.09676705 -69.56 0.0007423601    1.962    0.490
        77 -10.6530    247.0107    101.6933   4.2550892539e+01   1.1762009886e+01    0.1696196    0.1537995 -38.54 0.0005725042    1.098    0.089
        78 -12.4411     20.4696     92.4051   9.8112023614e+01   5.5920892181e+01    0.6357062    0.4313938 -60.05  0.000694469    1.260    0.206
        79 -11.8227     10.8859     93.2951   1.0193474648e+02   5.6400664136e+01    0.4821688    0.2449543 -52.71  0.001004814    1.710    0.415
        80 -11.6582      7.0964     90.6953   1.0299814570e+02   5.7278629003e+01    0.7154158     0.143434 -69.10 0.0005015315    3.622    0.724
        81 -10.9780    197.0801     97.8587   4.8852189388e+01   2.2125982430e+01    0.2173775    0.1858464 -44.64  0.000303877    1.070    0.065
        82  -9.6242     99.9325     94.7420   7.0375268654e+01   4.4042934344e+01    0.2441145    0.1768516  75.82 0.0008076883    1.881    0.468
        83 -11.2907    125.1117     93.1031   6.2773246841e+01   3.9115930747e+01     0.244629    0.2411663  80.25            0    1.023    0.022
        84 -10.1736    160.9917     92.5817   5.4216532517e+01   3.1103105676e+01    0.2263798    0.1895581 -42.87 0.0001440728    1.158    0.137
        85 -11.5347     57.9550     91.3742   8.3623704780e+01   5.2026427468e+01    0.3148437    0.2622219 -34.70 0.0006377716    1.235    0.190
        86  -9.7477     29.6911     91.8427   9.4444011222e+01   5.5251924241e+01    0.1900833    0.1534491 -67.23  0.001097239    1.114    0.103
        87  -8.8606     83.4671     90.4626   7.4418319380e+01   4.8130184108e+01    0.1492948    0.1406885 -28.26 0.0008070637    1.088    0.081
        88  -9.9872     11.9864     87.9886   1.0066752298e+02   5.7631961854e+01    0.2612033    0.1710427 -76.28  0.001438928    1.386    0.278
        89 -11.6996      8.0659     82.9408   1.0140348680e+02   5.9111095751e+01    0.4795023    0.2606237 -59.42  0.002373681    1.496    0.332
        90  -9.7820     35.3138     83.6393   9.0463595903e+01   5.6689643607e+01    0.2491086    0.1353012 -45.20  0.001164032    1.742    0.426
        91 -10.1106      2.5728     83.8142   1.0375894774e+02   5.9209318684e+01    0.2194508    0.1748408 -67.71  0.001274068    1.044    0.042
        92  -9.9204    250.4222     80.7101   3.7700797807e+01   1.4277705124e+01    0.1698205    0.1061829 -30.22 0.0006628441    1.517    0.341
        93 -10.0664    179.8034     81.1619   4.7571592638e+01   2.8859114212e+01    0.2391623    0.1928043  79.38 0.0005622205    1.343    0.255
        94 -10.0462     88.3114     79.6379   6.9629973825e+01   4.9640057745e+01    0.4305031    0.2807302  78.04  0.001652243    2.815    0.645
        95  -9.2940     64.8019     81.4064   7.8408798189e+01   5.3350732631e+01    0.1914897    0.1392249  18.32 0.0009356735    1.614    0.380
        96  -9.6670     43.0761     80.8674   8.6670411342e+01   5.6478179510e+01    0.1828495    0.1734415 -79.39            0    1.116    0.104
        97  -9.0555    124.4865     79.0336   5.8813529692e+01   4.2116295617e+01    0.2195323    0.1475269 -44.75 0.0004269224    1.477    0.323
        98 -11.1761     48.7165     78.6466   8.3829546377e+01   5.6295126211e+01    0.4589095    0.2962654 -15.16 0.0008357046    2.174    0.540
        99 -11.1800     55.0453     75.2138   8.0350633241e+01   5.6221398860e+01    0.5331358    0.4096769  29.10  0.002404629    1.386    0.278
       100 -11.1938     15.8184     77.1417   9.7120267760e+01   5.9991095811e+01    0.2946252    0.2150611 -78.90  0.001701031    1.360    0.264
       101 -10.9004     21.1160     75.7071   9.4561107947e+01   5.9921846084e+01    0.3866652    0.2425594  63.35  0.001410497    2.177    0.541
       102  -9.7882    177.0190     76.5042   4.6819254069e+01   3.0300686038e+01    0.2189948    0.1433205  59.46  0.001030454    1.582    0.368
       103 -10.6759     42.7154     74.4585   8.5124424257e+01   5.8021104190e+01    0.3163846    0.2377679 -86.00  0.001656412    1.677    0.404
       104 -10.8834     35.1698     73.4617   8.8020880716e+01   5.9116157951e+01    0.4060659    0.2228109  42.02   0.00100808    2.096    0.523
       105  -9.5840     68.9652     74.0112   7.4654555193e+01   5.4336891328e+01    0.2232272    0.1758339  78.43 0.0009959497    1.710    0.415
       106  -9.5876    181.7299     71.0093   4.4549174975e+01   3.0125476574e+01    0.2087429    0.1726068 -43.67   0.00112494    1.149    0.130
       107 -10.0848    118.0081     71.0618   5.8042908563e+01   4.5125445835e+01    0.2146855    0.2050903  28.40  0.001171345    1.094    0.086
       108  -9.3879    105.8006     71.6774   6.1658912509e+01   4.7709441932e+01    0.2084247    0.1361129  56.67 0.0006099975    1.653    0.395
       109  -9.5663     93.2052     71.6522   6.5511071556e+01   5.0350044011e+01    0.3127272    0.1331561  52.69  0.001092659    2.795    0.642
       110  -9.3727    158.0433     70.2390   4.8587779386e+01   3.5851435681e+01     0.191464    0.1229986  57.29 0.0004215655    1.567    0.362
       111  -9.6219    100.1556     70.1202   6.2839037169e+01   4.9221406468e+01     0.193191    0.1658612 -66.18 0.0009987693    1.283    0.221
       112 -13.3470     80.7599     67.1160   6.8170824707e+01   5.3704150354e+01    0.3799051     0.332155 -26.10 0.0006422636    1.159    0.137
       113 -10.7988     13.0544     70.1650   9.6881420624e+01   6.1840342865e+01    0.1920893    0.1474192 -41.40  0.001168882    1.199    0.166
       114  -9.3427    130.3522     69.3456   5.4359105232e+01   4.2596820138e+01    0.1572578    0.1191565  14.93 0.0007039303    1.819    0.450
       115  -8.9018    165.4795     75.4732   4.8637806388e+01   3.3179828621e+01    0.1486334    0.1383106 -68.85  0.000143052    1.024    0.024
       116 -12.5967      7.6992     63.4022   9.7874997185e+01   6.3759160261e+01    0.6905098    0.5281604 -58.45  0.001391566    1.099    0.090
       117 -10.3514     59.1558     66.7288   7.6112541598e+01   5.7489483473e+01    0.2978733    0.2120976 -50.95  0.001011716    1.354    0.262
       118  -9.4718     88.5209     67.3738   6.5621713982e+01   5.2151478770e+01    0.1424867    0.1380705  20.78 3.592407e-05    1.035    0.034
       119 -10.9560     51.8011     65.8699   7.8821676665e+01   5.8760755838e+01    0.3146143    0.2070299 -40.88 0.0007985596    1.446    0.309
       120 -10.7002     39.9719     65.2040   8.3645495149e+01   6.0451995621e+01     0.234526    0.1994408 -75.11 0.0002429066    1.332    0.249
       121  -9.7541     39.0181     61.5073   8.2941189738e+01   6.1382337385e+01    0.1806557    0.1687128 -15.21 0.0005534915    1.075    0.070
       122 -11.5610     14.8492     63.3581   9.4531278071e+01   6.3292608052e+01    0.3902934    0.2539725 -71.82  0.001620021    1.524    0.344
       123 -13.6742     20.7176     58.2047   9.0433889517e+01   6.3992796960e+01    0.4192679    0.2907727 -53.75 0.0009064381    1.247    0.198
       124  -9.5307    104.5705     64.2167   5.9558618714e+01   4.9410103093e+01    0.2028105    0.1415669 -27.08 0.0006296342    1.625    0.385
       125  -9.6988    138.6292     63.1304   5.0500853239e+01   4.1730398343e+01    0.1993831    0.1419676 -23.22  0.000330576    1.658    0.397
       126 -10.2378     63.0465     62.1518   7.3053077058e+01   5.7839478327e+01    0.3250947    0.1902675 -51.47   0.00151023    1.712    0.416
       127 -10.1652    153.9506     60.8789   4.6640222496e+01   3.8406158641e+01    0.2092398    0.1964426 -74.64 0.0004339111    1.015    0.015
       128  -9.1020    169.2823     60.2896   4.3685123456e+01   3.4797093412e+01    0.1359234    0.1136894  22.34            0    1.528    0.346
       129 -10.6265    145.9533     58.9889   4.7658212577e+01   4.0655152684e+01     0.310623    0.2018873  52.35  0.001446537    1.533    0.347
       130  -9.9713     90.8843     59.0684   6.1987637384e+01   5.3280859164e+01     0.206396      0.20387  81.74   0.00119563    1.070    0.065
       131 -12.7775     86.4703     53.9318   6.1584282687e+01   5.5128933602e+01    0.3787487    0.3367722 -12.61 0.0004992611    1.165    0.142
       132 -10.6792     57.8794     59.0237   7.4047330616e+01   5.9308469466e+01    0.2406389    0.1929426  24.00            0    1.297    0.229
       133 -10.0262     49.2075     59.0074   7.7673577228e+01   6.0595635373e+01    0.2390283     0.203015  -4.21  0.001392768    1.220    0.180
       134  -8.9341    130.6649     57.2630   5.0434137472e+01   4.4630216790e+01    0.1479601    0.1131269 -82.22 0.0002693507    1.582    0.368
       135 -10.2063     71.5892     56.3457   6.7725291693e+01   5.7535420878e+01    0.2709536    0.2181293  57.45 0.0007071857    1.447    0.309
       136 -12.2663     67.0277     52.4735   6.8035539196e+01   5.9089798460e+01    0.4277233    0.2528603  33.80  0.001146134    1.773    0.436
       137 -10.2159     32.8568     55.9660   8.4013615301e+01   6.3294146969e+01    0.2388019    0.1516092 -46.48  0.001273492    1.394    0.283
       138 -13.2627    114.3430     53.0946   5.3040779977e+01   4.9175803421e+01    0.3482554     0.331727  71.04 0.0006410409    1.049    0.047
       139 -12.1724     38.5286     48.8719   7.8945636235e+01   6.4109881598e+01    0.4629335    0.2394826 -42.52    0.0022297    1.776    0.437
       140  -9.3845      1.3861     54.4531   9.8962589858e+01   6.6143181748e+01    0.1217093     0.099388 -55.20 -1.059295e-05    1.031    0.030
       141  -9.9409    149.0440     52.4822   4.5039297394e+01   4.0936036773e+01    0.2157915    0.1919833 -52.05 0.0005858192    1.111    0.100
       142 -11.8558    106.2316     50.7469   5.4399211855e+01   5.1424930062e+01    0.3848087     0.241514 -42.46 0.0009265407    1.633    0.388
       143  -9.8924      4.3009     50.7944   9.6633638467e+01   6.6803403400e+01    0.2809844    0.1117546 -56.95  0.001275186    1.925    0.480
       144 -11.1450      9.3059     47.3008   9.3113414789e+01   6.7258746183e+01     0.331995    0.2478311  12.61   0.00210448    1.474    0.322
       145 -10.7464    137.6003     47.0771   4.5602001137e+01   4.4562386102e+01    0.4949223    0.3805365 -73.29  0.002469757    1.465    0.317
       146 -10.8721    119.4796     48.0125   4.9980060954e+01   4.8793279944e+01    0.2526222    0.1774472 -42.55 0.0005355944    1.458    0.314
       147  -9.2386    189.4258     49.4071   3.7636345594e+01   3.1643650254e+01    0.1364499    0.1231137 -69.59 6.296563e-05    1.017    0.017
       148 -10.3033     51.4953     48.4961   7.2923447468e+01   6.2390715099e+01    0.3188362    0.2272114  46.22  0.001525807    1.608    0.378
       149  -9.9732     54.6533     46.1431   7.0654595524e+01   6.2352288277e+01    0.2881697    0.2602185 -54.71  0.001750225    1.257    0.204
       150  -9.4687    146.8685     48.0453   4.4075686820e+01   4.2143655183e+01    0.1938771    0.1723437  19.13  0.001057284    1.337    0.252
       151 -10.4542     75.1853     48.3057   6.3387318568e+01   5.8364072701e+01    0.3683145    0.2564461  66.75  0.001748209    2.038    0.509
       152  -9.1097    155.4446     47.4812   4.2329593714e+01   4.0118732677e+01    0.2843824      0.19267 -56.80 0.0009596149    1.546    0.353
       153 -10.4639     68.7879     46.4138   6.5034761834e+01   5.9894779831e+01    0.2327193    0.1862511  26.65  0.000424313    1.261    0.207
       154 -10.7009     79.2266     45.3755   6.0808739524e+01   5.8090102118e+01    0.2298488    0.2242519 -58.61 0.0002936665    1.139    0.122
       155 -10.1418     25.7321     44.3225   8.3613818039e+01   6.6496609599e+01    0.2898461    0.2167836 -59.72  0.001723829    1.405    0.288
       156 -11.2507     16.5627     42.3535   8.7744677397e+01   6.7758433746e+01    0.4327502    0.2404354 -41.99  0.001152429    1.551    0.355
       157 -10.1121     21.6131     37.7642   8.3410340883e+01   6.8229722055e+01    0.2303495    0.1676838   7.74  0.001398697    1.429    0.300
       158  -9.8307     94.5209     43.4833   5.5101931697e+01   5.5212819178e+01    0.2597246    0.1193078  41.30  0.001022467    2.299    0.565
       159 -11.0420     36.7837     41.0831   7.6862007430e+01   6.5870638617e+01     0.502726    0.3185588  17.85  0.001084112    1.734    0.423
       160 -10.5203    184.0084     40.7651   3.6038668078e+01   3.4124826626e+01     0.362581    0.2382924 -65.07   0.00164609    1.562    0.360
       161 -10.9122      5.0894     41.6496   9.3770415814e+01   6.8737805843e+01    0.1636676    0.1389744 -12.42 0.0008429057    1.201    0.167
       162 -10.3413    140.0987     39.7905   4.2728279842e+01   4.5003869891e+01    0.3576511    0.2144826 -58.62  0.001177183    1.974    0.493
       163  -9.9752    170.8749     40.1641   3.7689347152e+01   3.7371047648e+01    0.2022801    0.1672889 -75.02            0    1.157    0.135
       164 -10.9500    133.6018     39.1510   4.3797250570e+01   4.6692326608e+01     0.472588    0.2300373 -37.93  0.001962781    2.056    0.514
       165  -9.9587     44.6895     40.1526   7.2711972783e+01   6.4974669858e+01     0.207848    0.1684962  34.37 0.0004663451    1.310    0.236
       166 -11.9639    121.4838     36.8233   4.5577577348e+01   4.9969276987e+01    0.4704416    0.3530436 -52.63  0.002448889    1.437    0.304
       167 -11.2977      2.4789     34.0011   9.2943083198e+01   7.0488314405e+01    0.2695585    0.1945712 -54.39  0.001318187    1.211    0.174
       168 -10.6289     91.5380     32.7697   5.1773356019e+01   5.7484018396e+01    0.3876442    0.2517184  -0.18  0.001758667    2.231    0.552
       169 -10.0928     49.9210     33.3629   6.7436381746e+01   6.5388075374e+01    0.1977534    0.1694919 -40.43 0.0003319152    1.241    0.194
       170  -9.7231     40.2049     34.7001   7.2574979117e+01   6.6602942911e+01    0.2708972    0.1130362  31.44  0.001171871    2.539    0.606
       171 -10.7874     28.2618     33.3588   7.8103569563e+01   6.8369589854e+01    0.2280164    0.1526163 -26.16 0.0007926096    1.445    0.308
       172  -9.9512    187.7319     31.5882   3.3104196874e+01   3.4436785334e+01    0.3014584    0.1889799 -18.61  0.001470654    2.045    0.511
       173 -10.9504    144.4287     31.3883   3.9207737499e+01   4.5052037087e+01    0.3163153    0.2135165 -47.55  0.000823006    1.508    0.337
       174  -9.7031    205.8277     32.2015   3.1285660437e+01   3.0169186578e+01    0.1582307     0.154273  35.49 0.0003702302    1.310    0.237
       175  -9.0412    177.6586     32.2467   3.4519620576e+01   3.6763621248e+01    0.1403121   0.09328853 -72.39 0.0003060391    1.567    0.362
       176 -12.3840     10.2735     29.5507   8.6764309666e+01   7.0844952800e+01    0.4067091    0.2425419  39.02  0.002297736    2.126    0.530
       177 -10.3075      2.9815     26.4956   9.0087540669e+01   7.1962400683e+01     0.163191    0.1532407 -37.25 0.0004020687    1.218    0.179
       178  -9.7601    227.3691     31.0089   2.8994013707e+01   2.5613158488e+01     0.172667    0.1326148 -49.81  0.001082839    1.113    0.102
       179 -11.6872    136.0135     29.0418   3.9927402127e+01   4.7434203403e+01    0.3552898    0.2877841  41.31  0.000406826    1.324    0.245
       180  -9.8573    128.5760     31.0723   4.2048649658e+01   4.9010898324e+01    0.3279513    0.2062132  73.17  0.001476832    1.660    0.397
       181 -10.0001     44.1274     31.1010   6.9111592160e+01   6.6665518227e+01    0.1965858     0.156771  -7.79 0.0006287872    1.218    0.179
       182 -11.2084     38.7906     30.6428   7.1500502043e+01   6.7516055844e+01    0.2267272    0.1905331 -14.78 0.0002859961    1.065    0.061
       183  -9.0267     59.2993     30.3565   6.2055087550e+01   6.4299494384e+01    0.1376009   0.09673994   1.98 0.0007036274    1.705    0.413
       184  -9.3787    152.4992     29.5182   3.7286221858e+01   4.3283214361e+01     0.142628    0.1232384 -77.11 -4.381386e-05    1.110    0.099
       185  -8.9963     25.5328     29.4522   7.7933019491e+01   6.9402466030e+01    0.1263201    0.1031776 -19.31 -6.903458e-05    1.068    0.063
       186  -9.0804    164.7142     28.3106   3.5117183029e+01   4.0411582272e+01    0.1426054     0.094364 -64.80  0.000321307    1.575    0.365
       187 -10.7799     81.1085     27.6525   5.2865204290e+01   6.0445366341e+01    0.2515079    0.2263847 -80.76 0.0008179064    1.370    0.270
       188 -10.6199     69.1952     25.9288   5.6204469713e+01   6.3108724424e+01    0.3784585    0.2703951 -10.91  0.001843501    1.562    0.360
       189 -11.1724     74.4503     21.7866   5.2470051381e+01   6.2615142445e+01    0.2880455     0.232793  67.09 0.0008323934    1.452    0.311
       190 -11.1903     76.7445     17.1900   4.9609771156e+01   6.2711052775e+01    0.3819456    0.2265596  39.75  0.001521093    1.610    0.379
       191  -9.4629     94.3153     27.2705   4.8730668623e+01   5.7617410637e+01    0.1857467    0.1579854  82.66  0.000387361    1.356    0.263
       192  -9.9013     91.0583     26.9477   4.9522766604e+01   5.8387399608e+01     0.190553    0.1827272 -82.66 0.0003870858    1.166    0.143
       193 -10.5605    216.7118     25.8182   2.8713207089e+01   2.8533135320e+01    0.2264098    0.1630538 -84.23  0.000486688    1.306    0.234
       194  -9.2462     76.3620     26.2806   5.3837722599e+01   6.1621347063e+01    0.1408635   0.09544808  23.21 0.0007014483    1.674    0.403
       195 -10.3554     46.0656     26.0151   6.5858930937e+01   6.7203687896e+01     0.189122    0.1692549  -5.39 0.0004173527    1.044    0.042
       196  -9.5826    224.8241    247.1939   7.2848291573e+01  -6.0666771211e+00    0.1552666    0.1028986   0.54 0.0007925748    1.321    0.243
       197  -8.4149     18.5833     25.9288   8.0362479551e+01   7.0786811572e+01    0.2411502   0.08274089 -43.40  0.001053312    2.510    0.602
       198  -9.7171     22.0392     21.6515   7.6401635488e+01   7.1180939788e+01    0.2331432    0.1279112   1.93  0.001118098    2.516    0.602
       199 -11.2872     15.1009     20.6039   8.0082048164e+01   7.2089891657e+01    0.4503274    0.2336207  28.91  0.002484761    2.016    0.504
       200  -9.8881    170.9602    246.7812   8.2391008853e+01   8.4217032863e-01    0.1852092     0.135121  10.66  0.001215259    1.309    0.236
       201  -9.3114    131.5820     25.4970   3.9535186359e+01   4.8963252486e+01    0.1373946    0.1266782 -88.16 9.118364e-05    1.057    0.054
       202 -10.7314     59.6405     23.7041   5.8849427763e+01   6.5236065578e+01    0.3220526    0.1904378 -24.54  0.001630223    1.808    0.447
       203 -10.5050    190.2551     24.1485   3.0849861961e+01   3.4748057416e+01    0.3782686    0.1700532  89.76   0.00150687    2.845    0.648
       204 -10.7165     35.2268     22.9280   6.9729134137e+01   6.9308704843e+01    0.3372198    0.2092185  -4.17  0.001727064    2.067    0.516
       205  -9.9782    109.0574     22.0244   4.2902913005e+01   5.4849651268e+01    0.2035323    0.1793896  51.60 0.0004195507    1.058    0.055
       206  -9.9767    102.5847     22.0160   4.4432678633e+01   5.6376601430e+01    0.2887436    0.1569589 -46.01  0.001311617    2.127    0.530
       207 -11.8662      3.4715     20.2350   8.7348351257e+01   7.3129006267e+01    0.4605981    0.2486469   5.06  0.001227899    2.016    0.504
       208  -9.6716    116.0471    246.4764   9.3079811834e+01   8.4786030274e+00    0.1772422   0.09875763  34.89 -0.0001073275    1.476    0.323
       209  -9.9622    214.1426     18.7768   2.7267716242e+01   2.9922432768e+01    0.2451433   0.09358852 -61.93 0.0009670142    3.027    0.670
       210  -9.7263     88.9655     18.7165   4.6630402603e+01   5.9877721812e+01     0.181967    0.1573101  47.60 0.0002232209    1.068    0.063
       211 -10.3125    154.3371     17.8556   3.3388780004e+01   4.4187158346e+01     0.219892    0.1698613 -88.93 0.0004601342    1.230    0.187
       212  -9.3389     86.7947    244.6437   9.8794858043e+01   1.2751901824e+01    0.1726789   0.08505818  43.24 0.0007071189    1.606    0.377
       213  -9.6276     51.9611    244.5454   1.0576946579e+02   1.7131970589e+01    0.1453853   0.09884928   6.39 0.0008085737    2.525    0.604
       214  -9.3168     39.6377    243.2910   1.0811533692e+02   1.8781584351e+01     0.126632   0.06124739  56.51 0.0007027315    1.699    0.411
       215 -10.0701     68.1126     17.8940   5.2861631561e+01   6.4395869453e+01    0.2607824    0.1611245  53.90  0.001359574    1.636    0.389
       216 -10.9296    238.2807     16.6946   2.5001069483e+01   2.5053068033e+01    0.2185365    0.1325763 -43.33  0.000188984    1.366    0.268
       217  -9.6014    118.6077    239.7481   9.1820846437e+01   9.2550984135e+00     0.150559    0.1162469 -83.08 0.0009453791    1.672    0.402
       218  -9.4752     61.1522    240.6642   1.0365561426e+02   1.6748064643e+01    0.1592537   0.09876767  27.57 0.0004548632    1.711    0.416
       219 -10.2333     35.7065    239.8326   1.0868577969e+02   1.9869843381e+01     0.193503    0.1486958  57.15 0.0004823021    1.032    0.031
       220  -9.9587     30.4640     16.0068   6.8797896006e+01   7.1057417688e+01    0.1775531    0.1489076   5.77  0.000585401    1.071    0.067
       221 -10.9038     30.4659    240.7465   1.0976352021e+02   2.0266206079e+01    0.2728449   0.09761727  26.10  0.001066579    3.466    0.711
       222 -10.0400    174.2221    235.9375   8.0286469641e+01   1.9669403545e+00    0.1388261   0.09721819 -41.07 0.0005134857    1.636    0.389
       223  -9.4077    105.6335     13.7636   4.0419984412e+01   5.6577617364e+01    0.1654074    0.1217257 -38.07 0.0001076888    1.470    0.320
       224 -10.8941     24.9050    235.7991   1.1059256811e+02   2.1801112391e+01    0.2278815    0.1092496  50.17 0.0007098758    1.586    0.369
       225  -9.3263    204.0291    235.2400   7.4675237571e+01  -1.9756156146e+00    0.1429333   0.08274988  29.33 0.0004150711    1.496    0.332
       226 -11.0810      4.1500    201.3376   1.1316136886e+02   3.0882705665e+01    0.1938672    0.1387271 -82.38 0.0006148058    1.310    0.236
       227 -10.8050    220.4627     11.4654   2.5080372189e+01   2.9361056740e+01    0.1233053    0.1002826 -66.08 6.274495e-05    1.020    0.019
       228 -11.9068      4.0928    232.7958   1.1449736822e+02   2.4429130070e+01    0.3119048    0.1997565  53.38  0.001391409    1.187    0.157
       229  -9.3226    249.4940    233.4434   6.6775627374e+01  -7.2838036102e+00     0.108781    0.0802574  -0.75 0.0001679486    1.006    0.006
       230 -10.5891    203.1165     16.3181   2.7609629658e+01   3.2669243121e+01    0.2653701    0.1530335 -64.91  0.001197368    1.643    0.391
       231  -9.3569     32.4732    233.4617   1.0896145204e+02   2.1450065544e+01    0.1177927   0.08916626  60.35 0.0001143326    1.010    0.009
       232  -9.2047     88.6549    230.2559   9.7037475339e+01   1.5142017475e+01    0.1297398   0.07723235  55.27 0.0005040297    1.589    0.371
       233  -9.8826     47.2735    229.8456   1.0570937335e+02   2.0492503031e+01    0.1733854    0.1349854 -21.40  0.001062189    2.128    0.530
       234  -9.5939    244.4057    230.0000   6.7042246757e+01  -6.2980782452e+00    0.2301158   0.05427017  35.15 0.0009506431    4.064    0.754
       235  -9.8706    209.9444    229.4940   7.2751965991e+01  -1.9758477197e+00    0.1693034   0.09885899  30.57 0.0005517618    1.527    0.345
       236 -10.9037    140.1136    227.6749   8.5918218174e+01   8.2109465994e+00    0.2812231    0.1952898 -64.13  0.001622212    1.889    0.471
       237 -11.5241      2.3763    224.9632   1.1453251383e+02   2.6126613794e+01    0.4467244    0.1471942  63.03   0.00160559    2.585    0.613
       238 -10.5464      2.4550    219.4657   1.1430168805e+02   2.7226872385e+01    0.2185869    0.1135743  78.67 0.0007793971    1.630    0.387
       239  -9.7292    223.4509    226.5274   6.9946472798e+01  -3.3235418813e+00    0.1150981   0.09063903   2.38  7.26606e-05    1.006    0.006
       240 -10.9117     12.9378    226.0904   1.1249071892e+02   2.4914650375e+01    0.1550046    0.1326033 -49.57 0.0008272778    1.677    0.404
       241  -9.2964     60.7367    224.3406   1.0244744929e+02   1.9960968633e+01    0.1275972   0.07640444  64.11 0.0003624854    1.593    0.372
       242 -10.0166     26.7921    223.8367   1.0956334013e+02   2.3971951850e+01    0.1700124    0.1041272  62.94 0.0004414799    1.335    0.251
       243  -9.1935    167.2359    221.0129   7.9475058408e+01   5.2877515959e+00    0.1488687      0.10382 -41.43 0.0005947889    1.586    0.370
       244 -10.3737     26.7031    219.8575   1.0935060728e+02   2.4794161555e+01    0.2079111    0.1407055  13.81  0.001223212    2.125    0.529
       245  -9.0504     85.6944    215.2528   9.6111075687e+01   1.8494308075e+01    0.1302198   0.08324281  57.70 0.0001499628    1.509    0.337
       246 -11.0247      8.1776    218.9446   1.1312568234e+02   2.6811896195e+01    0.2446818     0.156796 -67.88 0.0009594897    1.717    0.417
       247  -9.4859    205.4992    212.0169   7.0757953839e+01   1.1009381572e+00    0.1746502    0.1111796 -33.43  0.001021174    1.558    0.358
       248  -9.2506    229.6908    209.3148   6.6086464714e+01  -1.8236390592e+00   0.09798241   0.09588037 -57.67 0.0006240095    1.631    0.387
       249  -9.4709     20.2798    209.4433   1.1010622017e+02   2.7633821851e+01    0.1676184   0.08592515  46.51 0.0008816377    1.598    0.374
