#   1 NUMBER                 Running object number                                     
#   2 MAG_AUTO               Kron-like elliptical aperture magnitude                    [mag]
#   3 X_IMAGE                Object position along x                                    [pixel]
#   4 Y_IMAGE                Object position along y                                    [pixel]
#   5 X_WORLD                Barycenter position along world x axis                     [deg]
#   6 Y_WORLD                Barycenter position along world y axis                     [deg]
#   7 A_WORLD                Profile RMS along major axis (world units)                 [deg]
#   8 B_WORLD                Profile RMS along minor axis (world units)                 [deg]
#   9 THETA_WORLD            Position angle (CCW/world-x)                               [deg]
#  10 FWHM_WORLD             FWHM assuming a gaussian core                              [deg]
#  11 ELONGATION             A_IMAGE/B_IMAGE                                           
#  12 ELLIPTICITY            1 - B_IMAGE/A_IMAGE                                       
         1 -10.6338     75.4782     17.2723   6.4581961270e+01   6.2174684014e+01    0.3270059    0.2049754  43.52 0.0004405734    1.500    0.333
         2 -13.2679     74.1844    220.9085   1.1393794868e+02   1.9062542540e+01      1.10529    0.4886666  56.92  0.005205015    2.261    0.558
         3  -9.1702    127.6975    203.3249   1.0052413591e+02   1.4351278892e+01    0.1379342    0.1001654  71.63 0.0007030758    1.638    0.390
         4  -9.0364    117.3242    198.3479   1.0203026331e+02   1.7113393794e+01    0.1340219    0.1082569 -11.69 0.0006174959    1.746    0.427
         5 -10.2279    133.5920    187.1945   9.6614384177e+01   1.6626367885e+01    0.2018374    0.1310129 -41.26 0.0009606162    1.732    0.423
         6 -10.6049    112.6376    174.2788   9.9228653329e+01   2.3135473380e+01    0.2872214    0.1623443  50.57  0.001269636    1.801    0.445
         7 -12.7408    149.7591    160.8370   8.7894801972e+01   1.9200257758e+01    0.8858075    0.3184617 -47.90  0.003014219    2.816    0.645
         8 -10.1836    134.3803    153.7826   9.0055699063e+01   2.3775965296e+01    0.2195203    0.1383685 -40.38 0.0005401224    1.686    0.407
         9 -10.8902    171.7992    147.6177   8.0012198603e+01   1.7509050771e+01    0.2811061     0.202455  53.14  0.001309853    1.507    0.337
        10 -10.9673    115.2805    156.8329   9.5379524237e+01   2.6670592370e+01    0.3064855    0.2180939  28.34  0.001446243    1.621    0.383
        11 -12.1129    180.6454    140.2680   7.6393882678e+01   1.7149689426e+01    0.7714759    0.2441015  42.57  0.002392601    3.345    0.701
        12 -10.7081    128.8612    135.6891   8.7424952161e+01   2.8993211279e+01    0.2515253    0.2054806  14.76  0.001206124    1.483    0.326
        13  -9.7906    197.2188    132.8072   7.1224155536e+01   1.5099789152e+01    0.2555257    0.1700657 -77.32 0.0009630594    2.868    0.651
        14 -11.2522    157.0506    132.6206   7.9812177386e+01   2.3802192660e+01    0.4434032    0.2776853  15.04  0.001587197    2.833    0.647
        15 -10.4914    108.8487    132.0381   9.1828393508e+01   3.3698933685e+01    0.3379031    0.1993118  67.54  0.001230404    2.782    0.641
        16 -10.8374    177.1486    127.5395   7.4065833114e+01   2.0486146693e+01     0.393316    0.1961222 -26.66   0.00131882    2.871    0.652
        17 -11.3375    172.0960    152.2885   8.1003204170e+01   1.6487279448e+01    0.4162309    0.2213667  55.23  0.001603403    2.330    0.571
        18  -9.2770    151.6708    124.6734   7.9112605756e+01   2.6684584999e+01    0.1618259     0.125481  -1.06 0.0007050722    1.705    0.413
        19 -10.4970    174.5659    161.7600   8.2542875202e+01   1.4065367519e+01    0.2967994    0.1412011 -38.98  0.001153232    2.161    0.537
        20  -9.9942     61.8126    119.4147   1.0250578366e+02   4.4240011597e+01    0.1844155    0.1395106   9.88 0.0009529202    1.722    0.419
        21 -10.8749    131.5931    117.9186   8.2372010152e+01   3.2481382715e+01    0.3247855    0.2381271  53.57  0.001485127    1.467    0.318
        22 -10.0907    103.0097    118.0097   9.0135504250e+01   3.8098658358e+01    0.3079782    0.1856892  82.58 0.0009521553    4.077    0.755
        23 -10.6199     74.2361    111.9760   9.7147673445e+01   4.4318377351e+01    0.2933389    0.2092627 -81.30   0.00139971    1.711    0.415
        24 -10.4066    110.7448    110.4172   8.6031574701e+01   3.8409996386e+01    0.3005129     0.148973  45.47   0.00115418    2.139    0.532
        25 -10.7785    117.5129    109.2099   8.3835023487e+01   3.7346131481e+01    0.3003761    0.2259123  42.67  0.001418695    1.387    0.279
        26 -10.5363    102.6982    102.0011   8.6082694941e+01   4.1870142928e+01    0.2274763    0.1974906 -46.40  0.001178381    1.088    0.081
        27  -9.4623     94.3148    112.3159   9.1228602070e+01   4.0996787313e+01    0.1526557    0.1158365 -19.97 0.0004569093    1.646    0.392
        28  -9.6263     63.5919     98.7946   9.7361251142e+01   4.8972303410e+01    0.2019514    0.1271091 -65.75 0.0008558593    1.655    0.396
        29  -9.2412     75.3372     98.3146   9.3462011056e+01   4.7392963504e+01    0.1502011    0.1075231 -22.54  0.000438789    1.695    0.410
        30 -10.9521    115.8818     95.5391   8.0492094458e+01   4.0707767352e+01    0.3658677    0.2306445  64.77  0.001449137    2.294    0.564
        31  -9.4849     91.3256     96.6632   8.8018389682e+01   4.5149272870e+01    0.1507079    0.1185248  89.29 0.0004297079    1.721    0.419
        32 -11.3807    110.8524     85.9139   7.9067308188e+01   4.3785983685e+01    0.4652831    0.2195007  36.40  0.001718102    2.441    0.590
        33 -10.9475     54.5503     85.4414   9.7003246043e+01   5.3241574675e+01    0.3032514    0.1748426  40.40  0.001461653    2.013    0.503
        34 -10.9675     58.6201     70.6540   9.1328148432e+01   5.5964456127e+01    0.3787963    0.1751348 -32.65  0.001490335    2.617    0.618
        35 -11.3185    103.2298     69.4299   7.6055416969e+01   4.8638630076e+01    0.4798595    0.2734454 -27.82      0.00141    1.999    0.500
        36 -10.0675     91.0074     68.9985   7.9685495873e+01   5.1089854051e+01    0.2606805    0.1573732 -62.81  0.001029677    2.625    0.619
        37 -11.5051     94.6045     53.0560   7.2969366403e+01   5.3329247100e+01    0.5399252    0.2575283 -28.99  0.002158419    2.316    0.568
        38  -9.9998     79.7382     22.7128   6.5596451724e+01   6.0710591290e+01    0.2103651    0.1735326 -15.66  0.000614506    1.176    0.150
        39  -9.4184     84.7735     21.6271   6.3550267575e+01   5.9859807637e+01    0.2366373    0.1773165  22.32 0.0006258676    1.253    0.202
