#   1 NUMBER                 Running object number                                     
#   2 MAG_AUTO               Kron-like elliptical aperture magnitude                    [mag]
#   3 X_IMAGE                Object position along x                                    [pixel]
#   4 Y_IMAGE                Object position along y                                    [pixel]
#   5 X_WORLD                Barycenter position along world x axis                     [deg]
#   6 Y_WORLD                Barycenter position along world y axis                     [deg]
#   7 A_WORLD                Profile RMS along major axis (world units)                 [deg]
#   8 B_WORLD                Profile RMS along minor axis (world units)                 [deg]
#   9 THETA_WORLD            Position angle (CCW/world-x)                               [deg]
#  10 FWHM_WORLD             FWHM assuming a gaussian core                              [deg]
#  11 ELONGATION             A_IMAGE/B_IMAGE                                           
#  12 ELLIPTICITY            1 - B_IMAGE/A_IMAGE                                       
         1 -12.6356    201.8951     51.7788   3.2202146831e+01   2.9312329604e+01     2.269805     1.003248 -36.52  0.006816646    2.164    0.538
         2 -13.9719    219.7925     27.2497   2.5352678368e+01   2.8704448667e+01     3.089035     2.112621 -14.96   0.01913863    2.242    0.554
         3 -13.5296    246.7380     40.3164   2.5716358251e+01   2.2369622221e+01    0.9026926    0.5666622 -32.05  0.005890398    1.708    0.414
         4 -14.7236    242.8181     30.7941   2.4283597298e+01   2.4125208056e+01     2.763205     1.892088   5.56    0.0153099    3.638    0.725
         5 -10.9256    141.7264     16.0039   3.1122745727e+01   4.6643081650e+01    0.8972112    0.3679119 -10.28  0.003017903    5.855    0.829
         6 -10.0814    134.9051     18.8831   3.2990244466e+01   4.7963863331e+01    0.3378088    0.2006274 -11.66  0.001714901    2.384    0.581
         7 -11.4133    118.9362      9.7514   3.2852243897e+01   5.2545880586e+01    0.6772014    0.3764583  50.08  0.002736042    1.593    0.372
         8 -15.6729    242.4159     78.2865   3.3147473921e+01   1.8285867958e+01      3.87751     3.497283  -7.66   0.02874026    1.432    0.302
         9 -14.3921    233.8524    101.1338   3.8551922060e+01   1.6431907648e+01     4.740257     1.117689 -48.41   0.01432176    5.551    0.820
        10  -8.7526    191.3781      4.9371   2.3036999706e+01   3.6629867072e+01    0.1931028    0.1367999  75.84 0.0004759917    1.263    0.208
        11  -9.4533    247.3629      1.8624   1.8957492665e+01   2.6324051782e+01    0.2684784     0.117025  64.69  0.001681457    2.497    0.599
        12  -9.9074    249.6891    199.6831   5.4542840843e+01  -9.0349997030e-01    0.2263385    0.1585191  -5.60 0.0009563047    1.259    0.206
        13  -8.8295    151.9453    250.5728   8.1944414649e+01   2.7616608938e+00     0.186918    0.1426583  20.68 1.826865e-05    1.140    0.122
        14  -9.2786    153.7776    246.6916   8.0989015174e+01   3.1834405087e+00    0.2734308    0.1800096 -24.05 0.0007645792    1.547    0.354
        15  -9.5569    228.2656    192.0199   5.6747911498e+01   2.7716594082e+00    0.3784093    0.2938402 -62.05  0.002200339    2.272    0.560
        16 -10.6117    237.9943    196.9702   5.5971656576e+01   8.2581593405e-01    0.4603942    0.3236322  55.61  0.002506139    3.062    0.673
        17  -9.3950    233.8975    196.2030   5.6525447094e+01   1.4284396503e+00    0.2531553    0.2229368 -25.63 0.0005316419    1.353    0.261
        18  -9.9376    192.2871    193.7694   6.3862316469e+01   7.2932576753e+00    0.8691208    0.4380308 -59.20  0.002838136    5.257    0.810
        19  -8.9903      8.9886    189.1347   1.1114345454e+02   3.2362559862e+01    0.1995645    0.1698423 -62.16 0.0003630319    1.197    0.165
        20 -11.1385    220.4086    186.1819   5.7071652774e+01   4.7233533939e+00    0.6392642    0.2997586  37.14   0.00161075    2.382    0.580
        21  -7.5133    180.6582    182.3128   6.4145704679e+01   1.1111878253e+01    0.1274105    0.1145678  74.62 0.0007046677    1.702    0.412
        22 -10.0735    243.2189    179.2512   5.1989361681e+01   2.9154677832e+00    0.2914306    0.2069241  45.45  0.001338217    2.023    0.506
        23  -9.6707    237.6232    175.3453   5.2172663878e+01   4.2244550773e+00    0.3141685    0.2565371  76.44  0.001533151    2.475    0.596
        24 -10.2068    220.8388    176.0932   5.5126294246e+01   6.3313140712e+00    0.5736918    0.3796768 -56.45  0.002992925    2.246    0.555
        25  -9.1254    207.1192    178.8156   5.8136624418e+01   7.7984658616e+00    0.1878914    0.1734067 -23.03 0.0006908802    1.252    0.202
        26  -8.9210    197.2170    177.0254   5.9707868710e+01   9.5668098413e+00     0.259454    0.2430655 -39.63  0.001626607    1.333    0.250
        27  -9.8915    194.4621    172.7842   5.9431242503e+01   1.0750606851e+01    0.4093203    0.2173419 -40.08  0.001940615    1.738    0.425
        28 -10.1141    249.3239    170.7548   4.9533857477e+01   3.4655404339e+00    0.3467518    0.3276134 -81.18  0.002543664    1.676    0.403
        29 -10.6693    241.4734    166.3419   4.9924035578e+01   5.1406000058e+00     0.439084    0.3280459  71.10  0.002450303    2.835    0.647
        30 -10.9898    237.9042    161.7503   4.9628738243e+01   6.3363526929e+00    0.4034804    0.2956498  35.68    0.0025871    1.615    0.381
        31 -10.4300    230.3059    166.7613   5.1773579434e+01   6.5641218350e+00    0.3936369    0.2294132 -47.98  0.001451968    1.856    0.461
        32  -9.5848    155.8143    168.8836   6.7135531234e+01   1.7794220431e+01    0.2623268    0.2221817 -33.48 0.0003242229    1.164    0.141
        33  -9.7078    211.4054    166.2587   5.4932119565e+01   9.3444708559e+00     0.518764    0.3647642 -74.12   0.00232755    3.287    0.696
        34  -8.0989    161.4863    166.4627   6.5298741503e+01   1.7328544221e+01    0.1501668    0.1300618  -6.15 9.546142e-05    1.063    0.059
        35  -9.9820    228.5535    171.9872   5.3039030829e+01   5.9541384044e+00    0.2686602     0.195701 -38.70  0.001354873    1.289    0.224
        36 -12.0601    194.3490    157.0832   5.6315524352e+01   1.3635057464e+01     1.259881    0.6952046 -60.65  0.001631795    3.516    0.716
        37  -9.9073    197.9146    152.2793   5.4646489897e+01   1.3924351812e+01     0.344924    0.2458067 -48.10 0.0009444337    1.475    0.322
        38  -7.9868     99.1102    161.1355   8.0906325765e+01   2.9084919651e+01    0.2108532    0.1863342  -4.15  0.001083015    1.114    0.103
        39  -8.3187    203.2858    160.4359   5.5281623637e+01   1.1601560849e+01    0.2178085    0.1663545  42.43  0.001238068    1.533    0.348
        40 -12.6469    174.2024     89.0288   4.4951578464e+01   2.9615059875e+01     1.715189    0.8637228 -38.49 0.0008956093    1.947    0.486
        41 -12.3811    157.8012     98.6327   5.0580018910e+01   3.1426059895e+01     1.438234     1.275222  22.70  0.008019984    1.199    0.166
        42  -9.4913    248.4589    249.1293   6.2783904207e+01  -7.5872458165e+00    0.1965345    0.1308577  30.05  0.001348939    1.992    0.498
        43  -9.0029    179.4757    242.7042   7.4823808118e+01   6.6061613439e-01    0.2749827    0.2188499  75.96  0.001418498    3.196    0.687
        44  -8.4513    154.6964    242.0045   8.0105792578e+01   3.8643099190e+00    0.1772116    0.1446627  -1.34 0.0003918475    1.075    0.070
        45  -9.2015    169.9404    235.8218   7.5803201878e+01   2.9722777818e+00    0.4384354    0.2244945  46.77  0.001830532    3.330    0.700
        46  -7.8255    149.6726    148.6952   6.4369220624e+01   2.3107596090e+01    0.1565707    0.1136062  -4.76 0.0007035144    1.649    0.394
        47 -10.8200     67.7913    144.1759   8.7616825125e+01   3.7964666746e+01     2.081856     1.206037 -73.93  0.008327559    2.241    0.554
        48 -11.7682     52.6467    134.9203   9.1139118288e+01   4.2254227123e+01    0.8928323    0.6514878 -40.98  0.002004781    1.335    0.251
        49 -13.1272     44.5239    135.6044   9.4138759702e+01   4.2979139058e+01       2.9284     1.458005  -5.59   0.01038028    3.091    0.676
        50 -10.7644    212.5123    138.8140   4.9276276745e+01   1.3898667189e+01    0.9152704    0.6001653 -78.27  0.003718237    3.848    0.740
        51 -11.0175     26.3263    134.3227   1.0040513731e+02   4.4991700688e+01    0.4535029    0.2727254  50.85  0.002089676    1.953    0.488
        52  -9.3291    189.3128    137.1109   5.3110641051e+01   1.8161923203e+01    0.2400846    0.2005929  45.87 0.0004872523    1.337    0.252
        53 -11.4331     36.7188    137.9753   9.7272508963e+01   4.3139118975e+01    0.6186343    0.4148966  -6.58 0.0009034651    1.698    0.411
        54  -8.8881    192.7508    143.6055   5.3830958680e+01   1.6370152488e+01    0.3051608    0.2054368   1.83  0.001386847    2.028    0.507
        55 -11.5132    188.8262    129.3367   5.1516919242e+01   1.9668866566e+01     1.735347    0.5213074 -51.41  0.004274675    6.690    0.851
        56 -11.0744    185.4852    124.5103   5.1089898799e+01   2.1163365401e+01    0.7462791     0.448155 -10.92  0.002942656    2.964    0.663
        57  -8.8906    181.4930    122.9953   5.1524325634e+01   2.2193099565e+01    0.2915869    0.2502705 -80.55 0.0009227689    1.474    0.322
        58  -9.9228    160.8988    128.3629   5.7100031139e+01   2.5145131115e+01    0.4506336    0.2875567 -56.34  0.001997752    1.905    0.475
        59  -8.5476    224.7385    128.9107   4.5326854787e+01   1.3572843864e+01    0.2434527     0.155251 -50.72  0.001055851    1.599    0.375
        60  -8.2049    150.5741    127.7872   5.9377236798e+01   2.7284580990e+01    0.2053678    0.1421941 -52.56 0.0004891366    1.592    0.372
        61 -10.1898    165.7343    123.1887   5.4821809533e+01   2.5207660493e+01    0.4343148    0.2840989 -28.79  0.001377679    1.639    0.390
        62  -8.7385    228.6932    120.6926   4.3111378616e+01   1.4257441307e+01    0.2392153    0.1655836 -68.17  0.001010816    2.029    0.507
        63 -11.9137    125.2012    104.6978   6.0116521353e+01   3.7165619048e+01     1.705091     1.506559 -57.24     0.008924    1.267    0.211
        64  -8.0615    216.6984    146.2906   5.0076818667e+01   1.1957758649e+01    0.1842701    0.1407013 -62.27 0.0001775117    1.751    0.429
        65  -8.4572    222.9571    112.6568   4.2319912379e+01   1.6477217250e+01    0.1619142    0.1533983 -58.07 0.0004612443    1.133    0.117
        66 -11.3743    207.0560    107.8546   4.3697368935e+01   2.0040938928e+01    0.8126341    0.5732892 -27.76  0.004489504    1.455    0.313
        67  -8.3841     88.1962    111.6421   7.3410452501e+01   4.2822675235e+01    0.2710515    0.2060253 -57.50  0.001178552    1.479    0.324
        68  -9.4782    196.3953    110.1847   4.5939450078e+01   2.1628221444e+01    0.3033797    0.1909288 -23.58  0.001468454    1.891    0.471
        69  -9.5070    143.0473    109.1943   5.6649560519e+01   3.2544119596e+01    0.2295106     0.197313  12.08 0.0004018497    1.243    0.195
        70 -10.1031     71.1129    108.2672   7.8649687207e+01   4.6429720501e+01    0.2611355    0.2342194 -22.97 0.0002717225    1.065    0.061
        71 -10.2104    134.5300    101.9901   5.6919302694e+01   3.5747644491e+01    0.4801413    0.2757699 -43.92   0.00148958    1.788    0.441
        72  -7.8310     85.8924    118.0000   7.5789498928e+01   4.1726881122e+01    0.2580636   0.08618063  33.08 0.0007995545    2.923    0.658
        73 -12.9033    250.1658     54.4404   2.7997971850e+01   2.0102523640e+01    0.6062533     0.308224 -40.15 0.0006998893    1.645    0.392
        74 -10.2647    142.7268     98.0997   5.3861397459e+01   3.4744742984e+01    0.3621685    0.3236676 -65.24 0.0008940379    1.253    0.202
        75  -8.2909    142.1713     90.2373   5.1907428773e+01   3.6311011268e+01    0.3757392    0.1037499 -42.27  0.001143718    3.680    0.728
        76 -11.4365    135.1822    115.0879   6.0134562341e+01   3.2981709713e+01     1.329857    0.3582993 -45.54  0.003392577    3.828    0.739
        77 -12.3197      3.5180    147.0838   1.0951581165e+02   4.3184553005e+01     1.040397    0.7277451 -76.51  0.004115743    1.300    0.231
        78  -9.7325    184.3874     82.8089   4.1705654264e+01   2.8491510121e+01    0.3877875    0.2816124 -22.89  0.001443333    1.612    0.380
        79 -10.1264    184.6594     78.4426   4.0634739611e+01   2.9111754518e+01    0.4031834    0.3696069  40.38  0.001651407    1.208    0.172
        80 -11.0345    180.9685     74.7914   4.0359186886e+01   3.0441786524e+01    0.7357901    0.4868151 -60.86  0.002756201    1.697    0.411
        81  -8.6037    157.4046     83.2729   4.6739310062e+01   3.4180921825e+01    0.1905727    0.1298504 -48.51 0.0005440504    1.525    0.344
        82 -11.7112      8.4613    145.7185   1.0780596965e+02   4.3259148352e+01    0.8299142    0.3360525 -79.16  0.002892338    2.427    0.588
        83  -9.3529    169.2252     69.2567   4.0951332022e+01   3.3802773925e+01    0.2868002    0.1767261 -45.81    0.0014375    1.625    0.385
        84  -8.6518    136.9756     69.0106   4.7236004806e+01   4.1075884032e+01    0.2134274    0.1920478 -75.83   0.00046306    1.225    0.183
        85  -9.7789    139.3277     65.3444   4.5673410202e+01   4.1112919327e+01    0.3937192    0.2342718 -41.32  0.000926305    1.770    0.435
        86  -7.7113    146.4919     68.4166   4.5013291234e+01   3.9009125472e+01    0.1387778    0.1300758  61.36 0.0001527241    1.014    0.014
        87  -9.6490    162.2193     63.6790   4.0744922717e+01   3.6176392521e+01    0.3501747    0.2438224 -35.67  0.001864985    1.501    0.334
        88 -10.3908    172.2471     64.2869   3.9206967961e+01   3.3870508848e+01    0.4195384    0.2904956 -74.38  0.001739054    1.747    0.428
        89 -10.8606    168.5336     58.0018   3.8231726251e+01   3.5577039034e+01    0.5119076    0.4034412 -73.55  0.002960375    1.341    0.254
        90 -10.6322    163.1503     51.1556   3.7345868878e+01   3.7709100214e+01    0.5948633    0.3423287 -33.28  0.002419897    1.864    0.463
        91  -8.7702    134.2111    147.9938   6.8179265153e+01   2.6096790274e+01    0.3481379    0.2217945 -50.56  0.001527759    1.666    0.400
        92  -8.7031    109.1010     55.3891   5.0014360924e+01   4.9510703095e+01    0.2132398    0.1880746  -4.29  0.000275894    1.236    0.191
        93  -9.8167    188.1690     44.8380   3.2282736834e+01   3.3033649322e+01    0.5375744    0.2159508 -43.81   0.00248088    2.331    0.571
        94  -9.4283    157.7486     49.1997   3.7715186896e+01   3.9190531916e+01    0.3366529    0.1742097 -41.11  0.001543084    1.977    0.494
        95 -11.2758    151.7747     47.2997   3.8217117662e+01   4.0805514881e+01    0.6125218    0.5238588 -79.28  0.003648519    1.196    0.164
        96 -10.2636    139.3768     44.8164   3.9775682122e+01   4.3997112328e+01    0.4130481    0.2427397 -10.78  0.001802599    2.752    0.637
        97 -11.4318    142.1261     41.8659   3.8415257749e+01   4.3729841561e+01    0.6297752    0.3810741  84.54  0.002713195    2.111    0.526
        98 -11.0983    134.3262     36.6733   3.8352392228e+01   4.6183894991e+01    0.4990453    0.2567459  44.95  0.002304815    1.974    0.493
        99  -8.5634    110.3841     38.3408   4.4051366890e+01   5.1567954969e+01    0.2482776    0.1307988 -33.75  0.001151006    2.120    0.528
       100  -7.4197     91.7296     39.3166   4.9489227047e+01   5.5649237028e+01    0.1262127    0.1083509 -83.48 0.0002515595    1.558    0.358
       101  -7.9115    189.6089     36.2480   3.0146161499e+01   3.3761623013e+01     0.151108    0.1161754 -24.12 0.0009367293    1.585    0.369
       102  -7.8891    105.1735     40.1884   4.6001110705e+01   5.2527251983e+01    0.1761957    0.1550038  78.60  0.001024486    1.281    0.219
       103  -8.4549    155.9426     28.7982   3.2579989385e+01   4.2052626448e+01    0.1818434    0.1513932  57.43 0.0003255989    1.187    0.158
       104  -8.8502    160.5787     24.6816   3.0869691953e+01   4.1433949741e+01      0.21345    0.1753067  68.21 0.0005290289    1.116    0.104
       105  -8.6107    165.3759    232.0155   7.6211285499e+01   4.2095845650e+00    0.2412831    0.1640364  36.48 0.0007830324    1.601    0.376
       106  -9.5496    127.0300     21.7615   3.5191140799e+01   4.9531696948e+01    0.2939728    0.1385515  64.05  0.001375137    1.812    0.448
       107 -10.1986    121.6251    233.5989   8.6608750431e+01   9.7287111572e+00    0.2544917    0.2220383 -13.85 0.0004937272    1.164    0.141
       108  -9.2362    133.5840    143.7645   6.7405330452e+01   2.7146676557e+01     0.406648     0.161661 -50.21  0.001387888    2.698    0.629
       109  -8.5398     73.0182    224.9731   9.7620826224e+01   1.7736497884e+01    0.1956613    0.1794897  17.11 0.0003561013    1.069    0.065
       110  -8.8821    145.2028    221.0523   7.9103859476e+01   8.9258517784e+00    0.2158089    0.1708638  15.25 0.0002941187    1.083    0.077
       111  -8.4473    249.9336    218.9831   5.7741518788e+01  -3.6899260604e+00    0.1494164    0.1332619 -28.24 0.0007606134    1.641    0.391
       112  -9.3142      5.4025    204.6828   1.1301271766e+02   2.8963667991e+01    0.2034438    0.1910875 -66.65  0.000619215    1.167    0.143
