#   1 NUMBER                 Running object number                                     
#   2 MAG_AUTO               Kron-like elliptical aperture magnitude                    [mag]
#   3 X_IMAGE                Object position along x                                    [pixel]
#   4 Y_IMAGE                Object position along y                                    [pixel]
#   5 X_WORLD                Barycenter position along world x axis                     [deg]
#   6 Y_WORLD                Barycenter position along world y axis                     [deg]
#   7 A_WORLD                Profile RMS along major axis (world units)                 [deg]
#   8 B_WORLD                Profile RMS along minor axis (world units)                 [deg]
#   9 THETA_WORLD            Position angle (CCW/world-x)                               [deg]
#  10 FWHM_WORLD             FWHM assuming a gaussian core                              [deg]
#  11 ELONGATION             A_IMAGE/B_IMAGE                                           
#  12 ELLIPTICITY            1 - B_IMAGE/A_IMAGE                                       
         1 -13.5242    169.9800     55.9515   6.1620974556e+01   3.5425811289e+01     2.079865     1.321389  23.24  0.006197008    2.311    0.567
         2 -13.3568    184.7043     40.8284   5.4426276271e+01   3.3805168968e+01     1.049965    0.9362354 -43.32  0.003254067    1.127    0.113
         3 -12.9304    189.7633     34.4565   5.1772230395e+01   3.3333557966e+01    0.6651379    0.6352741 -41.25  0.001152921    1.099    0.090
         4 -12.6351    190.4582     15.1345   4.6048480351e+01   3.5442721040e+01     1.066664    0.6015025  75.87   0.00494317    1.710    0.415
         5 -13.2031    210.3289     11.5907   4.2882916506e+01   3.0755084598e+01    0.9536402    0.6376662  16.90  0.003634374    2.292    0.564
         6 -13.6499    205.0408      8.5878   4.2615202239e+01   3.2401945493e+01      1.55407    0.9011288  -5.01   0.00642726    2.586    0.613
         7 -12.0690    237.5114      2.6076   3.8304566995e+01   2.5126121657e+01     1.384871    0.3239816  77.18  0.004452243    4.597    0.782
         8 -11.1489     61.4383      2.5194   6.8670631065e+01   6.6853437279e+01    0.3809177    0.1738644  36.34  0.001890171    2.056    0.514
         9 -11.5735     65.6972    194.8354   1.1770658316e+02   2.6591727552e+01     0.331923    0.2183286 -50.38  0.001448529    1.977    0.494
        10 -13.4646    246.2663    239.2648   8.9466280450e+01  -9.8436555812e+00     1.525751    0.6682758 -26.60  0.008339107    2.475    0.596
        11 -10.1158    156.6585    189.9111   9.7842505847e+01   1.2477209786e+01    0.2187158    0.1766526  34.62 0.0003181385    1.191    0.160
        12 -11.8570    149.7286    187.9815   9.8963469902e+01   1.4144036715e+01    0.4896573    0.3589164  69.25  0.002014052    1.612    0.380
        13 -11.4594     61.4423    204.9112   1.1955076346e+02   2.5092600754e+01    0.3148841    0.2041139 -51.86  0.001847074    2.047    0.511
        14  -9.1262     65.6900    187.2143   1.1689334344e+02   2.8202771678e+01    0.1402935    0.1284802 -84.22 0.0003209325    1.253    0.202
        15  -8.6319     15.5135    187.5182   1.2710453574e+02   3.3892709234e+01    0.1124006   0.08561222  85.72 0.0008087995    1.086    0.079
        16 -10.1791    238.5114    185.4913   8.1194448379e+01  -1.9848670898e+00    0.1314334    0.1104609   6.22 0.0008105199    1.005    0.005
        17 -10.9368    151.8664    181.5718   9.7387501780e+01   1.4966677855e+01    0.4066371    0.2613503 -77.50  0.001743785    2.552    0.608
        18 -10.3922    160.4037    205.7672   9.9709867512e+01   8.9585104048e+00    0.2185092    0.1732258 -33.05  0.001276171    1.501    0.334
        19 -11.3816    145.1380    181.3636   9.8795910079e+01   1.6291600005e+01    0.3213788    0.3079816  17.24  0.001042968    1.152    0.132
        20 -12.0579    142.1824    175.7835   9.8447314502e+01   1.7967822493e+01    0.5366544    0.3898165 -72.01  0.001712316    1.668    0.400
        21  -9.3869     87.7931    202.7530   1.1406358736e+02   2.1811842773e+01    0.1723635    0.1624294  67.42 0.0006328491    1.257    0.204
        22 -10.7989    188.9735    176.9312   8.8789837607e+01   8.5645863756e+00    0.7119876     0.387697 -55.98  0.002043126    2.687    0.628
        23 -13.1199     75.2815    248.8905   1.2076125934e+02   1.5137717073e+01    0.3112741    0.1675975 -62.85  0.001955575    2.180    0.541
        24  -9.9070     16.0176    201.2066   1.2787849559e+02   3.1055458376e+01    0.1254396   0.08837815  55.82 0.0003899987    1.295    0.228
        25 -10.1657    230.3944    167.6169   7.8996453045e+01   2.1125957253e+00    0.2622857    0.1083675 -47.04 0.0009514688    3.358    0.702
        26  -9.9079      1.9691    162.7584   1.2815143641e+02   4.0321489274e+01    0.1506661    0.1249253 -85.58 0.0005480651    1.213    0.175
        27 -10.8763     71.7434    244.0603   1.2099057738e+02   1.6428780149e+01    0.2262218    0.1350904 -84.39  0.001467469    1.722    0.419
        28 -11.0791     94.0837    157.2793   1.0633117911e+02   3.0641922710e+01    0.2597209    0.2360621  80.94 0.0003242436    1.029    0.029
        29 -10.9196    193.0337    195.1012   9.1437894093e+01   4.7385299701e+00    0.8163974    0.4345653 -62.32  0.002788357    4.889    0.795
        30 -12.0406     99.5001    150.7562   1.0387301889e+02   3.1236979511e+01    0.6205702    0.4764766 -33.71  0.003179611    1.680    0.405
        31 -11.6029     71.0751    207.6113   1.1792249415e+02   2.3252962933e+01    0.4627547    0.3147043  23.27  0.002589762    2.278    0.561
        32  -9.9651    188.1397    152.8760   8.3920570659e+01   1.3096084413e+01    0.2275403    0.2108941 -89.94  0.001240479    1.267    0.211
        33 -10.9698    133.7850    145.7395   9.4499117958e+01   2.5983606226e+01     1.226535    0.3108991 -54.88   0.00294279    5.834    0.829
        34  -9.6332    174.8800    149.1383   8.5878505933e+01   1.6641763282e+01    0.2301479    0.2077139  85.42 0.0005438562    1.275    0.216
        35  -9.9508    113.1370    151.3188   1.0062916473e+02   2.8702968476e+01    0.2790894    0.2052369 -71.89  0.001003958    1.438    0.304
        36 -10.0291     91.7865    146.6320   1.0505477355e+02   3.3477564473e+01    0.2547768     0.174765  51.82  0.001282999    1.463    0.317
        37  -9.6885    114.3160    143.1351   9.8724696343e+01   3.0347062240e+01    0.3449805    0.2057609  79.29  0.001243542    3.044    0.671
        38 -11.3288    109.7197    137.6545   9.8757957033e+01   3.2456698670e+01    0.6100461    0.3276457 -41.94  0.002497377    2.127    0.530
        39  -8.9602    128.0557    139.4554   9.4539658506e+01   2.8526908011e+01    0.2282735    0.1459456  45.31  0.001016428    1.555    0.357
        40 -11.8283     98.2714    136.7634   1.0152598535e+02   3.4700227069e+01    0.2981429    0.2868649 -82.47 0.0006122235    1.077    0.071
        41 -10.9612    105.8927    130.7078   9.8277122371e+01   3.4767249739e+01    0.3821187     0.317276 -70.02  0.001167763    1.185    0.156
        42 -10.2534    136.1041    128.1252   8.9966556885e+01   2.9398396663e+01     0.540986   0.09190229 -46.80  0.001215876    5.851    0.829
        43  -9.9396    160.9718    128.1484   8.4051568189e+01   2.3959332228e+01    0.3422779    0.2612688 -69.97  0.001558676    1.615    0.381
        44 -10.2609    116.3608    128.5640   9.5071703443e+01   3.3298658097e+01    0.2915874    0.2583963 -12.95 0.0006600067    1.370    0.270
        45 -10.5538    104.2210    124.3340   9.7316783686e+01   3.6555905418e+01    0.2937143    0.2528176 -29.12 0.0007893261    1.342    0.255
        46  -9.5219    120.5911    123.2237   9.2732087273e+01   3.3687253027e+01    0.2203612    0.1398599 -39.49 0.0009450428    1.697    0.411
        47  -9.3496    152.8396    119.6615   8.3820833958e+01   2.7572544550e+01    0.2640752    0.2152511 -28.58 0.0005483148    1.326    0.246
        48  -9.5465    111.1595    118.0229   9.3981893344e+01   3.6722350309e+01     0.237143    0.2145996  47.84 0.0002641958    1.146    0.127
        49  -9.8710    231.2430    113.7916   6.6610945915e+01   1.0735958184e+01    0.2510926    0.2330779  25.88 0.0007327603    1.132    0.117
        50  -9.6244    167.4615    112.5715   7.8616097501e+01   2.5666833215e+01    0.3480738    0.2529005 -86.68  0.001444443    2.023    0.506
        51 -10.4347    134.7567    106.1857   8.4725000563e+01   3.4500701528e+01    0.5430006    0.1555194 -44.67  0.001564861    3.424    0.708
        52 -11.1141    119.2734    110.5703   8.9941643201e+01   3.6815065155e+01    0.6244764    0.3698901  63.50  0.002417979    2.354    0.575
        53  -9.7246    205.3575    110.2543   7.0262845200e+01   1.7173090159e+01    0.3176985    0.2133593  46.18 0.0009596368    1.540    0.350
        54 -10.0716     73.2165    103.1413   1.0128330710e+02   4.6636777496e+01    0.2162165    0.1805839 -38.21  0.000584354    1.236    0.191
        55  -8.4996    200.6806    100.3352   6.8552959425e+01   2.0067541680e+01     0.160644    0.1191856 -68.97 0.0007049277    1.701    0.412
        56 -12.6965     10.4341    206.5116   1.2918287819e+02   3.0549517302e+01    0.4402033    0.2171502  38.16  0.002776548    2.093    0.522
        57 -10.2310    188.5912     88.7140   6.7690962311e+01   2.5113866631e+01    0.4485902     0.335871 -83.21  0.001995849    1.741    0.426
        58  -9.1239     73.8413     73.6427   9.3183524540e+01   5.3177861513e+01    0.1813842    0.1750415  10.87  0.000553161    1.130    0.115
        59  -8.9193    167.6477    229.6921   1.0191616297e+02   3.8524884660e+00    0.1368752    0.1189793 -63.50 0.0005633633    1.468    0.319
        60 -11.4108    151.1966    196.0745   1.0001205989e+02   1.2359616379e+01    0.3875415    0.2666355  41.88  0.001995258    1.302    0.232
        61 -11.8309     58.5990    215.1880   1.2100779517e+02   2.3432287978e+01     0.254301    0.1634506  66.02  0.001455454    1.273    0.214
        62  -9.9179     80.9997    194.9964   1.1456291252e+02   2.4403424904e+01    0.4429582    0.2333913  56.81  0.002247478    1.777    0.437
        63 -10.9469     62.1322    220.0060   1.2075740671e+02   2.2047148417e+01    0.2086347     0.154061  85.86  0.001432783    1.188    0.158
        64 -19.2005     26.0107    101.0095   1.1531991629e+02   5.2501537175e+01     17.41592     1.317081 -66.79   0.03350136   11.687    0.914
        65 -17.5295     43.8572    241.8581   1.2553671952e+02   2.0355250296e+01     6.850228     5.023701  35.97   0.05004377    1.761    0.432
