#   1 NUMBER                 Running object number                                     
#   2 MAG_AUTO               Kron-like elliptical aperture magnitude                    [mag]
#   3 X_IMAGE                Object position along x                                    [pixel]
#   4 Y_IMAGE                Object position along y                                    [pixel]
#   5 X_WORLD                Barycenter position along world x axis                     [deg]
#   6 Y_WORLD                Barycenter position along world y axis                     [deg]
#   7 A_WORLD                Profile RMS along major axis (world units)                 [deg]
#   8 B_WORLD                Profile RMS along minor axis (world units)                 [deg]
#   9 THETA_WORLD            Position angle (CCW/world-x)                               [deg]
#  10 FWHM_WORLD             FWHM assuming a gaussian core                              [deg]
#  11 ELONGATION             A_IMAGE/B_IMAGE                                           
#  12 ELLIPTICITY            1 - B_IMAGE/A_IMAGE                                       
         1  -8.1460     96.0645     10.2489   2.9438280200e+01   5.6636667774e+01    0.1852588    0.1373044 -62.20 0.0005846971    1.508    0.337
         2  -8.4240    215.8171      6.9155   1.6434858939e+01   3.2941305171e+01    0.1578827    0.1075169 -80.01 0.0004977523    1.128    0.113
         3  -9.0350    107.9419    246.2849   7.9623193557e+01   7.0655418455e+00    0.2160869    0.1874176 -38.07 0.0002009816    1.213    0.175
         4  -7.3397    215.3473    250.7116   5.7937531933e+01  -4.7342129586e+00   0.09115587   0.08700632  10.07 0.0007023974    1.658    0.397
         5  -7.7435      2.5987    249.5987   1.0593984708e+02   1.7336464902e+01    0.2409772   0.07412367 -60.64 0.0009559207    3.356    0.702
         6  -8.4781     93.3691    241.2272   8.2566715665e+01   9.8384258681e+00    0.3656405    0.2024439 -62.94  0.001674297    2.079    0.519
         7  -7.0942    139.2262    242.0162   7.1740011580e+01   4.3148610390e+00    0.1580032    0.1023628 -46.59 0.0002180884    1.557    0.358
         8  -8.7692     33.0475    241.4756   9.7955244559e+01   1.6425410338e+01     0.225945    0.1931294 -78.53 0.0004268931    1.250    0.200
         9  -9.2824    249.2474    239.9920   5.1027400448e+01  -5.7940397816e+00    0.2532801   0.06500976 -42.50  0.001219989    2.794    0.642
        10  -7.1821    216.5149    233.4336   5.5211076393e+01  -2.1263333469e+00     0.114893   0.08675507 -22.90 0.0001480629    1.025    0.024
        11  -8.3977      6.3486    232.7274   1.0412387562e+02   2.0924010127e+01    0.2387769    0.1576133  40.54 0.0007968384    1.345    0.256
        12  -9.3913      2.4719    229.9517   1.0494399096e+02   2.1905634168e+01    0.3598965    0.2059321  35.41  0.001784049    1.551    0.355
        13  -7.3807    132.6187    227.7738   7.1188297468e+01   7.9563466703e+00    0.1676592     0.129947 -59.41 0.0003876689    1.515    0.340
        14  -9.3500     19.7329    225.9921   1.0022859290e+02   2.1386776003e+01    0.3613163    0.1907831 -65.65  0.001705973    1.902    0.474
        15  -8.1478     27.3092    222.5718   9.7942488774e+01   2.1521114313e+01    0.2809421    0.1131829  28.44  0.001145423    2.179    0.541
        16  -8.5803      2.3914    220.2345   1.0440552145e+02   2.4282389319e+01    0.1891589    0.1149344  81.28 0.0009284961    1.654    0.395
        17  -8.0656     35.1284    217.2604   9.5344194692e+01   2.2076956976e+01    0.2032549    0.1842056  -9.75 0.0007393426    1.198    0.165
        18  -7.7799     41.2416    215.5216   9.3481753497e+01   2.1882853725e+01    0.1837288    0.1347973   3.22 0.0005069292    1.512    0.339
        19  -8.2573     59.8104    214.2341   8.8165703232e+01   2.0138414690e+01    0.2660966    0.1270787  56.25 0.0009622116    2.846    0.649
        20  -7.3275     15.8354    213.3739   1.0033365479e+02   2.4888380506e+01    0.1794452    0.1283653   1.56 0.0004155899    1.610    0.379
        21  -9.3616     11.0919    207.1117   1.0117546278e+02   2.6899068648e+01     0.451015    0.3171531  13.49  0.001658159    1.519    0.342
        22  -7.8229     71.0943    207.1814   8.4125431793e+01   2.0541858693e+01    0.2258348    0.1874405 -28.74 0.0005804808    1.271    0.213
        23  -8.1093    245.4637    200.5567   4.5758766813e+01   4.7605683046e-01    0.1112106   0.07997281 -33.07 8.208364e-05    1.008    0.008
        24  -9.5779    122.7171    195.4554   6.8461572880e+01   1.6364047107e+01    0.2583583     0.231391 -28.52 0.0002431992    1.057    0.054
        25  -8.0375    128.5158    193.6137   6.6711189018e+01   1.5954483626e+01    0.2758933    0.1940649 -13.83 0.0007312954    1.652    0.395
        26 -11.0691      5.7087    185.4384   1.0105343701e+02   3.3046496288e+01    0.7784789    0.7210696 -71.46  0.003390575    1.063    0.059
        27  -8.7865     66.0424    180.6969   8.1842672323e+01   2.8042773747e+01    0.2591447    0.2081031 -50.25 0.0002714418    1.240    0.194
        28  -7.4298    244.4548    181.4857   4.2950814266e+01   3.6092894580e+00    0.1128343    0.0823751 -38.04 -8.30684e-05    1.010    0.009
        29  -7.7768    210.3878    174.1785   4.6745428878e+01   8.6877308733e+00    0.1684099    0.1235954 -44.20 0.0007207307    1.134    0.118
        30  -8.7503     34.4445    168.4958   9.0146698324e+01   3.5115996574e+01    0.2966079    0.2392912 -29.43 0.0006351811    1.322    0.244
        31  -8.7773     43.1690    163.1499   8.6504295538e+01   3.5625372581e+01    0.2863639    0.2316445 -29.73 0.0004549094    1.308    0.236
        32  -7.9087     32.0023    162.4475   9.0155861544e+01   3.7033953225e+01    0.2187893    0.1948801 -65.71 0.0003131007    1.092    0.084
        33  -8.6199    247.2331    159.8364   3.9176015608e+01   6.7931033820e+00    0.1701312    0.1070284 -71.66 0.0009448745    2.797    0.643
        34  -7.7591     76.8500    156.8671   7.4459362099e+01   3.2813659694e+01    0.2241731    0.2011461 -25.73 0.0002788325    1.141    0.123
        35  -8.0352     57.4626    154.8364   8.0385527301e+01   3.6109520243e+01     0.223687    0.2030573  20.63 0.0004514412    1.108    0.097
        36  -8.7889    137.2747    151.1949   5.6643639207e+01   2.4209314548e+01    0.3451958    0.2280976 -38.70  0.001155838    1.521    0.343
        37 -10.1678     41.2103    150.5075   8.5227237325e+01   3.9310931446e+01    0.5463476    0.3240632 -11.66  0.001546805    2.286    0.562
        38  -8.6821     66.4374    149.9887   7.6528673382e+01   3.6156186623e+01    0.4191262    0.2916343  31.22  0.001480876    1.427    0.299
        39  -9.8562     68.6348    144.7137   7.4793305026e+01   3.7219802472e+01    0.7363216     0.467191  76.72  0.002802853    2.533    0.605
        40  -7.8712      2.3907    140.2356   9.7834562655e+01   4.5617223064e+01    0.2069414    0.1294692 -89.50 0.0007753283    1.698    0.411
        41  -8.7014     22.9011    136.7317   8.9717615358e+01   4.4982061590e+01    0.2517013      0.20572 -72.88 0.0003492642    1.223    0.183
        42  -7.5278    248.2637    136.6651   3.5349928138e+01   1.0359448816e+01    0.1084985   0.06816832 -60.18 0.0002759515    1.582    0.368
        43  -8.7498     72.3093    135.6549   7.1737950903e+01   3.8996259665e+01    0.2692152    0.2567512 -39.25 0.0002521081    1.039    0.038
        44  -7.8910     58.5037    135.7396   7.6481829102e+01   4.1041395028e+01    0.2006917    0.1515012 -77.95  0.000503413    1.526    0.345
        45  -7.1512    116.2939    134.7383   5.8396363740e+01   3.1636307437e+01    0.1432979     0.116161  77.04 0.0002144619    1.502    0.334
        46  -7.9591     56.0290    126.3112   7.5434966535e+01   4.3834918600e+01    0.2114898    0.1925654  22.10 0.0003871872    1.092    0.084
        47  -7.1980     87.4469    124.4800   6.4377892419e+01   3.9232880471e+01    0.1497302    0.1475584 -13.03 0.0001683111    1.012    0.012
        48 -10.2283     44.9486    123.7785   7.9027016365e+01   4.5994533227e+01    0.2688802    0.2439195  -1.28 0.0002780104    1.101    0.091
        49  -7.3021     96.5346    115.3869   5.9470672377e+01   3.9695249939e+01    0.1467234    0.1419054  21.20 -2.162804e-05    1.053    0.051
        50  -7.6892     40.2997    106.9487   7.7246167723e+01   5.0846198140e+01    0.2301961    0.1238834 -87.41 0.0007037259    4.240    0.764
        51  -6.7421     13.7107    104.7153   8.8068799076e+01   5.4214189921e+01    0.1477493   0.09509721 -32.52 0.0001834643    1.532    0.347
        52  -8.3369    191.4030     96.1363   3.5274467114e+01   2.5366952528e+01    0.2025139     0.160104  84.19 0.0002886239    1.329    0.247
        53  -7.4757    204.1952     93.7861   3.3147486346e+01   2.3566340890e+01    0.1394163    0.1263363 -50.80 0.0002383402    1.244    0.196
        54  -6.9313    124.7256     94.6919   4.6946870463e+01   3.8447794661e+01    0.1313697    0.1127748  -1.26 0.0002160714    1.549    0.354
        55  -8.0246    118.0916     91.0654   4.7611003657e+01   4.0491621744e+01    0.2000652    0.1912326 -87.51  0.001182942    1.025    0.024
        56  -7.2733     86.8716     89.1354   5.5674771730e+01   4.7157598305e+01    0.1840403    0.1637435  11.71  0.001005344    1.242    0.195
        57  -7.0438    230.0147     89.0000   2.9393846366e+01   2.0206805374e+01    0.1398734   0.06192885  60.52 0.0004124498    2.718    0.632
        58  -7.0252     91.5044     83.5196   5.2724367947e+01   4.7345231585e+01    0.1415511    0.1339183  36.94 0.0003627198    1.060    0.057
        59  -7.4667     40.2237     82.8337   7.1236423399e+01   5.6464820293e+01    0.2285958    0.1456601  65.76 0.0009348484    2.761    0.638
        60  -8.7961     89.9775     76.6227   5.1236609595e+01   4.8943619732e+01    0.2346869    0.2036767 -47.60 0.0002457827    1.229    0.186
        61  -6.9801    158.7088     73.7291   3.5414970413e+01   3.5160479914e+01    0.1113903     0.101301  27.70 0.0001602154    1.512    0.338
        62  -7.2666     88.5510     60.5542   4.6925660891e+01   5.1998635399e+01    0.1351992    0.1222907  56.58 1.198896e-05    1.014    0.014
        63  -8.3754    140.0659     56.7936   3.4497315436e+01   4.1572568390e+01    0.1900887    0.1658729 -62.77 0.0002641609    1.146    0.128
        64 -10.4535    244.9463     45.6201   2.0975727796e+01   2.3859412306e+01    0.3488337    0.2582753  87.16  0.001783695    1.391    0.281
        65  -8.5137    178.0822     37.8837   2.5147167690e+01   3.6344211625e+01    0.1686578    0.1323896 -76.52 0.0003287336    1.008    0.008
        66  -7.0135    129.5239     32.5455   3.0101482986e+01   4.7014157308e+01    0.1227042    0.1026962  81.39 7.815626e-05    1.025    0.024
        67  -7.1945    202.3754     25.5268   2.0584489354e+01   3.3276485188e+01    0.1056912   0.07917037 -69.99 8.559733e-05    1.044    0.042
        68  -7.2138     80.1623     15.4251   3.4468639411e+01   5.9598102818e+01    0.1629991    0.1011661  71.41 0.0004800949    1.520    0.342
        69  -7.6441     57.0000    248.4885   9.2501870838e+01   1.2356341050e+01    0.2655556   0.07727442 -67.83 0.0009237351    3.846    0.740
