#   1 NUMBER                 Running object number                                     
#   2 MAG_AUTO               Kron-like elliptical aperture magnitude                    [mag]
#   3 X_IMAGE                Object position along x                                    [pixel]
#   4 Y_IMAGE                Object position along y                                    [pixel]
#   5 X_WORLD                Barycenter position along world x axis                     [deg]
#   6 Y_WORLD                Barycenter position along world y axis                     [deg]
#   7 A_WORLD                Profile RMS along major axis (world units)                 [deg]
#   8 B_WORLD                Profile RMS along minor axis (world units)                 [deg]
#   9 THETA_WORLD            Position angle (CCW/world-x)                               [deg]
#  10 FWHM_WORLD             FWHM assuming a gaussian core                              [deg]
#  11 ELONGATION             A_IMAGE/B_IMAGE                                           
#  12 ELLIPTICITY            1 - B_IMAGE/A_IMAGE                                       
         1 -14.8310      3.1664    133.7958   1.4353325874e+02   4.7276300078e+01     5.875245    0.6532015 -74.53   0.01598339    7.020    0.858
         2 -13.5323    198.5589     28.2750   6.6567562868e+01   3.1442601594e+01     1.611201      1.36445   6.58   0.00768944    1.518    0.341
         3 -13.4565    214.5768      9.1082   5.9926919368e+01   2.9576343170e+01     1.003633     0.848233  71.23  0.004219363    1.186    0.157
         4 -11.8652      5.4408      2.8776   1.1356215420e+02   7.3876194580e+01     0.356973    0.2831449 -36.93  0.002764113    1.344    0.256
         5 -11.1187    152.9961    248.7631   1.2381900432e+02   3.8234793749e+00    0.3220983     0.118808  37.22   0.00144704    2.311    0.567
         6 -12.1100    240.8447    248.5928   1.0810461488e+02  -9.7481541467e+00    0.5346861    0.2292262  32.43  0.002948845    1.877    0.467
         7 -10.6951      3.9651    250.1655   1.5021661946e+02   2.3892675056e+01    0.4025557   0.09113038  41.19   0.00177173    2.960    0.662
         8  -9.8177     81.5007    249.0182   1.3704022708e+02   1.4786224838e+01    0.1508277     0.105611 -79.19  0.000841897    1.573    0.364
         9  -9.9064     46.9809    249.3308   1.4313274088e+02   1.9284466700e+01    0.1559871    0.1089081  57.61 0.0005418868    1.089    0.082
        10 -11.3577    198.4746    246.9573   1.1523109186e+02  -3.2408340628e+00    0.2852434    0.2162827 -21.07  0.001940756    1.545    0.353
        11  -9.0450     66.3919    250.2401   1.3982634770e+02   1.6649095831e+01    0.1489667    0.1084915  54.96 0.0004496062    1.097    0.088
        12 -11.3803     35.0314    245.0260   1.4491222397e+02   2.1452610179e+01    0.2972237    0.2305864 -51.85  0.002186814    2.087    0.521
        13 -12.4720    124.9167    249.1460   1.2908693445e+02   8.2585912192e+00    0.7079754    0.2865296  36.55  0.003345884    2.261    0.558
        14  -8.3928     30.3259    242.2837   1.4555768686e+02   2.2471157513e+01   0.08522275   0.08172621  83.14 0.0003157685    1.601    0.376
        15  -9.9018     17.9383    241.4798   1.4759663284e+02   2.3965372460e+01    0.1487633   0.08061453  45.67 0.0006803168    1.544    0.353
        16 -11.0094    119.2935    237.9126   1.2889890257e+02   1.0953884727e+01    0.2889788    0.1479565 -77.75  0.001285447    3.548    0.718
        17 -10.0832     29.0737    248.7856   1.4611657612e+02   2.1481326060e+01    0.2667385    0.1201076 -69.33  0.001398297    2.349    0.574
        18 -10.4151     50.5173    236.1662   1.4163805500e+02   2.1162739113e+01    0.2036315    0.1297096  50.06 0.0005589502    1.272    0.214
        19 -12.8270     45.9618    215.3447   1.4094970398e+02   2.5639638864e+01     1.020602    0.7012945  87.29  0.006093979    1.283    0.221
        20 -12.8211     30.5149    232.7223   1.4498019917e+02   2.4164734434e+01    0.2722844    0.2278092  88.50 0.0007635928    1.322    0.244
        21 -13.8905     35.5372    226.2746   1.4368291160e+02   2.4785051163e+01    0.7574738    0.4983731  62.40   0.00238131    1.150    0.130
        22 -12.5556    108.4272    230.9086   1.3021604828e+02   1.3874037358e+01     1.324855    0.0939526  42.93  0.003333997    7.046    0.858
        23 -11.7552     89.1423    226.6822   1.3354148902e+02   1.7596555844e+01    0.7948118    0.1371301  46.93  0.002584843    4.434    0.774
        24 -11.0943     57.7959    212.4412   1.3838565783e+02   2.4717240795e+01    0.5558805    0.1727502  56.14   0.00218126    3.437    0.709
        25  -8.5426    152.5209    213.0090   1.1900404319e+02   9.5320336224e+00    0.1630777    0.1342241 -53.97 0.0001595525    1.449    0.310
        26 -12.2803      9.9274    207.0976   1.4723825996e+02   3.1171353001e+01    0.6080198    0.3754276  32.88  0.002731958    1.903    0.474
        27 -10.0048     55.8334    205.6634   1.3817385575e+02   2.6325555764e+01    0.4151984    0.1193799  50.41  0.001696833    3.029    0.670
        28 -11.5808     58.1142    198.9436   1.3706899825e+02   2.7402699677e+01    0.2422505    0.2167364 -89.85 0.0005272446    1.219    0.180
        29 -12.6245     24.1730    127.8771   1.3733754845e+02   4.6996518584e+01     1.756499    0.3129118  45.09 0.0007704647    6.384    0.843
        30 -13.8422      9.6168    156.4349   1.4392037787e+02   4.1775448486e+01     3.875556     1.290946  77.48   0.01284754    5.389    0.814
        31 -10.4308      9.7570    194.2744   1.4653511019e+02   3.3744236699e+01     0.213708    0.1486191  64.73  0.000303032    1.162    0.139
        32  -9.2195     95.8069    172.9968   1.2537005111e+02   2.7399866712e+01    0.2110292    0.1624374  73.91 0.0005780958    1.301    0.231
        33 -11.7004     83.1230    168.6340   1.2775274650e+02   3.0392079721e+01    0.5900047    0.5511936  24.63  0.002932156    1.313    0.238
        34 -11.8150     99.9783    247.9721   1.3358121998e+02   1.2277625555e+01    0.3527795    0.3230845  46.46  0.002656074    1.320    0.242
        35  -9.9469     96.2403    152.6252   1.2189938129e+02   3.1880994636e+01    0.2643176    0.2504418 -87.55 0.0006968106    1.066    0.062
        36 -11.9318     84.7615    151.5929   1.2466094324e+02   3.4001191206e+01    0.2964617    0.2500396 -51.03 0.0005611107    1.286    0.222
        37  -9.1230     99.2018    148.2534   1.2034422040e+02   3.2366938591e+01    0.1990775    0.1946853   8.90 0.0005210762    1.188    0.158
        38 -12.1221     67.3159    143.5343   1.2789637512e+02   3.8465516087e+01    0.6793699    0.4105106  62.94  0.003265861    1.890    0.471
        39  -9.7668    108.5110    137.5650   1.1580662298e+02   3.3121129972e+01    0.4082907    0.2804784 -14.40  0.001437384    2.598    0.615
        40 -10.3972     95.6168    134.7085   1.1866081070e+02   3.6097514102e+01    0.2498912    0.2388603 -33.57 0.0004556799    1.172    0.147
        41 -11.8897     64.7537    190.4689   1.3476894416e+02   2.8291342701e+01    0.2526606    0.2296001 -79.78 0.0003722529    1.240    0.194
        42  -8.9711     75.8106    129.1358   1.2303326033e+02   4.0604419095e+01    0.2165928    0.1743302  76.57  0.000653732    1.317    0.241
        43 -10.0974     81.2882    124.4731   1.2055581273e+02   4.0848650847e+01    0.3586141    0.2151984  60.01  0.001011288    2.056    0.514
        44  -8.8030    106.1372    123.9100   1.1346729937e+02   3.6666357495e+01    0.1830321    0.1715463  -2.10 0.0002675732    1.215    0.177
        45  -8.6521     68.4692    123.4054   1.2402780363e+02   4.3016950237e+01    0.1363492    0.1247343 -87.57 8.199642e-05    1.046    0.044
        46  -9.4726    167.9570    113.0361   9.5273277579e+01   2.5536732859e+01    0.2387484    0.2218978 -84.50 0.0005559879    1.153    0.132
        47 -13.0479     61.9340    175.5882   1.3370025275e+02   3.1894758247e+01    0.4854805    0.2791171 -47.02  0.001682035    2.250    0.556
        48  -9.6499     41.0528     96.2587   1.2710930703e+02   5.2684357580e+01    0.4028017    0.1703615  47.63  0.001674049    3.093    0.677
        49 -10.3200    241.4992     95.5016   7.7620586624e+01   1.1594220802e+01     0.137857    0.1267862 -41.36 -0.0001943094    1.005    0.005
        50  -8.5273     65.4373     81.4948   1.1532618915e+02   5.2968650129e+01     0.135085    0.1250086 -48.89 0.0001134806    1.053    0.050
        51  -9.8052    158.5049     77.0010   8.7439141015e+01   3.4599469116e+01     0.235132    0.1539757 -36.78 0.0005860454    1.572    0.364
        52  -9.2389     56.6006     75.1935   1.1667608432e+02   5.5525248192e+01    0.2083323    0.1716366  46.44 0.0006346238    1.402    0.287
        53  -8.8644     36.2897     64.0202   1.2115737978e+02   6.0214610253e+01    0.1710961    0.1451076 -47.33 0.0004445326    1.066    0.062
        54 -12.3908      4.1451     50.0334   1.3068597222e+02   6.5527197200e+01    0.4663479    0.3608325 -81.08  0.002285308    1.497    0.332
        55 -10.2144    177.1833    249.6159   1.1946690736e+02  -1.9818733856e-01    0.1834872   0.08987261  33.81 0.0009588002    1.729    0.422
        56 -10.6741     75.5084    177.4896   1.3078499132e+02   2.9575215584e+01    0.2393188    0.2087434  76.11 0.0001325549    1.025    0.024
        57 -10.6941    162.9879    249.6260   1.2207729907e+02   2.0859329332e+00    0.2951274   0.09126078  41.05   0.00125774    2.488    0.598
