#   1 NUMBER                 Running object number                                     
#   2 MAG_AUTO               Kron-like elliptical aperture magnitude                    [mag]
#   3 X_IMAGE                Object position along x                                    [pixel]
#   4 Y_IMAGE                Object position along y                                    [pixel]
#   5 X_WORLD                Barycenter position along world x axis                     [deg]
#   6 Y_WORLD                Barycenter position along world y axis                     [deg]
#   7 A_WORLD                Profile RMS along major axis (world units)                 [deg]
#   8 B_WORLD                Profile RMS along minor axis (world units)                 [deg]
#   9 THETA_WORLD            Position angle (CCW/world-x)                               [deg]
#  10 FWHM_WORLD             FWHM assuming a gaussian core                              [deg]
#  11 ELONGATION             A_IMAGE/B_IMAGE                                           
#  12 ELLIPTICITY            1 - B_IMAGE/A_IMAGE                                       
         1 -14.2805    229.2990      7.9907   3.1626162168e+01   2.7957026639e+01     1.884762    0.9537273  51.52  0.008205427    2.504    0.601
         2 -13.9789    196.7262     42.5211   4.2905110637e+01   3.1049696188e+01     1.025824    0.9334227 -63.20  0.003109636    1.044    0.042
         3 -14.0998    205.2998     34.0887   3.9764478181e+01   3.0182135409e+01    0.9083353    0.7996448  -9.80  0.001315711    1.420    0.296
         4 -11.2656     63.9527      8.9735   5.9917713292e+01   6.4511844792e+01    0.1934914    0.1590092  21.10  0.000600611    1.046    0.044
         5 -13.1303     56.5193      3.2407   5.9879758304e+01   6.6392753060e+01    0.6529425    0.3426396  22.03  0.003413148    1.961    0.490
         6 -10.9709     49.3114    217.8459   1.1459196626e+02   2.2098328767e+01    0.3891166     0.188039  30.82  0.001499233    2.182    0.542
         7 -13.3173     47.7672    196.4406   1.1287947326e+02   2.6985794536e+01    0.5178816    0.4559424 -37.67  0.001464669    1.430    0.301
         8 -16.6573     68.4699    144.0502   1.0036152658e+02   3.7081855646e+01     15.35568     7.894323  77.47   0.01828232    5.958    0.832
         9 -18.2935     19.0841    230.9926   1.2155365738e+02   2.2638828158e+01     5.651693     3.820485  49.27   0.03896987    1.306    0.234
        10  -9.8127     21.3824    192.0361   1.1836615762e+02   3.0735069243e+01     0.165245     0.123706 -89.48 0.0004630022    1.121    0.108
        11 -10.2501     42.0501    208.1922   1.1526645255e+02   2.5008263767e+01    0.3276617     0.168651  76.89  0.001583022    2.228    0.551
        12  -9.8347     69.9675    184.0503   1.0617579975e+02   2.7114220405e+01    0.2035783     0.179987  83.93  0.000394791    1.061    0.057
        13 -13.5977     58.0916    184.5793   1.0913180049e+02   2.8507824830e+01    0.8797942    0.7431971  26.20  0.005318628    1.358    0.263
        14 -11.5012     66.3995    179.9374   1.0650260963e+02   2.8557071841e+01     0.385447     0.320223  72.40 0.0007779716    1.179    0.152
        15  -9.6694     72.1786    188.2208   1.0619297488e+02   2.5842330718e+01     0.184592    0.1414602  73.83 0.0004470603    1.340    0.254
        16 -12.4319     49.3095    250.2100   1.1719197315e+02   1.5653167184e+01    0.1903581    0.1356465  51.59 0.0005602479    1.153    0.132
        17  -9.8264     82.1692    194.9716   1.0470417000e+02   2.2912025279e+01    0.2335997    0.1942867  38.27 0.0008613709    1.207    0.171
        18  -9.9410     80.6960    184.0588   1.0354256489e+02   2.5639066536e+01    0.2848508    0.2005944  78.86  0.001022385    1.652    0.395
        19 -11.6743     99.2950    181.0129   9.8467802314e+01   2.3576218679e+01    0.2939335    0.2786801   3.30 0.0006098864    1.157    0.136
        20 -13.4550    203.9416    200.0277   7.8221535753e+01   2.0626308668e+00     1.556487     0.553631  23.95  0.003578782    8.561    0.883
        21  -9.5279     93.4649    205.4961   1.0348513754e+02   1.8945612002e+01    0.1320116    0.1239752  60.06 0.0001216654    1.026    0.025
        22 -12.3592    241.6703    177.1647   6.6729167575e+01  -2.0585935673e-02    0.3983269    0.2537986  11.56   0.00208209    1.836    0.455
        23 -11.5578    186.9603    175.2048   7.6793824218e+01   9.4573280054e+00    0.4028494    0.3127368 -42.62  0.001120646    1.316    0.240
        24 -13.5242     28.3828    215.7735   1.1873098824e+02   2.4835860640e+01    0.5073092    0.2444231  87.11  0.002320386    2.147    0.534
        25 -11.7035     61.3938    198.7861   1.1002365985e+02   2.4816246544e+01    0.2715832    0.2208662 -61.13 0.0005069263    1.273    0.214
        26  -9.6954     40.5397    177.8731   1.1259748326e+02   3.2113415005e+01    0.1995755    0.1485661  68.23 0.0001357536    1.305    0.233
        27  -9.8084    193.3077    170.0353   7.4392440576e+01   9.3064792896e+00    0.2062404    0.1751922 -30.49 0.0005613978    1.121    0.108
        28 -11.5186    240.1774    169.1403   6.5367542967e+01   1.5205461498e+00     0.209218    0.1593499 -10.99 0.0004986615    1.217    0.178
        29 -10.1246     47.7570    171.7601   1.1010222620e+02   3.2787123183e+01    0.3062672    0.2027646 -27.94  0.001430173    2.191    0.544
        30 -10.5017    147.9121    174.1813   8.5333239130e+01   1.6787145921e+01    0.2152532    0.2014449  73.73 0.0003988198    1.231    0.188
        31 -10.0539     43.3127    167.0238   1.1064185220e+02   3.4426121357e+01    0.3052549    0.1843306 -31.26  0.001425295    2.427    0.588
        32  -9.9010     49.0612    160.7225   1.0833286122e+02   3.5332769600e+01    0.1790739    0.1691673  80.50 0.0005315381    1.091    0.084
        33 -10.9932     48.7834    154.5987   1.0755179537e+02   3.6876595111e+01    0.2628693    0.2056305  86.56 0.0007750547    1.285    0.222
        34 -12.5032     91.3649    151.2974   9.5287573206e+01   3.1941064533e+01    0.7509803    0.5613838 -12.88  0.003559526    1.779    0.438
        35 -11.7266    134.2310    146.9595   8.2943855391e+01   2.5416767532e+01    0.8721473    0.2741783 -52.99  0.002507781    3.712    0.731
        36 -11.1541    133.0000    140.9559   8.1894717957e+01   2.7026799345e+01    0.5431658    0.2079473 -51.41  0.001668496    2.739    0.635
        37  -9.8380    111.4084    149.5801   8.9491887917e+01   2.9010920041e+01     0.360319    0.2190804  67.49  0.001324186    2.798    0.643
        38 -10.2184    174.5803    149.1600   7.3830188882e+01   1.7002591595e+01    0.2740255    0.2191933  38.56  0.000715701    1.290    0.225
        39 -11.0926    104.0931    137.9339   8.8991703076e+01   3.3084179146e+01    0.6026911    0.3340149 -29.24  0.002200016    2.635    0.621
        40 -11.1521    106.0756    130.8123   8.6821347628e+01   3.4442250004e+01    0.3939713    0.3308091 -56.26  0.001187982    1.185    0.156
        41 -12.3925     91.7182    137.3691   9.2375846617e+01   3.5297252224e+01     0.300238    0.2587868 -40.62 0.0003528135    1.138    0.121
        42 -11.2240    135.8077    128.3507   7.8162196040e+01   2.9329378102e+01    0.5606381     0.188055 -47.44  0.001747265    2.948    0.661
        43 -10.8369    112.8164    128.8522   8.4465342095e+01   3.3680615185e+01    0.3611814    0.2864391   3.76 0.0008490693    1.521    0.343
        44  -9.8394     44.1370    216.8095   1.1558061948e+02   2.2914078631e+01     0.176633    0.1479142  76.91 0.0003644249    1.024    0.024
        45 -10.1004    160.8593    128.1151   7.1957769412e+01   2.4203749613e+01    0.2422677    0.2203553 -72.98  0.001244185    1.262    0.207
        46 -11.1449    100.0649    124.7433   8.7121303417e+01   3.6950473501e+01    0.3077597     0.246697  -2.73 0.0007354397    1.489    0.328
        47 -11.6075    119.1377    122.7618   8.1223595733e+01   3.3900213255e+01    0.5731535    0.3784954  -6.44  0.002196411    2.483    0.597
        48 -10.0518    108.6480    118.1382   8.3016382325e+01   3.6958521155e+01    0.2290256    0.2071821  46.62 0.0003414392    1.180    0.153
        49 -10.8147    231.3266    113.8070   5.4926618083e+01   1.2507829329e+01    0.2886016    0.2261185 -39.88 0.0008040788    1.117    0.104
        50 -16.3564      3.4442    109.7229   1.1449415344e+02   5.1716487087e+01     13.28613     1.496068 -71.42   0.03094183    8.016    0.875
        51 -11.7723    116.5825    109.4295   7.8488504565e+01   3.7420555112e+01    0.6204505    0.4912634  47.32  0.002904383    1.346    0.257
        52 -11.3659    119.7834    104.4669   7.6244344207e+01   3.7874123137e+01    0.3118106    0.2637023 -46.03  0.001565549    1.172    0.147
        53 -10.1610    205.5704    110.2149   5.8369185247e+01   1.8271002046e+01    0.2420937    0.2080268  51.71 0.0006082819    1.275    0.216
        54  -9.9116     66.3735    194.3529   1.0835002201e+02   2.5191400247e+01    0.3110742    0.2052331  29.33   0.00105754    1.648    0.393
        55  -8.9795    140.7164    107.6880   7.1566028711e+01   3.2811251593e+01    0.1560802    0.1218417  -3.95 0.0002807023    1.573    0.364
        56 -10.4302    134.5192    105.9972   7.2694890917e+01   3.4489966508e+01     0.362817    0.1465228 -48.66  0.001208866    2.633    0.620
        57 -12.0195    193.0608    195.0053   7.9459877313e+01   4.7140123489e+00     1.257332    0.5925381 -56.70  0.004245824    4.304    0.768
        58  -9.5408    129.0781     96.4718   7.1472616702e+01   3.7637675757e+01    0.2290171    0.1524132  45.67 0.0006518475    1.540    0.351
        59 -11.8912     55.4027     95.3146   9.4181352703e+01   5.0672554032e+01    0.4140732    0.3142047  39.50  0.001213987    1.511    0.338
        60  -9.8229    157.0972     89.2121   6.2567293836e+01   3.2856958579e+01    0.2812666    0.1915912 -65.46  0.001192516    1.997    0.499
        61 -10.3570    151.5136    193.4934   8.8171289641e+01   1.2102196607e+01    0.2565255    0.2316692 -21.64  0.001360073    1.115    0.103
        62  -9.7492    157.6824     82.9597   6.0681767590e+01   3.3872825157e+01    0.2115169    0.1911722 -35.99 0.0004694611    1.091    0.084
        63  -9.2830    184.5868     77.2073   5.3788341963e+01   2.8669995064e+01    0.1968878    0.1379043 -23.65 0.0005618078    1.603    0.376
        64 -11.5272    184.2084    212.3025   8.4468102558e+01   3.0989056159e+00    0.2293692    0.1931891 -26.88  0.001377079    1.202    0.168
        65 -13.6953    185.0179     51.8332   4.6987630166e+01   3.2486795455e+01    0.8868048    0.8393096  19.38 0.0007899631    1.207    0.171
        66 -10.4304    168.0200    232.8465   9.1213863308e+01   2.1268309644e+00     0.254527    0.1776382  35.49 0.0007742936    1.292    0.226
        67 -10.6533     89.2743    211.1256   1.0516868024e+02   1.8338616972e+01    0.2292918    0.1930108  70.55 0.0005517955    1.163    0.140
        68 -11.8239     21.5570     34.6233   8.9506576898e+01   6.6823337278e+01    0.2576477    0.1662237 -24.90   0.00129228    1.296    0.228
        69 -12.1659    222.6681     30.2265   3.7007306103e+01   2.6849076889e+01    0.5254005    0.3304054  29.35  0.002543815    2.908    0.656
        70 -12.0969    147.6146    187.7201   8.8004261863e+01   1.3968644579e+01    0.6245465    0.3837922 -65.67  0.002274456    2.344    0.573
        71 -10.3399    198.2746     23.5467   3.8007093961e+01   3.3017743060e+01    0.2215955    0.2087182  -0.49 0.0006926003    1.321    0.243
        72 -10.1583    189.6614     15.0060   3.6852434099e+01   3.5911687709e+01    0.1737714    0.1544512 -55.75 0.0006736689    1.141    0.123
        73 -10.9107    163.9308    210.8123   8.8482109420e+01   6.6489611409e+00    0.2205909    0.1762027   1.75 0.0008571672    1.293    0.226
