#   1 NUMBER                 Running object number                                     
#   2 MAG_AUTO               Kron-like elliptical aperture magnitude                    [mag]
#   3 X_IMAGE                Object position along x                                    [pixel]
#   4 Y_IMAGE                Object position along y                                    [pixel]
#   5 X_WORLD                Barycenter position along world x axis                     [deg]
#   6 Y_WORLD                Barycenter position along world y axis                     [deg]
#   7 A_WORLD                Profile RMS along major axis (world units)                 [deg]
#   8 B_WORLD                Profile RMS along minor axis (world units)                 [deg]
#   9 THETA_WORLD            Position angle (CCW/world-x)                               [deg]
#  10 FWHM_WORLD             FWHM assuming a gaussian core                              [deg]
#  11 ELONGATION             A_IMAGE/B_IMAGE                                           
#  12 ELLIPTICITY            1 - B_IMAGE/A_IMAGE                                       
         1 -11.2920    204.0588     25.9555   3.7459422522e+01   3.1424273009e+01     1.644151    0.4054928 -40.92  0.006294661    3.322    0.699
         2 -13.3642    219.9235     31.9362   3.7188126961e+01   2.7176069552e+01     2.320078     1.411044 -37.08    0.0130369    1.663    0.399
         3 -13.3549    226.2698     87.9853   4.8782522869e+01   1.7612891036e+01      4.40845     1.167345 -50.64   0.01225198    5.129    0.805
         4 -14.0586    247.8301     83.0237   4.4994988773e+01   1.4165173925e+01     5.517708     1.207078 -35.76    0.0032999    5.036    0.801
         5 -14.9064    241.4457     61.7257   4.1308213991e+01   1.8616211583e+01     3.770946      2.48054  44.60   0.02077794    2.127    0.530
         6 -12.9335    238.2002     44.5671   3.8087905724e+01   2.1680028832e+01     1.071612    0.6576056 -57.55  0.003847111    1.407    0.290
         7 -12.5373    249.3167     34.4515   3.5073397082e+01   2.0790513525e+01    0.8379596    0.5948935 -85.73  0.003374742    1.289    0.224
         8 -13.3887    244.1035     10.7094   3.0880538565e+01   2.4671029689e+01     2.094354    0.9906237 -41.84   0.01200218    1.840    0.456
         9  -9.5452    142.7336     10.4723   4.1132035914e+01   4.7534261214e+01    0.6065868    0.2445968 -12.57  0.002201698    4.605    0.783
        10  -7.3735    189.7308     15.6933   3.6559859815e+01   3.5874388012e+01    0.1151285   0.09263895  45.36 0.0002308668    1.537    0.349
        11 -10.7408    118.9751     10.1356   4.5076992757e+01   5.3162550250e+01    0.6787929    0.3411889  50.35  0.003293667    1.715    0.417
        12  -7.5161    180.3161      6.3260   3.5270910414e+01   3.9023974981e+01    0.1223878   0.08681597  46.56 0.0007044263    1.672    0.402
        13  -8.4355    156.1729     11.7372   3.9565772179e+01   4.4204758184e+01    0.3933907    0.1586553 -18.53  0.001403801    3.717    0.731
        14  -8.1604    166.6709      3.1373   3.5941190489e+01   4.2521896462e+01    0.1596018     0.147457  86.25  0.000566852    1.146    0.127
        15  -8.7410    175.8408    196.9623   8.1328295767e+01   6.9628300167e+00    0.2155373    0.1861137  26.80 0.0002952343    1.095    0.087
        16  -8.5398    197.0142    249.8296   8.5851118387e+01  -5.2171935907e+00    0.1825635    0.1553638  -7.12 0.0004144073    1.159    0.137
        17  -8.8319    192.6817    194.8381   7.7429064543e+01   4.4731057827e+00    0.3996534    0.2294109 -67.72  0.001315174    4.900    0.796
        18  -9.2093     37.4694    195.4241   1.1370985854e+02   2.9030539599e+01    0.2193307     0.196218 -64.36 0.0002637834    1.272    0.214
        19  -9.2333    231.0170    194.6209   7.0100483036e+01  -1.6070233663e+00     0.335544    0.1933982  55.09  0.001527467    3.030    0.670
        20  -9.4118    214.9062    189.1452   7.2007567749e+01   1.8080550782e+00    0.1959467    0.1909644 -40.31  0.001256743    1.274    0.215
        21  -8.3376    204.7504    187.9878   7.3728864920e+01   3.6809975676e+00    0.1973402    0.1391608  11.15 0.0006830571    1.607    0.378
        22 -10.3643    248.7072    185.2859   6.5343961114e+01  -2.6996996999e+00     0.455806    0.2368182 -33.36  0.002382801    1.678    0.404
        23  -7.5100    103.1626    183.8883   9.6031803811e+01   2.2543258261e+01    0.1826502    0.1690123 -17.84 0.0003462032    1.258    0.205
        24  -9.6058    217.6844    181.3347   6.9985789276e+01   2.7128525585e+00    0.2732325     0.154656  17.74  0.001183753    2.516    0.603
        25  -8.6081     39.5703    180.0216   1.1164431139e+02   3.2451466054e+01    0.1987358    0.1857991  37.34 0.0003098284    1.249    0.199
        26  -9.4763    223.2030    178.7951   6.8483135548e+01   2.2533250159e+00    0.2227329    0.1880591  49.85  0.001329415    1.460    0.315
        27  -9.3846    220.0084    175.3307   6.8382659626e+01   3.3804636627e+00    0.2783113     0.168919 -52.76  0.001331616    2.001    0.500
        28  -7.1277    155.3288    178.6605   8.2421310406e+01   1.4359570588e+01    0.1500264    0.1176174  78.97 0.0007051717    1.737    0.424
        29  -8.8693    250.4472    176.7122   6.3447429588e+01  -1.5963294431e+00    0.2401804    0.1056569 -41.31  0.000937421    2.030    0.508
        30  -8.3295    196.9969    175.0229   7.2717694241e+01   7.4090902872e+00    0.2108331    0.1787697  89.13 0.0006132432    1.674    0.403
        31  -8.8534    228.9830    172.7709   6.6276316669e+01   2.3530403851e+00    0.1917007    0.1426093 -54.90   0.00105111    1.640    0.390
        32  -8.5078    224.7581    170.9737   6.6665650486e+01   3.3552173520e+00    0.1822156    0.1028529 -38.18 0.0008844527    1.610    0.379
        33  -8.9188    230.6591    168.0104   6.5044949775e+01   2.8980134370e+00    0.3287299    0.1841092 -56.24  0.001307553    2.594    0.614
        34  -7.2175    135.2429    166.2906   8.4778503560e+01   2.0879178047e+01    0.1430995    0.1171031 -16.49            0    1.468    0.319
        35 -11.5531      4.2543    161.6469   1.1876239190e+02   4.0192242250e+01    0.8652183     0.594978  37.76  0.005337822    1.579    0.367
        36 -11.0414      5.7145    155.9707   1.1790031693e+02   4.1446821628e+01    0.6390827    0.3913646  32.96  0.003690733    1.801    0.445
        37  -9.1001    234.2521    155.4361   6.1917715155e+01   4.4728094707e+00    0.2380109    0.1270341  37.66 0.0008605347    2.143    0.533
        38  -7.6088    235.9920    244.5143   7.7860965325e+01  -9.6165403296e+00    0.1624423   0.09675978  25.72 0.0003737476    1.497    0.332
        39  -8.5302      7.4924    236.4603   1.2288591808e+02   2.3237751932e+01     0.190369   0.08102768 -67.12  0.001028857    2.348    0.574
        40  -9.0327    196.3412    232.4628   8.3261116347e+01  -2.5046947269e+00    0.2516913     0.224142  68.64 0.0007095925    1.696    0.410
        41 -10.2830    216.1823    226.3739   7.8458926151e+01  -4.4349286932e+00    0.2146263    0.1899733  -0.08 0.0002572221    1.150    0.131
        42  -9.1564    184.3430    226.6069   8.4692319856e+01   2.5630476841e-01    0.2638281     0.210198  41.78  0.001039405    1.333    0.250
        43  -7.8007    203.2146    151.4309   6.6609657254e+01   1.0754822996e+01    0.1866448    0.1382131  58.05 0.0005733115    1.623    0.384
        44 -11.2297     53.4318    142.7979   1.0286647169e+02   4.0064068809e+01    0.8350891    0.5550222 -80.72  0.002310985    1.576    0.366
        45 -10.8069     38.5598    147.8363   1.0796872630e+02   4.0511839244e+01     0.587261    0.3528962  12.91  0.001662095    2.245    0.554
        46 -11.3007     46.1201    144.3922   1.0527341495e+02   4.0537711192e+01    0.8615104    0.6862283  89.84     0.003137    1.238    0.192
        47  -8.8374    133.7625    145.8675   8.0859439862e+01   2.5853749721e+01    0.5980883    0.1351881 -53.79  0.001299106    6.395    0.844
        48 -10.7391     67.4153    136.2926   9.7527523110e+01   3.9840654834e+01     1.062413    0.6006155 -64.69  0.004688251    1.737    0.424
        49 -10.1845     66.1455    143.8958   9.9299363653e+01   3.8111833654e+01    0.4265488    0.3675292 -88.16  0.001733494    1.157    0.136
        50  -9.7306    182.2818    143.9612   6.9158772780e+01   1.6342188423e+01    0.2749013    0.2528626 -36.63 0.0002914032    1.048    0.046
        51  -8.7451    125.4716    141.6080   8.2061730719e+01   2.8491392642e+01    0.2657956    0.2537166  -3.45 0.0006136384    1.120    0.107
        52  -8.1357    187.4139    140.8003   6.7395849219e+01   1.5937309604e+01    0.2046173    0.1365299 -32.65 0.0005007272    1.553    0.356
        53  -8.4339    222.3486    136.5902   5.9992480898e+01   9.9129472331e+00     0.494279    0.1829772 -51.79  0.001200545    3.638    0.725
        54  -9.0842    199.8520    134.1819   6.3478535601e+01   1.4720946924e+01    0.5211714    0.2151846  39.95  0.001901952    2.874    0.652
        55  -8.7069    185.6313    222.0410   8.3677891862e+01   8.2355335991e-01    0.2086037    0.1671052  26.97 0.0004440431    1.130    0.115
        56  -9.3270     70.2692    145.5649   9.8388598207e+01   3.7107446824e+01    0.4030124    0.3071923  33.92  0.001469113    1.386    0.278
        57  -8.2245    197.1537    129.1315   6.2850882488e+01   1.6241862880e+01    0.2077165    0.1693491 -65.20  0.001073955    1.359    0.264
        58  -8.4150    160.2129    129.0395   7.0541222777e+01   2.4078204135e+01    0.4122488    0.1994412 -36.75  0.001512106    2.295    0.564
        59  -8.0662    135.1469    119.8524   7.4376735305e+01   3.1466956607e+01      0.21925    0.1852031 -21.32  0.001063819    1.344    0.256
        60  -8.1982    130.7665    115.9916   7.4539973060e+01   3.3253539216e+01    0.2094718    0.2019802 -54.10 0.0003726322    1.032    0.031
        61  -8.6558    186.1232    217.2402   8.2768744743e+01   1.5665585733e+00    0.2021638    0.1794877 -19.92 0.0003977127    1.143    0.125
        62  -8.5242    135.0000    112.9892   7.2673558949e+01   3.3002220451e+01    0.4318244    0.0880352 -45.27  0.001046445    4.890    0.796
        63  -8.7955     73.8390    110.8887   9.0096427101e+01   4.5123007194e+01    0.2541057    0.2129823 -86.00   0.00132465    1.381    0.276
        64  -7.3476    109.3294    110.3336   7.8993445556e+01   3.8940296487e+01    0.1590605     0.122339  -8.13 0.0007051988    1.723    0.419
        65  -8.3282    148.5197    105.0661   6.7275529700e+01   3.1685723165e+01    0.2353341    0.2055654  49.79 0.0005321013    1.148    0.129
        66 -10.0296    134.4500    101.6914   6.9839086301e+01   3.5525722539e+01    0.5850711    0.2418185 -43.30  0.002061733    2.431    0.589
        67 -10.9117    124.3462    103.6117   7.3009382631e+01   3.7319503068e+01    0.5649697    0.3201909  55.44  0.002251924    2.002    0.500
        68  -9.6168    158.9128    101.1316   6.3868411813e+01   3.0120164654e+01    0.5176342      0.28265  40.03  0.002062874    2.067    0.516
        69 -10.0455    186.6460     96.6938   5.7138326302e+01   2.4651927030e+01    0.5540589    0.3862501 -59.87  0.002271473    1.537    0.349
        70  -9.6215    182.6118     92.0923   5.6740600841e+01   2.6404498393e+01    0.3939668    0.2627589  50.62  0.000408492    1.548    0.354
        71 -10.3742    173.9613     95.6566   5.9301024436e+01   2.7726213539e+01    0.9034017    0.3634651  41.03  0.002975734    3.282    0.695
        72 -10.3306    109.0142    100.3263   7.6419354612e+01   4.1222730483e+01    0.5420501    0.3845481  74.42   0.00232626    2.047    0.511
        73  -9.5494    142.0147     95.7601   6.6349891796e+01   3.5040198262e+01    0.3378855    0.2807647  54.92  0.000988794    1.203    0.168
        74  -9.1269    113.4962     95.5145   7.3794910872e+01   4.1333147777e+01    0.2725108    0.1424968 -34.57  0.001031058    2.240    0.554
        75 -10.0847    157.0805     92.9174   6.2108660808e+01   3.2138300835e+01     0.337004     0.283794 -31.95  0.000609051    1.263    0.208
        76  -9.3298    118.8369     93.3963   7.1699739223e+01   4.0647548913e+01    0.2258423    0.1411472  34.94 0.0009552552    1.751    0.429
        77 -10.3175     91.8440     92.6479   7.9510635851e+01   4.6218816472e+01    0.2506805    0.2306419 -49.16 0.0002384358    1.099    0.090
        78  -7.3554    103.6225     92.2372   7.5756109988e+01   4.4038829303e+01    0.1491455    0.1163558  70.75 0.0006918928    1.623    0.384
        79  -9.0435    130.9336     89.3370   6.7327977570e+01   3.8815874734e+01    0.3414916    0.2049045 -77.10   0.00108147    3.850    0.740
        80  -8.1828    149.3117     86.3164   6.2050223711e+01   3.5191556053e+01    0.1507806    0.1205444  12.97 0.0006807603    1.640    0.390
        81  -9.1979    157.2972     83.5370   5.9536181651e+01   3.3839357077e+01    0.3303936    0.2345635 -86.51  0.001234388    1.894    0.472
        82  -9.0422    140.4945     82.4525   6.3013682710e+01   3.7958944321e+01    0.3273158    0.1474712 -41.17  0.001232186    2.249    0.555
        83  -7.3715    154.7141     71.3325   5.6712083427e+01   3.6597305031e+01    0.1505335     0.111316 -73.28 0.0006093327    1.620    0.383
        84  -8.0854    139.9705     70.9298   5.9815603750e+01   4.0150940917e+01    0.1719184    0.1667757  68.36 0.0003912951    1.012    0.012
        85  -8.4015    192.5193     69.3339   4.9369644014e+01   2.8014231666e+01     0.306916    0.1893692 -65.13 0.0008883848    1.877    0.467
        86  -8.6615    192.8216     63.8204   4.7960913687e+01   2.8811749532e+01    0.2935246    0.1831032 -40.50  0.001015164    1.565    0.361
        87  -8.8809    172.5349     64.8957   5.1546474277e+01   3.3407527194e+01    0.2982672    0.1867033  80.97  0.001322776    1.952    0.488
        88  -8.6849    135.3604     62.0729   5.8246602312e+01   4.2717543194e+01    0.3439223    0.1401904 -35.62  0.001277269    2.616    0.618
        89  -7.7311    213.3845    214.7122   7.6976507378e+01  -2.2154705462e+00    0.1650198    0.1093398 -26.38 0.0003441655    1.459    0.315
        90  -8.3044    198.1302     50.2939   4.3902857556e+01   2.9594598475e+01    0.2606058    0.2171473 -29.45   0.00152592    1.399    0.285
        91  -7.7923    199.3089     59.6858   4.6007032356e+01   2.7952693672e+01    0.2144963    0.1306982 -40.51   0.00106133    1.587    0.370
        92  -9.1546    197.4203     55.8336   4.5339278095e+01   2.8957496744e+01    0.4588056    0.2974757  48.37  0.002326552    1.770    0.435
        93  -8.0781    186.4354     59.2343   4.7787888995e+01   3.0999915790e+01    0.1932393    0.1202075 -50.46 0.0008827068    1.575    0.365
        94  -9.6597    169.2936     56.5931   4.9889816066e+01   3.5466347844e+01    0.4556555     0.307851 -10.78  0.002074874    2.277    0.561
        95  -8.5151    190.5401     56.5322   4.6493104263e+01   3.0445642187e+01    0.4564615    0.2344911 -61.05  0.001899715    2.391    0.582
        96  -8.2247    191.6844     53.6695   4.5616651238e+01   3.0599726930e+01    0.2053629    0.1694223  78.17 0.0006460052    1.145    0.127
        97 -10.0299    163.2281     53.7418   5.0173190465e+01   3.7348240005e+01    0.4346315    0.2281009 -33.37  0.001910079    2.057    0.514
        98  -8.8758    136.9667     49.6403   5.4109410453e+01   4.4252509896e+01    0.2048172    0.1790622  64.29 0.0005704471    1.074    0.069
        99 -10.2471    151.6734     46.8275   5.0323701033e+01   4.1129713616e+01    0.5115772    0.2291394 -43.09  0.002118855    2.322    0.569
       100  -7.3421    123.3026     48.2847   5.6776025991e+01   4.7654664411e+01    0.1408525    0.1042222  27.25 0.0003072394    1.557    0.358
       101  -8.4851    188.4096     45.2692   4.3986892126e+01   3.2552911928e+01    0.3637622     0.130605 -41.50  0.001446057    2.600    0.615
       102  -8.6695    206.0499     44.4581   4.1517304946e+01   2.8603711303e+01    0.2439477    0.1857513 -45.43 0.0006150065    1.280    0.218
       103  -7.6698    162.1739     43.8878   4.7625526969e+01   3.9001629394e+01    0.1732759    0.1574206  37.54 0.0002621358    1.256    0.204
       104 -10.8760    140.8329     42.1767   5.1036021918e+01   4.4375971568e+01    0.6190093     0.368383  78.43  0.002753468    2.068    0.516
       105  -8.5677    154.7718     42.1894   4.8423932618e+01   4.1018564265e+01    0.1996464    0.1732219 -78.25 0.0003359911    1.155    0.134
       106  -9.7957    192.2210     38.9782   4.1923558784e+01   3.2507337025e+01    0.5112315    0.3452922 -86.37  0.001961849    1.499    0.333
       107  -8.4178    188.5087     37.4663   4.2029613428e+01   3.3571257823e+01    0.2688938    0.2051957  36.60   0.00112934    1.731    0.422
       108  -9.4911    141.6841     36.6337   4.9190186766e+01   4.4898863799e+01    0.3558474    0.2014004  24.54  0.001394858    3.151    0.683
       109 -10.0080    122.9892     35.9049   5.2822375538e+01   4.9419143959e+01    0.4571388     0.237478 -27.34 0.0003655668    2.212    0.548
       110  -8.5367    133.5284     31.9162   4.9319668642e+01   4.7433674245e+01    0.2188888    0.1646879  62.01 0.0006282025    1.196    0.164
       111 -12.1391    173.8189     83.3541   5.6163029517e+01   3.0000515606e+01     1.511381    0.8874843  39.74  0.001991126    2.072    0.517
       112  -7.8342    117.0025     20.9993   4.9152647971e+01   5.2549724962e+01    0.2031471    0.1383397  34.08 0.0004988248    1.559    0.359
       113  -9.0205    135.9834     15.9949   4.3895427440e+01   4.8607292094e+01    0.2637523    0.1579115  16.16   0.00121203    2.671    0.626
       114  -7.3301     78.6821     20.3240   5.8857837249e+01   6.0907473554e+01    0.1175572    0.1013081 -79.51 0.0002570282    1.671    0.402
       115  -8.3981    210.3730     16.2005   3.4649100917e+01   3.1144136965e+01    0.2968908    0.1664764 -88.05  0.001373412    1.716    0.417
       116  -8.1115    163.1752     15.5825   3.9683122496e+01   4.2145328974e+01     0.202433    0.1551218 -47.17  0.000539502    1.374    0.272
       117 -10.1748    153.1138    211.3976   8.8784154741e+01   8.0772184804e+00    0.2398567    0.2183722 -52.80 0.0001818284    1.230    0.187
       118  -8.0777    104.9802    207.3260   9.9149368594e+01   1.6938799427e+01    0.1860794    0.1610572  43.72 0.0002955569    1.077    0.071
       119  -9.5887    123.9989    205.9929   9.4509508173e+01   1.4102977700e+01    0.1980603    0.1827228  43.91  0.001159293    1.006    0.006
       120  -7.5444    207.3403     10.2635   3.3611587363e+01   3.2465282334e+01    0.1143761   0.08482617  54.66  0.000697365    1.593    0.372
       121  -8.5775    242.3152    200.6636   6.9248553951e+01  -4.1842429999e+00    0.1102597    0.0986364 -61.86 0.0007047382    1.694    0.410
       122  -9.4729    248.5293    195.8957   6.7335222433e+01  -4.3150038774e+00    0.2239795    0.1915254  -3.71   0.00125717    1.102    0.093
