#   1 NUMBER                 Running object number                                     
#   2 MAG_AUTO               Kron-like elliptical aperture magnitude                    [mag]
#   3 X_IMAGE                Object position along x                                    [pixel]
#   4 Y_IMAGE                Object position along y                                    [pixel]
#   5 X_WORLD                Barycenter position along world x axis                     [deg]
#   6 Y_WORLD                Barycenter position along world y axis                     [deg]
#   7 A_WORLD                Profile RMS along major axis (world units)                 [deg]
#   8 B_WORLD                Profile RMS along minor axis (world units)                 [deg]
#   9 THETA_WORLD            Position angle (CCW/world-x)                               [deg]
#  10 FWHM_WORLD             FWHM assuming a gaussian core                              [deg]
#  11 ELONGATION             A_IMAGE/B_IMAGE                                           
#  12 ELLIPTICITY            1 - B_IMAGE/A_IMAGE                                       
         1 -14.1931     68.4232    144.4202   1.0044115930e+02   3.6995897835e+01     4.952765     2.610765  72.23  0.005386839    4.202    0.762
         2 -13.9585    225.0767     22.1310   3.4992002321e+01   2.7292116393e+01     1.179183    0.9613486  37.71  0.004280977    1.671    0.402
         3 -13.8269    199.9292     43.5536   4.2743311258e+01   3.0183016967e+01     1.274939     1.026132  21.61   0.00282687    1.671    0.401
         4 -14.1491    208.9307     37.2510   4.0101314038e+01   2.8975315842e+01     1.615212     1.264444 -16.94  0.007851848    1.585    0.369
         5 -11.8559    249.2229      3.5898   2.9372612146e+01   2.4423806415e+01    0.3108035    0.3036971  30.07  0.001767122    1.494    0.330
         6 -11.9079    245.1956      2.3965   2.9398173599e+01   2.5331466887e+01    0.3577861    0.2264939  77.64  0.001932822    1.505    0.335
         7 -10.8988     30.3600    155.7578   1.1262162565e+02   3.8484000405e+01      0.43786    0.2081497  26.80  0.001507842    2.390    0.582
         8 -10.9443    139.8296    248.9152   9.9254488430e+01   3.6750770164e+00    0.2584772    0.1788833 -63.14  0.001516575    1.912    0.477
         9 -13.7527      3.6332    183.8067   1.2161577043e+02   3.4119751670e+01     1.563291    0.6846439  87.41  0.003533329    2.181    0.542
        10 -13.0915     85.7395    221.7999   1.0723296641e+02   1.6596912369e+01    0.9532911    0.6434731  65.84 0.0005339087    1.572    0.364
        11 -16.3104     41.0531    193.1468   1.1407245549e+02   2.8489858976e+01     10.57343     4.629096  69.05   0.04175981    3.262    0.693
        12 -13.3374     33.2216    203.0862   1.1671591197e+02   2.7085670027e+01    0.7204424    0.4282227 -44.09  0.001362034    2.287    0.563
        13  -8.8153    120.0165    194.0450   9.5576447298e+01   1.7312964759e+01    0.1605688    0.1589497 -65.98 0.0003580241    1.052    0.050
        14 -15.7210     41.1485    248.7896   1.1860093384e+02   1.6852112127e+01     9.841647     2.768564  25.59   0.02151393   14.988    0.933
        15  -9.4241     82.5119    182.4526   1.0286055366e+02   2.5757150791e+01    0.1379372    0.1286826  78.92 9.595862e-05    1.015    0.015
        16  -9.4960     99.2205    180.7927   9.8450469736e+01   2.3639000144e+01    0.2092569    0.1860028  70.52 0.0005825799    1.151    0.131
        17 -13.4003     57.6417    240.9000   1.1488776251e+02   1.6428793086e+01    0.6865869    0.4194577  62.71  0.002668462    1.509    0.337
        18 -12.0904     61.2081    176.3523   1.0731655113e+02   3.0077375429e+01     0.452312    0.2910308 -32.98  0.002003838    2.151    0.535
        19 -11.9864     66.2829    171.2859   1.0533002105e+02   3.0650600027e+01    0.3212182    0.2757846 -31.29 0.0008992263    1.371    0.271
        20 -13.5751     63.2944    157.6730   1.0408182466e+02   3.4372315726e+01    0.5319701    0.3756058 -45.72  0.001574282    1.463    0.317
        21 -12.4972     83.4961    155.2867   9.8184548274e+01   3.2167023870e+01     1.100872    0.5231489 -50.24  0.001823816    2.013    0.503
        22 -12.1714     76.3036    161.4611   1.0119080161e+02   3.1691144392e+01    0.5704101    0.3753383 -53.54 0.0005162014    1.451    0.311
        23 -10.0148    173.4051    243.1890   9.1699887491e+01  -3.4839987274e-01     0.243194    0.1559917 -49.31  0.001029539    1.942    0.485
        24  -9.8111    174.7822    148.9224   7.3731604673e+01   1.7011706892e+01    0.2813817    0.2105231 -58.52 0.0007357473    1.584    0.369
        25 -10.5923    133.6771    144.3292   8.2492487776e+01   2.6124397366e+01     1.126161    0.2555608 -53.77   0.00220531    8.014    0.875
        26  -9.5128    146.4849    172.0424   8.5244028279e+01   1.7509950403e+01    0.2214394    0.1463131 -50.31  0.001012809    1.560    0.359
        27 -10.0221     97.6922    141.6797   9.1593286802e+01   3.3265977754e+01    0.2758186    0.2603773 -75.46 0.0006932296    1.086    0.079
        28 -10.1020    100.3181    139.3181   9.0352352747e+01   3.3398183607e+01    0.3779517    0.2470297 -27.34  0.001602764    1.956    0.489
        29 -12.4497     85.9001    140.1086   9.4612096477e+01   3.5543578146e+01    0.3157191    0.2588515 -44.69 0.0004505455    1.183    0.155
        30  -9.9154    198.3652    140.0243   6.6754461557e+01   1.4131829110e+01    0.3438111    0.2198181 -59.56  0.001083173    2.138    0.532
        31 -10.2897     32.9582    143.6288   1.1037048287e+02   4.1231327392e+01    0.3872253     0.214211  36.23  0.001944952    1.962    0.490
        32 -11.6647     75.6225    136.2283   9.6811845841e+01   3.8035500527e+01    0.3757889    0.2864833  60.84 0.0004673068    1.532    0.347
        33 -11.2708     66.9505    126.9829   9.7546211260e+01   4.1533929209e+01    0.5624188    0.2966744 -60.03  0.002430006    1.772    0.436
        34  -9.6815     23.6935    133.2040   1.1158148294e+02   4.4624345735e+01    0.2027206    0.1651798  56.10 0.0006991631    1.362    0.266
        35 -10.9131    107.3610    130.8405   8.6464702908e+01   3.4205557850e+01    0.5570056    0.3369584  32.67  0.002328471    1.772    0.436
        36 -10.2978    135.2823    128.7069   7.8385595853e+01   2.9355332997e+01    0.3616856    0.2234419 -50.01  0.001526277    1.629    0.386
        37 -13.6640     16.6513    216.5770   1.2112341415e+02   2.5825685433e+01    0.8136607    0.4417879  33.22  0.004140972    1.923    0.480
        38 -10.5463     96.4399    126.5335   8.8600000263e+01   3.7145897237e+01    0.3201666    0.2492049 -15.55 0.0009488513    1.531    0.347
        39  -9.5982    115.7933    124.7883   8.2651840967e+01   3.4072370379e+01     0.259253    0.1654654 -10.29 0.0009377997    2.713    0.631
        40 -14.7725     10.2682    206.6196   1.2175118217e+02   2.8526750009e+01    0.9757795    0.7737809  20.56  0.003515595    1.674    0.403
        41  -8.6225    163.6350    121.2938   6.9617404930e+01   2.5042741015e+01     0.155639    0.1248259 -88.37 0.0007029239    1.713    0.416
        42  -9.6418    135.0000    119.9946   7.6271290311e+01   3.1355325467e+01    0.2616806   0.08722506 -45.17 0.0007986504    2.916    0.657
        43  -9.8893    106.3148    119.1943   8.3954310557e+01   3.7143123796e+01    0.2293437    0.2021652   9.87  0.000413441    1.213    0.175
        44  -9.0206    167.7444    112.9671   6.6573018227e+01   2.5854525530e+01    0.2674059    0.1717213  89.82 0.0008778172    3.631    0.725
        45 -10.1096    205.1269    110.4126   5.8495613349e+01   1.8327282114e+01    0.3172781    0.2567687  43.22  0.001070457    1.345    0.256
        46 -11.6970    245.6983    109.4861   5.1847807142e+01   1.0564149665e+01    0.3536259    0.1542873 -44.54  0.001550464    2.025    0.506
        47  -9.7237    134.5283    106.0109   7.2696252983e+01   3.4485122079e+01    0.2473541    0.1502704 -42.89  0.001036173    1.605    0.377
        48 -10.6624     53.0378     90.7959   9.3873408998e+01   5.2006821551e+01    0.3204693    0.1748334 -49.14  0.001007311    1.589    0.371
        49  -9.9373     41.6686     91.9195   9.8222714612e+01   5.3024397354e+01    0.2137732    0.1725219 -20.54 0.0004521964    1.257    0.204
        50  -9.7943    234.1572     86.1855   4.8287672756e+01   1.6530097532e+01     0.188813     0.141711 -58.12 0.0004819586    1.314    0.239
        51  -9.3360    160.5162     82.4862   5.9936607738e+01   3.3305691759e+01    0.1477819    0.1453969 -20.30 0.0003354431    1.010    0.010
        52  -8.6205     71.3604     82.7136   8.5152516947e+01   5.1305745407e+01    0.1370159    0.1150463  73.36 0.0007022385    1.684    0.406
        53 -10.6986    243.4910     77.9359   4.5262547875e+01   1.5984089430e+01     0.205464    0.1115907 -38.65  0.000913392    1.582    0.368
        54 -11.4669     13.4957     60.3634   1.0139101864e+02   6.2428210839e+01    0.3837693    0.1861758 -58.75 0.0006828095    1.788    0.441
        55  -8.7911     24.9546     57.9805   9.5800231465e+01   6.2055999780e+01    0.1522331    0.1238056 -27.80 0.0004156106    1.044    0.042
        56  -9.5365    171.2300    239.2046   9.1536179750e+01   6.0389165890e-01    0.2127459    0.1726231 -83.09  0.001236828    2.088    0.521
        57 -12.6371    217.2171     29.7146   3.7439929906e+01   2.8085062109e+01    0.5183656    0.4086719  50.24  0.001102023    1.497    0.332
        58 -10.2658    107.8356    203.8756   9.9949048657e+01   1.7129608284e+01    0.1977342    0.1847644  -4.51 0.0004239027    1.198    0.165
        59 -11.5095    194.6674    197.9923   7.9700428573e+01   3.9163711793e+00    0.4299087    0.3610421  85.62  0.001821442    2.016    0.504
        60 -10.3630    135.0768     41.5800   5.3074770496e+01   4.5707649878e+01    0.2832453    0.2365577 -81.14 0.0005098289    1.437    0.304
        61 -10.0685    135.1455     33.9627   5.0596325156e+01   4.6665220486e+01    0.1973275    0.1872903  63.96 0.0004134674    1.064    0.060
        62  -9.0853     45.2081     61.1274   8.8308151644e+01   5.9344032123e+01    0.1593274    0.1563515   8.46 0.0005856006    1.304    0.233
        63  -9.7876    189.5047     15.0712   3.6885950240e+01   3.5940915038e+01    0.1779982    0.1212172 -33.30 0.0007087144    1.553    0.356
        64 -15.8379      7.7360    241.7930   1.2418770508e+02   2.1624045119e+01     2.196465     1.747935 -78.52   0.01720511    1.357    0.263
        65 -11.1775    192.6534    193.9800   7.9346797756e+01   4.9663329367e+00    0.5730426    0.3334202 -64.50  0.002022864    4.282    0.766
