#   1 NUMBER                 Running object number                                     
#   2 MAG_AUTO               Kron-like elliptical aperture magnitude                    [mag]
#   3 X_IMAGE                Object position along x                                    [pixel]
#   4 Y_IMAGE                Object position along y                                    [pixel]
#   5 X_WORLD                Barycenter position along world x axis                     [deg]
#   6 Y_WORLD                Barycenter position along world y axis                     [deg]
#   7 A_WORLD                Profile RMS along major axis (world units)                 [deg]
#   8 B_WORLD                Profile RMS along minor axis (world units)                 [deg]
#   9 THETA_WORLD            Position angle (CCW/world-x)                               [deg]
#  10 FWHM_WORLD             FWHM assuming a gaussian core                              [deg]
#  11 ELONGATION             A_IMAGE/B_IMAGE                                           
#  12 ELLIPTICITY            1 - B_IMAGE/A_IMAGE                                       
         1 -12.3813    155.5923     50.0776   8.5422212716e+01   3.9701325573e+01     1.155701     1.031169   6.89  0.004224674    1.140    0.123
         2 -12.0302    166.9903     19.4661   7.3341521220e+01   4.0731754120e+01    0.9940115    0.9029946  27.87  0.005764203    1.113    0.101
         3  -9.1415    120.2717      8.9348   7.8317878941e+01   5.3256041487e+01    0.3315627    0.2714857  31.17  0.001143319    1.098    0.089
         4 -10.0859    204.9056    175.9011   1.0773464436e+02   7.0651058175e+00    0.3571765    0.3132826  55.83  0.001217802    1.375    0.273
         5  -9.3475    148.9834    248.9961   1.2947878430e+02   5.8799622611e+00    0.2748159    0.1639819  37.87 0.0009691979    1.381    0.276
         6  -8.8098    155.7547    248.5493   1.2826504468e+02   4.9044036891e+00    0.2324406    0.1700188  33.14  0.001178293    1.225    0.184
         7  -8.8936    153.1958    246.2352   1.2843049822e+02   5.6081257770e+00    0.2184891    0.1666402  13.88 0.0009601176    1.649    0.394
         8 -18.6221     79.8796    230.3102   1.3954868172e+02   1.8749851859e+01     4.619884     3.756786  66.53     0.014365    1.063    0.059
         9  -9.2675    194.6899    182.9796   1.1105349357e+02   7.8713008158e+00    0.2943468    0.2533558  66.74 0.0006119625    1.503    0.335
        10 -11.8205     11.5069    206.7393   1.4959720668e+02   3.0644228454e+01    0.4523581    0.3700971  80.04  0.002584937    1.207    0.172
        11  -9.0306      9.8790    168.7098   1.4750352515e+02   3.8124373186e+01    0.1998478    0.1362863 -63.82 0.0006885424    1.489    0.328
        12  -8.9065    170.0428    195.6857   1.1811615596e+02   1.0347714872e+01    0.2674404     0.257357  31.84  0.001577098    1.116    0.104
        13  -9.8360    200.5041    168.2197   1.0703767982e+02   9.1164790432e+00     0.352362    0.3265258 -67.40  0.001901159    1.404    0.288
        14 -10.6944    193.3601    166.4341   1.0806721820e+02   1.0795944710e+01    0.5418478    0.3750543 -52.15   0.00140821    1.818    0.450
        15  -9.0880    203.8564    163.0464   1.0532592631e+02   9.2990830750e+00    0.3830088    0.1936691 -39.71   0.00138542    2.079    0.519
        16 -10.2325    177.2574    224.1451   1.2122323024e+02   4.8050310612e+00    0.6393132     0.287036 -43.52  0.002839447    2.707    0.631
        17  -8.5777    188.5417    159.2020   1.0753018284e+02   1.2969468233e+01    0.4491086    0.1824216  32.61  0.001509305    3.300    0.697
        18  -9.1620    159.1193    157.8878   1.1338834573e+02   1.9062789029e+01    0.2097273     0.188548  75.46 0.0005259537    1.265    0.209
        19  -7.9535    163.7471    156.2061   1.1205151653e+02   1.8464639960e+01    0.2015828    0.1658389   9.85  0.001063347    1.371    0.271
        20  -8.3967     18.2154    155.0753   1.4470657180e+02   4.0245014970e+01    0.1803805    0.1425236 -43.04 0.0007074139    1.674    0.403
        21  -8.3792     27.7649    146.9033   1.4181650560e+02   4.1146498408e+01    0.2803082    0.1344765 -80.58  0.001477245    1.902    0.474
        22  -9.0891     20.7221    146.7140   1.4337942357e+02   4.1809371972e+01    0.2910544    0.1783378 -40.94  0.001114993    2.232    0.552
        23  -9.3605    159.6476    145.4381   1.1066329834e+02   2.1335919184e+01    0.5079474    0.3265845  55.05  0.001540563    1.704    0.413
        24  -8.0196    231.7987    229.7537   1.1251680243e+02  -4.6571091474e+00    0.1410312    0.1253001  24.50 0.0004738902    1.333    0.250
        25  -9.0283     11.7221    144.3068   1.4515233092e+02   4.3055540424e+01    0.3372517    0.1959852 -36.17  0.001925783    2.674    0.626
        26  -9.4884     25.9669    137.8161   1.4124192408e+02   4.3283128615e+01    0.3120645    0.2132899 -18.11  0.001739711    2.435    0.589
        27  -9.8010    173.4937    198.4915   1.1791459545e+02   9.2814727765e+00    0.3486136    0.1821326 -46.88  0.001698432    2.252    0.556
        28 -10.1044    145.3274    190.8768   1.2224976456e+02   1.5559597383e+01    0.3482499    0.2681022 -50.01  0.001489999    1.454    0.312
        29  -8.1633    194.5009    130.8652   9.9983096577e+01   1.6676072776e+01    0.2068811    0.1885744  23.97 0.0003781213    1.056    0.053
        30  -9.0618    216.0123    190.5324   1.0848148431e+02   2.8764275880e+00    0.2028191    0.1144311  39.95  0.001032531    1.595    0.373
        31  -9.3420    161.0594    128.9063   1.0659311339e+02   2.4252793943e+01    0.3247024    0.3004953 -86.70  0.001754063    1.239    0.193
        32 -10.1953    122.8138    127.8326   1.1536259411e+02   3.2197547267e+01    0.3477089    0.2613509  35.74  0.001149144    1.393    0.282
        33  -9.3581    126.9511    126.0024   1.1393011006e+02   3.1798853120e+01    0.2248991    0.2065444  42.36            0    1.100    0.091
        34 -10.3999    240.4846    122.2714   8.9601303615e+01   8.3769762245e+00    0.2802897    0.2495934  25.62 0.0002753685    1.140    0.123
        35  -8.6713      6.1482    229.6784   1.5158351346e+02   2.7109618235e+01    0.1392524   0.08986104  64.56 0.0005723989    1.128    0.114
        36 -14.9334     70.8888    208.1886   1.3914020203e+02   2.3831341804e+01     1.282212    0.3734592  51.41  0.005386784    3.265    0.694
        37  -9.0506    106.8831    115.5895   1.1662900959e+02   3.7747203171e+01    0.2745087    0.2033279 -57.29 0.0007577013    1.342    0.255
        38  -7.9794     37.8680    116.7348   1.3547244400e+02   4.6875832269e+01    0.2002003    0.1142618  17.46  0.001044671    2.472    0.595
        39  -9.5398    166.4840    246.5355   1.2617262896e+02   3.5124195784e+00    0.2602169    0.2042628  -0.39  0.001733327    1.639    0.390
        40  -9.0165     52.2447    111.2251   1.3062596490e+02   4.6625806863e+01    0.4097805    0.1862398 -40.88  0.001754812    2.690    0.628
        41 -11.2572     63.1743    107.9164   1.2692415509e+02   4.6076865410e+01    0.8462713    0.5329347 -28.12  0.003944828    2.186    0.543
        42  -9.8985     67.4253    100.9899   1.2424221135e+02   4.7085253019e+01     0.596302    0.2429937  26.69  0.002303874    3.410    0.707
        43  -9.8082    164.7281    180.8557   1.1659805387e+02   1.3813341818e+01    0.3625271    0.2795768 -83.05  0.001128967    1.903    0.474
        44  -7.8263    186.5190    108.4821   9.6024919561e+01   2.2432899059e+01    0.1531289    0.1439811   3.73 2.307254e-06    1.032    0.031
        45  -8.2975     83.4251    105.0039   1.2056288371e+02   4.3930484858e+01    0.2055748    0.1789385  40.19 0.0005891329    1.251    0.200
        46  -9.0928    243.2889    103.3808   8.4665509684e+01   1.0646414221e+01    0.2404939    0.1564794 -47.84  0.000543146    1.691    0.409
        47 -10.7912    127.8540    114.4086   1.1095150614e+02   3.4066267021e+01    0.4875843    0.3675146 -82.51  0.001403575    1.844    0.458
        48 -10.9540    118.6846    101.9101   1.1012821182e+02   3.8489811708e+01    0.3968666    0.3773007  71.28  0.002223841    1.140    0.123
        49  -8.9714     11.9068    213.9414   1.4991772594e+02   2.9307400162e+01    0.1738068    0.1115463 -84.57 0.0004761771    1.322    0.243
        50  -7.7779     82.4777     94.4320   1.1829163140e+02   4.6400076131e+01    0.1374153    0.1268376 -51.85 0.0002620901    1.037    0.035
        51  -9.6143    222.1789    178.2006   1.0498765891e+02   3.5301888068e+00    0.2899787     0.224959 -48.25 0.0009223984    1.700    0.412
        52  -8.9054     58.4510     91.8920   1.2487576678e+02   5.0238380697e+01    0.2346204    0.1864983  15.85  0.001046972    1.509    0.337
        53  -9.7419     66.3732     91.1289   1.2228771159e+02   4.9409028943e+01    0.5204598    0.1867067  36.32  0.001959015    3.057    0.673
        54  -7.6735     34.5485     85.4727   1.3089851842e+02   5.4167094428e+01    0.1252261    0.1018549 -56.98 0.0001892015    1.004    0.004
        55  -9.6724    197.0725    177.1654   1.0948051558e+02   8.3419189934e+00    0.3343192    0.2477406  37.79  0.001275868    1.232    0.188
        56  -7.8521     48.9924     82.0000   1.2553812055e+02   5.3496254560e+01    0.1835264   0.07467658  29.33 0.0007072212    2.890    0.654
        57 -11.5527    145.7925     63.2669   9.1851069171e+01   3.9991179236e+01    0.8177177    0.6562352 -85.27   0.00247151    1.684    0.406
        58 -10.0597    156.1257     64.6867   8.9968382173e+01   3.7290981539e+01    0.2853596     0.220127 -20.85 0.0004346339    1.341    0.255
        59  -8.2761    193.9132     60.5381   8.1378859019e+01   2.8598843168e+01    0.2078699    0.1901319 -22.19 0.0003731028    1.090    0.082
        60  -9.4451    169.9906    240.4325   1.2478095837e+02   3.7630918068e+00    0.3173529    0.2522334 -33.25  0.001195556    1.578    0.366
        61 -10.8897    160.0502     40.1384   8.1285542917e+01   3.9995467631e+01    0.5107312     0.481159  -3.05 0.0007848974    1.067    0.063
        62  -8.9078    134.0402     49.9594   9.0228849770e+01   4.4877417259e+01    0.2144038    0.2054839   3.48            0    1.041    0.039
        63  -9.7618    248.9322     46.6168   7.0034461531e+01   1.7396108720e+01    0.2678951    0.2468029  -7.75 0.0007076142    1.185    0.156
        64  -7.6396    189.9910     33.7416   7.4181097181e+01   3.3227755261e+01    0.1776576    0.1207043  63.65 0.0003630952    1.434    0.303
        65 -10.6636    163.0156    245.5038   1.2664312463e+02   4.1860736290e+00    0.2485521    0.2035773  16.46  0.001794016    1.354    0.261
        66 -10.2141    143.4734     26.1565   7.9830786922e+01   4.5872496721e+01    0.2596628    0.2355157  22.94 0.0003204663    1.055    0.053
        67  -8.3176    189.5161     15.5093   6.8877749828e+01   3.5409177531e+01    0.1375437    0.1298468  68.85 0.0008103415    1.017    0.017
