#   1 NUMBER                 Running object number                                     
#   2 MAG_AUTO               Kron-like elliptical aperture magnitude                    [mag]
#   3 X_IMAGE                Object position along x                                    [pixel]
#   4 Y_IMAGE                Object position along y                                    [pixel]
#   5 X_WORLD                Barycenter position along world x axis                     [deg]
#   6 Y_WORLD                Barycenter position along world y axis                     [deg]
#   7 A_WORLD                Profile RMS along major axis (world units)                 [deg]
#   8 B_WORLD                Profile RMS along minor axis (world units)                 [deg]
#   9 THETA_WORLD            Position angle (CCW/world-x)                               [deg]
#  10 FWHM_WORLD             FWHM assuming a gaussian core                              [deg]
#  11 ELONGATION             A_IMAGE/B_IMAGE                                           
#  12 ELLIPTICITY            1 - B_IMAGE/A_IMAGE                                       
         1 -12.9875    219.5527     35.8336   3.8074730124e+01   2.6759320841e+01     1.063066    0.9514127  63.42  0.005515879    1.337    0.252
         2 -12.1622    226.1861     29.6535   3.6104391971e+01   2.6118618157e+01    0.5764915    0.4502622  65.41  0.001615172    1.408    0.290
         3 -10.8933      1.8692     19.3490   9.3047371951e+01   7.1708719873e+01    0.4281241    0.1011534 -49.40  0.001863369    3.289    0.696
         4 -10.6253      2.1166      4.8648   8.6537937410e+01   7.3910793511e+01    0.4637933    0.1510283 -46.75  0.002271039    3.073    0.675
         5 -12.5470    244.9775     13.3914   3.1332687637e+01   2.4194400221e+01    0.6881084    0.4428554 -63.30  0.002669392    1.238    0.192
         6  -8.7517     92.3477      1.9560   4.7776136180e+01   5.9827676005e+01    0.1604712    0.1459589  24.58 0.0006396169    1.144    0.126
         7  -8.2741     49.6414    237.6973   1.1470881189e+02   1.8322601534e+01    0.1670405    0.1423758 -28.53  0.001084762    1.784    0.439
         8 -12.2881     86.2034    234.7390   1.0676976390e+02   1.4025186893e+01     1.620664    0.8159424 -50.10  0.007829542    2.441    0.590
         9  -9.3833     28.5462    244.6490   1.1935910088e+02   1.9403623418e+01    0.2311029    0.1693369  78.30 0.0006499684    1.153    0.133
        10 -12.8760     35.1692    249.3780   1.1839274739e+02   1.7727864748e+01      3.46629    0.5879338  30.53  0.008893305    9.441    0.894
        11 -12.1015     58.8355    246.3759   1.1354910846e+02   1.5432929789e+01    0.7872956    0.5981146  56.45  0.002519248    1.056    0.053
        12 -13.8831    119.5384    230.6371   9.9046066521e+01   9.8131321298e+00     8.840906     1.152991  43.38   0.02127389    6.834    0.854
        13  -9.5336     58.9879    230.5970   1.1216763155e+02   1.8602563291e+01    0.2659731    0.1713484 -76.64   0.00089541    1.577    0.366
        14 -11.9565     20.1383    206.1838   1.1850779171e+02   2.8416903334e+01    0.3560823     0.300103 -47.78   0.00078556    1.558    0.358
        15 -11.2765    161.3284    225.7009   8.9309813098e+01   4.0518682180e+00    0.4301859    0.2555518  19.41  0.002047599    1.963    0.491
        16  -9.1530     77.2660    226.4090   1.0781663428e+02   1.7009266036e+01    0.2165834    0.1692592 -77.42 0.0004994207    1.329    0.247
        17 -10.5482     43.6321    218.0822   1.1435698185e+02   2.3192411737e+01    0.3552864    0.2169258  48.01 0.0004069311    1.429    0.300
        18 -11.5706     85.6195    222.6360   1.0555129025e+02   1.6606683554e+01    0.7033489    0.4268234  60.57  0.001798944    1.691    0.409
        19 -11.9074    103.4193    239.1818   1.0358412388e+02   1.0624764743e+01    0.4775856    0.3494221  43.50  0.002843584    1.160    0.138
        20  -9.0522    192.2250    193.2278   7.7219810025e+01   4.8452948887e+00    0.3046784    0.1754792 -66.68  0.001057665    4.247    0.765
        21 -11.4395     51.0418    179.5095   1.0869210600e+02   3.1223986827e+01    0.7487555    0.4515991 -27.39  0.002588292    2.958    0.662
        22 -10.8867     57.9673    173.1592   1.0609620965e+02   3.1900907207e+01    0.3089748    0.2638913 -45.97 0.0004908484    1.326    0.246
        23  -7.9093     99.3409    181.2812   9.6574005061e+01   2.3789438519e+01    0.1420457     0.115637 -11.85 0.0005856266    1.628    0.386
        24 -12.7944     10.4703    206.7166   1.2061101664e+02   2.9235842808e+01    0.7591008    0.5638136  16.85   0.00292767    1.848    0.459
        25  -7.6755    110.6840    167.7056   9.1291878496e+01   2.5075610808e+01    0.1478245    0.1193227 -13.18 0.0003223422    1.602    0.376
        26 -12.4158     58.5220    134.8753   9.9968752450e+01   4.1407216682e+01     1.624689    0.8195779  87.85  0.004944616    4.571    0.781
        27 -11.6576     56.0570    126.5500   9.9186654098e+01   4.3805460642e+01    0.7514064    0.3460382 -72.76  0.002786647    2.733    0.634
        28 -10.9058     55.0419    118.6507   9.7959308694e+01   4.5888498848e+01    0.4522148    0.3206289  75.38  0.002193713    1.827    0.453
        29 -10.4809     69.5126    163.3382   1.0157845972e+02   3.2766386138e+01    0.2969816    0.2719228  51.68 0.0006067196    1.112    0.101
        30 -12.4978     55.4540    159.7311   1.0490143378e+02   3.5556485025e+01    0.5385697    0.3366734 -39.52  0.001558522    1.967    0.492
        31 -10.3046     33.1771    156.5049   1.1061033087e+02   3.8910524815e+01    0.2681754     0.170009 -71.06   0.00134895    1.390    0.281
        32 -11.0145     22.3940    156.2782   1.1351522757e+02   4.0003890884e+01    0.3303856    0.2090279  82.79  0.001305038    1.568    0.362
        33 -11.2147     69.5071    146.0173   9.8691658881e+01   3.7103498237e+01    0.4396966    0.3436245 -48.70  0.001065128    1.288    0.224
        34 -11.3198     81.0408    141.4666   9.4468751844e+01   3.6507416532e+01    0.3767865    0.2810973 -60.38 0.0005190714    1.290    0.225
        35  -9.8317     93.6071    142.9215   9.1123351316e+01   3.4082899801e+01    0.3477193    0.2781837 -46.64 0.0009324876    1.262    0.207
        36  -9.1540     96.6545    139.6998   8.9582472046e+01   3.4346927786e+01    0.2587816     0.216479  -8.53  0.001279553    1.472    0.321
        37  -9.8944    106.1959    131.2521   8.4997842117e+01   3.4664743850e+01    0.3819474    0.3199285  25.50 0.0009820897    1.296    0.228
        38 -10.5210     66.8918    127.5126   9.5969798993e+01   4.2103552413e+01    0.4659548    0.2888331  89.74  0.001902285    2.422    0.587
        39  -8.7480     46.6767    129.6668   1.0270585086e+02   4.4167153329e+01    0.1467859    0.0977784 -35.93 0.0007050496    1.706    0.414
        40  -9.1864    243.3182    128.3219   5.4953691074e+01   7.5737024778e+00    0.1296042   0.09855648  -7.61 0.0007043393    1.667    0.400
        41  -9.8352    238.8028    127.8003   5.5516547854e+01   8.4599396488e+00    0.3090814   0.09554949 -34.79  0.001030032    3.506    0.715
        42 -11.3362     67.5225    142.5076   9.8644957722e+01   3.8267171402e+01    0.4115011    0.3634847  86.50  0.001357965    1.136    0.120
        43  -9.9891     93.2072    127.8758   8.8007658716e+01   3.7831517493e+01     0.309433    0.2586645 -27.66 0.0004921317    1.332    0.249
        44  -8.9319    104.6476    119.8930   8.2760303993e+01   3.7647956704e+01    0.2301011    0.2083063  20.16 0.0003682082    1.180    0.152
        45  -9.0451    205.1207    110.4158   5.7122542366e+01   1.8109644548e+01    0.3264359    0.2168909  40.03  0.001566224    1.761    0.432
        46 -12.5583     76.6480    156.3577   9.8459756115e+01   3.3465519265e+01      1.67914    0.9195684  66.94  0.004856029    2.787    0.641
        47  -8.0568     67.3289    104.3232   9.0675139222e+01   4.7659339193e+01    0.1512811    0.1071739 -23.06 0.0007049412    1.695    0.410
        48  -8.9145    163.4124     83.7650   5.8322555835e+01   3.2363302865e+01      0.20793    0.1444968 -28.04 0.0009514819    1.666    0.400
        49  -8.5271     61.9140     71.5299   8.3593818441e+01   5.5670209551e+01    0.1992291    0.1322947  31.43 0.0004903834    1.537    0.350
        50 -10.2497     12.8996     60.3882   1.0061097081e+02   6.3320680546e+01    0.2400144    0.1828727 -39.36 0.0007110986    1.070    0.066
        51 -11.4121    202.5952     49.3864   4.3103519421e+01   2.8702780132e+01     1.213069    0.7327502  42.73  0.005841283    2.237    0.553
        52 -11.1333     15.2746    249.0111   1.2208222350e+02   1.9978368339e+01    0.5846469     0.293622  53.67  0.001046242    1.531    0.347
        53 -11.8080     96.7667    241.8330   1.0529337067e+02   1.1096748182e+01    0.4652682    0.3641524  34.58  0.002884174    1.223    0.183
        54 -12.0300     11.0586    232.5825   1.2200906610e+02   2.3672783401e+01     1.082708    0.3491107 -84.96  0.004282115    3.131    0.681
        55  -9.0640     21.4235     49.0983   9.3475199988e+01   6.4904428546e+01    0.1954008    0.1460191  -7.82 0.0004595779    1.271    0.213
        56 -12.7243      3.2100    238.8057   1.2379326574e+02   2.3182354214e+01     2.656446    0.4234745 -75.45  0.009766034    5.043    0.802
        57 -10.0011      2.6823     38.2945   9.9235226993e+01   6.8325831870e+01    0.2484335    0.1419376 -57.78  0.001482898    1.672    0.402
        58  -8.6151    126.6122     26.6496   4.9026502903e+01   4.9688663665e+01    0.2503342    0.1719097 -73.16   0.00101277    1.921    0.479
        59 -13.9585     31.1515    196.5382   1.1527785701e+02   2.9467165397e+01     1.945976     1.420419  60.28   0.01188663    1.223    0.183
        60 -14.7425      4.7334    178.4458   1.1995561108e+02   3.6179528680e+01     8.179886     1.594207 -75.36   0.02777435    4.155    0.759
        61 -12.2456     69.6748    246.8922   1.1140774377e+02   1.3913374458e+01    0.9223002    0.5994828  40.00  0.003630944    1.348    0.258
        62  -8.9610    189.5896     15.2356   3.6464897505e+01   3.5956503887e+01    0.1529144    0.1248313 -18.41 0.0006336374    1.610    0.379
        63  -8.1518     33.0000    235.9657   1.1793016579e+02   2.0648134180e+01    0.1810699   0.06081526 -74.56 0.0007998019    2.924    0.658
