#   1 NUMBER                 Running object number                                     
#   2 MAG_AUTO               Kron-like elliptical aperture magnitude                    [mag]
#   3 X_IMAGE                Object position along x                                    [pixel]
#   4 Y_IMAGE                Object position along y                                    [pixel]
#   5 X_WORLD                Barycenter position along world x axis                     [deg]
#   6 Y_WORLD                Barycenter position along world y axis                     [deg]
#   7 A_WORLD                Profile RMS along major axis (world units)                 [deg]
#   8 B_WORLD                Profile RMS along minor axis (world units)                 [deg]
#   9 THETA_WORLD            Position angle (CCW/world-x)                               [deg]
#  10 FWHM_WORLD             FWHM assuming a gaussian core                              [deg]
#  11 ELONGATION             A_IMAGE/B_IMAGE                                           
#  12 ELLIPTICITY            1 - B_IMAGE/A_IMAGE                                       
         1 -13.7630    179.4890     40.8624   6.6963661422e+01   3.5519554928e+01    0.8569415    0.8244369  28.78   0.00326066    1.296    0.228
         2 -14.1289    189.3169     32.3370   6.3526512437e+01   3.4295726272e+01     1.065758    0.9462423 -52.88  0.003049374    1.237    0.192
         3 -14.8939    198.0216     21.0105   5.9874074020e+01   3.3634035676e+01     1.801124     1.419785  25.56  0.001784113    1.970    0.492
         4 -11.3206     56.8724      2.8661   8.1983479825e+01   6.5523477888e+01    0.1875211    0.1246084  21.98  0.001251042    1.270    0.213
         5 -11.2735    182.0007    233.4269   1.0979069001e+02  -2.0390933734e+00    0.2787895    0.2162863  46.08  0.001477909    1.321    0.243
         6 -15.8416    121.5689    238.5704   1.2336330699e+02   7.3215983689e+00     6.926084      3.57817  37.36   0.03224977    1.803    0.445
         7  -9.3413     36.0522    233.9869   1.4042086776e+02   2.0933104598e+01     0.183193    0.1091763  70.10 0.0004694571    1.473    0.321
         8  -9.3855     42.1137    234.8596   1.3931959863e+02   1.9997385043e+01    0.2159114    0.1037726  63.68  0.001063633    2.015    0.504
         9 -19.3475      8.8424    131.8940   1.3601166558e+02   4.7453034502e+01     18.81584     1.908594 -69.75   0.03833358   10.579    0.905
        10 -14.1333     57.2142    209.0071   1.3361926072e+02   2.3817428340e+01     2.196156    0.7692268  51.30  0.008487989    2.931    0.659
        11 -12.0740     34.4410    229.2135   1.4033868914e+02   2.2156895824e+01    0.2459148    0.1756869  66.31 0.0004314339    1.162    0.140
        12 -11.2774     36.7770    225.3904   1.3955155959e+02   2.2712021643e+01    0.2303835     0.163789 -86.46 0.0009211402    1.199    0.166
        13  -9.7469     70.7133    228.2483   1.3287310798e+02   1.7562184989e+01    0.1855359    0.1452483  70.87 0.0006927919    1.102    0.092
        14  -9.3968     60.7902    227.9849   1.3491548371e+02   1.9026594249e+01    0.1733266    0.1423979  86.28 0.0004506386    1.080    0.074
        15 -11.0393     85.8313    237.5500   1.3076278299e+02   1.3300515353e+01    0.2494151    0.1961152 -76.23 0.0004117947    1.287    0.223
        16 -11.4771    116.2666    211.8598   1.2063021751e+02   1.3907443881e+01    0.4192393    0.2582439  81.66  0.001550198    2.483    0.597
        17 -10.4999     39.1583    212.6589   1.3789458339e+02   2.5281096875e+01    0.1924192     0.130793  56.62 0.0004502009    1.344    0.256
        18 -11.2167     79.9635    247.4645   1.3304516660e+02   1.2135456977e+01    0.5252046    0.2715195  62.57  0.002549712    2.004    0.501
        19 -11.0327     76.9464    207.9379   1.2906518672e+02   2.1248891081e+01    0.3888049    0.3367714 -75.50  0.001803142    1.142    0.125
        20 -10.5943     36.0394    206.0947   1.3791566805e+02   2.7162539844e+01    0.2610902    0.1454048  49.74 0.0008914359    1.699    0.411
        21 -12.8913    194.9581    194.5308   9.9954261795e+01   3.0250704156e+00    0.9227495    0.7192954 -87.58  0.004474591    1.968    0.492
        22 -11.8451    104.8721    199.9781   1.2141520377e+02   1.8610566625e+01     0.396613    0.3349508 -18.48  0.002081528    1.592    0.372
        23 -13.3740     66.6050    195.8242   1.2985965438e+02   2.5640833071e+01    0.8072014    0.6502267 -51.62  0.002860788    1.395    0.283
        24 -11.6480     52.3324    228.1664   1.3667136063e+02   2.0131445716e+01    0.6716392    0.2906476  66.02  0.002785753    2.839    0.648
        25 -10.0246     82.1613    194.8190   1.2603361761e+02   2.3566279706e+01    0.2472176    0.1979039  35.14  0.001333907    1.375    0.273
        26 -10.5891     57.2159    248.9729   1.3763734812e+02   1.5066820146e+01    0.2514255    0.1634887  66.37  0.001184085    1.310    0.236
        27  -9.5314     24.7611    191.5926   1.3894012557e+02   3.1803783016e+01    0.1546774    0.1060171  54.73 0.0002768263    1.429    0.300
        28 -10.2531     65.1418    187.1042   1.2902421214e+02   2.7964289244e+01     0.229197    0.1945637  44.79  0.001306892    1.259    0.206
        29 -11.3362    207.5156    183.9338   9.5265908182e+01   2.7987278103e+00    0.3728298    0.2543873 -48.51 0.0009862726    1.492    0.330
        30 -11.6165    210.9931    181.0091   9.3979510021e+01   2.7312500962e+00    0.4107089    0.3004445 -19.02  0.001548575    1.526    0.345
        31  -9.6161    224.2910    184.2908   9.2086507395e+01  -2.7340370479e-01    0.1375133     0.102522  -7.04 0.0001925033    1.546    0.353
        32 -10.5999     62.4897    249.5046   1.3667341505e+02   1.4234349713e+01    0.3635715    0.1857798  53.29 0.0008141504    1.660    0.398
        33 -11.2495     80.5448    169.0326   1.2234978199e+02   3.0165580677e+01     0.290646    0.2470628 -85.56 0.0005983854    1.128    0.114
        34 -12.0692     78.0640    180.2784   1.2483010593e+02   2.7751172952e+01    0.5376009    0.2815884 -43.16   0.00158849    2.387    0.581
        35 -12.0711     81.8165    174.9663   1.2302286149e+02   2.8488454813e+01    0.3649236    0.2621029 -50.34 0.0008746369    1.428    0.300
        36 -10.7412     99.4336    180.6287   1.1952684924e+02   2.4194215967e+01     0.260028    0.2543713  35.64 0.0006464755    1.153    0.132
        37 -11.8114    197.5623    174.3768   9.5309380404e+01   6.5991920168e+00    0.6740766    0.3475728 -50.40  0.002748993    2.029    0.507
        38  -9.8498     69.9331    178.1814   1.2654436511e+02   2.9479341516e+01    0.2247187    0.1768913  76.30  0.001202379    1.265    0.210
        39 -11.2993    145.5228    168.2298   1.0567181269e+02   1.8459904256e+01    0.2948375    0.2855534  59.09 0.0006107545    1.028    0.028
        40  -9.6687     60.2028    245.9339   1.3678719171e+02   1.5281284207e+01    0.1667465    0.1323745  79.76 0.0005473817    1.081    0.075
        41 -11.4525     42.9760    227.4951   1.3849966805e+02   2.1485651553e+01    0.5333737    0.1898061  55.33  0.002228927    2.810    0.644
        42 -12.2797     68.0341    246.6790   1.3532811491e+02   1.4031824988e+01    0.3037666    0.2121549  70.11 0.0006347483    1.254    0.203
        43 -10.0573    140.3439    156.9637   1.0451877625e+02   2.2163772818e+01    0.2459197    0.2110879  61.31 0.0002288602    1.209    0.173
        44 -10.5411    134.0000    148.0019   1.0411194859e+02   2.5591721607e+01     0.480719    0.2059577 -60.05  0.001443218    3.202    0.688
        45 -11.3666    133.6718    142.8556   1.0301622282e+02   2.6876505305e+01    0.8843954     0.295129 -57.44  0.002250968    4.598    0.783
        46 -10.4418    174.3229    148.8083   9.4683975491e+01   1.6828583554e+01    0.3280304    0.2772834  89.29  0.001086449    1.380    0.275
        47 -11.5975    106.7474    141.7563   1.0990516378e+02   3.2466319128e+01    0.6151907    0.3478378 -34.18  0.002336435    2.326    0.570
        48 -12.4568     94.7337    142.4193   1.1337326856e+02   3.4465269544e+01    0.3090415    0.2814458 -38.45 0.0003827242    1.143    0.125
        49 -12.4613     71.1499    243.9064   1.3443737561e+02   1.4156902477e+01    0.3744729    0.2616537  85.25 0.0009370062    1.368    0.269
        50 -10.7564    114.4972    131.5427   1.0542226023e+02   3.3435979998e+01    0.3259936    0.2778227   0.65 0.0007185666    1.424    0.298
        51 -11.6487    118.9572    127.5968   1.0325433123e+02   3.3474927824e+01    0.6943769    0.3430957 -48.47  0.002653526    1.976    0.494
        52 -10.6318    105.9181    130.6932   1.0759315500e+02   3.5285813488e+01    0.3650176     0.318617  88.63  0.001130743    1.273    0.214
        53 -11.0475    102.0096    128.0821   1.0807499335e+02   3.6633487241e+01    0.3169144    0.2602811 -28.97 0.0008280024    1.337    0.252
        54 -10.4990    160.2004    127.4878   9.2848518247e+01   2.4626014920e+01     0.305871    0.2196068 -47.49 0.0008133785    1.368    0.269
        55  -9.7282    125.6734    127.3505   1.0139400618e+02   3.2159521853e+01    0.1646587    0.1246902  88.69 0.0007048477    1.760    0.432
        56 -10.8769    135.2879    122.0606   9.7567680376e+01   3.1328394982e+01    0.5337963    0.1354822 -50.52  0.001338243    4.554    0.780
        57 -10.1561    109.9012    120.0403   1.0387802935e+02   3.7017360743e+01    0.2223738    0.2156457 -30.66 0.0003403314    1.040    0.038
        58 -13.6290     50.6599    218.4942   1.3605511934e+02   2.2508440364e+01    0.8375178    0.3301571  61.06   0.00278597    3.134    0.681
        59 -10.1632    167.9948    112.6213   8.7408609219e+01   2.6017902562e+01    0.3045611    0.2097362 -62.83  0.001058129    1.657    0.396
        60 -11.5659     61.9740    113.0435   1.1654722858e+02   4.6594449283e+01    0.2203339    0.1979196 -44.09 0.0005700117    1.013    0.013
        61 -10.5872    120.2735    111.1545   9.8720564534e+01   3.6928003912e+01    0.3083805    0.1848551  54.38  0.001268007    1.872    0.466
        62  -9.9294    205.4484    110.1233   7.9428435664e+01   1.8005706429e+01    0.2376425    0.2029777  46.71  0.000622649    1.299    0.230
        63 -11.6803     66.5057    104.4985   1.1305413547e+02   4.7918275364e+01    0.3295636    0.2117173   7.59  0.001502696    2.147    0.534
        64  -9.7973    134.4908    102.9645   9.2791758228e+01   3.5628582005e+01    0.2378205    0.1510437 -44.26  0.001028909    1.578    0.366
        65 -11.6857     54.5618    101.8013   1.1628274420e+02   5.0114202859e+01     0.242624    0.1976344  22.06 0.0008879616    1.341    0.254
        66 -10.5557     24.9742     82.4701   1.2183160519e+02   5.7368856271e+01    0.1880602    0.1424412 -45.88 0.0003442212    1.094    0.086
        67  -9.2498    182.8565     78.4167   7.5813415241e+01   2.9018216065e+01    0.2000772     0.130939  48.90 0.0004456623    1.599    0.375
        68 -10.5822    166.8056     66.9893   7.5828543966e+01   3.4737620835e+01    0.3562672    0.2402257 -82.92 0.0009042642    1.922    0.480
        69 -10.9538     44.3564    210.2951   1.3655567434e+02   2.5186517258e+01    0.2852575    0.1522031  53.92 0.0006856317    1.766    0.434
        70  -9.4451    104.8277     60.8786   8.8419684356e+01   4.9726230648e+01    0.1824867    0.1636444  70.36 0.0005329012    1.311    0.237
        71 -11.5305     45.0297    225.5018   1.3790233401e+02   2.1665402055e+01    0.3965793    0.1929089  70.71 0.0006474704    2.273    0.560
        72  -9.9852    196.0321    245.6901   1.0898897752e+02  -6.4102489582e+00    0.1829393    0.1485642  24.76 0.0004481988    1.080    0.074
        73 -12.3015     95.0925    238.2668   1.2891565281e+02   1.1708855037e+01    0.5461952     0.260686  51.23   0.00154852    1.927    0.481
        74 -11.1243     50.6081    231.8131   1.3736761572e+02   1.9562655271e+01    0.4037759    0.2526748  75.35  0.001202716    1.480    0.324
        75 -16.0403     73.2243    151.1669   1.2112183501e+02   3.5748288639e+01     5.760972     3.259501  81.00   0.01876864    3.284    0.695
