#   1 NUMBER                 Running object number                                     
#   2 MAG_AUTO               Kron-like elliptical aperture magnitude                    [mag]
#   3 X_IMAGE                Object position along x                                    [pixel]
#   4 Y_IMAGE                Object position along y                                    [pixel]
#   5 X_WORLD                Barycenter position along world x axis                     [deg]
#   6 Y_WORLD                Barycenter position along world y axis                     [deg]
#   7 A_WORLD                Profile RMS along major axis (world units)                 [deg]
#   8 B_WORLD                Profile RMS along minor axis (world units)                 [deg]
#   9 THETA_WORLD            Position angle (CCW/world-x)                               [deg]
#  10 FWHM_WORLD             FWHM assuming a gaussian core                              [deg]
#  11 ELONGATION             A_IMAGE/B_IMAGE                                           
#  12 ELLIPTICITY            1 - B_IMAGE/A_IMAGE                                       
         1 -15.0553      6.6583     71.1477   8.3397463824e+01   6.3597434897e+01     1.305264     0.844258 -51.58  0.004410468    1.350    0.260
         2 -13.9828     41.7968      4.5612   3.3314755578e+01   7.1487354244e+01    0.8752104    0.5703869  19.42  0.004714815    1.681    0.405
         3 -12.9243      7.8694      2.6532   5.3592953748e+01   7.7729565309e+01    0.5914727    0.4182084  40.62    0.0036485    1.598    0.374
         4 -15.9806     11.3217     23.3751   6.3913989323e+01   7.3889257610e+01     2.053045     1.201098 -23.69  0.009564495    1.808    0.447
         5 -14.2555     27.1850     11.8694   4.5794766388e+01   7.3443958037e+01    0.8759434      0.58125   9.58   0.00479421    1.690    0.408
         6 -13.9651    122.2878     36.6106   2.5177367505e+01   4.9220221904e+01    0.9620615     0.531391  39.33  0.003239442    2.299    0.565
         7 -13.1251     43.5463     32.7513   4.8413437127e+01   6.7423212614e+01    0.9998812    0.7769501  39.13  0.005685026    1.228    0.185
         8 -14.1347    166.4385     29.0229   1.6578125178e+01   3.9801401820e+01    0.8683894    0.6551239  79.94  0.003725606    1.267    0.211
         9 -14.1917    147.4898     29.6011   1.8992446869e+01   4.4066825591e+01     1.154287    0.6337836  73.54  0.004438898    1.758    0.431
        10 -13.5089    187.9463     24.0205   1.3274647162e+01   3.5712537217e+01     1.145629    0.4224654 -51.55  0.005273969    2.418    0.586
        11 -12.7379    187.3407     11.5732   1.0322128704e+01   3.7121296807e+01    0.5794064    0.3657707 -34.10  0.003597595    1.534    0.348
        12 -12.7365    120.3345     25.9729   2.1894801324e+01   5.0961868902e+01    0.6249519    0.4560966  39.41  0.003422589    1.569    0.363
        13 -15.1671     98.8961     11.5067   2.0357124254e+01   5.7650028125e+01     1.429596     0.854406  63.83  0.004094891    1.449    0.310
        14 -12.3768     85.6267     13.9529   2.4151605321e+01   6.0636220494e+01    0.4221174    0.3864869 -43.46  0.002611597    1.215    0.177
        15 -11.6869     71.0933     16.2041   2.9046363404e+01   6.3840330110e+01    0.3089444    0.2059828 -15.83  0.001568657    1.756    0.430
        16 -12.2267     59.8990     15.3575   3.2295389326e+01   6.6468370585e+01    0.5712703    0.2623845  42.90  0.002558928    2.029    0.507
        17 -12.9995    218.8933     15.3910   9.2245931670e+00   3.0528312401e+01    0.2412766    0.1953675 -84.23  0.001469061    1.234    0.190
        18 -12.8524    214.8645      9.8473   8.2770825142e+00   3.1834394264e+01    0.3303463    0.2493508 -51.27  0.001189436    1.101    0.092
        19 -12.2763    123.3910     10.8162   1.6236808607e+01   5.1745838739e+01    0.2373298    0.1924167 -84.61 0.0002993919    1.128    0.114
        20 -11.6410     75.0444      9.9645   2.4949299892e+01   6.3532482250e+01     0.275621    0.1983209  -2.61  0.001005032    1.675    0.403
        21 -11.8799     46.7368     12.7556   3.6080135893e+01   6.9587952427e+01    0.3239762      0.27634  67.55  0.001438012    1.364    0.267
        22 -11.6355    151.8960      8.9656   1.2475072538e+01   4.5161832147e+01    0.2949005    0.2111151  51.24  0.001035191    1.595    0.373
        23 -10.5467     80.4106      7.2393   2.2360684394e+01   6.2496781663e+01    0.1691907    0.1173724 -39.28 0.0009404511    1.616    0.381
        24 -11.7169    118.6249      2.3635   1.3944577291e+01   5.3608197666e+01     0.491399    0.2015258 -82.35  0.001869221    3.320    0.699
        25 -11.0091     74.9886      2.5254   2.1408055250e+01   6.4173045971e+01    0.2232633    0.1308865  50.56 0.0006721176    1.487    0.327
        26 -11.3805     81.3711      1.3148   1.9443040506e+01   6.2736805273e+01    0.5402114   0.05879548  63.98  0.001590607    4.643    0.785
        27 -11.2737     67.7297      2.6956   2.3297783971e+01   6.5873400979e+01     0.286182    0.1677806  39.08  0.001496226    1.678    0.404
        28 -10.5200    232.5371      1.5088   5.7793495285e+00   2.9427469971e+01    0.1069982   0.07610436 -57.39 0.0002693341    1.013    0.013
        29 -11.1603     61.2654      1.4474   2.4440798302e+01   6.7472580195e+01    0.3538183    0.1096724  63.81  0.001368867    2.781    0.640
        30 -11.6163    200.7668    191.4252   4.8044093533e+01   7.6311321769e+00    0.2353987    0.1995185  -5.95  0.001126509    1.126    0.112
        31 -12.8709    107.7121    246.3447   7.5653272744e+01   9.5885565058e+00    0.6450787    0.5407014  71.83  0.004219496    1.650    0.394
        32 -13.9019     97.8162    238.8650   7.7080208298e+01   1.2074321207e+01    0.9283447     0.718524 -65.93  0.005787692    1.616    0.381
        33 -14.1362     90.9709    231.5558   7.7883236349e+01   1.4263837494e+01    0.6252986    0.5696622 -80.99  0.004128201    1.340    0.253
        34 -11.5812     41.2676    248.5919   9.1015597637e+01   1.6242998041e+01    0.4384699    0.1997606  88.66    0.0020798    3.026    0.670
        35 -13.1999     28.3973    246.2640   9.3799909881e+01   1.7895647981e+01    0.4905274    0.3667578  72.42  0.002906526    1.366    0.268
        36 -12.1994      3.0549    249.5847   9.9536329538e+01   1.9390064609e+01    0.3681596    0.2162334  34.92  0.001807786    1.345    0.257
        37 -13.9409      9.4648    245.6566   9.8005240113e+01   1.9643782454e+01    0.9811333    0.3990719  43.01  0.004241167    1.847    0.458
        38 -11.8369    206.6113    190.7666   4.6904602788e+01   7.0152141181e+00    0.2134915    0.1386486 -40.05 0.0009999287    1.479    0.324
        39 -11.3821    155.5056    184.4985   5.5756699047e+01   1.4978078370e+01    0.1376335     0.119089  -8.86 2.715441e-05    1.014    0.014
        40 -11.8308     48.6822    181.4419   8.3457287261e+01   3.0448822076e+01    0.4131818    0.2243167 -50.91  0.001847518    1.934    0.483
        41 -12.1105    198.8520    181.4656   4.6607661538e+01   9.4922442572e+00    0.2254456    0.1965971 -49.20  0.001475914    1.501    0.334
        42 -11.1588    122.0993    181.0986   6.3008200926e+01   2.0627630452e+01    0.4226413    0.2670567  80.61  0.001447011    4.276    0.766
        43 -11.7631     84.0000    178.0248   7.2731714524e+01   2.6875322414e+01    0.2360555   0.08327135 -60.28 0.0008052938    2.962    0.662
        44 -12.6049    124.1243    166.7247   5.9866179914e+01   2.3451584153e+01    0.6118664    0.4085014 -67.88  0.002754141    2.038    0.509
        45 -11.3198    177.5120    167.4789   4.7972881861e+01   1.4909300327e+01    0.1348698    0.1155712 -18.06 0.0002713498    1.001    0.001
        46 -10.8823    193.3197    164.6739   4.4453387390e+01   1.3081332279e+01    0.1188486    0.1021625 -67.48 0.0005830458    1.680    0.405
        47 -12.1987     24.3018    159.1541   8.8614322943e+01   3.8661285500e+01    0.3149525    0.2365789 -64.52  0.001662923    1.294    0.227
        48 -11.8619    110.9266    155.4751   6.1161443646e+01   2.8149499982e+01    0.5131883    0.3462565 -88.41  0.002050099    2.618    0.618
        49 -11.9835     77.2986    156.8831   7.1267684684e+01   3.3052631983e+01    0.4245319    0.3333446  19.79  0.001192372    1.304    0.233
        50 -13.0639     73.5997    153.2415   7.1787730749e+01   3.4512025733e+01    0.7775027    0.5211694  21.61  0.002437488    1.558    0.358
        51 -11.3523    103.4290    149.8438   6.2129569378e+01   3.0719266101e+01    0.3797641    0.2457641 -31.49  0.001272229    1.782    0.439
        52 -12.1051    189.1756    155.9718   4.3494347686e+01   1.5209265695e+01    0.2237421    0.1931583  21.48  0.001401736    1.249    0.199
        53 -11.9200     62.4100    146.1923   7.4190128776e+01   3.7899088512e+01    0.2792791    0.2158891  45.41  0.001182255    1.319    0.242
        54 -12.9523      7.6234    148.9228   9.3195064779e+01   4.2681218246e+01    0.8220406    0.4239661  48.38  0.003700385    1.942    0.485
        55 -10.4306     38.4703    145.5291   8.2241568265e+01   4.0961018074e+01    0.1450208    0.1402891 -65.33 0.0001454623    1.029    0.028
        56 -12.0992     45.2145    131.9043   7.7741012580e+01   4.3898709154e+01    0.5600787    0.4168743  54.84  0.002711683    1.456    0.313
        57 -11.5206    138.1238    131.8067   4.8957821215e+01   2.8620084260e+01     0.353573    0.2338547   3.17   0.00144508    2.407    0.585
        58 -10.9584      5.3960    128.8376   9.2220672101e+01   4.8263733867e+01    0.2872136    0.1411791 -40.16  0.001208763    2.200    0.545
        59 -14.5880    105.9981    104.5672   5.0634664749e+01   4.0830005401e+01     1.414068     1.331636 -55.93  0.006185131    1.078    0.072
        60 -13.2921    111.9503    116.5606   5.2076854205e+01   3.6970415726e+01    0.5686111    0.3877904  35.54  0.002332566    1.519    0.342
        61 -12.1856     33.2728    111.5575   7.8761751839e+01   5.0741806169e+01    0.6078446    0.3463519 -66.04  0.002649953    1.680    0.405
        62 -13.0450     28.9826    121.9633   8.2269614248e+01   4.8340329006e+01    0.9175535     0.362929 -61.45  0.003472547    2.213    0.548
        63 -12.1501    180.8844    121.2029   3.7606313153e+01   2.2778511304e+01     0.297657    0.2249395  21.45  0.001618586    1.626    0.385
        64 -12.5472      4.5180    119.3829   9.1614711098e+01   5.0894434371e+01    0.6779467    0.4522441 -37.76  0.003336284    1.552    0.356
        65 -12.4689     50.2247     98.5507   6.8853305550e+01   5.2101614177e+01     0.919885    0.5350744  13.92  0.003752142    2.101    0.524
        66 -12.2079     49.1215     93.4012   6.8000558393e+01   5.3562985723e+01      0.45095    0.3828248  52.96  0.002336331    1.307    0.235
        67 -12.2965     42.6855     90.5226   7.0059844032e+01   5.5165375239e+01    0.5009847    0.3472675 -81.36  0.002267394    1.840    0.457
        68 -12.0849     36.9173     92.9135   7.3241595852e+01   5.5273084593e+01    0.4642376    0.2916619  12.52  0.001395585    1.775    0.436
        69 -15.0725     24.9202     93.7112   7.8909210870e+01   5.6340425997e+01     2.789981     1.478419 -15.96   0.01091886    2.563    0.610
        70 -13.6612      2.2397     96.8883   8.9947006454e+01   5.7111320360e+01     1.306041    0.4976415 -83.34  0.004451694    2.850    0.649
        71 -14.2310     18.5981    111.8097   8.4913629238e+01   5.2019381929e+01     1.024254    0.6792021   3.91  0.004275911    1.691    0.409
        72 -11.9600     78.7151    110.5757   6.1018115136e+01   4.4568669567e+01    0.4760208    0.3592904  86.74  0.002121683    1.816    0.449
        73 -11.4950    121.8040    111.9909   4.8207902814e+01   3.6027275095e+01    0.2638378    0.2331835  60.36 0.0007143692    1.230    0.187
        74 -11.5600     62.6089    110.5470   6.6868850243e+01   4.7211346444e+01    0.4339813    0.2552532  51.65  0.001750114    2.046    0.511
        75 -10.9695     45.9457    110.1997   7.3310272731e+01   4.9637590988e+01    0.3168307    0.1672753 -38.64  0.001236202    2.119    0.528
        76 -12.9986     17.4510    104.0907   8.4194893167e+01   5.4205054525e+01    0.6208257      0.35304  33.24  0.001344714    1.827    0.453
        77 -11.4918     88.2292    109.1721   5.7423900478e+01   4.3203847661e+01    0.4438085    0.2309949 -62.13  0.001614583    2.431    0.589
        78 -12.2614    136.5501    102.9753   4.2173384829e+01   3.4871939311e+01    0.4660051    0.2641169  53.33  0.001672756    1.933    0.483
        79 -13.8758    104.6995    121.9151   5.5511003461e+01   3.7126112322e+01     1.364231      1.01335  48.74  0.006440706    1.430    0.301
        80 -10.5244     64.5128    101.5386   6.3888628217e+01   4.9190421406e+01    0.2588871    0.2319124 -67.34 0.0005875496    1.176    0.150
        81 -12.0185     61.4979     97.5353   6.4004247127e+01   5.0667778298e+01    0.4492735    0.3583831  81.07  0.001689991    1.608    0.378
        82 -11.6103    163.8077     97.8422   3.5159464378e+01   3.0215482527e+01    0.2471056    0.2081951 -63.79  0.000438462    1.239    0.193
        83 -12.7313    137.1026     94.7099   3.9827207438e+01   3.6367471378e+01    0.4872218    0.4078808  86.13  0.001809461    1.401    0.286
        84 -12.5859     84.4855    114.9782   6.0154702894e+01   4.2477439128e+01    0.9663978    0.4999947  24.82  0.003546984    2.400    0.583
        85 -12.4928     19.0302     86.0515   8.0112692135e+01   5.8872482409e+01    0.4796054    0.3307611 -10.55  0.001274457    1.586    0.369
        86 -13.1678    188.1671     84.0227   2.7790363354e+01   2.7662243207e+01    0.4883682    0.2695043  45.00  0.002098365    2.226    0.551
        87 -13.2064    163.8118     71.4717   2.8347196939e+01   3.4635777101e+01    0.7009359    0.5382463  52.53  0.003920599    1.412    0.292
        88 -14.1617    169.3923     76.9409   2.8876541376e+01   3.2584115847e+01     1.162977    0.5499217  53.84  0.003953552    2.250    0.556
        89 -11.8373    158.4521     83.5016   3.2453768913e+01   3.3822500640e+01    0.3217209    0.2508066  69.05 0.0008550072    1.401    0.286
        90 -12.6898    161.0590     80.1925   3.1116137570e+01   3.3821449443e+01    0.4209263    0.3301282  32.36  0.001386349    1.577    0.366
        91 -13.3867     66.0655     49.0720   4.5711123799e+01   6.0299433013e+01     1.196675    0.7017369 -31.08  0.005406967    1.914    0.477
        92 -12.8649     51.5617     66.6203   5.8734253842e+01   5.9520238512e+01     1.241731    0.5265362 -56.79  0.004454461    2.875    0.652
        93 -13.3749     56.9000     65.6185   5.5984516442e+01   5.8826365828e+01    0.8993556    0.6333202 -12.03  0.004150265    1.830    0.453
        94 -13.8502     73.6364     74.0370   5.2119021713e+01   5.3941680539e+01     1.461114    0.7463444  21.12  0.004610053    3.773    0.735
        95 -13.2080     87.4313     65.1532   4.4163303594e+01   5.2877757616e+01    0.5611027    0.4638472  -1.70  0.001023031    1.439    0.305
        96 -13.4538     91.9547     57.4370   3.9959601052e+01   5.3270284987e+01    0.5903774     0.512286 -48.58  0.002698285    1.211    0.174
        97 -12.9056     54.7536     81.2124   6.2111273319e+01   5.5690660288e+01    0.6652334    0.4641966 -34.54  0.003134591    1.503    0.335
        98 -13.9554     61.1919     75.6883   5.7616677581e+01   5.5882118702e+01    0.8601911    0.6114944 -34.06  0.001613398    1.479    0.324
        99 -12.7950    216.1021     80.8445   2.3515231348e+01   2.2962871223e+01    0.3581847    0.2227675 -58.92  0.001572058    1.648    0.393
       100 -11.8393    114.1960     79.7998   4.1124144532e+01   4.4219269572e+01    0.4676807     0.323072 -46.42  0.002216511    1.453    0.312
       101 -11.4817     42.5184     79.4766   6.7091250964e+01   5.7924023897e+01    0.4625239    0.3501675 -68.07  0.002301274    1.480    0.324
       102 -11.3345     41.6199     75.7342   6.6396583117e+01   5.8946300813e+01    0.3414799    0.2154696 -56.70 0.0007625184    1.595    0.373
       103 -12.4556    135.5241     79.2906   3.5851048811e+01   3.9561178702e+01    0.6529239    0.3303843  57.05  0.002601228    2.092    0.522
       104 -13.5266    171.6933    242.5281   6.1644655330e+01   3.0285043639e+00    0.6333306    0.3854649   9.17  0.003854698    1.447    0.309
       105 -14.2189      5.3813     63.4996   8.2425143912e+01   6.5581716470e+01     0.696262    0.6805348 -28.66  0.003479554    1.128    0.113
       106 -11.6148     27.3032     75.5961   7.3445411305e+01   6.0739874575e+01    0.5142245    0.2909717 -86.18   0.00196871    2.939    0.660
       107 -13.1673    199.1195     70.0061   2.3066283447e+01   2.7635666932e+01    0.5171694    0.3782287  43.27  0.002379437    1.754    0.430
       108 -10.8008    117.7482     71.4484   3.7616780741e+01   4.4961797957e+01    0.2744923    0.1434784  57.26  0.001040537    1.999    0.500
       109 -12.3625     38.7858     67.9553   6.5320233967e+01   6.1160244052e+01    0.7819839    0.3380775  29.35  0.003078511    2.309    0.567
       110 -12.4492    134.3952     66.4373   3.2302260278e+01   4.2009744820e+01    0.5652018    0.3413803  46.15   0.00201371    1.769    0.435
       111 -11.8465    158.5481     64.3723   2.7288962010e+01   3.6880273611e+01    0.5500088    0.1904008 -45.01  0.002056291    2.739    0.635
       112 -11.4007     99.6933     64.8290   4.0275581044e+01   5.0232513443e+01       0.3123    0.2457685  87.51  0.001534273    1.599    0.375
       113 -12.9660     78.8324     59.7136   4.5111196882e+01   5.5728098607e+01    0.6740139     0.508376 -48.05  0.003408595    1.414    0.293
       114 -11.0348     85.0591     49.4538   3.9103394519e+01   5.6155305401e+01    0.2716802    0.2111594  -8.10 0.0008620803    1.578    0.366
       115 -11.2216     34.6846     60.4116   6.4867752954e+01   6.3430068661e+01    0.4849767    0.2065561 -43.26  0.001913548    2.319    0.569
       116 -12.1027     38.9594     59.9039   6.2451220065e+01   6.2943513961e+01    0.3516526    0.2711843  68.12  0.001659846    1.861    0.463
       117 -12.1857     36.3179     54.5314   6.1836436784e+01   6.4482909949e+01    0.6105249    0.2463361 -36.56  0.002179805    3.034    0.670
       118 -13.4342    177.7263     57.3891   2.2664049596e+01   3.3741258741e+01    0.7408514    0.4714169 -52.82  0.002699143    1.452    0.311
       119 -11.7776     24.9059     58.8880   6.9720409888e+01   6.4987746869e+01    0.5092318    0.2442988 -44.97   0.00221175    1.945    0.486
       120 -11.1395    111.2164     58.5784   3.5048444298e+01   4.8664261239e+01     0.276968    0.2028832  31.35  0.000692569    1.622    0.384
       121 -14.4618    119.7463     54.6677   3.1734228487e+01   4.7288065324e+01    0.9717929    0.6224006  55.18  0.002065942    1.509    0.337
       122 -11.5167     17.6261     55.3372   7.2815624361e+01   6.6566998692e+01    0.3226092    0.2239846 -61.74  0.001692579    1.498    0.333
       123 -13.4976    103.4097     50.4437   3.4201086274e+01   5.1781451650e+01    0.9496674    0.5100033 -49.18  0.001614796    2.098    0.523
       124 -13.2187     98.0964     49.8671   3.5407170629e+01   5.3110266725e+01     0.725486     0.429389 -42.60  0.002461242    1.765    0.434
       125 -12.1439    136.0311     50.6319   2.7164392326e+01   4.4053416985e+01    0.4625024    0.3599604 -35.29   0.00192542    1.323    0.244
       126 -10.5959     23.5307     49.9486   6.7363454352e+01   6.7140224691e+01    0.1941994    0.1277111 -49.75 0.0004408368    1.474    0.322
       127 -11.6213    151.9512     46.7752   2.3381584432e+01   4.0890550914e+01    0.2311149    0.1872517  68.60 0.0004723693    1.223    0.183
       128 -12.4769    157.8089     43.6446   2.1651880966e+01   3.9968118271e+01    0.5673296    0.3909121  43.35  0.003037424    1.777    0.437
       129 -10.9278     38.8627     46.1213   5.7062204932e+01   6.5814929738e+01    0.1989221    0.1932956  38.71 0.0007743507    1.205    0.170
       130 -12.1382    147.3171    238.9992   6.6103905936e+01   6.2940621682e+00    0.1708057    0.1428254  -7.01 0.0007041348    1.107    0.097
       131 -13.3870      5.9628     42.9499   7.6254411061e+01   7.0372989472e+01    0.9944971    0.4444712  17.10  0.004512992    2.222    0.550
       132 -12.1546     16.6305    235.8223   9.5976241116e+01   2.1029642717e+01    0.7461413    0.2060658  44.51  0.003193356    2.685    0.628
       133 -12.8935     23.4609    216.2567   9.3290734768e+01   2.4641938763e+01     1.207932    0.3002276  37.70  0.004713804    2.836    0.647
       134 -13.6281     26.5616    225.9743   9.3102483853e+01   2.2232842397e+01    0.8232278    0.4006518 -52.50  0.004042748    2.446    0.591
       135 -13.2886    212.2888     43.1124   1.5646520459e+01   2.8672738925e+01    0.9401801    0.3792377  86.14  0.003967762    3.822    0.738
       136 -13.3431    219.4430     41.4977   1.4715707516e+01   2.7539370535e+01     2.015232    0.5785828  80.53  0.006197026    7.737    0.871
       137 -10.9445     25.4821     44.0234   6.3836753763e+01   6.8153968447e+01    0.2058395    0.1295138 -49.85 0.0009025065    1.602    0.376
       138 -11.6555    134.6489     39.5121   2.3936516292e+01   4.5891443061e+01    0.4277917    0.2548483  75.16  0.001432768    1.730    0.422
       139 -12.0732    110.0151     42.0071   2.9579167413e+01   5.1452942555e+01    0.4135936    0.1966204  61.35 0.0009189975    2.016    0.504
       140 -12.9214    113.7736     37.8376   2.7283555897e+01   5.1112320324e+01     0.342143    0.3354286  71.79  0.001135677    1.079    0.073
       141 -13.8306     20.7487    223.9321   9.4402091273e+01   2.3189341794e+01    0.6825065    0.5894101  23.57  0.003167882    1.182    0.154
       142 -12.7858    131.4569     33.4357   2.2527244869e+01   4.7411770397e+01    0.4508048    0.3906382 -20.05  0.001612438    1.335    0.251
       143 -11.7521     27.8138    235.4921   9.3350190999e+01   2.0115631566e+01     0.212393    0.1698376  82.08  0.001400146    1.308    0.235
       144 -12.2099     40.3684     40.3231   5.3687448775e+01   6.6666348889e+01    0.5582639    0.3092377  38.69  0.002634482    1.734    0.423
       145 -12.5627     33.0760     40.0527   5.7594193636e+01   6.7878885859e+01    0.3645692    0.2763419  11.79 0.0008098087    1.303    0.232
       146 -12.1648     30.7202     25.5374   5.1748980055e+01   7.0813923180e+01    0.3902014    0.2227501  30.27  0.001708359    1.668    0.401
       147 -12.4992     35.3443     23.3815   4.7870801666e+01   7.0369221582e+01     0.301434    0.2391974  15.35 0.0007830048    1.182    0.154
       148 -12.5690     76.0256     37.0057   3.6960898259e+01   6.0099433644e+01    0.4664721    0.2745219  44.84  0.001296226    1.591    0.372
       149 -11.7329     70.8596     36.1405   3.8361451443e+01   6.1370941666e+01    0.2853624    0.2605921  81.02 0.0009118743    1.247    0.198
       150 -12.2105    241.7566     36.1062   1.2057945190e+01   2.4269508916e+01    0.3191866    0.2110685  89.15  0.001724819    1.634    0.388
       151 -11.7785    104.5500     36.3119   2.8753246922e+01   5.3530031394e+01    0.3149617    0.1412964 -28.59  0.001285446    2.509    0.601
       152 -13.8145     65.8970    223.2986   8.3151325321e+01   1.8820335216e+01     1.133445    0.7143866  39.98  0.006151676    1.409    0.290
       153 -12.8061     59.4058    212.7699   8.3780119921e+01   2.1827547385e+01    0.4658428    0.2411542 -45.15  0.001466653    2.274    0.560
       154 -12.5743    140.6766     21.5733   1.7451889059e+01   4.6552454730e+01    0.8294657    0.3037399  73.35  0.002204637    2.669    0.625
       155 -14.1196     64.2234    214.1995   8.2676071330e+01   2.0971039247e+01    0.7838366    0.4450604  31.26  0.003933758    1.530    0.346
       156 -12.6023     94.2922    218.1906   7.5518710893e+01   1.6543907550e+01    0.3011805     0.221643  27.93   0.00135274    1.198    0.165
       157 -12.4832    216.6282     28.8362   1.2213699514e+01   2.9517786966e+01    0.2853231    0.1294806 -45.43  0.001602212    1.695    0.410
       158 -10.8123      5.5111    219.0954   9.7874136002e+01   2.5498047875e+01    0.1747151    0.1132108 -86.46 0.0006694946    1.555    0.357
       159 -13.3477     57.9020     26.7709   3.8881949719e+01   6.5489790180e+01     1.150862    0.3517373  48.84  0.003661276    2.873    0.652
       160 -12.9837     51.0258    248.3688   8.8777433016e+01   1.5331882402e+01    0.6244206    0.4170787 -13.51  0.003551078    2.016    0.504
       161 -11.5313    156.6035    214.2518   6.0527582360e+01   9.3679896479e+00     0.183363     0.106206 -33.16 0.0009580023    1.689    0.408
       162 -11.1428    195.0332     23.0445   1.2480810448e+01   3.4359830735e+01    0.1887063    0.1521876 -63.63  0.001303759    1.009    0.008
       163 -10.8774     51.2163     20.4115   3.8393200647e+01   6.7730197744e+01    0.3183929    0.1592581  56.09  0.001434995    2.051    0.513
       164 -11.6541     46.1531     20.3477   4.0631797146e+01   6.8767527103e+01    0.3873335    0.2175162  30.17  0.001191283    1.928    0.481
       165 -12.2718      4.4992    210.4970   9.7758914051e+01   2.7497995490e+01    0.2882227    0.2070046 -38.98  0.001692595    1.760    0.432
       166 -10.8078    136.6111    210.8107   6.4391621331e+01   1.2570079800e+01    0.1700167    0.1284573 -59.37  0.000947511    1.689    0.408
       167 -12.9229     72.3090    207.6210   7.9864150943e+01   2.1490109512e+01    0.5145507    0.2962336 -68.96  0.002482687    1.983    0.496
       168 -10.7258     46.3196    209.6634   8.6912032755e+01   2.3935351677e+01    0.1448547   0.08602683  54.83 0.0004292372    1.706    0.414
       169 -12.5031     57.5327    202.1428   8.3202500521e+01   2.4454864767e+01    0.7542961    0.3320178 -75.89  0.003044012    2.794    0.642
       170 -13.2346     15.9580    198.1133   9.4141828996e+01   2.9484623694e+01    0.9991202    0.2342226 -58.84  0.003425261    4.063    0.754
       171 -12.0425     41.4021    205.2936   8.7837857207e+01   2.5446206887e+01    0.2524293     0.127843  43.31  0.001181646    1.777    0.437
       172 -12.9534     40.1364    194.9064   8.7268828149e+01   2.8037130531e+01    0.4512527    0.3559206  87.48  0.002011171    1.313    0.238
       173 -12.4051     36.7519    193.9975   8.8130670414e+01   2.8595996126e+01    0.3596498    0.2397516 -67.91  0.001888852    1.539    0.350
       174 -13.7473     29.9822    169.2507   8.7816282959e+01   3.5486964199e+01     1.252882    0.9176552  13.18  0.006539726    1.471    0.320
       175 -13.4164     22.1083    180.9155   9.1221268884e+01   3.3198171633e+01    0.8021387    0.4048067 -64.87  0.003352473    1.925    0.481
       176 -15.2345      8.3461    183.3066   9.5352366924e+01   3.3696893585e+01     1.412411     1.291906 -61.76  0.008974953    1.189    0.159
       177 -15.3605     14.9820    174.8329   9.2862018668e+01   3.5333930958e+01     2.412235     1.097407  52.58   0.01035322    2.182    0.542
       178 -11.6111    164.6655    196.3305   5.5882495474e+01   1.1498390888e+01    0.1194636    0.1065729  68.17 0.0007052139    1.728    0.421
