#   1 NUMBER                 Running object number                                     
#   2 MAG_AUTO               Kron-like elliptical aperture magnitude                    [mag]
#   3 X_IMAGE                Object position along x                                    [pixel]
#   4 Y_IMAGE                Object position along y                                    [pixel]
#   5 X_WORLD                Barycenter position along world x axis                     [deg]
#   6 Y_WORLD                Barycenter position along world y axis                     [deg]
#   7 A_WORLD                Profile RMS along major axis (world units)                 [deg]
#   8 B_WORLD                Profile RMS along minor axis (world units)                 [deg]
#   9 THETA_WORLD            Position angle (CCW/world-x)                               [deg]
#  10 FWHM_WORLD             FWHM assuming a gaussian core                              [deg]
#  11 ELONGATION             A_IMAGE/B_IMAGE                                           
#  12 ELLIPTICITY            1 - B_IMAGE/A_IMAGE                                       
         1 -14.4725    213.1265      5.6532   4.3000031851e+01   3.0612132762e+01     2.324821      1.14212  54.99   0.01037307    2.097    0.523
         2 -15.1123    190.7592     34.0738   5.4047773687e+01   3.3187973483e+01     3.139212     1.715235  26.02   0.01152684    2.897    0.655
         3 -13.1578     42.5568      4.7004   8.0915968375e+01   7.0523350808e+01     0.579195    0.4821749  32.13  0.003046491    1.413    0.292
         4 -11.6210     62.6336    236.6996   1.2246520864e+02   2.0031817357e+01    0.1971891    0.1332269  73.85 0.0004494014    1.265    0.210
         5 -17.8104     38.9873    246.8495   1.2689562648e+02   2.1131538417e+01     7.944623     4.229216  30.34    0.0511937    2.496    0.599
         6 -11.3360     70.3314    209.7439   1.1909082034e+02   2.3679856919e+01    0.2061164    0.1360634  63.44 0.0005288284    1.248    0.199
         7  -9.9587     75.6823    207.1865   1.1785338067e+02   2.3446223500e+01    0.2466999    0.1814362 -47.58   0.00138278    1.946    0.486
         8 -13.4596     60.3258    203.0576   1.2043700843e+02   2.6167481071e+01    0.5451012    0.3365617 -68.78    0.0026785    1.688    0.407
         9 -10.4059     37.1893    206.6701   1.2502332960e+02   2.8165800422e+01    0.1625563   0.09043055  51.46  0.001067055    1.427    0.299
        10 -11.7978    192.9521    194.5877   9.3478115742e+01   6.8404824820e+00    0.8103496    0.4334749 -61.32  0.002854486    5.629    0.822
        11 -11.9003     36.5242    200.1269   1.2473412187e+02   2.9459493620e+01    0.1741515    0.1325622  62.02 0.0004367066    1.115    0.103
        12 -11.6114     59.8307    216.9442   1.2159514312e+02   2.3706866022e+01    0.3076423    0.1782102  70.71  0.001593628    1.539    0.350
        13 -10.0564     81.7102    195.2221   1.1552104522e+02   2.4858834455e+01    0.2474821    0.2178475 -61.23  0.001739512    1.406    0.289
        14 -13.0288     70.0888    187.9606   1.1714708968e+02   2.7829338824e+01    0.6436927    0.5343323 -73.55  0.003208325    1.297    0.229
        15  -9.5751     94.0329    189.0085   1.1232356494e+02   2.4291496822e+01    0.1686282    0.1507887 -13.13 0.0005387156    1.641    0.391
        16 -10.7642    155.1391    187.8707   9.9644303831e+01   1.4502788029e+01    0.2022484    0.1683156  62.71  0.001029925    1.285    0.222
        17 -19.2246     14.3504    101.7796   1.2135776308e+02   5.2730757745e+01     16.50198     2.130093 -73.62    0.0429469    6.958    0.856
        18  -9.5071     61.1770    186.5609   1.1883985494e+02   2.9244838684e+01    0.2708938    0.1152458  31.25 0.0009274886    2.833    0.647
        19 -10.7687     59.9902    229.6370   1.2245116001e+02   2.1509809214e+01    0.1692468    0.1120099  71.65 0.0004591089    1.255    0.203
        20 -12.3154     48.5105    206.2500   1.2290794301e+02   2.6980381028e+01    0.2349529    0.1654266  83.80 0.0006565629    1.221    0.181
        21 -11.8253     99.4150    180.8262   1.1018246188e+02   2.5077513922e+01    0.2530057     0.213368  81.18 0.0005966888    1.120    0.107
        22 -10.9467    149.0469    180.2818   9.9651849101e+01   1.6888966542e+01    0.1942352    0.1587109  45.16 0.0007853523    1.089    0.082
        23 -12.7665    149.7691    188.7800   1.0086295656e+02   1.5286235046e+01    0.4899742    0.3528342 -87.61  0.002263553    2.083    0.520
        24 -11.5808     55.7067    211.3386   1.2194004241e+02   2.5205127468e+01    0.1969617    0.1240953  73.41 0.0004098047    1.363    0.267
        25 -10.3382     48.6124    172.4091   1.2016736954e+02   3.3639511540e+01    0.2307989    0.2001876  35.78  0.001503839    1.440    0.306
        26 -10.5683    163.9362    169.8232   9.4774059986e+01   1.6010124184e+01    0.2224927    0.1971272 -61.89  0.000431963    1.313    0.238
        27  -9.8638    200.9843    168.4849   8.7225180354e+01   9.2631522950e+00    0.2624377    0.1584578  43.16 0.0008638847    1.551    0.355
        28  -9.7431    204.8928    167.3529   8.6273064919e+01   8.7073207227e+00    0.2549749    0.1723325  33.45  0.001366241    1.363    0.267
        29 -12.3471     52.5131    209.1068   1.2236813654e+02   2.5989411706e+01    0.2148241    0.1447694  66.03 0.0005733492    1.162    0.140
        30 -10.6893    192.7156    165.1520   8.8143304863e+01   1.1341215285e+01    0.2759708    0.2331671 -24.70  0.000834465    1.230    0.187
        31 -10.8103    158.9118    162.4524   9.4449789682e+01   1.8277549645e+01    0.2321442    0.1854272  -9.60  0.001030357    1.554    0.356
        32 -12.8875     96.7301    153.5266   1.0688131834e+02   3.1145626974e+01    0.6035279    0.4749934 -30.09  0.003323987    1.756    0.431
        33 -10.8848    188.4675    154.8506   8.6889489674e+01   1.3851303820e+01    0.4443079    0.2559178  42.14  0.002092543    1.634    0.388
        34 -11.9372    133.9095    145.5706   9.6710721738e+01   2.6333144858e+01     1.171065    0.3077563 -55.07  0.003074711    5.639    0.823
        35 -10.4987    113.3002    151.1413   1.0256861177e+02   2.8911025014e+01    0.2665513    0.1929158  82.05  0.000932407    1.654    0.395
        36 -10.5772    174.4055    148.8391   8.8478742105e+01   1.7702721993e+01    0.2923938    0.2503313  76.64 0.0008818886    1.448    0.309
        37 -11.4595    144.3797    147.0635   9.4616494698e+01   2.4018022515e+01    0.3547105    0.2704918 -83.84  0.001761536    1.727    0.421
        38  -9.9512    113.6832    142.3307   1.0087906981e+02   3.0729965078e+01    0.1466465    0.1057273  78.52 0.0007046751    1.684    0.406
        39 -12.1595    107.7954    139.5424   1.0179562135e+02   3.2365497868e+01    0.5145495    0.3316998 -35.10  0.002378245    2.077    0.519
        40 -12.5086     96.1870    139.2877   1.0463412036e+02   3.4363332874e+01     0.294066    0.2748283 -81.50 0.0003393597    1.065    0.061
        41  -9.9065    128.0888    139.4674   9.6857159687e+01   2.8705491250e+01    0.2212523     0.137185  43.14  0.001025325    1.574    0.365
        42 -11.3781    105.9843    130.8167   1.0056626774e+02   3.4611399018e+01    0.3956116    0.3132553 -84.19  0.001216887    1.363    0.266
        43 -11.2105    102.8160    125.8611   1.0038334320e+02   3.6272830764e+01    0.2829865    0.2388914 -17.91 0.0009763606    1.537    0.349
        44 -11.2537    115.0461    129.9565   9.8096951262e+01   3.3183855303e+01     0.322451     0.274674 -12.26 0.0008582034    1.512    0.339
        45 -11.3818    135.7688    127.5990   9.2480679674e+01   2.9708914713e+01    0.5499481     0.185968 -51.91    0.0017614    3.321    0.699
        46 -10.4225    160.6486    127.7965   8.6761081283e+01   2.4506394172e+01    0.3418586    0.2336124 -55.68  0.001569574    1.676    0.403
        47 -11.3018    120.5925    123.4906   9.5306351532e+01   3.3565171715e+01    0.5174022    0.2921581 -25.95  0.001802434    3.423    0.708
        48  -9.9322    135.0000    119.9313   9.0897641903e+01   3.1481421847e+01    0.2477344   0.08436263 -46.54 0.0008020784    2.940    0.660
        49 -10.1261    110.2422    119.0005   9.6974504205e+01   3.6494684983e+01    0.2275177    0.2021095  50.81 0.0002827635    1.142    0.124
        50 -10.1752    168.0527    112.9901   8.1503444313e+01   2.5749516465e+01    0.3584076    0.2493345 -79.25  0.001449409    2.391    0.582
        51 -11.7154    119.4771    110.1890   9.2485147804e+01   3.6698318403e+01    0.5448875    0.3779585  56.86   0.00255242    1.577    0.366
        52 -10.2168    205.5850    110.1176   7.3250287214e+01   1.7802324912e+01    0.2723521    0.2100349  38.79 0.0006079195    1.317    0.241
        53  -9.6460    134.6082    105.8176   8.7488229197e+01   3.4547008381e+01    0.2233701    0.1411052 -54.56 0.0009547641    1.693    0.409
        54  -9.8952     72.2737    230.3633   1.2036857632e+02   1.9871631748e+01     0.147726   0.08715774  58.27 0.0006673292    1.327    0.247
        55 -10.3271     41.8208     91.8273   1.1131853315e+02   5.2749034673e+01     0.191931     0.156228 -51.60 0.0005453014    1.189    0.159
        56 -10.9750     53.1918     90.6825   1.0741581941e+02   5.1776986566e+01    0.2433108    0.1739919 -59.26  0.001352884    1.200    0.167
        57 -10.0586     70.2201     72.1951   9.7089324506e+01   5.3799793545e+01    0.1952134     0.174661 -39.75 0.0004538608    1.064    0.061
        58 -12.0903    164.8421     65.1857   6.8491090983e+01   3.5290129686e+01    0.6206486    0.4979351 -49.06 0.0009045074    1.288    0.224
        59 -10.0011     32.7997    211.8060   1.2611711387e+02   2.7696523041e+01   0.07886361   0.06763452  76.74            0    1.285    0.222
        60 -13.5715    175.7199     48.8172   6.1148170657e+01   3.5091639863e+01    0.9290105    0.7639493   4.76 0.0008504774    1.380    0.275
        61 -10.1725    169.1014    236.3607   1.0388722038e+02   5.0550676856e+00    0.1602768     0.140617  12.79 0.0004485519    1.257    0.204
