#   1 NUMBER                 Running object number                                     
#   2 MAG_AUTO               Kron-like elliptical aperture magnitude                    [mag]
#   3 X_IMAGE                Object position along x                                    [pixel]
#   4 Y_IMAGE                Object position along y                                    [pixel]
#   5 X_WORLD                Barycenter position along world x axis                     [deg]
#   6 Y_WORLD                Barycenter position along world y axis                     [deg]
#   7 A_WORLD                Profile RMS along major axis (world units)                 [deg]
#   8 B_WORLD                Profile RMS along minor axis (world units)                 [deg]
#   9 THETA_WORLD            Position angle (CCW/world-x)                               [deg]
#  10 FWHM_WORLD             FWHM assuming a gaussian core                              [deg]
#  11 ELONGATION             A_IMAGE/B_IMAGE                                           
#  12 ELLIPTICITY            1 - B_IMAGE/A_IMAGE                                       
         1 -16.8783    167.4526     63.3232   7.1372595999e+01   3.5032269393e+01     3.908225     2.681085  -2.30   0.01651507    1.969    0.492
         2 -15.7687    137.8683     83.1930   8.4189858192e+01   3.8600946848e+01     2.001894    0.8521344 -41.10  0.007310124    2.340    0.573
         3 -14.5664    199.9286     60.6052   6.4557446461e+01   2.7145670686e+01     2.078707    0.9018989 -48.27  0.007199535    2.784    0.641
         4 -13.8557    210.2950      7.8559   4.7585368904e+01   3.0959236916e+01     1.114636    0.6124306 -35.05  0.005149088    1.724    0.420
         5 -15.3876    187.6350     25.7727   5.5817426823e+01   3.5029213703e+01     2.076449    0.7379022 -28.81  0.007330076    2.660    0.624
         6 -15.7377    201.7232     22.4963   5.2902557440e+01   3.1658359421e+01     3.178969     1.381015 -41.75   0.01241219    2.253    0.556
         7 -14.9679    161.8503     32.8191   6.2405094728e+01   4.1038781975e+01     1.021419    0.5427113 -21.82  0.004111148    2.040    0.510
         8 -14.6227    131.9297     30.5901   6.7850178315e+01   4.9034015334e+01     1.181374    0.9704784 -63.12  0.005315218    1.449    0.310
         9 -15.7550      9.8858     11.0010   1.0650539572e+02   7.2470287731e+01     1.693377    0.9253019 -44.61  0.009356978    1.377    0.274
        10 -14.0877     32.9632      5.2921   9.1202078294e+01   7.1403238987e+01    0.6074899    0.5000846  82.23  0.003720944    2.420    0.587
        11 -13.7170    141.4166     18.9589   6.1299469999e+01   4.8135409381e+01    0.4745481    0.4380241  29.41  0.002251121    1.051    0.048
        12 -14.3667    159.8698     13.9690   5.6088287877e+01   4.3830079313e+01    0.7434101    0.5113969 -71.43   0.00342171    1.785    0.440
        13 -13.3438     94.0035     10.0030   6.9063133619e+01   6.0517613963e+01    0.4497076      0.32693  -8.38  0.002424477    1.370    0.270
        14 -13.1322    104.3727      7.7807   6.5118024205e+01   5.8483224803e+01    0.6736895    0.5019929 -55.81  0.003497912    1.747    0.427
        15 -13.0857      7.3278     32.8249   1.1484361625e+02   6.8266950034e+01    0.3746746    0.2840045 -80.83  0.002608426    1.397    0.284
        16 -12.2005     62.1791    241.9026   1.2499314812e+02   2.0678865899e+01     0.394443    0.1717803 -74.75   0.00227993    2.557    0.609
        17 -13.8370     60.1169    249.6470   1.2576306632e+02   1.9778553445e+01    0.6227791    0.2176372  37.28  0.003446611    2.720    0.632
        18 -12.9027     52.1647    250.3614   1.2703461426e+02   2.0592894004e+01    0.3413026    0.1322009  52.25  0.001542195    1.741    0.426
        19 -19.2830     27.8911    173.7454   1.2683891776e+02   3.6326684266e+01     5.283103     3.355611 -72.77   0.03281614    1.510    0.338
        20 -12.3849    101.5873    166.2569   1.1047895928e+02   2.8446480645e+01    0.3621422    0.2272011 -68.52  0.001906994    1.705    0.414
        21 -14.0697    128.6143    159.3083   1.0350929974e+02   2.5252713745e+01    0.8840573    0.5551062  46.96  0.003917657    1.435    0.303
        22 -15.2035    125.7687    149.6762   1.0248651227e+02   2.7631356257e+01     1.290794     1.065671 -59.01  0.006560798    1.287    0.223
        23 -14.1613    109.2439    157.2227   1.0746136469e+02   2.8998194809e+01    0.9819389    0.5722288  46.85  0.004518125    1.560    0.359
        24 -13.8643    117.9694    154.8890   1.0513164498e+02   2.7982978777e+01    0.7689351    0.4723716 -58.74  0.003243902    1.744    0.427
        25 -15.0553    128.2836    124.2939   9.6938736904e+01   3.2284838875e+01    0.9771136    0.8579393 -30.11  0.004950001    1.301    0.232
        26 -14.3314    137.3266    118.1473   9.3395284820e+01   3.1729582291e+01    0.8373511    0.4811593  66.35  0.003245959    2.589    0.614
        27 -13.5866    138.3855    112.2880   9.1764716751e+01   3.2692111082e+01    0.5643991    0.4308613  67.86   0.00278032    1.489    0.329
        28 -13.9751     80.7291    127.4781   1.0950087137e+02   3.9752004024e+01     0.591755    0.5066488  12.27  0.003204148    1.568    0.362
        29 -16.9474     89.7849    138.4655   1.0904352681e+02   3.6003904190e+01     4.331399     2.464756 -31.32   0.01693285    3.770    0.735
        30 -15.6540    155.9646    113.7291   8.8006270761e+01   2.8639395232e+01     1.897505    0.8132412 -43.82  0.007121741    2.410    0.585
        31 -13.2295     80.2933    196.0914   1.1832089409e+02   2.5931616812e+01    0.4677497    0.3939663  77.26  0.002457482    1.130    0.115
        32 -12.4315      2.0166    115.1389   1.2846463648e+02   5.0590113880e+01    0.2674865    0.1576921 -88.70  0.001332385    1.329    0.247
        33 -13.4041    232.0743    112.9195   7.3059075707e+01   1.1858245465e+01    0.3882212    0.2430653 -23.22  0.001887985    1.574    0.365
        34 -12.3468     70.9868    199.5458   1.2041791762e+02   2.6543604782e+01    0.3247798    0.1552953  50.79  0.001483272    1.677    0.404
        35 -11.5794      1.4758    103.2124   1.2763328588e+02   5.3212183208e+01    0.3259495    0.1212899 -80.67  0.001647184    2.143    0.533
        36 -12.1892      1.9976     97.2224   1.2694738706e+02   5.4494268614e+01    0.3113481    0.2023477 -70.71  0.001454658    1.231    0.188
        37 -12.5210      5.4901     94.4801   1.2567400189e+02   5.4897443560e+01    0.2570843    0.1556128 -77.48  0.001203324    1.274    0.215
        38 -12.2360    199.8973    247.5594   1.0289612474e+02   5.3347239740e-01    0.2562619    0.1544908  63.52  0.001371493    3.355    0.702
        39 -14.0293     36.6507    221.9797   1.2806694208e+02   2.6721329117e+01    0.3322775    0.2262828  54.30  0.001314003    1.180    0.153
        40 -13.7565    131.1100     70.2936   8.2007343388e+01   4.2601866038e+01     2.017602    0.7983413  41.02  0.006780892    2.892    0.654
        41 -12.4281      1.8970     89.0286   1.2616904473e+02   5.6303112142e+01    0.3044405    0.1478695 -76.34  0.001133845    1.571    0.363
        42 -12.1721      2.2526     79.9786   1.2506492836e+02   5.8282463577e+01    0.5388166    0.1477679 -67.02  0.002491476    2.467    0.595
        43 -12.8962     96.1860    168.4971   1.1195407213e+02   2.8842838321e+01    0.5016609    0.4564501  40.38  0.002523094    1.275    0.216
        44 -12.6549      9.3030     76.6674   1.2235959070e+02   5.8631045325e+01     0.281461    0.2481543 -22.05  0.002120858    1.435    0.303
        45 -14.8471    122.5939    224.2040   1.1328847629e+02   1.5200614460e+01     1.059089     0.851827 -76.87  0.007877032    1.495    0.331
        46 -15.4615    109.5954    201.7600   1.1326430300e+02   2.0721201410e+01     2.092309     1.664998 -55.65   0.01438938    1.558    0.358
        47 -14.3763     62.6558    215.3821   1.2318832063e+02   2.4842422481e+01    0.9039383    0.3884409 -59.85  0.005189125    2.795    0.642
        48 -14.2278     83.6898    210.2954   1.1898452317e+02   2.2993090857e+01    0.9126701    0.3927821  57.05  0.004847692    2.110    0.526
        49 -14.0405     91.3469    206.8756   1.1724973478e+02   2.2518005873e+01    0.5737988    0.4421521  50.67  0.004088752    1.141    0.124
        50 -14.1803     71.4198    211.9426   1.2136093075e+02   2.4327949026e+01    0.5006355    0.3925293  35.96  0.002565072    1.531    0.347
        51 -13.7770     74.2486    205.9263   1.2035060918e+02   2.4996144065e+01    0.5897539    0.2466576  34.55  0.002974718    2.621    0.619
        52 -15.1320    140.2686    187.8958   1.0551278101e+02   1.8099501603e+01     1.424916    0.5736083 -45.11  0.006319853    3.102    0.678
        53 -14.4119    143.7081     27.1073   6.3921649843e+01   4.6531178128e+01    0.8196025    0.4700249  57.55  0.003450084    1.672    0.402
        54 -16.3215    151.9452    177.7028   1.0163845372e+02   1.7754334217e+01     2.032858     1.547624 -84.13  0.009645684    1.777    0.437
        55 -15.2763    171.3107    175.0856   9.7366008035e+01   1.4632445958e+01     2.253983     1.258318 -31.34   0.01087068    2.337    0.572
        56 -15.8470    153.3862    161.3153   9.8565219580e+01   2.0312267513e+01     1.528303     1.350831 -17.13  0.006993256    1.341    0.254
        57 -14.7278    167.0111    161.9527   9.5879203760e+01   1.7594532124e+01     1.064793    0.7063441 -52.15  0.005490657    1.787    0.441
