#   1 NUMBER                 Running object number                                     
#   2 MAG_AUTO               Kron-like elliptical aperture magnitude                    [mag]
#   3 X_IMAGE                Object position along x                                    [pixel]
#   4 Y_IMAGE                Object position along y                                    [pixel]
#   5 X_WORLD                Barycenter position along world x axis                     [deg]
#   6 Y_WORLD                Barycenter position along world y axis                     [deg]
#   7 A_WORLD                Profile RMS along major axis (world units)                 [deg]
#   8 B_WORLD                Profile RMS along minor axis (world units)                 [deg]
#   9 THETA_WORLD            Position angle (CCW/world-x)                               [deg]
#  10 FWHM_WORLD             FWHM assuming a gaussian core                              [deg]
#  11 ELONGATION             A_IMAGE/B_IMAGE                                           
#  12 ELLIPTICITY            1 - B_IMAGE/A_IMAGE                                       
         1 -13.7389     76.6074     82.1165   3.0416026639e+01   5.1727654883e+01     2.134012     1.242369  49.34  0.008988343    1.790    0.441
         2 -13.9137      9.5352     43.0152   5.1934730346e+01   7.0618383861e+01     1.055655    0.4102725  42.24  0.003486176    3.240    0.691
         3 -10.9732    225.7945     15.0611   3.4581654508e+02   2.9951942276e+01     0.233266      0.18362 -86.63  0.000558141    1.326    0.246
         4  -9.4961    120.4285      9.4237   3.5291500737e+02   5.3314534175e+01    0.2485424    0.2295732  78.43  0.001030667    1.136    0.120
         5 -10.5020    217.9782      6.7276   3.4445275726e+02   3.2243886438e+01    0.1611713    0.1167964 -61.78 0.0006502974    1.044    0.042
         6 -10.9677    223.4767      5.3131   3.4391056687e+02   3.1378322846e+01      0.31668    0.1120022 -50.09  0.001738281    1.949    0.487
         7 -11.7599    235.0135      2.9966   3.4297800378e+02   2.9567057593e+01    0.4919199    0.1860767  85.77  0.002756599    2.757    0.637
         8 -10.4560    248.8465      2.3248   3.4235829095e+02   2.7312404728e+01    0.2696496    0.1411043 -79.73  0.001870033    1.795    0.443
         9 -10.2891    182.0004      4.0087   3.4573476431e+02   3.9660096436e+01    0.1909464    0.1470128 -64.71  0.000690165    1.008    0.008
        10 -10.1125    121.7142    235.3103   4.6755429821e+01   9.6400251968e+00    0.2112475    0.1979163 -45.04 0.0005937371    1.293    0.227
        11 -15.9967    193.6429    193.4521   2.5977162802e+01   8.2401981240e+00     1.357196     1.105832 -84.13  0.008007287    2.467    0.595
        12 -19.5767    226.7359    168.8063   1.6367953449e+01   8.1344535340e+00      5.39042     4.347876 -33.93   0.02209225    1.176    0.150
        13 -11.7652    116.9291    150.4860   3.4727098201e+01   2.7992594377e+01     1.020847    0.3026753  41.54  0.003210089    3.414    0.707
        14 -11.5989    110.6577    149.5136   3.6216878788e+01   2.9271390735e+01    0.6455231    0.5272638  57.42  0.002130578    1.357    0.263
        15  -9.5047     98.8767    157.2225   4.0958646518e+01   2.9334853084e+01    0.4097826    0.1878981 -47.85  0.001576799    2.201    0.546
        16 -10.9930     69.5032    145.4913   4.7813738286e+01   3.6779721009e+01    0.4730713    0.4191395  43.43  0.001340406    1.112    0.101
        17 -11.5523     66.3819    143.1780   4.8442417579e+01   3.7838762759e+01    0.6488569    0.4443747 -64.22  0.002071977    1.454    0.312
        18  -9.3361    103.9807    144.8634   3.7146885600e+01   3.1504913569e+01    0.2525646    0.2068243 -51.50 0.0002940288    1.209    0.173
        19  -9.4951    144.3699    217.8802   3.9526958040e+01   1.0072645335e+01     0.195917     0.155128  24.81 0.0004337071    1.200    0.167
        20  -9.0071     93.9954    138.6550   3.8808154995e+01   3.4711789648e+01    0.2142342    0.1979931  26.91 0.0004898193    1.106    0.096
        21 -10.3428    103.9290    129.2629   3.3850600109e+01   3.5291783769e+01    0.4255415    0.3266236 -86.43 0.0006301378    1.639    0.390
        22 -10.3008     74.8842    129.3140   4.2987768139e+01   4.0233104749e+01     0.284602    0.2143998 -51.02 0.0003329373    1.322    0.244
        23 -15.6387    196.2595    155.5456   1.8744014754e+01   1.4264274281e+01     1.132012    0.6211528 -45.40  0.005671349    1.664    0.399
        24 -10.3606    128.7505    240.6450   4.5866336019e+01   7.9230510354e+00    0.3563583    0.2027025 -66.54  0.001482706    2.787    0.641
        25  -8.8964     18.7440    123.5328   6.2928623923e+01   4.8706783317e+01    0.2752364    0.1497613 -62.25  0.000747261    1.688    0.408
        26 -10.5577     73.9364    120.1675   4.1371462422e+01   4.2776363689e+01    0.3507605    0.2509698 -46.81 0.0004060917    1.419    0.295
        27  -9.0449      7.7472    116.9543   6.6638232307e+01   5.1338837366e+01     0.204473    0.1738001 -83.35 0.0003965261    1.086    0.079
        28  -9.7234     77.8924    111.1864   3.7919515252e+01   4.4422808348e+01    0.2751934    0.2175273 -51.26 0.0004378441    1.251    0.201
        29  -8.5454     41.8346    110.0956   5.1452044873e+01   5.0114064398e+01    0.2010623    0.1691034 -35.94 0.0003424305    1.257    0.204
        30 -11.3864     57.7547    210.2091   5.9515420428e+01   2.2123927700e+01    0.4051464    0.2632551 -73.93   0.00123443    1.702    0.412
        31  -9.9690    136.4684    250.5234   4.5412953579e+01   5.4681621924e+00    0.3916991    0.1165211  27.33  0.001616162    2.758    0.637
        32 -10.1229    102.6680     97.6246   2.6330935975e+01   4.2979318024e+01    0.2880451    0.2591556 -89.09 0.0006602585    1.169    0.144
        33 -13.5275     47.8890     67.5760   3.7786667412e+01   6.0197468766e+01     1.800077     1.195666  51.98  0.007511579    1.717    0.418
        34 -12.6228     67.0984     77.0632   3.2478713032e+01   5.4687413300e+01    0.7020057    0.6696957  43.37 0.0006896093    1.045    0.043
        35 -12.3338     79.7323     90.1634   3.1691674734e+01   4.9255062345e+01    0.8130692    0.5632445  54.12  0.001396584    1.553    0.356
        36 -10.5639    151.8847    207.6512   3.6417328453e+01   1.0979123680e+01    0.3466049    0.2041695 -47.51  0.001820818    1.758    0.431
        37  -9.1509     54.4860     95.4850   4.2937799929e+01   5.2286514719e+01    0.1518671    0.1465226 -39.16 0.0008098897    1.047    0.045
        38  -9.5053     97.9592     83.2402   2.3579376010e+01   4.7129798050e+01    0.2059978    0.2032734 -87.09 0.0005209345    1.039    0.037
        39 -10.5035    141.0295    208.1560   3.8834472576e+01   1.2260965438e+01    0.2612109    0.2428818 -33.10 0.0006259201    1.203    0.169
        40  -8.8285    111.2817    228.3478   4.8266754603e+01   1.2120439198e+01    0.1284837   0.08881951 -16.86 0.0003047732    1.644    0.392
        41  -9.1707    108.1677     79.7756   1.9544622850e+01   4.5649411296e+01    0.2881716    0.2018052 -17.65  0.001021001    2.143    0.533
        42  -9.1820    101.4052     78.1155   2.0963367029e+01   4.7466911518e+01    0.3186789    0.2405022 -12.73  0.001290275    1.906    0.475
        43 -10.6501     89.7088    203.3085   5.0438210052e+01   1.9868780349e+01    0.5478774    0.1833928  22.54  0.001850545    3.366    0.703
        44 -10.8810    153.9195     71.3032   6.9072622079e+00   3.7030959489e+01    0.3322372    0.3038443  -7.13 0.0007469259    1.367    0.269
        45 -11.3342    228.6813     71.5811   3.5734034500e+02   2.2474832737e+01    0.7508611    0.1990521  60.20  0.003178592    4.412    0.773
        46 -10.0026    224.2945     70.2954   3.5749200305e+02   2.3389920426e+01    0.2077295    0.2043441  45.60 0.0008644797    1.378    0.274
        47 -10.9116    213.2822     71.2092   3.5879890699e+02   2.5176636337e+01    0.2483502    0.2174769  68.23 0.0004294593    1.384    0.277
        48  -9.6956     68.0137    196.5770   5.5384176024e+01   2.4087669680e+01    0.3071843    0.2158561 -23.25  0.001527343    1.799    0.444
        49 -10.6943    199.4551     68.3979   3.5969678077e+02   2.8129421031e+01    0.3408754    0.1415026 -49.22  0.001459682    2.104    0.525
        50  -9.3866    103.9932    186.8880   4.4480104752e+01   2.1619831870e+01    0.2021838      0.19474   3.41 0.0003877671    1.032    0.031
        51 -10.1252    133.5327    247.9970   4.5726294854e+01   6.1845398315e+00    0.3496919    0.2413386  66.48   0.00168302    2.822    0.646
        52 -10.2533    208.7903     66.8287   3.5831084626e+02   2.6615310299e+01    0.1747732    0.1496345 -39.27 0.0003627586    1.202    0.168
        53 -11.0301    160.8926     62.8288   3.4611616732e+00   3.6878867736e+01    0.3637283    0.2833926  45.24  0.002026739    1.561    0.359
        54 -11.0836    169.2823     58.3223   1.0335615615e+00   3.5747477878e+01     0.407102    0.2981188  43.52  0.000947416    1.761    0.432
        55  -8.2957     36.3341    181.3106   6.2855315613e+01   3.1381164662e+01    0.1422332    0.1035452 -32.76 0.0003975158    1.678    0.404
        56 -10.7620    205.5863     61.2443   3.5739621900e+02   2.7999636958e+01    0.2728225    0.1979841 -32.40  0.001013048    1.394    0.282
        57  -8.8662    193.9086     62.0971   3.5886811169e+02   3.0119481668e+01    0.1936478    0.1437173 -62.13 0.0004295701    1.205    0.170
        58 -10.3850    120.0000    231.9965   4.6734974641e+01   1.0429814781e+01    0.2237722    0.1941714 -47.79 0.0004620682    1.338    0.253
        59 -10.8647    126.6357    170.1134   3.5962203908e+01   2.2008178226e+01    0.3373362    0.2549528 -37.23 0.0005541095    1.320    0.243
        60  -9.7687    111.0999    174.2548   4.0617695644e+01   2.3447394474e+01    0.2721544    0.2199742 -65.03  0.001030475    1.365    0.267
        61 -10.0922    144.4561     59.5983   5.2758208482e+00   4.1067161739e+01    0.2824235    0.2207219 -68.94  0.000748226    1.252    0.201
        62  -9.5146    218.9991     59.0664   3.5561025043e+02   2.5850848676e+01    0.1778483    0.1386863 -53.53 0.0003336489    1.020    0.020
        63 -11.2115    197.2144     57.2394   3.5735892345e+02   3.0163726457e+01    0.4281386    0.2751734 -82.33   0.00241442    1.743    0.426
        64  -9.3882    117.6423     58.8489   1.0486854703e+01   4.7409466853e+01    0.2905521    0.2128449  31.92   0.00139902    1.785    0.440
        65 -10.1456    105.5620    171.8233   4.1668869862e+01   2.4834944942e+01    0.3579933    0.2425488 -51.64  0.001580211    1.491    0.329
        66 -11.2168    170.6468     64.6905   2.4995419451e+00   3.4486818312e+01    0.4020704    0.3333535  41.42  0.001021194    1.533    0.348
        67 -11.9693    226.6764     50.3729   3.5311421372e+02   2.5644760106e+01    0.5193641     0.362115 -70.77  0.002989915    1.369    0.270
        68 -10.4650     46.9663     52.9702   3.2938519308e+01   6.3587870664e+01    0.2157893    0.2082575  26.44 0.0003638513    1.037    0.036
        69  -9.0891    215.9952     52.1849   3.5439253780e+02   2.7308606090e+01     0.181292    0.1489611  85.68 0.0007958026    1.340    0.254
        70 -10.2926    241.1398     50.9269   3.5213633727e+02   2.3143299093e+01    0.2166836    0.1562031  86.05 0.0008916947    1.585    0.369
        71  -8.5915    135.6465     51.7082   4.4990168373e+00   4.4339730335e+01    0.1371802    0.1081225  32.01  0.000702917    1.680    0.405
        72  -8.9150    102.1694    172.8066   4.2743075785e+01   2.5111028385e+01    0.2206924    0.2044572 -13.01 0.0003963851    1.100    0.091
        73 -10.1096    179.7983     46.4649   3.5665289265e+02   3.5194443884e+01    0.2402702    0.2305718 -70.79 0.0009481214    1.226    0.185
        74 -10.1192    143.4928     45.4857   1.2632874598e+00   4.3427090691e+01    0.2449819    0.2249472  43.18 0.0005279581    1.320    0.242
        75  -8.9419    159.1880     44.7617   3.5874677318e+02   3.9929087879e+01    0.1926023    0.1580677 -69.71 0.0004606943    1.080    0.074
        76 -10.3313    222.4938     40.4895   3.5135406917e+02   2.7624736115e+01    0.2275827    0.1928219 -61.58  0.000744153    1.151    0.132
        77 -12.0632    219.7858     38.3817   3.5110395867e+02   2.8371849963e+01    0.6201207    0.3415918 -35.27  0.002595723    1.595    0.373
        78 -11.2153    193.5145     39.7783   3.5359551205e+02   3.3239399513e+01    0.5326571    0.2732813  52.99  0.002462433    2.498    0.600
        79  -9.9401    139.3114     40.1689   3.0929165922e-01   4.5153844783e+01    0.2545285    0.2106896  44.31  0.000742886    1.449    0.310
        80  -8.1522    144.4716     36.5240   3.5841188549e+02   4.4429775787e+01    0.1340353    0.1194362 -77.06  0.000308184    1.036    0.034
        81  -9.8502    208.1964     34.3868   3.5109955119e+02   3.1020498504e+01    0.2613022    0.1089791  77.51  0.001291428    2.678    0.627
        82 -10.9347     31.3770     29.8579   3.1265032102e+01   7.0700329173e+01    0.6045598    0.2371682 -34.02  0.002150149    3.606    0.723
        83 -11.4762    221.6248     26.5718   3.4846111705e+02   2.9434281508e+01    0.3520015    0.2191649  66.76 0.0007579144    1.900    0.474
        84  -9.3858    195.1797     27.9982   3.5064246178e+02   3.4347195859e+01    0.2443919    0.1366479  55.36 0.0007369705    2.253    0.556
        85  -9.3786     62.5649    165.1430   5.3054810366e+01   3.2561522297e+01    0.2521996    0.2311907 -22.11 0.0006582222    1.200    0.167
        86  -9.7421    181.8208     23.1611   3.5054947687e+02   3.7679473217e+01    0.2840329    0.2601229  -3.37  0.001694654    1.518    0.341
        87  -9.8133    178.5095     23.4954   3.5091738964e+02   3.8348755541e+01    0.2711063    0.2288434  56.38  0.001790731    1.485    0.327
        88 -11.0553    203.2715     18.0137   3.4774018174e+02   3.3866213331e+01    0.2627688    0.1780538 -64.82  0.001735586    1.193    0.162
        89 -10.1706    115.4674    140.5376   3.3076974115e+01   3.0558115518e+01    0.2774958    0.2466355 -25.27 0.0005951613    1.177    0.150
        90  -9.6099    175.6631     15.3919   3.4906616989e+02   3.9860766397e+01    0.2970265    0.1582507  60.29  0.001588843    2.080    0.519
        91  -9.5645    190.2126     15.2264   3.4795222815e+02   3.6799136524e+01    0.1741477    0.1073404 -59.38 0.0006525071    1.316    0.240
        92  -9.4358    107.9927    159.9815   3.8935961560e+01   2.7232886807e+01    0.3158245    0.2007527  45.39  0.001435284    1.644    0.392
        93  -9.5753    176.4424    245.4551   3.6922048593e+01   2.1190849817e+00    0.2015764   0.09280744  24.62 0.0005131423    1.911    0.477
        94  -9.0335    164.4664    240.9707   3.8603284209e+01   4.0019205239e+00    0.2176884    0.1340787 -42.23  0.001263975    1.712    0.416
        95 -10.2301    114.1541    145.4313   3.4447861352e+01   2.9640728688e+01    0.3547074    0.2552248 -49.09 0.0004561839    1.363    0.266
        96 -10.8324    109.1957    154.9793   3.7675288761e+01   2.8220271238e+01     0.444091    0.3716255 -47.12  0.001173787    1.187    0.158
        97  -9.5032     43.5420    237.2414   6.5150863197e+01   1.7784956990e+01    0.2211232    0.1831228  -8.70 0.0005082009    1.440    0.306
