#   1 NUMBER                 Running object number                                     
#   2 MAG_AUTO               Kron-like elliptical aperture magnitude                    [mag]
#   3 X_IMAGE                Object position along x                                    [pixel]
#   4 Y_IMAGE                Object position along y                                    [pixel]
#   5 X_WORLD                Barycenter position along world x axis                     [deg]
#   6 Y_WORLD                Barycenter position along world y axis                     [deg]
#   7 A_WORLD                Profile RMS along major axis (world units)                 [deg]
#   8 B_WORLD                Profile RMS along minor axis (world units)                 [deg]
#   9 THETA_WORLD            Position angle (CCW/world-x)                               [deg]
#  10 FWHM_WORLD             FWHM assuming a gaussian core                              [deg]
#  11 ELONGATION             A_IMAGE/B_IMAGE                                           
#  12 ELLIPTICITY            1 - B_IMAGE/A_IMAGE                                       
         1 -13.6668    225.8536      7.4934   3.5495719519e+01   2.8439486700e+01     2.031963     1.202478  47.26   0.01181219    2.417    0.586
         2 -13.0322    182.3954     52.0402   5.0237631809e+01   3.2703273817e+01     1.061957    0.9515995  14.26 0.0008609142    1.356    0.262
         3 -13.2388    202.6045     33.8701   4.3235484761e+01   3.0462576070e+01    0.8179469    0.7363282  37.13  0.001397717    1.394    0.283
         4 -13.1915    195.6813     41.3850   4.5810925931e+01   3.1078944633e+01    0.9773737     0.835219 -64.18  0.003569365    1.062    0.058
         5  -9.3152     70.3369      2.3360   5.5718566869e+01   6.5002622009e+01    0.1435999   0.07819158  32.62 0.0007051731    1.749    0.428
         6 -11.4346    184.7564    211.8923   8.6159798151e+01   4.3967720635e+00    0.4583357    0.2844922 -10.94  0.002355098    1.745    0.427
         7 -11.3989    139.9733    247.7990   1.0122481848e+02   4.7201099483e+00    0.4713133    0.3466587 -62.78  0.002842037    1.997    0.499
         8 -18.9434     14.4758    182.0564   1.2449027827e+02   3.3642032935e+01     18.04782     5.072975 -81.23   0.06391184    3.731    0.732
         9 -11.3548    107.7717    203.7963   1.0263703226e+02   1.7505234160e+01    0.3170302     0.276391  81.74 0.0006240068    1.396    0.284
        10 -10.7622     98.8476    180.9412   1.0143962206e+02   2.3920055452e+01    0.4618719     0.253303  27.07  0.001710039    1.810    0.448
        11  -9.4574     82.1041    194.9793   1.0799128661e+02   2.3120801263e+01    0.3239104    0.2893903   0.62  0.001739098    1.210    0.174
        12 -11.8794     47.9227    172.3394   1.1447686942e+02   3.2826216469e+01      0.78627    0.5411852 -17.24  0.003139218    1.952    0.488
        13  -9.8831     51.5176    166.4583   1.1271128124e+02   3.3887904555e+01    0.2276624    0.2149319  -6.19 0.0007076281    1.159    0.137
        14 -10.5717     53.2919    163.3546   1.1177860122e+02   3.4463613437e+01    0.2445445    0.2075127 -41.51 0.0006551647    1.251    0.201
        15 -10.0936    187.6205    175.9998   7.8865359796e+01   1.0182952186e+01    0.3380714    0.2908656 -41.02  0.001540537    1.333    0.250
        16 -10.2170    146.8913    172.8072   8.7447559323e+01   1.7744877899e+01    0.5122657    0.3368542 -71.11  0.002069763    2.728    0.633
        17 -10.6631    233.4364    174.1711   6.9911449421e+01   3.4955555445e+00    0.3858528     0.193177  11.33  0.001539715    3.561    0.719
        18 -10.1926     84.1902    173.5352   1.0430839870e+02   2.7861997164e+01    0.2924131    0.2203864 -37.78  0.000932215    1.449    0.310
        19  -8.8754    193.7997    171.1503   7.6620946807e+01   1.0040390237e+01    0.1983548    0.1842924 -19.33 0.0006833297    1.209    0.173
        20 -12.8881    103.7331    210.2911   1.0456044586e+02   1.6729784479e+01    0.9181431    0.7083306 -65.36  0.005124622    1.523    0.343
        21  -9.4154    185.2834    168.8406   7.7901268482e+01   1.1877666975e+01    0.3132696    0.1806976 -52.62  0.001350154    2.279    0.561
        22 -10.3296    240.6932    169.0172   6.7725910193e+01   3.2737422261e+00    0.1812219    0.1353492 -22.97  0.001142671    1.073    0.068
        23  -9.5599    137.1602    167.4880   8.8814363569e+01   2.0584278530e+01    0.3963563    0.2133041  48.29  0.001572966    2.189    0.543
        24 -10.2868     29.8530    194.7317   1.2152234623e+02   2.9302095381e+01    0.3184259    0.2047855  48.43  0.001131798    1.419    0.295
        25 -11.8284    120.6811    195.4188   9.8097672224e+01   1.7316211684e+01    0.6737456    0.3856943 -78.51  0.002005916    4.026    0.752
        26 -11.4975     92.5907    151.4473   9.7972037466e+01   3.1975969196e+01    0.7678127    0.5424614 -21.93  0.003130444    1.745    0.427
        27 -11.3004    133.7931    144.5894   8.4795818734e+01   2.6249695873e+01     1.439105    0.3290293 -50.45  0.003508093    5.244    0.809
        28 -10.0013    136.0000    129.8825   8.0743704469e+01   2.9068671529e+01    0.8407608    0.0882223 -45.71  0.001472686    9.524    0.895
        29  -8.9177    112.3809    150.9726   9.2088896695e+01   2.8735582631e+01    0.2177004    0.1930105 -45.03 0.0004403927    1.151    0.131
        30  -8.3634    119.2983    150.3094   9.0001477487e+01   2.7651106678e+01     0.158342    0.1186456 -11.33 0.0003143798    1.597    0.374
        31  -9.2358    174.8773    149.1825   7.5924037674e+01   1.7455889212e+01    0.2114902    0.2063741 -57.10 0.0005439482    1.241    0.194
        32 -10.4045    105.0219    137.8591   9.1391249685e+01   3.3172787845e+01     0.602327    0.3583182 -25.52   0.00227289    2.342    0.573
        33 -10.4088    105.8752    130.8580   8.9525736014e+01   3.4694760780e+01    0.3927902    0.3504583 -58.19  0.001113183    1.199    0.166
        34 -11.6931     92.7983    137.4897   9.5044778527e+01   3.5386490055e+01    0.3024449    0.2732271 -17.59 0.0003399133    1.127    0.113
        35  -9.9238     89.8028    212.4754   1.0828372223e+02   1.8222897398e+01    0.2569279    0.2217116  81.20 0.0005878879    1.319    0.242
        36 -10.7767    113.8187    128.8676   8.6682258265e+01   3.3673391442e+01     0.676481    0.3606804  26.74  0.001849258    2.209    0.547
        37 -11.0657    119.3906    123.0864   8.3633579935e+01   3.3918209680e+01    0.5750661    0.3678278 -12.15  0.002145414    2.464    0.594
        38  -9.3805    160.9776    128.4666   7.4225806530e+01   2.4281611714e+01     0.300913    0.2150898 -54.77  0.001385046    1.615    0.381
        39  -8.3996     95.4518    127.5200   9.1967508995e+01   3.7376286210e+01    0.1552728    0.1503536  -8.91 0.0003483962    1.012    0.012
        40 -10.2975    100.5561    124.8917   8.9736488649e+01   3.7096621294e+01    0.3075612    0.2525011  -6.38 0.0007345557    1.352    0.261
        41 -10.0713    135.1026    119.7311   7.8434085438e+01   3.1458713161e+01    0.5973117    0.1775737 -42.25   0.00174718    3.398    0.706
        42  -9.3679    108.9725    118.1232   8.5451901016e+01   3.7106494384e+01    0.2304536    0.2210388   4.26 0.0003169112    1.012    0.012
        43  -9.9079    231.2957    113.7011   5.7850480664e+01   1.3393029863e+01      0.24074    0.2106727 -35.02 0.0007093769    1.050    0.047
        44  -8.9279    167.8797    112.7763   6.8793827613e+01   2.5926823219e+01    0.3003147    0.1960641 -63.82  0.001240283    2.234    0.552
        45 -10.0159    134.7000    106.9238   7.5149860576e+01   3.4257910624e+01     1.095004    0.1324878 -44.39  0.002019089    8.669    0.885
        46 -11.8203    118.0125    109.5140   8.0481512546e+01   3.7240586558e+01    0.7208533    0.5864043 -86.39  0.003325464    1.695    0.410
        47  -9.4554    205.3685    110.2678   6.1078849121e+01   1.8716114693e+01    0.2753505    0.1914368  43.46  0.001116563    1.586    0.369
        48 -10.0241     66.0416    104.6765   9.6526311579e+01   4.7799547752e+01    0.2198472    0.1987285   8.71  0.000957236    1.108    0.097
        49  -9.4468    131.3378     98.7269   7.3762649987e+01   3.6677632964e+01    0.3343402    0.2613374  89.30  0.001494161    1.842    0.457
        50  -9.2526    150.3272    208.2954   9.3087540211e+01   1.0146305632e+01    0.1426742   0.09785613  -2.13 0.0004686823    1.628    0.386
        51 -11.3308    192.3629    194.4172   8.1447594241e+01   6.2086858798e+00     1.377573    0.6745238 -54.99  0.005034647    4.106    0.756
        52  -9.7248     93.4976    205.2959   1.0643713079e+02   1.9245430138e+01    0.3508925    0.2112278   2.91  0.001343244    2.501    0.600
        53 -10.3521     39.9316     88.4890   1.0289107298e+02   5.5145089576e+01    0.2655118    0.2029865 -77.98 0.0009472008    1.568    0.362
        54  -8.9693    157.0328     82.6731   6.3080958038e+01   3.3866316138e+01    0.2060788    0.1928813  40.12 0.0004853249    1.079    0.074
        55 -10.3571    149.1719    188.4665   8.9890547233e+01   1.4161560260e+01    0.5483932    0.3852737 -85.22  0.002246515    3.121    0.680
        56  -9.8722     62.8576     69.3501   8.7472648662e+01   5.6444961546e+01    0.2650146    0.2122208 -23.41 0.0004094437    1.202    0.168
        57 -10.4523    142.7721    238.3755   9.9354994207e+01   5.8964982936e+00    0.2638249    0.1372712  27.25 0.0008324066    1.623    0.384
        58 -11.3997    111.8762    204.8829   1.0177264262e+02   1.6667799252e+01    0.3119588     0.273527  61.72 0.0004132084    1.309    0.236
        59  -9.5994    168.1170    232.8687   9.3082078853e+01   3.3155898057e+00    0.2299753    0.1718236  20.87 0.0007803839    1.122    0.108
        60 -10.2132    204.1873    200.8095   8.0268876026e+01   3.4286852102e+00    0.1937453    0.1326162  -3.45 0.0008796598    1.375    0.273
        61 -10.0729    120.1078    186.3041   9.6716255719e+01   1.9364862518e+01     0.236122    0.1925725 -32.74 0.0002405475    1.284    0.221
        62  -8.9413     79.6046    184.9186   1.0728071010e+02   2.5796109105e+01    0.3837685    0.2226276 -27.04  0.001552327    2.624    0.619
        63  -9.3379    189.6558     14.9578   3.9927400600e+01   3.5402618478e+01    0.1733122    0.1455613 -53.49 0.0006156029    1.149    0.129
        64 -15.3387     71.6902    147.6468   1.0368388253e+02   3.6093078878e+01     10.42673     5.166666  70.73   0.01282534    7.177    0.861
        65  -9.5786     91.8180    183.9583   1.0382167517e+02   2.4276548375e+01    0.2810188    0.2333374  29.60 0.0009324381    1.137    0.120
