#   1 NUMBER                 Running object number                                     
#   2 MAG_AUTO               Kron-like elliptical aperture magnitude                    [mag]
#   3 X_IMAGE                Object position along x                                    [pixel]
#   4 Y_IMAGE                Object position along y                                    [pixel]
#   5 X_WORLD                Barycenter position along world x axis                     [deg]
#   6 Y_WORLD                Barycenter position along world y axis                     [deg]
#   7 A_WORLD                Profile RMS along major axis (world units)                 [deg]
#   8 B_WORLD                Profile RMS along minor axis (world units)                 [deg]
#   9 THETA_WORLD            Position angle (CCW/world-x)                               [deg]
#  10 FWHM_WORLD             FWHM assuming a gaussian core                              [deg]
#  11 ELONGATION             A_IMAGE/B_IMAGE                                           
#  12 ELLIPTICITY            1 - B_IMAGE/A_IMAGE                                       
         1 -11.3241    248.9001    105.0025   2.7097897302e+01   9.7822940296e+00    0.8326409    0.2673781 -33.42  0.003287866    2.523    0.604
         2  -8.5217     55.9571      9.9871   3.5287308510e+01   6.8391251644e+01     0.193457    0.1775375 -14.89 0.0005222363    1.140    0.123
         3  -8.3423     90.9588      8.9128   2.3472522449e+01   6.0973054846e+01    0.2139826    0.1606925 -63.00 0.0006880326    1.682    0.406
         4  -8.3652      5.6325      8.1745   6.2516335250e+01   7.5851767006e+01    0.1707198    0.0836595 -41.30 0.0004035881    1.634    0.388
         5  -7.6451    101.3363      7.7105   2.0471054011e+01   5.8592034497e+01    0.1388845     0.103164 -64.30 0.0003385191    1.636    0.389
         6  -8.1707     70.4741      6.0317   2.7766302575e+01   6.5893375950e+01    0.1958261    0.1230392 -23.97 0.0005349912    1.563    0.360
         7  -8.5131     33.1928      4.5121   4.2484872448e+01   7.3058833292e+01    0.2396846    0.1449458 -45.02  0.001178091    1.996    0.499
         8  -8.2499    216.9674      3.5049   5.0627916406e+00   2.9620199712e+01    0.1908007    0.1532589 -41.43 0.0003563438    1.142    0.124
         9  -8.4735     79.3082      3.7133   2.3864140060e+01   6.4173523747e+01    0.2469615    0.1392172 -31.95  0.001098935    1.811    0.448
        10  -7.9704     28.0000      9.9398   4.8912392871e+01   7.3031060981e+01    0.1986726   0.06201921 -39.90 0.0007925284    2.874    0.652
        11  -7.4851    115.6212      2.3015   1.5300458347e+01   5.5493936006e+01    0.1468352   0.09808343 -63.62 0.0007025257    1.768    0.434
        12  -7.7363     16.2909      2.6838   5.1488597840e+01   7.5666212434e+01    0.1033213   0.09265406 -54.87 0.0003999577    1.596    0.373
        13  -8.1813     62.5152      1.4476   2.7743378779e+01   6.8037854023e+01    0.1882811    0.1270042  70.08  4.93745e-05    1.881    0.468
        14  -7.7312     39.4723      1.4791   3.7213982864e+01   7.2418670140e+01     0.124065    0.1060563  -0.97 0.0001317806    1.039    0.037
        15  -8.1619     67.4202    244.7560   8.4962329872e+01   1.6901820132e+01    0.1248159   0.09925153 -67.98 0.0005559138    1.574    0.365
        16  -9.3795    246.7207    228.0679   5.1279576587e+01  -5.4498982494e+00    0.4531698    0.1787516 -24.47   0.00220281    2.604    0.616
        17  -9.9146    248.6076    242.2987   5.3145024816e+01  -7.0670924559e+00    0.3935525    0.1721094 -35.29  0.001854898    2.712    0.631
        18  -8.8369    248.1101    234.8042   5.2102187173e+01  -6.2898753560e+00    0.2428978    0.1526042 -33.31  0.001234821    1.935    0.483
        19  -9.4442    232.9981    246.5403   5.6140196755e+01  -5.6043127464e+00    0.3731087      0.19576 -24.91  0.002112692    1.975    0.494
        20  -7.4875     86.3235    250.6200   8.1975042320e+01   1.3576151065e+01    0.1187671   0.06350408  60.81 0.0007021925    1.836    0.455
        21  -8.7601    201.9495    243.4004   6.0693967665e+01  -1.3023614440e+00    0.1655208    0.1500409 -38.90 0.0006323525    1.630    0.387
        22  -9.0481    168.9643    243.5244   6.6359379702e+01   3.2144143153e+00    0.1708234     0.165649   0.28 0.0006475428    1.321    0.243
        23  -7.9438    139.3633    244.6621   7.1781737205e+01   7.2397791682e+00    0.1164371   0.07453357  58.43 0.0007033948    1.829    0.453
        24  -7.9180    112.0247    244.0329   7.6711476269e+01   1.1153535304e+01     0.137109    0.1030117  44.05 0.0003059116    1.032    0.031
        25  -8.7828      9.4069    243.0508   9.5153426936e+01   2.3606622176e+01    0.2610188   0.06262312  83.02 0.0009428404    6.284    0.841
        26  -8.4480     78.0283    243.1119   8.2899753551e+01   1.5835388695e+01     0.238774   0.09855837  55.88   0.00123523    2.280    0.561
        27  -9.0121    194.2415    239.9545   6.1517120302e+01   1.3701872348e-01    0.2804339    0.1737485 -46.63  0.001299951    2.289    0.563
        28  -9.3184    182.5445    240.1546   6.3551643141e+01   1.7329771092e+00    0.4414051    0.2410423  43.47  0.001836003    1.709    0.415
        29  -9.3389    160.0590    240.1801   6.7521184370e+01   4.9113580861e+00    0.2556435    0.2001498 -82.67  0.001211163    2.132    0.531
        30  -8.8693    120.0689    245.2810   7.5359811437e+01   9.8541351166e+00    0.2833098     0.167262  66.67  0.001614672    2.325    0.570
        31  -7.9642     88.4116    241.9791   8.0889745790e+01   1.4667703924e+01    0.1439854    0.1057393 -78.15 0.0005429505    1.591    0.371
        32  -7.7295    214.3335    241.6382   5.8410556970e+01  -2.7441850667e+00   0.09500994   0.08241484  50.89 9.296049e-05    1.812    0.448
        33  -9.0076    241.7154    237.7379   5.3515291939e+01  -5.8030386612e+00    0.4529861      0.18643 -11.64   0.00193772    4.522    0.779
        34  -8.1292    146.1023    239.2038   6.9927547678e+01   7.0458450852e+00    0.1507146    0.1154252  51.82 0.0004015283    1.320    0.242
        35  -8.6918    135.7521    238.7006   7.1769199256e+01   8.6044050602e+00    0.1917905    0.1348614  70.47 0.0008665439    1.940    0.485
        36  -9.1610    231.2515    236.9433   5.5022375449e+01  -4.4234943628e+00    0.3224542    0.2034633 -35.49  0.001988134    1.965    0.491
        37  -9.1569    235.9987    230.7173   5.3342325003e+01  -4.3786959590e+00    0.4074708    0.2433726  -7.09  0.001797821    1.639    0.390
        38  -8.8552    217.3240    235.6869   5.7068237483e+01  -2.4894688314e+00    0.2186073    0.2013188 -69.26  0.001653466    2.058    0.514
        39  -9.4472    213.6734    231.6550   5.7074130474e+01  -1.5516417331e+00    0.2490091    0.2079709  57.75  0.001304398    1.996    0.499
        40  -8.0233    209.2012    238.2271   5.8767925066e+01  -1.6916265750e+00    0.1335372    0.1182084  26.45 0.0005339005    1.376    0.273
        41  -7.9822    129.2810    238.6428   7.2960203230e+01   9.5392911442e+00    0.1128103   0.07774011  62.43    0.0007015    1.664    0.399
        42  -8.3096    190.1384    237.1559   6.1833502628e+01   1.0388837714e+00    0.1417001    0.1208375  37.93 0.0005415912    1.328    0.247
        43  -8.4855     26.3828    237.3997   9.1961073122e+01   2.2868940647e+01    0.2501759   0.06017108  53.92  0.001156982    2.979    0.664
        44  -8.9361    203.0516    234.3488   5.9239237167e+01  -4.1479762111e-01    0.2175178    0.1625886 -45.45 0.0008387311    1.918    0.479
        45  -9.6417    175.7246    233.0434   6.3792169550e+01   3.6038636199e+00    0.3907826    0.2118625 -55.00  0.002092606    3.030    0.670
        46  -8.3069    170.2689    235.4081   6.5081747388e+01   4.0800434382e+00    0.1629435    0.1400239 -80.57 0.0006989233    1.818    0.450
        47  -9.0999    109.2144    234.3239   7.6268936209e+01   1.3057283491e+01    0.4217645    0.1678009  53.16   0.00147106    2.704    0.630
        48  -8.1702    122.9394    233.9410   7.3627920961e+01   1.1162220082e+01    0.1876706    0.1199732  61.97 0.0008131544    1.793    0.442
        49  -7.9349     99.7513    234.1700   7.8053320125e+01   1.4403074838e+01    0.1978828   0.09588657  63.32 0.0009459284    2.758    0.637
        50  -8.6085     78.1443    233.6969   8.2126228444e+01   1.7390190136e+01    0.1932556    0.1355122  79.35  0.001303848    1.467    0.318
        51  -8.3448      8.4578    234.4925   9.5025560227e+01   2.5183296839e+01    0.1061767   0.07297079  63.05 0.0002028844    1.004    0.004
        52  -8.4281    194.4818    232.3183   6.0407465609e+01   1.0192278035e+00    0.1652956    0.1569514  28.11 0.0006179895    1.398    0.285
        53  -8.4141    132.6819    232.6473   7.1643631645e+01   9.9486091782e+00    0.1953792    0.1343651  87.84 0.0009988344    2.334    0.572
        54  -8.6610     68.4853    232.1195   8.3839170545e+01   1.8904885851e+01    0.3918518    0.1546047  63.80  0.001732264    3.281    0.695
        55  -8.2918     92.6616    231.6666   7.9171758208e+01   1.5793297863e+01    0.3232778    0.1282383  57.34  0.001420841    3.043    0.671
        56  -7.9824    157.9589    231.7516   6.6831042732e+01   6.3698632386e+00    0.1526893   0.08200698  36.61 0.0002990878    1.511    0.338
        57  -8.2500      1.4394    230.6361   9.6133360225e+01   2.6527810728e+01    0.1778175   0.07894501  85.89  0.001104169    1.960    0.490
        58  -9.9406    149.5925    225.9743   6.7634154452e+01   8.4475524999e+00    0.5020945    0.3239772 -87.74  0.002377987    3.710    0.730
        59  -8.8959    139.8903    230.1270   6.9985309448e+01   9.2711635822e+00    0.2444184     0.128696  47.27 0.0008625157    1.708    0.414
        60  -9.1136      8.6514    228.2046   9.4766395122e+01   2.6289877747e+01    0.2154976   0.08974338  72.75  0.001253816    2.034    0.508
        61  -8.3125    229.5897    228.2873   5.3982715314e+01  -3.2943749290e+00     0.142374   0.08975357 -14.36 0.0008476668    1.532    0.347
        62  -8.7828    162.2333    227.6820   6.5507837951e+01   6.3108380507e+00    0.2652523    0.1745194  57.35    0.0014832    1.958    0.489
        63  -8.7698    127.8666    227.1855   7.1918261209e+01   1.1501202569e+01    0.2941576     0.167875  58.80  0.001296506    2.084    0.520
        64  -7.7974    120.2719    227.6259   7.3430897698e+01   1.2546637493e+01    0.1178188   0.08079955  65.97 0.0006999064    1.683    0.406
        65  -7.7040    111.3389    227.6688   7.5162964433e+01   1.3835568736e+01    0.1245565   0.07689431  61.20  0.000705184    1.741    0.426
        66  -8.2490     49.9323    226.9481   8.7013088689e+01   2.2101037982e+01    0.2948935    0.1098331  60.87  0.001396692    2.701    0.630
        67  -8.1896    200.1259    226.1229   5.8534166531e+01   9.8104991519e-01    0.1392596    0.1267609  25.60 0.0005102488    1.317    0.241
        68  -8.9524    216.4333    223.3619   5.5363134920e+01  -9.7267426085e-01    0.1941496    0.1842519 -52.02 0.0008396225    1.726    0.421
        69  -8.7200    180.4267    223.9964   6.1682890360e+01   4.1159165350e+00    0.2024748    0.1430039  45.81 0.0006178527    1.468    0.319
        70  -8.7429    105.0042    223.7285   7.5977213030e+01   1.5406811714e+01    0.2482352    0.1536984  72.78   0.00137834    2.068    0.516
        71  -8.5700     93.8516    223.7380   7.8176551506e+01   1.6985962179e+01    0.2184653    0.1289702  72.04 0.0008519429    2.072    0.517
        72  -8.5532    206.0773    225.4392   5.7416391281e+01   2.2318918651e-01    0.2153209     0.148868 -40.34  0.001048446    1.826    0.452
        73  -9.4917    225.5428    221.7516   5.3619092650e+01  -2.0313628383e+00    0.2137352    0.1998461   4.45  0.001054921    1.473    0.321
        74  -8.4134    173.1712    222.8183   6.2827427821e+01   5.3581041734e+00    0.1758919    0.1589562 -55.01 0.0008457391    1.481    0.325
        75  -7.7079    113.6005    223.5001   7.4262904402e+01   1.4199047809e+01    0.1191763   0.09766552  50.40 0.0001109083    1.043    0.041
        76  -9.3496    186.4070    230.4815   6.1549068153e+01   2.3959538542e+00    0.2785659    0.2230173 -74.71  0.001791815    2.346    0.574
        77  -9.3418    239.1948    220.6760   5.1276262073e+01  -3.7220895033e+00    0.3327901    0.1767083 -23.59  0.001492581    1.822    0.451
        78  -9.5120    192.3908    221.0653   5.9122009796e+01   2.7387384822e+00    0.2504306    0.2277071 -63.90  0.001130158    1.677    0.404
        79  -9.0482    160.3073    221.0738   6.4961200186e+01   7.5518676370e+00    0.4437795    0.2029213  54.25  0.001867285    3.375    0.704
        80  -8.8837     82.8691    220.4993   8.0043285115e+01   1.9075759565e+01    0.2254368    0.1357666  77.53  0.001274494    1.937    0.484
        81  -7.8970     27.5205    220.9781   9.0945320489e+01   2.5721732260e+01    0.1407419   0.07694777 -54.99 0.0008103236    2.599    0.615
        82  -8.1121    202.5207    220.0759   5.7207016168e+01   1.3900338087e+00    0.1507934    0.1083834 -28.55 0.0003427254    1.503    0.335
        83  -9.1633    120.3453    219.0067   7.2411533767e+01   1.3953359634e+01    0.4117282    0.2013461  60.22  0.001822959    2.948    0.661
        84  -7.8719     72.6533    219.8739   8.2025727185e+01   2.0556139462e+01    0.1576388   0.09804846  88.44 0.0009345861    1.767    0.434
        85  -8.3496    210.2633    219.2072   5.5750623816e+01   3.8823148577e-01    0.1894433    0.1410028  28.52 0.0007862358    1.177    0.150
        86  -9.4789    248.8279    217.6859   4.9311066937e+01  -4.6391894030e+00    0.5633219    0.3247535 -35.34   0.00362663    2.012    0.503
        87  -7.5878    243.3171    215.6466   4.9824472637e+01  -3.7125030040e+00   0.09182123   0.08869787 -20.20 0.0007046504    1.742    0.426
        88  -9.2360    132.8477    215.6514   6.9518602836e+01   1.2612547980e+01    0.4246145    0.2522354  71.46   0.00180259    3.067    0.674
        89  -8.3369     62.2241    217.2784   8.3894519021e+01   2.2382419416e+01    0.2966934      0.11255  58.94  0.001312405    2.808    0.644
        90  -8.9375     51.7880    217.6031   8.6003039811e+01   2.3609385837e+01    0.2267943    0.1337889  79.68   0.00109317    1.657    0.397
        91  -8.7300    169.0965    215.7669   6.2557703868e+01   6.9815225222e+00    0.2254823    0.1716726 -65.00 0.0008892532    1.969    0.492
        92  -8.6527    143.0311    216.5149   6.7636396714e+01   1.0902026801e+01    0.2388778    0.1783543  74.69  0.001250841    1.859    0.462
        93  -8.3765     18.4269    215.8387   9.2429644870e+01   2.7634220303e+01    0.1974813    0.0892823 -89.54  0.001124086    2.056    0.514
        94  -8.7418    232.2069    214.2065   5.1337326256e+01  -2.0738719127e+00    0.2090162    0.1678791 -33.89 0.0009361964    1.611    0.379
        95  -8.1155    154.3959    215.0883   6.5242908989e+01   9.3624324878e+00    0.1495476    0.1171771 -68.79 0.0009260376    1.772    0.436
        96  -8.2018    185.4857    214.0161   5.9280695340e+01   4.7165107455e+00     0.159383    0.1162967 -36.20 0.0007158251    1.553    0.356
        97  -9.0407     93.1007    213.8802   7.7316003485e+01   1.8851764917e+01    0.3227481    0.1394155  55.48  0.001235874    2.462    0.594
        98  -9.2647     73.4188    211.9699   8.1161479352e+01   2.1930132556e+01     0.574304    0.1818129  57.30  0.001966701    4.571    0.781
        99  -9.3900    213.8932    211.9714   5.3984328449e+01   7.6075021177e-01    0.2879156    0.2127279  49.39  0.001558256    1.796    0.443
       100  -7.9043    224.8008    212.0359   5.2181033391e+01  -7.9890228204e-01    0.1408558   0.08240633 -29.31 0.0004915503    1.723    0.420
       101  -9.4960    175.5590    209.8729   6.0464172019e+01   6.8385219168e+00    0.3946743    0.2781113  73.11  0.001602587    2.798    0.643
       102  -8.5264    161.7774    212.1410   6.3405268395e+01   8.6607525722e+00    0.1780251    0.1549318  54.11 0.0006498347    1.293    0.227
       103  -7.8367    106.3040    212.6553   7.4484034832e+01   1.7151176250e+01    0.1277235   0.08292264  65.20 0.0007040746    1.688    0.407
       104  -8.0972    242.9804    211.7538   4.9236951877e+01  -3.2405935749e+00    0.1368847   0.08027461  30.97 0.0002976383    1.525    0.344
       105  -8.9884    204.1148    210.7379   5.5458928324e+01   2.3509877456e+00    0.1972558    0.1872844 -34.02 0.0007173345    1.449    0.310
       106  -8.7445    147.8599    210.3761   6.5842582818e+01   1.1130358836e+01    0.2733742    0.1885642  65.22  0.001343625    1.959    0.490
       107  -8.8349    116.4016    210.3233   7.2142607270e+01   1.6045936811e+01    0.3176735    0.1781681  60.40  0.001145284    2.123    0.529
       108  -8.3153    192.2183    210.2219   5.7474368500e+01   4.2121949906e+00    0.1461033    0.1398317  45.23  0.000699921    1.380    0.275
       109  -8.1372     32.2495    210.2332   8.9413321474e+01   2.7272870337e+01    0.1771473    0.0760034  84.69 0.0008792465    2.464    0.594
       110  -9.1969    236.6030    208.1436   4.9634690274e+01  -1.9751977700e+00    0.2612596    0.2072012 -40.53   0.00115217    1.790    0.441
       111  -8.2655     85.2905    209.1190   7.8426185717e+01   2.0843772840e+01    0.2398843    0.1228376  58.97  0.001204575    1.996    0.499
       112  -8.1334     46.3607    209.1572   8.6483544108e+01   2.5883289480e+01    0.1632654   0.09176002  84.52 0.0006798637    1.759    0.431
       113  -9.4564    246.4885    207.0465   4.7908714545e+01  -3.1805580761e+00    0.2472237    0.1689507 -21.84  0.000671436    1.361    0.265
       114  -7.9103    156.5816    207.7512   6.3756481698e+01   1.0164670756e+01    0.1501475    0.1218379 -62.92  0.000775561    1.596    0.373
       115  -8.3065    139.0123    207.9152   6.7248475218e+01   1.2935836177e+01    0.1926063    0.1410545  68.23 0.0006116427    1.724    0.420
       116  -8.0177    126.4145    208.2024   6.9829769078e+01   1.4870899529e+01    0.1563576    0.1190027 -79.05 0.0005240192    1.662    0.398
       117  -8.9811     99.2892    205.8775   7.5145297846e+01   1.9433123784e+01    0.2960027    0.1808535  78.06   0.00100711    2.183    0.542
       118  -8.4777      5.5523    207.0782   9.4533903043e+01   3.0569927813e+01    0.1668597   0.05837902  70.49 0.0008076751    2.564    0.610
       119  -9.3224    194.8959    203.3886   5.5885543924e+01   4.7446554870e+00    0.3200288    0.2723913 -35.83  0.001397903    1.386    0.279
       120  -9.1891    192.3729    197.0739   5.5282612916e+01   6.0409825164e+00    0.2870671    0.2399149 -61.25 0.0007932601    1.755    0.430
       121  -9.0802    183.9093    203.9374   5.7975926981e+01   6.3905786573e+00     0.318019    0.2356434  69.86   0.00119978    2.344    0.573
       122  -8.0348    109.2032    205.1436   7.2983385921e+01   1.8078695940e+01    0.1739047    0.1307105  66.99 0.0006087991    1.371    0.271
       123  -8.3563     56.2462    205.1403   8.4123872920e+01   2.5478068530e+01    0.2345492    0.1104664  57.70 0.0007868071    1.928    0.481
       124  -8.5199     25.0056    204.9877   9.0564459035e+01   2.9082657041e+01    0.1420111    0.1059595  69.73 0.0004424299    1.027    0.027
       125  -9.4834    163.7639    202.8519   6.1615112102e+01   9.7845470965e+00    0.3832427    0.2403381  56.55  0.001554608    2.025    0.506
       126  -8.5739    131.1783    203.6393   6.8236780007e+01   1.4914695023e+01    0.2533206    0.1823799  74.82  0.001152223    1.840    0.456
       127  -9.3854    250.0072    201.1546   4.6365890399e+01  -2.9863765099e+00    0.4269732    0.1683204 -36.72  0.002074292    2.691    0.628
       128  -9.5001    245.4619    192.9002   4.5613700452e+01  -1.4104127270e+00    0.2089135    0.1997051 -70.39  0.001029575    1.855    0.461
       129  -8.3822    210.9434    201.6400   5.2771547015e+01   2.5206313375e+00    0.2064148    0.1533681 -49.37   0.00076416    1.928    0.481
       130  -8.7878    140.5191    200.8519   6.5930078772e+01   1.3894454952e+01    0.3153418    0.2075704  66.11  0.001156149    2.090    0.521
       131  -8.5517     80.2338    201.1972   7.8662455834e+01   2.3084421462e+01    0.3209556    0.1598736  68.86   0.00118331    2.670    0.626
       132  -9.3785    149.5293    198.4522   6.3744458906e+01   1.2829760683e+01    0.3403726    0.2447356  82.82  0.001216197    2.278    0.561
       133  -8.9069    124.2915    199.0450   6.9021430723e+01   1.6835945630e+01    0.3015608    0.2020315  82.89  0.001079843    2.234    0.552
       134  -9.2343    237.0643    198.2613   4.7871281625e+01  -8.7371365605e-01    0.2337255    0.1452445 -31.31 0.0007879144    1.611    0.379
       135  -8.5803    177.0327    198.5868   5.8387361992e+01   8.2921674013e+00    0.2050137    0.1781466 -60.96 0.0007020633    1.534    0.348
       136  -9.1670    112.8192    198.1631   7.1323325449e+01   1.8818632207e+01    0.3805476    0.2146153  64.90  0.001768294    2.376    0.579
       137  -9.0509     88.6672    198.2413   7.6520269872e+01   2.2463596777e+01    0.3343488    0.1892693  72.15  0.001244813    2.254    0.556
       138  -8.4537    202.4669    197.6136   5.3562228476e+01   4.3678951488e+00    0.2095861    0.1724274 -72.57  0.001251168    2.161    0.537
       139  -9.1941     61.6733    197.0616   8.2252738353e+01   2.6418464281e+01    0.4702621    0.1944768  58.11  0.002097353    2.503    0.600
       140  -8.5847     12.8146    197.1351   9.2632466714e+01   3.1885913057e+01    0.2917161   0.09133404  71.15  0.001189118    3.530    0.717
       141  -8.3654     29.3670    197.2542   8.9192187276e+01   3.0192484589e+01    0.1658911   0.09030598  84.87 0.0009178541    1.678    0.404
       142  -8.8494    215.9977    195.3712   5.0825309644e+01   2.5832388485e+00    0.2385225    0.1857432 -52.99  0.001071958    1.959    0.490
       143  -8.6136    224.5473    193.8012   4.9114307868e+01   1.4990400592e+00    0.2506042    0.1070476 -36.43  0.001051231    2.379    0.580
       144  -8.0108    133.0268    195.9542   6.6750759714e+01   1.5979955687e+01    0.1982173    0.1461427  68.70 0.0007177647    1.643    0.391
       145  -9.0049    185.3327    194.7056   5.6176686193e+01   7.5282451661e+00    0.2070688    0.2041129  44.32 0.0005636773    1.289    0.224
       146  -8.8456    160.7542    193.9963   6.0791762284e+01   1.1711840315e+01    0.2760448    0.2056525  67.32  0.001047397    1.849    0.459
       147  -7.9863    230.9748    193.9946   4.8096470077e+01   5.2487944097e-01    0.1546934    0.1482404 -51.59  0.000587852    1.643    0.391
       148  -8.6359     77.0075    193.6812   7.8553674591e+01   2.5045872490e+01    0.2374991    0.1757357  71.41 0.0006847071    1.264    0.209
       149  -9.1823     43.7469    193.2380   8.5819352202e+01   2.9419592929e+01    0.3662689    0.1611224  66.25  0.001715276    2.401    0.584
       150  -8.3670    199.0732    191.6784   5.3135309880e+01   5.7459703021e+00     0.191595    0.1654427 -35.76 0.0005502343    1.347    0.257
       151  -8.4794    172.4337    191.6978   5.8116965804e+01   1.0129868856e+01    0.2227275    0.1793472 -69.85 0.0007759081    1.795    0.443
       152  -9.1693    139.4498    190.2563   6.4539275225e+01   1.5941243444e+01    0.3488589    0.2414338  78.84  0.001260638    2.249    0.555
       153  -7.7708    205.4368    191.5432   5.1978710102e+01   4.7482152077e+00    0.1229189    0.1055635   9.95 0.0002580854    1.037    0.036
       154  -8.1421    179.2096    191.2664   5.6741266144e+01   9.0656865275e+00    0.1606315     0.149689  64.89 0.0008676815    1.356    0.263
       155  -9.6664     94.9832    189.4950   7.4071230583e+01   2.3272424774e+01    0.6973729    0.1720216  47.50  0.002261643    4.025    0.752
       156  -9.7306     90.2716    188.3177   7.4973742106e+01   2.4223050409e+01    0.4230787    0.2482182  73.73  0.001727158    2.183    0.542
       157  -8.3314    237.4641    188.4745   4.6067310015e+01   2.6859197194e-01     0.212222    0.1035659 -31.45 0.0006454636    1.932    0.482
       158  -8.2699    148.6525    189.1165   6.2444574458e+01   1.4588065325e+01    0.1947589    0.1627887 -87.92   0.00114193    1.553    0.356
       159  -8.9225    129.2614    188.5714   6.6436157958e+01   1.7959485143e+01    0.2729452    0.1968343  70.98 0.0009033834    1.727    0.421
       160  -8.9485     34.5843    188.1980   8.7437130461e+01   3.1525446541e+01    0.3554133    0.1528257  65.41  0.001684409    2.329    0.571
       161  -9.0355    243.2341    200.4167   4.7277915438e+01  -1.9864916425e+00    0.3001609    0.1598325 -28.88  0.001514657    1.768    0.434
       162  -8.9582    216.4036    187.5631   4.9363091108e+01   3.5711833246e+00    0.2220121    0.1997016 -38.96   0.00077499    1.441    0.306
       163  -8.7963    191.5424    187.1706   5.3707833462e+01   7.6430502532e+00    0.2991509     0.232069 -76.26  0.001496956    2.348    0.574
       164  -9.2797    155.8384    187.2255   6.0659413444e+01   1.3691568965e+01    0.2804874    0.2081515 -56.73 0.0008345002    1.618    0.382
       165  -9.3905    120.6345    185.8259   6.7887532722e+01   1.9918207106e+01    0.4483981    0.2592714 -76.70  0.001892268    2.762    0.638
       166  -9.0643     54.8776    186.8104   8.2788332604e+01   2.9429872779e+01    0.4402255    0.1921972  67.35  0.001635823    2.850    0.649
       167  -8.1224    230.6381    187.3613   4.6958945727e+01   1.4181486122e+00     0.152309    0.1437424 -50.23 0.0006231511    1.608    0.378
       168  -8.8137    164.8894    186.3417   5.8684609061e+01   1.2289158925e+01    0.2502883    0.1880961 -63.47 0.0008463111    1.795    0.443
       169  -9.0119    109.7150    186.0149   7.0323207800e+01   2.1664858597e+01    0.3587303    0.2179845  69.59  0.001598773    2.200    0.545
       170  -8.8759    249.2350    185.4621   4.3695524486e+01  -1.0490759647e+00    0.2217035    0.1634478 -34.17 0.0008033261    1.534    0.348
       171  -8.5839    210.1218    184.1757   4.9827179045e+01   5.0397082458e+00    0.2067667    0.1608794 -21.11 0.0004743071    1.232    0.188
       172  -8.7399    202.8586    184.4338   5.1156410952e+01   6.1826080008e+00    0.2141771    0.1717861 -46.58 0.0007314744    1.558    0.358
       173  -8.5369    182.9897    184.7893   5.4884572086e+01   9.4476448970e+00    0.2066432    0.1703876 -57.97 0.0009814202    1.595    0.373
       174  -8.9102     66.7914    184.5813   7.9855352916e+01   2.8354963509e+01    0.3416421    0.1479803  57.17 0.0009747756    2.434    0.589
       175  -7.9586     12.3449    185.6353   9.2130003582e+01   3.4330149778e+01    0.1338088   0.06058687  62.73 7.070728e-05    1.856    0.461
       176  -8.5824    224.0492    183.0806   4.7254103915e+01   2.9867667215e+00    0.2375003    0.1505585 -30.11 0.0007271895    1.516    0.340
       177  -8.8942    174.3456    183.4466   5.6310296083e+01   1.1143115507e+01    0.2457659    0.2163316 -86.57 0.0008450193    1.569    0.363
       178  -8.2220    243.3279    183.6369   4.4264944568e+01   1.8460153948e-02    0.1061826   0.09342749 -51.83 0.0007039557    1.799    0.444
       179  -8.7790     44.5191    182.5055   8.4743911646e+01   3.1620174545e+01    0.3053761    0.1410165  56.34 0.0008930461    1.984    0.496
       180  -7.9540      1.7506    183.5620   9.4302701286e+01   3.5711908490e+01    0.1565023   0.08077098  48.20 0.0009403253    1.603    0.376
       181  -8.0332    235.4651    181.5036   4.5103990949e+01   1.4495897274e+00    0.1207902   0.09981649  -1.69 8.140378e-05    1.045    0.043
       182  -9.1107    147.4446    180.3689   6.1234998545e+01   1.6367556243e+01    0.3017025    0.2384408  84.44 0.0008295965    1.717    0.418
       183  -8.9031     26.6481    180.3644   8.8635368455e+01   3.4064274779e+01    0.3491403    0.1390746  60.43  0.001606439    2.366    0.577
       184  -8.7271     24.2397    176.2378   8.8888082124e+01   3.5217290850e+01    0.2757394    0.1348389  87.33  0.001200194    1.905    0.475
       185  -8.5785    137.5713    178.9989   6.3110254949e+01   1.8348699894e+01    0.2783352    0.1970223 -88.46  0.001017742    2.150    0.535
       186  -7.7987    240.4622    179.5094   4.3943486540e+01   9.5837140618e-01    0.1215237   0.09753922  -2.16 0.0001775931    1.003    0.003
       187  -9.2778    191.5437    178.1313   5.2054973512e+01   9.0335521106e+00     0.280802    0.2485865  79.03 0.0008238764    1.619    0.382
       188  -9.0687     36.2799    176.8999   8.6157717066e+01   3.3794852196e+01    0.5528566    0.2020241  71.92  0.001942789    4.188    0.761
       189  -8.5205    250.4836    172.6679   4.1118663143e+01   3.4416523701e-01    0.2128686     0.122696 -30.02 0.0006380611    1.552    0.356
       190  -9.2148    249.0525    177.0925   4.2171464761e+01   7.9112467814e-04    0.2664665    0.2412195 -58.38  0.001232417    1.820    0.450
       191  -8.8659    247.3009    173.6836   4.1790898211e+01   6.8438052955e-01    0.2059953    0.1401836  31.93 0.0004729737    1.473    0.321
       192  -8.7252    231.1651    176.9445   4.4936998139e+01   2.7047019532e+00    0.2321596     0.152728 -39.99 0.0007619438    1.707    0.414
       193  -8.6385    205.0223    177.2904   4.9441403419e+01   6.8762408089e+00    0.2656161    0.1648157 -42.44 0.0008172489    1.786    0.440
       194  -8.0777    169.2006    178.2307   5.6387514395e+01   1.2913456517e+01    0.1710899    0.1557651  76.81 0.0004882439    1.369    0.270
       195  -8.5664    217.4640    176.9760   4.7215874313e+01   4.8727696748e+00    0.2086297    0.1660778 -38.62 0.0007287133    1.435    0.303
       196  -9.3282    183.0843    176.0477   5.3264411918e+01   1.0834004180e+01    0.2660017    0.2132613 -52.69 0.0008264959    1.524    0.344
       197  -8.3873    129.0648    177.0081   6.4638489519e+01   2.0211188709e+01    0.2165707    0.1588289  74.58 0.0006641916    1.728    0.421
       198  -8.8181     89.1339    176.5105   7.3688604715e+01   2.6872105290e+01    0.2927632    0.2021406  81.81 0.0008660992    1.621    0.383
       199  -9.3001     58.7618    175.5134   8.0740596699e+01   3.1395523759e+01    0.4843034    0.2088513  64.97  0.001916022    3.041    0.671
       200  -9.4050     55.8329    170.6601   8.0911209118e+01   3.2859754444e+01    0.4692852    0.2299585  84.14  0.002007373    2.617    0.618
       201  -8.6634     12.9265    176.7083   9.1492288247e+01   3.6203769838e+01    0.2414236    0.1059832  68.83 0.0009935497    2.064    0.516
       202  -9.2702    158.8142    174.7804   5.7871024981e+01   1.5365033913e+01    0.3774928    0.2734549  81.58  0.001533066    2.290    0.563
       203 -10.6503    101.7386    175.6020   7.0619256306e+01   2.5084249436e+01    0.4364951    0.3012092  32.10  0.002306046    1.534    0.348
       204 -10.6336     75.7783    169.7785   7.5968470659e+01   3.0337055405e+01     1.190203    0.4572869 -77.61  0.003813141    4.548    0.780
       205  -8.5246    224.6317    174.1383   4.5470186080e+01   4.1153951485e+00    0.1829146    0.1442441 -37.53 0.0006249858    1.431    0.301
       206  -9.6413    175.9489    171.8878   5.3867245617e+01   1.2792391718e+01    0.4219719    0.2418814 -45.29  0.001231076    1.890    0.471
       207  -7.7847    142.8323    172.5780   6.0860461127e+01   1.8641089668e+01    0.1896704    0.1212199  50.79 0.0006179241    1.577    0.366
       208  -8.4840    134.8411    171.7375   6.2463199377e+01   2.0231159534e+01    0.2432792    0.1774905  89.95 0.0008384601    1.941    0.485
       209  -9.0968     45.2273    171.1954   8.3524373523e+01   3.4045361964e+01    0.3330903    0.1759055  75.71  0.001299837    2.012    0.503
       210  -8.0378    213.6476    171.2772   4.6774236529e+01   6.3195029230e+00    0.1705379    0.1254212 -43.15 0.0005832661    1.570    0.363
       211  -8.1676    211.4901    167.9856   4.6503100066e+01   7.1690875998e+00    0.1702522    0.1088445 -55.34 0.0005230279    2.469    0.595
       212  -8.3358    205.9466    170.2443   4.7921898219e+01   7.7762466562e+00    0.2189658    0.1771879 -56.80 0.0008331373    1.707    0.414
       213  -9.6637    121.3786    170.2516   6.5238924069e+01   2.2900233454e+01    0.3601145    0.2809059  85.75  0.001126329    1.528    0.346
       214  -8.1904    237.3399    169.3943   4.2501529201e+01   2.7529792136e+00    0.1934342    0.1326011 -42.11 0.0008124612    1.716    0.417
       215  -8.6828    230.4888    169.9611   4.3703578028e+01   3.7554295904e+00    0.1842999    0.1102504 -29.20 0.0005801847    1.538    0.350
       216  -8.5179    198.3254    169.8515   4.9219243150e+01   9.1545790962e+00    0.2284636    0.2015159 -67.25 0.0009140052    1.580    0.367
       217  -8.6717    150.1436    169.5460   5.8735622306e+01   1.7894351063e+01    0.2796499    0.2164271  76.21  0.001141605    1.729    0.422
       218  -8.0653    244.6028    169.2510   4.1349414494e+01   1.6557942422e+00    0.1724834    0.1416645 -52.18 0.0008769726    1.822    0.451
       219  -8.6912    218.7174    168.2700   4.5318830964e+01   5.9108380636e+00    0.1964173    0.1832306 -15.82   0.00054629    1.224    0.183
       220  -9.1544    167.0035    168.3529   5.4986476432e+01   1.5029247986e+01    0.3273825    0.2351059  65.15  0.001430929    1.891    0.471
       221  -8.1285     88.9954    168.9176   7.2653223396e+01   2.8543567989e+01    0.2232657    0.1458934  68.84 0.0006367439    1.693    0.409
       222  -8.7892    111.7764    167.2822   6.6969154321e+01   2.5175016633e+01     0.343272    0.2286012  78.34  0.001033734    2.036    0.509
       223  -8.8890    191.9679    166.3707   4.9711431882e+01   1.0833066815e+01    0.2689888    0.1856925 -35.28 0.0005008823    1.452    0.311
       224  -8.6042    185.0262    166.4213   5.1039273557e+01   1.2075126091e+01    0.2367341    0.1834646 -54.04 0.0006082917    1.584    0.369
       225  -7.9828     13.3315    167.6661   9.0835760307e+01   3.8174474959e+01    0.1337388   0.06740521  63.95 0.0007052196    1.729    0.422
       226  -7.8938    229.0000    165.9581   4.3158453080e+01   4.5481161324e+00    0.2013209   0.06497843 -34.14 0.0005137735    2.886    0.654
       227  -8.1987    141.1794    166.3582   6.0095466059e+01   2.0142511746e+01    0.2853388    0.1781282  51.63  0.001006775    1.645    0.392
       228  -9.4202    135.8034    163.8402   6.0828633756e+01   2.1624463573e+01    0.3945103    0.2296853  58.20  0.001299348    2.091    0.522
       229 -10.0069     94.9572    162.6802   7.0260520844e+01   2.8977266156e+01    0.8105602    0.4087721  72.67  0.002600291    4.388    0.772
       230  -8.9790     20.4810    165.9932   8.9021545660e+01   3.7886010527e+01    0.3230881    0.1216756  52.66  0.001396265    2.353    0.575
       231  -8.1504    233.8442    164.8098   4.2153480017e+01   3.9255996703e+00    0.1608452    0.1354379 -33.14 0.0004884325    1.322    0.244
       232  -9.7337     33.8300    163.2845   8.5546885101e+01   3.7145019055e+01    0.5809792    0.1876887  54.08  0.002275267    3.146    0.682
       233  -8.8020    246.1452    162.8670   3.9866491760e+01   2.2532647198e+00    0.2301735     0.147072 -36.70 0.0004357665    1.575    0.365
       234  -8.1708    240.0424    163.9683   4.1015361045e+01   3.0563029104e+00    0.1753601    0.1482128 -52.17 0.0005715582    1.689    0.408
       235  -8.6071    212.9295    163.2820   4.5315816728e+01   7.6261760456e+00    0.2623031    0.1652395 -39.96 0.0008444493    1.641    0.391
       236  -8.6092    159.4869    163.9139   5.5685391601e+01   1.7223633227e+01    0.2498805    0.2132404  81.11 0.0007852695    1.482    0.325
       237  -8.2574    204.8743    162.3893   4.6551217237e+01   9.1685835240e+00    0.2145753    0.1668575 -37.18 0.0005997002    1.328    0.247
       238  -8.4903     57.6049    163.3075   7.9631865686e+01   3.4309959169e+01     0.391436    0.1390837  22.73  0.001072712    6.835    0.854
       239  -9.4141      3.4192    162.2130   9.2843448432e+01   4.0252242680e+01    0.3938418    0.1561895  51.80   0.00155693    2.137    0.532
       240  -9.0899    177.5223    160.4229   5.1305767313e+01   1.4480197592e+01    0.2934688    0.2530495 -77.82  0.001136489    1.551    0.355
       241  -8.8036    151.7960    160.7465   5.6707528991e+01   1.9261296795e+01    0.2616059    0.1958007 -62.46 0.0009325431    1.599    0.375
       242  -8.3243    242.4268    159.5636   3.9772066147e+01   3.2723554295e+00    0.3105925    0.1525497  27.98  0.001475398    2.425    0.588
       243  -9.7385    250.2245    157.6685   3.8226388914e+01   2.3068812658e+00    0.3101663    0.1729632 -32.92 0.0008901852    1.600    0.375
       244  -8.9647    246.7252    155.6349   3.8334511198e+01   3.1210764903e+00    0.3838768    0.1783832 -16.74  0.001657862    2.718    0.632
       245  -8.7642    227.2878    158.9943   4.2039436142e+01   5.8147825870e+00    0.2909962    0.1744621 -43.77  0.001093471    1.891    0.471
       246  -8.7576     60.4796    159.8482   7.8482234267e+01   3.4733258257e+01    0.2744466    0.1622898  79.56 0.0009608835    1.889    0.470
       247  -8.5042    237.2057    159.0098   4.0464780407e+01   4.1817769948e+00    0.1917499    0.1317062 -48.27 0.0007061313    1.911    0.477
       248  -8.5745    128.0019    158.7715   6.1670279905e+01   2.4089047811e+01    0.2428538    0.1843401 -76.39 0.0007608903    1.587    0.370
       249  -9.5852    106.0350    157.6546   6.6713662128e+01   2.8240117608e+01    0.5370566    0.3800618  84.56  0.001603221    1.755    0.430
       250  -8.6197    196.6210    157.8797   4.7127819505e+01   1.1371097199e+01    0.2275738    0.2062066 -63.27 0.0008352013    1.412    0.292
       251  -8.2079    188.3013    157.4687   4.8603929012e+01   1.2975367999e+01    0.2210791    0.1624198 -56.73 0.0006759549    1.753    0.429
       252  -9.1277    167.7503    157.2050   5.2627212724e+01   1.6900731205e+01    0.3200683    0.2495577  85.39  0.001076444    1.914    0.478
       253  -9.6030     81.2080    155.2968   7.2549344326e+01   3.2822120577e+01    0.4775937    0.4373672  89.38  0.001587785    1.059    0.056
       254  -8.5623    218.0503    156.5004   4.3058205217e+01   7.7563479802e+00    0.2375421    0.1680208 -43.79 0.0006656547    1.577    0.366
       255  -8.9678    157.7500    155.7876   5.4437300286e+01   1.9078307350e+01    0.2747711    0.1944059 -55.22 0.0008544811    1.601    0.375
       256  -9.0975    119.5247    154.9091   6.2948591543e+01   2.6452831258e+01    0.3744756    0.2549025 -88.21  0.001371188    2.104    0.525
       257  -9.1240     49.8093    155.0872   8.0635163319e+01   3.7218308055e+01    0.4178545    0.1876101  60.77  0.001741235    2.563    0.610
       258  -8.2851    204.6678    155.1760   4.5105956640e+01   1.0339259210e+01    0.2018415     0.158099 -44.51 0.0006505559    1.416    0.294
       259  -9.1570    144.7871    154.0123   5.6913256096e+01   2.1911511844e+01    0.3670409    0.2459418 -43.41   0.00131231    1.549    0.354
       260  -9.0657     68.3498    153.8293   7.5649855485e+01   3.5061054556e+01    0.3388386    0.2014912  66.90  0.001075455    1.869    0.465
       261  -9.3155    241.6440    153.7910   3.8722810750e+01   4.1810337331e+00    0.3125255    0.2340551  85.25  0.001585334    3.019    0.669
       262  -8.2543    232.9618    153.9379   4.0095828903e+01   5.5869492182e+00    0.1843601     0.154554 -58.45  0.000681833    1.708    0.415
       263  -9.6781    132.6914    152.6918   5.9410247282e+01   2.4482765455e+01    0.4430867    0.3154232  76.94  0.001089122    1.938    0.484
       264  -8.9756    133.4843    148.0190   5.8285917374e+01   2.5308994652e+01     0.260873    0.2284348 -15.17 0.0008864825    1.330    0.248
       265  -8.3469    151.8127    152.3454   5.5017923195e+01   2.0888072430e+01    0.1990737    0.1834109 -56.78 0.0008468985    1.151    0.131
       266 -10.5158    148.8737    144.9698   5.4119040718e+01   2.2927976284e+01     0.611652    0.4114548 -86.19  0.001592476    2.721    0.632
       267  -9.6770     29.4482    150.6285   8.5458868225e+01   4.0573773491e+01    0.4571534     0.183525  64.15  0.001843191    2.938    0.660
       268  -8.4623      8.9967    153.0000   9.0904427656e+01   4.1907887739e+01    0.1739828   0.06699705  26.16 0.0007944276    2.933    0.659
       269  -8.9332    189.4925    149.9968   4.6805723857e+01   1.4019029691e+01     0.307902    0.2219501 -61.07  0.000889285    1.923    0.480
       270  -8.1562    182.4651    150.9946   4.8373578012e+01   1.5193110521e+01    0.2059374     0.133264 -41.82 0.0006914685    1.563    0.360
       271  -8.3983    162.4796    150.4718   5.2330031355e+01   1.9171753196e+01    0.2373203    0.1916529 -80.70 0.0006634257    1.670    0.401
       272  -8.6879     98.3838    150.6273   6.7389307652e+01   3.1121720959e+01    0.3059376    0.2113606  75.96 0.0009562153    1.747    0.428
       273  -9.4201    248.8711    149.0668   3.6680199287e+01   3.6617836548e+00    0.2896524    0.1652403 -29.21 0.0008026437    1.503    0.335
       274  -9.0000    243.2364    149.6395   3.7629903837e+01   4.4921717386e+00     0.243757    0.1489757 -30.52  0.001356702    1.432    0.302
       275  -8.3017    212.9775    149.6779   4.2492444595e+01   9.6967403391e+00      0.17825    0.1616861  17.30 0.0003980509    1.114    0.102
       276  -8.8966      3.3097    149.9500   9.2132241467e+01   4.3072580853e+01    0.2881955    0.1074034  64.52  0.001281823    2.616    0.618
       277  -8.4837    198.8312    149.0444   4.4861852385e+01   1.2408920990e+01    0.1993193    0.1811716 -48.44 0.0005113709    1.268    0.211
       278  -9.8371     89.2114    145.9574   6.8934490619e+01   3.3727057964e+01    0.6610299    0.3505517 -86.80  0.002284045    3.530    0.717
       279  -9.9163     40.1936    147.7672   8.2309556100e+01   4.0101006197e+01    0.5566818    0.2397877  61.41  0.002080298    2.724    0.633
       280  -9.1855    233.3621    147.5437   3.8701790047e+01   6.4318208052e+00    0.2363424    0.1749294 -27.16 0.0006092766    1.201    0.167
       281 -10.3747     54.9730    144.5691   7.7908812027e+01   3.9083898347e+01    0.7757768    0.3406022  67.23  0.002683683    3.701    0.730
       282  -8.3781    223.1059    146.6258   4.0145461930e+01   8.3487704320e+00    0.2102971    0.1657521 -34.44 0.0005072214    1.245    0.197
       283  -9.9875    139.1501    145.0344   5.6345944415e+01   2.4832610788e+01    0.4648342    0.3133196 -79.63  0.001282483    2.339    0.572
       284 -10.2391    106.7477    143.5639   6.3946002308e+01   3.1269882805e+01    0.8461707    0.5592656 -75.73  0.002501705    1.845    0.458
       285  -9.1219     78.1150    146.8717   7.2020120664e+01   3.5267055815e+01    0.2767376    0.1843512  75.07 0.0008884101    1.710    0.415
       286  -9.5791     13.3195    145.8773   8.9263856504e+01   4.3217365421e+01     0.407125    0.1685036  63.34  0.001462563    2.451    0.592
       287  -7.9206    206.4129    146.2390   4.2896711756e+01   1.1445556271e+01    0.1801415    0.1219199 -41.82 0.0002404897    1.509    0.337
       288  -8.0201    175.6092    145.8328   4.8622237023e+01   1.7450909073e+01    0.1943317    0.1310452 -50.02 0.0004202673    1.628    0.386
       289  -8.7435    240.4510    145.0529   3.7091801832e+01   5.5887069474e+00    0.1946972    0.1095591 -31.40 0.0004993045    1.555    0.357
       290  -9.4067    243.4196    141.3305   3.5864860845e+01   5.6131842532e+00    0.4006241      0.14229 -25.85  0.001515724    3.089    0.676
       291  -8.8919    165.6630    143.8426   5.0232558959e+01   1.9798213920e+01    0.2903222    0.2456525  80.37 0.0008676163    1.490    0.329
       292 -10.7349     69.4734    140.7887   7.3367659968e+01   3.8010069238e+01    0.6462918    0.3666495 -74.84  0.002950946    1.836    0.455
       293  -7.6857    194.3393    143.7039   4.4528643504e+01   1.4158120675e+01    0.1332774    0.1127535 -80.77 0.0003214647    1.657    0.396
       294  -7.7528    230.5293    142.5064   3.8075000230e+01   7.6521073167e+00    0.1321276    0.1129874 -13.14 -2.79864e-05    1.006    0.006
       295  -8.4921    182.0695    141.4435   4.6369880997e+01   1.6960985001e+01    0.2643351    0.1896015 -53.18  0.000716059    1.606    0.377
       296  -9.3788      2.8625    141.5861   9.1693698161e+01   4.5067422679e+01    0.3663349    0.1578357  79.81  0.001486875    2.166    0.538
       297  -7.9324    250.6105    140.7789   3.4708977719e+01   4.5027192278e+00    0.1738106    0.1008207 -35.97 0.0004567998    1.557    0.358
       298  -9.7528     23.3595    137.9326   8.5829994263e+01   4.4227233814e+01    0.5377201     0.228583  65.29   0.00190027    2.716    0.632
       299  -8.6303    172.4392    138.2583   4.7582347678e+01   1.9480466075e+01    0.2907569      0.21919 -73.02 0.0008107182    1.887    0.470
       300  -8.0684    218.6402    138.3616   3.9086689711e+01   1.0416968275e+01    0.1881525    0.1534599 -58.82 0.0006502212    1.596    0.373
       301  -8.3047    207.8844    137.9617   4.0819298889e+01   1.2502882709e+01    0.2112066    0.1675855 -66.80  0.001112409    1.774    0.436
       302  -8.6527    197.5021    137.2696   4.2511920842e+01   1.4630291659e+01    0.2679231    0.2031467 -61.44  0.000942718    1.745    0.427
       303  -8.6557    150.0518    136.0913   5.1897021144e+01   2.4482364082e+01    0.5002529    0.3059025  -6.43   0.00162652    4.007    0.750
       304  -9.7562    125.0822    142.3648   5.9127052189e+01   2.8129691045e+01    0.5017296    0.3306343 -83.75   0.00148692    2.383    0.580
       305 -10.3863     83.4825    132.9110   6.8098675398e+01   3.7755686465e+01    0.5467001    0.3309307 -76.07    0.0013531    1.907    0.476
       306  -9.0038    248.4479    134.9850   3.3788963275e+01   5.6542521973e+00    0.2729999    0.1839999 -36.83  0.001071857    1.385    0.278
       307  -9.0992    250.7963    129.8515   3.2358877845e+01   5.9701739155e+00    0.4782507    0.1036015 -31.34  0.001523368    4.161    0.760
       308  -8.2555    162.6910    136.2028   4.9151623298e+01   2.1865044944e+01    0.2258238    0.1817037 -63.78 0.0006974278    1.456    0.313
       309  -8.7614    247.0424    143.7619   3.5846488195e+01   4.6775962707e+00    0.2177068    0.1511292 -26.78 0.0004880342    1.228    0.186
       310 -10.7080     59.3758    134.7953   7.5233786161e+01   4.0885753876e+01     0.937115    0.3656123  25.04  0.003244119    3.880    0.742
       311 -10.6215     60.4166    125.3645   7.3360372131e+01   4.3072054681e+01    0.7834731    0.4189568  75.81  0.002829056    2.888    0.654
       312  -9.2207     39.0486    135.8020   8.1172100409e+01   4.3139883139e+01    0.2785854    0.1822216  77.52 0.0008150075    1.503    0.335
       313  -7.8082    187.7437    135.3951   4.3905417917e+01   1.6896834012e+01    0.1430011    0.1094085 -63.15 0.0006961704    1.697    0.411
       314  -7.6704    231.3792    134.1752   3.6133053666e+01   8.7296760834e+00    0.1824403    0.1093893 -39.11 0.0002749769    1.579    0.367
       315  -8.4535    179.5181    133.8324   4.5144021711e+01   1.8849778635e+01    0.2624072    0.2217323 -76.11 0.0008718074    1.515    0.340
       316  -9.0277    112.8335    133.1190   6.0242577510e+01   3.2521396881e+01    0.3631585    0.2458548  74.02  0.001002534    1.998    0.499
       317  -7.6272    237.6635    133.3582   3.5002963774e+01   7.7335258018e+00    0.1302405   0.09741499 -56.78  0.000474416    1.810    0.447
       318  -9.3533    143.1499    131.6622   5.2461523995e+01   2.6810324495e+01    0.3472327    0.2531163 -68.90 0.0008128951    1.707    0.414
       319 -10.3326    132.2947    130.5746   5.4791002481e+01   2.9261759299e+01    0.7108648    0.4048347 -59.36  0.002152476    2.065    0.516
       320  -8.3720    247.0087    130.0044   3.2919849778e+01   6.5913009545e+00    0.1996147    0.1586959 -26.07 0.0006485887    1.082    0.076
       321  -8.2047    220.6049    129.8475   3.6863534894e+01   1.1370890499e+01     0.191183    0.1148915 -41.32 0.0005785906    1.619    0.382
       322  -7.9561    204.7671    130.5311   3.9677172180e+01   1.4324724725e+01    0.1745049    0.1388098  63.20 0.0004434658    1.566    0.361
       323  -8.1187    192.5422    130.0245   4.1760697238e+01   1.6863876873e+01    0.2135394     0.133759 -36.92 0.0004802126    1.517    0.341
       324  -9.1283    168.3309    129.4472   4.6389622709e+01   2.1991299330e+01    0.2942146    0.2379892 -70.54 0.0004500048    1.537    0.349
       325  -9.5796    152.8001    128.5503   4.9530970591e+01   2.5437547524e+01    0.5048904    0.2528184 -49.71 0.0009647759    2.108    0.526
       326  -9.1015     97.9967    127.8843   6.3069911895e+01   3.6471876415e+01    0.5366353    0.2025766 -55.80  0.001890142    2.628    0.619
       327  -8.5807     98.8223    120.4537   6.1205310165e+01   3.8074033351e+01    0.3322292    0.2279332  -9.65  0.001307692    2.749    0.636
       328  -9.9356     73.1100    129.0356   7.0307048206e+01   4.0328099658e+01    0.3773745    0.2494668  79.16 0.0009206313    1.828    0.453
       329  -9.7882     13.0915    128.9626   8.7846457567e+01   4.7312249352e+01    0.5016732    0.2178298  65.29  0.002121407    2.509    0.602
       330  -8.4595    211.3312    128.8148   3.8155769005e+01   1.3315808418e+01    0.2683914    0.1086133 -42.33 0.0008558916    2.444    0.591
       331 -10.4394     44.2790    123.1476   7.7850226746e+01   4.5681583941e+01    0.8879191    0.4073035  85.51  0.002847041    3.643    0.726
       332  -7.7329      1.3535    129.6868   9.1246296531e+01   4.8013325768e+01     0.133385   0.07165044  64.00 0.0007045315    1.732    0.423
       333  -9.9240    117.9441    124.8320   5.7065150969e+01   3.3407010827e+01    0.6148326    0.4350375 -85.12   0.00156765    1.943    0.485
       334  -7.8446    228.4754    125.4684   3.4635131068e+01   1.0564348056e+01    0.1355263    0.1178265 -20.55 0.0008092745    1.015    0.015
       335  -8.9282    179.3130    124.5362   4.2986939411e+01   2.0592278640e+01    0.2892242    0.2369321 -68.49 0.0008024896    1.502    0.334
       336 -10.1952     28.4549    121.9562   8.2501287478e+01   4.7677236347e+01    0.8743258     0.361578  76.45  0.002949784    4.063    0.754
       337  -8.5633     27.3223    113.3132   8.1682631981e+01   4.9946711697e+01    0.2154929       0.1264  -2.44 0.0009388572    2.966    0.663
       338  -9.2155     50.0115    128.2548   7.6924504172e+01   4.3716247503e+01    0.4500437    0.2231412  77.30   0.00167436    3.119    0.679
       339  -7.7666    188.4967    123.5091   4.0971232451e+01   1.8842216927e+01     0.144501    0.1364968 -39.73 0.0008091705    1.086    0.079
       340  -9.7580    130.6219    118.0995   5.2221757367e+01   3.2309489221e+01    0.5102016    0.3329817 -81.76  0.001223985    2.615    0.618
       341  -8.4995     85.0926    122.3007   6.5513673062e+01   4.0049260815e+01    0.3540643    0.2318846  11.54  0.001138123    2.636    0.621
       342  -7.9105    194.8602    121.7747   3.9378483526e+01   1.7816156061e+01    0.1957956    0.1617137 -56.18 0.0004610201    1.364    0.267
       343  -8.5118    171.9085    121.3296   4.3690256428e+01   2.2770551561e+01    0.2453195    0.1952479 -48.58 0.0004318614    1.277    0.217
       344  -8.9537    158.4909    121.2156   4.6494664909e+01   2.5691199074e+01    0.3274805    0.2262811 -64.59 0.0009233088    1.866    0.464
       345  -9.4488     71.0743    119.6959   6.9108133323e+01   4.2931924806e+01    0.3026401     0.219564  88.95 0.0009540626    1.518    0.341
       346  -9.5249      2.9408    116.9875   8.9733987834e+01   5.0987860392e+01    0.5406441    0.2153454  71.28  0.002266186    2.868    0.651
       347  -7.9368    231.5080    117.4476   3.2346431848e+01   1.1203834722e+01    0.1354334    0.1175407 -31.96 0.0005073999    1.092    0.085
       348  -8.0524    185.9836    116.0078   3.9607836670e+01   2.0711244141e+01    0.2291551    0.1767579 -68.24 0.0006719016    1.666    0.400
       349  -8.2393    193.0084    115.0069   3.8061495410e+01   1.9380188538e+01    0.2219041    0.1712378 -62.99 0.0003371419    1.588    0.370
       350  -9.9957    141.6054    118.3706   4.9623804218e+01   2.9916717684e+01    0.4781942    0.3102671 -68.56  0.001117404    2.170    0.539
       351 -10.0963     92.7476    112.3038   6.1042183233e+01   4.1114484036e+01    0.6066767    0.3335523 -66.58  0.001549084    2.160    0.537
       352  -8.3168     93.7946    104.0330   5.8684747470e+01   4.2882471785e+01    0.2386477    0.1917669  -8.04 0.0009632208    1.702    0.413
       353  -9.9489     79.0801    112.3407   6.5125343316e+01   4.3469597649e+01    0.6237785    0.3808137 -88.33  0.002223522    2.473    0.596
       354  -8.2076     78.4852    105.0100   6.3605955237e+01   4.5352526528e+01    0.2948355    0.1990279   0.61  0.001186261    2.724    0.633
       355  -8.8967     59.7933    114.6431   7.1571950764e+01   4.5825862668e+01    0.3255847    0.1917192  14.40  0.001350945    2.752    0.637
       356  -8.2890    167.0859    114.3082   4.2923750822e+01   2.5158357347e+01    0.2088759    0.1963799  42.18  0.000637405    1.097    0.088
       357  -9.8527    133.3041    108.8326   4.9176474632e+01   3.3733613112e+01    0.6489534    0.2978149 -45.02  0.001919955    2.127    0.530
       358 -10.1838    122.0705    111.8359   5.2814421784e+01   3.5476309038e+01    0.5518734    0.3078516 -46.06  0.001434154    1.755    0.430
       359  -8.6953    174.7242    111.4602   4.0638629255e+01   2.4004433475e+01    0.3518591    0.1853921 -47.57 0.0009483973    1.969    0.492
       360  -9.0095    159.2924    111.7426   4.3917276524e+01   2.7386315885e+01    0.2841338    0.2150875 -61.77 0.0007655821    1.514    0.340
       361 -10.1518     14.2329    111.2170   8.5606307343e+01   5.1600237413e+01    0.3985521    0.2151553  56.58  0.001413724    1.956    0.489
       362 -10.0025     66.4237    110.3500   6.8612180272e+01   4.5941711671e+01    0.4032951    0.2937589  77.27  0.001272758    1.574    0.365
       363  -7.7119    149.7787    110.0036   4.5573967402e+01   2.9854912438e+01    0.2052343    0.1234103 -41.94 0.0004344146    1.621    0.383
       364  -8.3774    201.2119    249.0383   6.1577749449e+01  -1.8290694080e+00    0.2350644    0.1068581  20.00  0.001186075    2.699    0.629
       365  -8.1392    189.4251    107.7193   3.6878266180e+01   2.1430161329e+01    0.2781795    0.1314699 -40.63 0.0007979562    1.981    0.495
       366 -10.7175     22.9592    102.5636   8.1551950312e+01   5.3040652903e+01    0.7519229    0.3642487  67.77  0.002332957    2.745    0.636
       367  -9.6118    150.6170    103.0131   4.3508634853e+01   3.1075060211e+01    0.4967514    0.3012168 -60.97  0.001395852    2.158    0.537
       368  -9.3428    140.0245    104.3410   4.6333275732e+01   3.3197046861e+01    0.3984616    0.2919242 -83.61 0.0008995337    1.910    0.476
       369 -10.8782    108.8241     98.6677   5.2885197513e+01   4.1171500795e+01    0.9257806    0.5001944  67.50  0.001291747    3.508    0.715
       370  -9.4013    107.8298     92.0665   5.1288641137e+01   4.2852921965e+01    0.5964549    0.3089536  30.42  0.002087096    2.882    0.653
       371 -10.5704     45.7337    102.1559   7.3705069538e+01   5.0774809519e+01    0.7751659    0.4037165  69.48   0.00296221    3.072    0.674
       372  -8.5718    166.7097    103.8953   4.0276553077e+01   2.7229014282e+01    0.2768281    0.1949024 -53.52 0.0006593299    1.515    0.340
       373  -9.9205    128.3733    101.8595   4.8528918156e+01   3.6304539889e+01    0.3562945    0.2695585 -67.37 0.0008761696    1.519    0.342
       374  -8.7994      6.7428    103.0243   8.7096442123e+01   5.4174488734e+01    0.2313939    0.1473829  60.57 0.0008655878    1.620    0.383
       375  -8.0359    175.5853    101.7677   3.7928303934e+01   2.5599778536e+01    0.2148162    0.1342011 -47.48 0.0005916531    1.611    0.379
       376  -8.2326    159.9200    100.9134   4.0892157521e+01   2.9356112087e+01    0.2399802    0.1832384 -71.62 0.0005082863    1.630    0.386
       377  -9.3207     82.2558     99.9162   6.1158605571e+01   4.5939863173e+01    0.4078552     0.267401 -83.92  0.001153541    2.149    0.535
       378 -10.3344     63.9929     95.8781   6.6109510345e+01   4.9873003387e+01    0.6430029    0.3696449 -78.35   0.00162092    2.337    0.572
       379  -8.5125     64.1977     87.8105   6.3984391833e+01   5.1802877666e+01    0.2718516    0.1932961  -9.58    0.0011663    2.141    0.533
       380  -9.2728     95.0306     96.9344   5.6429060246e+01   4.4309276547e+01    0.3336684     0.230541 -63.46 0.0006563608    1.530    0.346
       381  -8.2444      7.3394     97.3011   8.6204829446e+01   5.5552542338e+01    0.1302043    0.0800719 -47.96 0.0003956885    1.668    0.401
       382  -8.4389    150.8904     95.1072   4.1242953451e+01   3.2580233172e+01    0.3176536    0.2194805  -3.66  0.001264123    2.294    0.564
       383  -8.3003    164.8449     94.0964   3.7972801640e+01   2.9506402569e+01    0.2337187    0.2000706 -58.27 0.0004536661    1.207    0.171
       384  -9.1329     22.6954     90.5582   7.9687459153e+01   5.6066072054e+01    0.4360857    0.2778333 -41.52  0.002322039    1.698    0.411
       385  -7.5214    188.5397     93.5071   3.3309166705e+01   2.4101388710e+01    0.1502322    0.1386254 -42.45  0.000222517    1.034    0.033
       386  -8.3121    176.3344     92.9281   3.5382737815e+01   2.7028323226e+01    0.2499634    0.1721595 -51.17 0.0006414453    1.501    0.334
       387 -10.4256    124.4129     90.5658   4.6315556648e+01   3.9585433472e+01    0.6059396     0.525003  26.89  0.001699232    1.299    0.230
       388  -8.7641    120.6464     88.7520   4.6766481202e+01   4.0808580329e+01    0.2413939    0.2146074  -8.42  0.000472857    1.293    0.227
       389  -9.0256     46.3344     91.9536   7.1346235137e+01   5.3246552853e+01    0.3202917    0.2323328   5.17  0.001470135    1.897    0.473
       390 -10.3206    109.2906    112.9722   5.6519759475e+01   3.7819799536e+01    0.8616464    0.3913115 -53.06   0.00234911    2.202    0.546
       391  -9.2874      5.2357     91.8214   8.6249940054e+01   5.7042426326e+01    0.2831953     0.158567  52.76 0.0009362262    1.976    0.494
       392  -7.9988    157.8184     91.5895   3.8728021026e+01   3.1633588594e+01    0.2045723    0.1507607  68.69 0.0004875067    1.570    0.363
       393  -9.3620     34.8615     89.5498   7.5003886168e+01   5.5152558662e+01    0.4698276    0.2497099 -88.45  0.001740398    2.539    0.606
       394  -8.1935    151.1787     89.1342   3.9455869477e+01   3.3674697704e+01     0.220818     0.180195 -66.03 0.0005108543    1.352    0.261
       395 -10.1126     86.4379     85.9873   5.5988296428e+01   4.8460639825e+01     0.594797    0.3942547 -73.28  0.001686049    1.991    0.498
       396  -7.8242    163.6448     86.7941   3.6136768646e+01   3.1143565833e+01    0.2247619    0.1336422 -45.66 0.0004184032    1.648    0.393
       397  -9.7247     48.6777     84.1738   6.8645716332e+01   5.4866302936e+01    0.5572143    0.3274419  72.07   0.00200924    2.797    0.642
       398  -9.0560    138.9405     92.2302   4.3176407438e+01   3.5930797358e+01    0.3703086    0.2673891 -79.19 0.0008878575    1.918    0.479
       399  -8.3826    158.1066     83.6750   3.6361111186e+01   3.3048176685e+01    0.2698025    0.1968908 -47.93 0.0003735245    1.348    0.258
       400  -9.6749    104.7314     82.8973   4.9421037765e+01   4.5513597590e+01    0.4415895    0.3009109 -66.36  0.001108871    1.807    0.447
       401  -8.6482    104.9949     77.0043   4.7466603165e+01   4.6717018869e+01    0.3058732    0.2087511 -16.13 0.0009160053    2.138    0.532
       402  -9.0279    140.8946     82.6744   3.9855485538e+01   3.7369169906e+01    0.3016937    0.2174082 -49.18 0.0004748846    1.379    0.275
       403  -7.9463     64.0657     82.7017   6.2634574825e+01   5.3045814220e+01    0.1893295    0.1827126 -84.00 0.0005987357    1.084    0.078
       404  -9.5637     24.7387     80.5931   7.7011359586e+01   5.8356305725e+01    0.4469781    0.2547852  82.03   0.00143562    2.346    0.574
       405  -9.3103     10.0007     80.8806   8.2859104273e+01   5.9435187598e+01    0.3915401    0.1765217  54.32  0.001513193    2.867    0.651
       406  -8.3701    150.4760     80.4530   3.7017636135e+01   3.5490789066e+01    0.2733006    0.2031988 -70.38 0.0006670727    1.647    0.393
       407  -8.9039     74.6629     80.0887   5.8147982022e+01   5.1929326056e+01    0.3702146    0.2317795 -73.83   0.00115626    2.240    0.554
       408  -8.7334    119.2884     79.9297   4.4401909424e+01   4.2952515743e+01    0.2972367    0.2249847 -68.29 0.0008692081    1.565    0.361
       409  -7.9447    166.9645     79.3399   3.3298557044e+01   3.1684349848e+01    0.2034831    0.1985697 -58.38 0.0005641934    1.029    0.028
       410  -8.0215    184.2099     77.9668   2.9764499000e+01   2.7750253963e+01    0.2089255    0.1145296 -34.82 0.0006465478    1.701    0.412
       411  -7.6986    157.1443     76.1257   3.4287811127e+01   3.4656740851e+01    0.2151777    0.1751343 -64.67 0.0004143554    1.329    0.248
       412  -8.6692    140.5007     75.1203   3.7589064015e+01   3.8907121228e+01    0.3207175    0.2041761 -50.45 0.0008805929    1.625    0.385
       413  -9.2867    128.1077     75.1540   4.0578272508e+01   4.1867166968e+01    0.3775228    0.2568676 -60.63  0.000729255    1.731    0.422
       414  -8.6392     92.2636     74.9633   5.0684363270e+01   4.9795243394e+01    0.2143052    0.1819946 -46.00 0.0003304141    1.115    0.103
       415  -9.8417     63.1812     73.3640   6.0202289050e+01   5.5370058183e+01    0.4810556    0.2714737 -63.87  0.001153363    1.988    0.497
       416  -8.8028     42.8146    109.3390   7.6024904328e+01   4.9316014015e+01    0.3189774    0.1419012  15.31   0.00111469    4.174    0.760
       417  -9.6406     82.4758     72.5496   5.3091999277e+01   5.2221163473e+01    0.4072086    0.2921608 -77.66 0.0008970264    1.920    0.479
       418  -7.9589    151.3535     73.1574   3.4574511553e+01   3.6613677379e+01     0.228757    0.1329596 -45.91 0.0006102629    1.702    0.412
       419  -8.4805    115.7767     72.7027   4.2996211413e+01   4.5213164659e+01    0.2822553    0.1879513 -63.21 0.0006227035    1.884    0.469
       420  -8.3400     42.7670     72.4236   6.7836641631e+01   5.8439438329e+01    0.2579763    0.1564964 -70.19 0.0007377776    1.730    0.422
       421  -7.6489    175.5033     72.4427   2.9678148049e+01   3.0780938324e+01    0.1512986    0.1434338 -48.73 0.0004279732    1.007    0.007
       422  -9.1130    106.0187     71.5709   4.5363825086e+01   4.7622593456e+01    0.3211963    0.2282207 -67.31  0.001025502    1.774    0.436
       423  -9.3503     95.0329     70.8573   4.8438394352e+01   5.0107353580e+01    0.4376204     0.264765 -62.37  0.001045766    2.155    0.536
       424  -9.4281     51.3923     69.3687   6.3499654985e+01   5.8035509227e+01    0.5072293    0.2653173 -70.12  0.001539526    2.588    0.614
       425  -9.0487     30.4725     69.5750   7.2133765093e+01   6.0490138588e+01    0.5099596    0.2470719 -17.57  0.001653477    5.157    0.806
       426  -8.7840     16.8061     70.0056   7.8024443117e+01   6.1602506215e+01    0.2352036    0.1614161 -89.13 0.0008131475    1.550    0.355
       427  -7.4707    157.2913     69.7029   3.2271424086e+01   3.5752986313e+01    0.1564946     0.116577 -66.98 0.0002250622    1.559    0.358
       428  -8.6499    147.0497     67.8985   3.3817020367e+01   3.8615744322e+01    0.2734168    0.2139558 -43.09 0.0006113253    1.234    0.189
       429  -7.1091    203.3186     66.6465   2.3625964479e+01   2.5001815687e+01    0.1580495    0.1008826 -59.04 0.0005458986    1.746    0.427
       430  -8.5589    138.7477     65.9105   3.4994506009e+01   4.1024571534e+01    0.2893822    0.1944927 -53.99 0.0005993113    1.607    0.378
       431  -8.7702    121.6369     65.7023   3.9064024039e+01   4.5207690127e+01    0.3093671    0.2186345 -56.27 0.0007673072    1.554    0.356
       432  -8.3081    163.2163     72.8216   3.2068345029e+01   3.3743345271e+01    0.3106406    0.1804156 -52.87  0.001135219    1.903    0.475
       433  -8.6948     37.4920     64.1880   6.7666901654e+01   6.1005307801e+01    0.2486177    0.2001083  72.18  0.001068589    1.537    0.349
       434  -8.8408    110.0704     63.3379   4.1345490667e+01   4.8346347377e+01    0.3326628    0.2255987 -59.56 0.0007439951    1.751    0.429
       435  -8.5227     64.7739     62.6490   5.6071107326e+01   5.7518036637e+01    0.3158715    0.1889358  20.35  0.001335275    2.409    0.585
       436  -7.7556    158.2696     61.6393   2.9527682011e+01   3.6870420312e+01    0.1622624    0.1114904 -60.24 0.0004222378    1.648    0.393
       437  -9.2755     97.6896     60.4198   4.3917933974e+01   5.1660352067e+01    0.3062808    0.2408107  63.24 0.0009951424    1.445    0.308
       438  -9.6244     73.3271     59.1554   5.1618371181e+01   5.6777922794e+01    0.4585654    0.2484777 -54.19  0.001092349    1.974    0.493
       439  -7.8263    147.2095     59.0176   3.0865837806e+01   4.0100248678e+01    0.2067201    0.1212848 -33.59  0.000469605    1.669    0.401
       440  -7.7929     88.9926     59.4710   4.6319803739e+01   5.3678834452e+01    0.1960378    0.1332346  75.93 0.0006650959    2.336    0.572
       441  -8.4972    130.8449     57.5579   3.3958324597e+01   4.4443892423e+01     0.314261    0.1798677 -50.10 0.0006985661    1.893    0.472
       442  -9.7422     23.4392     56.2428   7.1615301089e+01   6.4306127704e+01    0.4450824    0.2695872  85.16  0.001798411    2.650    0.623
       443  -9.3217      7.5435     56.9679   7.9280053937e+01   6.5359479910e+01    0.2898541    0.1849922  79.85  0.001072824    1.950    0.487
       444  -8.1141    140.1226     55.9024   3.1301141859e+01   4.2406377358e+01    0.2361503    0.1971242 -60.07  0.000412569    1.250    0.200
       445  -8.7793    119.0875     55.5747   3.6122180598e+01   4.7657044800e+01    0.2886693    0.1991498 -51.39 0.0005856213    1.538    0.350
       446  -8.8178     44.0703     54.8402   6.1794733982e+01   6.2314027265e+01    0.4157318    0.2091723 -61.55  0.001784172    2.184    0.542
       447  -9.0998     62.8395     54.3444   5.3790065446e+01   5.9608597209e+01    0.3342467    0.1880695 -52.84 0.0007539468    1.780    0.438
       448  -8.9799     54.1494     53.8172   5.7114655740e+01   6.1104924772e+01    0.3735237    0.2088258 -62.63  0.001150363    2.253    0.556
       449  -9.4296     92.4872     50.4284   4.1716237685e+01   5.4668446080e+01    0.4450003    0.2384777 -47.73  0.001181878    1.960    0.490
       450  -7.8524    144.6735     48.7520   2.7884191411e+01   4.2392913365e+01    0.2147802    0.1296448 -40.75 0.0004392951    1.604    0.377
       451  -8.1345    130.0067     49.0092   3.1089899455e+01   4.6075183579e+01    0.2392611    0.1773916 -64.25 0.0004558426    1.574    0.365
       452  -8.2522    120.8172     47.1478   3.2555193143e+01   4.8657212742e+01    0.2330904    0.1976661 -59.25 0.0005702414    1.258    0.205
       453  -8.4319    112.2152     46.7890   3.4591238955e+01   5.0802542669e+01     0.268415    0.1868718 -45.58   0.00063104    1.461    0.315
       454  -9.1031     82.2446     46.1551   4.3341305147e+01   5.7596395578e+01    0.3444149    0.2286357 -53.98 0.0008465745    1.729    0.422
       455  -8.5259    105.8893     53.1067   3.8753251664e+01   5.1198856164e+01    0.2317196    0.1986519 -63.74 0.0005902152    1.287    0.223
       456  -8.5432     45.0234     44.5053   5.7471235075e+01   6.4386063156e+01    0.2499549    0.1769736 -61.23 0.0006261328    1.583    0.368
       457  -8.8073     16.8394     44.3761   7.1222563602e+01   6.7575042524e+01    0.2147111    0.1558816 -68.67 0.0008984442    1.363    0.266
       458  -8.6332    132.7979     43.0685   2.8297692938e+01   4.6293018119e+01    0.2367005    0.1958708 -59.48  0.000502751    1.277    0.217
       459  -8.5988     92.7138     42.4817   3.8402954011e+01   5.6014437974e+01    0.2573828    0.1801441  -9.35 0.0009663537    1.788    0.441
       460  -9.1908     69.5694     41.2837   4.5829607454e+01   6.0966880992e+01    0.3929199     0.259021 -57.67  0.001286774    1.922    0.480
       461  -9.0330     58.3460     42.2771   5.0727250168e+01   6.2775824177e+01    0.3415253    0.2134747 -59.01   0.00105001    2.038    0.509
       462  -9.7358      5.2339     41.6718   7.6529397004e+01   6.9018575128e+01    0.3817657    0.2077121 -81.64  0.001791711    2.230    0.552
       463  -7.8031    140.3793     41.2035   2.6064885958e+01   4.4625990787e+01    0.2164613    0.1302213 -41.50 0.0004684004    1.632    0.387
       464  -8.4685    105.9136     41.0773   3.3999816615e+01   5.3225431524e+01     0.229998    0.1916332 -59.83 0.0005458874    1.340    0.254
       465  -8.7425     36.8894     40.6237   5.9715657669e+01   6.6271686925e+01    0.2549758    0.1782244 -55.34  0.000792508    1.405    0.288
       466  -7.7530    160.5503     40.0343   2.2048047297e+01   3.9558825279e+01    0.2284077      0.10038 -49.56 0.0004897081    2.531    0.605
       467  -8.9011     95.6988     37.9308   3.5576321925e+01   5.6090346751e+01    0.2697077    0.1846215 -47.87  0.000728827    1.573    0.364
       468  -8.2234     80.7611     36.4325   3.9651182740e+01   5.9588402465e+01    0.2629037    0.1607371 -45.15 0.0006974814    1.705    0.414
       469  -9.4886     26.2502     34.9148   6.2764441306e+01   6.8698196278e+01    0.3752264    0.1951006 -57.07  0.001036949    1.870    0.465
       470  -7.9755    125.9891     35.3384   2.6839671112e+01   4.9146668529e+01    0.2032887    0.1865213  63.53  0.000384536    1.089    0.081
       471  -8.4861    111.9874     34.4996   2.9735443468e+01   5.2759429970e+01    0.2904519    0.1860046 -46.92 0.0006569755    1.672    0.402
       472  -7.8241    179.5861     34.5614   1.7498314532e+01   3.5367399457e+01    0.1426946    0.1340878 -58.47 9.460776e-05    1.026    0.025
       473  -8.7329    119.3374     32.9465   2.7368347269e+01   5.1157593576e+01    0.2852824    0.1181934 -37.01 0.0006512895    2.320    0.569
       474  -8.8826     60.6542     32.3137   4.5248863975e+01   6.4189221312e+01    0.2560979     0.214627 -71.02 0.0007049374    1.626    0.385
       475  -8.7172     48.5401     32.9353   5.0796170583e+01   6.6116066221e+01    0.2264835    0.2013529 -67.92 0.0007169176    1.432    0.302
       476  -8.5549     72.2107     30.9597   4.0132185867e+01   6.2221200522e+01    0.2086873    0.1788347 -50.26 0.0005882083    1.308    0.235
       477  -8.7683     13.0569     30.5385   6.8340005689e+01   7.0871202136e+01    0.2257264    0.1576954 -68.68 0.0007941621    1.579    0.367
       478  -8.1301    101.4947     29.0380   3.0102708858e+01   5.6061943054e+01    0.2162071    0.1379023 -31.62 0.0009872958    1.547    0.353
       479  -7.5979     42.3024     29.6802   5.2176153411e+01   6.7657384690e+01    0.1216558    0.1045803 -75.30  0.000510096    1.627    0.385
       480  -8.8639     81.6686     27.3183   3.5139994225e+01   6.0811476222e+01    0.2819203    0.2206494 -68.55   0.00092788    1.733    0.423
       481  -8.9486      3.9383     27.5223   7.2656036614e+01   7.2178457734e+01    0.2189513    0.1556851 -74.52 0.0008960203    1.569    0.363
       482  -8.6165     91.8806     26.0706   3.1427960771e+01   5.8714909665e+01    0.2925069    0.1822964 -48.15 0.0007994442    1.848    0.459
       483  -8.0981     34.7293     23.1199   5.2704376648e+01   6.9912873141e+01    0.1855282      0.14055  89.45 0.0007704934    2.713    0.631
       484  -8.3651    104.3128     22.6767   2.6585411189e+01   5.6220102983e+01    0.1461107     0.108051 -62.36 0.0005066143    1.658    0.397
       485  -9.0421     63.7302     20.8611   3.8265089626e+01   6.5427582249e+01    0.3362179    0.1843261 -43.80 0.0008942912    2.007    0.502
       486  -8.7544     48.3169     21.2559   4.4993843297e+01   6.8154102459e+01    0.2649379    0.1881581 -43.39 0.0009764761    1.466    0.318
       487  -7.8612     19.5392     21.4739   6.0436173198e+01   7.2064928756e+01    0.1246178    0.1023688 -31.57 2.096102e-05    1.011    0.011
       488  -8.9793     74.2139     19.2038   3.3606291167e+01   6.3532275140e+01    0.3177431     0.207598 -45.41 0.0009328473    1.744    0.427
       489  -8.0136     11.6830     20.3221   6.4740451581e+01   7.3048106788e+01    0.1089014   0.09452662  86.54  0.000472536    1.664    0.399
       490  -8.3435     87.8774     17.3458   2.8437784167e+01   6.0756600881e+01    0.2375177    0.1757616 -37.57 0.0006153085    1.406    0.289
       491  -8.5387     38.8691     18.1682   4.7872289031e+01   7.0153463843e+01    0.1813248    0.1654844 -30.62 0.0005018989    1.206    0.171
       492  -7.9041    112.7348     16.6232   2.2025908755e+01   5.4846710662e+01    0.1886754    0.1339006  77.78 0.0004281936    1.540    0.351
       493  -8.2355     30.4009     16.1482   5.1249978087e+01   7.1701936316e+01    0.1750516    0.1082145 -48.78 0.0009388215    1.754    0.430
       494  -7.5711      7.6703     15.3260   6.4933448199e+01   7.4354204144e+01    0.1067053   0.09310123  83.77 0.0005622842    1.704    0.413
       495  -7.8847     97.2971     14.6850   2.4671336632e+01   5.8854359603e+01    0.1391058    0.1051538 -59.86 0.0002402452    1.606    0.377
       496  -8.3274     16.8473     13.8577   5.8078366185e+01   7.3747742258e+01    0.1520929    0.1378561 -46.37 0.0004983472    1.318    0.241
       497  -8.0178    191.6575    249.3623   6.3209823939e+01  -5.9941799396e-01    0.1456892    0.1163148  50.14 0.0009337082    1.652    0.395
       498  -9.1361    175.5714    247.4216   6.5698878087e+01   1.8113382470e+00    0.2358425    0.2067626  83.06  0.001772235    1.833    0.455
       499  -8.7518    132.4081    248.0096   7.3402419723e+01   7.7455750200e+00    0.2284867    0.1598571  70.96 0.0009402261    1.941    0.485
       500  -8.1328    113.2219    248.3766   7.6911529409e+01   1.0339907098e+01    0.1735589    0.1209452  78.43  0.001151423    1.846    0.458
       501  -8.2520     93.7179    248.9525   8.0503707630e+01   1.2870105865e+01    0.2166829    0.1131464  73.63  0.001138593    2.863    0.651
       502  -9.1654    243.0135    245.8063   5.4499058328e+01  -6.7376337033e+00    0.3455174    0.1525813 -19.13  0.002039102    2.491    0.599
       503  -8.6533    218.5414    247.4067   5.8539434626e+01  -3.8931104199e+00    0.2159183    0.0958542 -30.26  0.001282524    2.507    0.601
       504  -8.5430    156.1570    247.9227   6.9151657975e+01   4.4417675413e+00    0.1617658    0.1270515  48.76 0.0006160651    1.313    0.238
       505  -8.9940    103.8866    246.7750   7.8462249821e+01   1.1847497865e+01    0.3104334    0.1755247 -84.72  0.001754343    2.777    0.640
       506  -9.9745    223.9397    243.8880   5.7185272532e+01  -4.2143492945e+00    0.3623642     0.205127 -41.00  0.002325917    2.486    0.598
       507  -9.1956    210.9366    246.1387   5.9591223577e+01  -2.7851104263e+00    0.1969537    0.1463088 -42.07 0.0007823099    1.960    0.490
       508 -10.0134    147.0907    244.8356   7.0407689442e+01   6.1253338794e+00    0.2876253       0.2186 -20.92  0.001273659    1.723    0.420
