#   1 NUMBER                 Running object number                                     
#   2 MAG_AUTO               Kron-like elliptical aperture magnitude                    [mag]
#   3 X_IMAGE                Object position along x                                    [pixel]
#   4 Y_IMAGE                Object position along y                                    [pixel]
#   5 X_WORLD                Barycenter position along world x axis                     [deg]
#   6 Y_WORLD                Barycenter position along world y axis                     [deg]
#   7 A_WORLD                Profile RMS along major axis (world units)                 [deg]
#   8 B_WORLD                Profile RMS along minor axis (world units)                 [deg]
#   9 THETA_WORLD            Position angle (CCW/world-x)                               [deg]
#  10 FWHM_WORLD             FWHM assuming a gaussian core                              [deg]
#  11 ELONGATION             A_IMAGE/B_IMAGE                                           
#  12 ELLIPTICITY            1 - B_IMAGE/A_IMAGE                                       
         1 -10.8055     31.9582     64.5095   9.7927342577e+01   6.0921233504e+01     2.515952    0.5673712 -38.60  0.006466166    6.770    0.852
         2  -9.0912     41.0573     19.8285   7.6948003336e+01   6.7993379215e+01    0.4331643    0.1679806 -32.48  0.001252742    2.457    0.593
         3 -11.3058     23.7507     32.3152   9.0911108607e+01   6.7967368153e+01     1.942878    0.5144932 -36.95  0.007135416    3.763    0.734
         4 -10.2867     10.5017     18.6784   9.2370773077e+01   7.1418201276e+01     1.067873    0.3918374 -18.81  0.003506474    5.988    0.833
         5 -10.9756      4.6827      6.7068   9.0316973606e+01   7.3764518240e+01     1.033669    0.3851649 -36.57  0.004098117    2.116    0.527
         6 -10.7509     37.0807      9.2635   7.3618000307e+01   6.9943016339e+01    0.8534552    0.3162507 -38.48  0.002467927    2.895    0.655
         7 -10.4037     26.7847     11.2865   7.9879743089e+01   7.0980999529e+01    0.8016225    0.3731766  30.83  0.003286058    2.118    0.528
         8 -10.2174     18.2386      5.3921   8.1524262949e+01   7.2732863560e+01    0.5909104    0.3575221 -43.49  0.002819367    1.985    0.496
         9 -10.4581     45.5165     29.0878   7.9107595938e+01   6.6015750137e+01    0.4724703    0.4449481  -3.66  0.003180141    1.352    0.260
        10 -10.6840      6.9972     30.2512   9.8834276871e+01   6.9627983482e+01    0.6720703    0.3382591 -48.02  0.003266567    1.561    0.359
        11 -10.7774     37.1495     39.3732   8.7201755598e+01   6.5341124296e+01    0.7589474    0.4676803 -42.30   0.00142846    1.474    0.321
        12  -8.6458     71.9191      8.5509   5.9116377432e+01   6.4238154592e+01    0.2793653    0.1734439 -10.97 0.0009417289    1.670    0.401
        13 -10.3334     69.4822     40.6367   7.4041900052e+01   6.0544348125e+01     1.266105    0.3755614 -37.72  0.004357762    3.305    0.697
        14 -10.3743     73.6366     17.5633   6.2655431586e+01   6.2956138529e+01     1.262162    0.4105508 -22.06  0.004483457    4.048    0.753
        15  -9.5489     77.9453      4.0968   5.5150263206e+01   6.3465976394e+01    0.4826726    0.2940276  -9.37  0.001935603    1.748    0.428
        16 -10.6062     51.2484     15.1037   7.0105572798e+01   6.7131815634e+01    0.9548997    0.4934309  16.43  0.004502486    2.438    0.590
        17  -9.8938     63.2185     20.9990   6.8019588866e+01   6.4424000174e+01    0.5255686     0.331263 -47.63  0.002009871    2.331    0.571
        18 -10.0984     64.6195     13.3596   6.3941551973e+01   6.5088732494e+01    0.3990147    0.2531663 -21.62  0.001719885    1.566    0.361
        19  -9.3897     91.4674     26.2276   6.0624652347e+01   5.8399964256e+01    0.6242537    0.2352079 -37.76  0.002500338    2.927    0.658
        20 -10.5075    154.2359     26.9429   4.6615365092e+01   4.3731742004e+01     0.545063    0.3969606  -1.90  0.002846805    1.752    0.429
        21  -9.1892    128.3958     25.9248   5.1154303097e+01   5.0132843279e+01    0.4355331    0.2464514 -17.20   0.00201865    2.106    0.525
        22 -10.2655    132.5989     14.9558   4.6533164128e+01   5.0267389960e+01    0.8018275    0.4225284 -13.63  0.003687111    2.383    0.580
        23  -9.5885    103.2458     20.0871   5.4865645294e+01   5.6571994177e+01    0.7590972    0.3303608 -16.15  0.001537301    2.976    0.664
        24  -8.8652    119.4613     17.0512   4.9891060770e+01   5.3184433761e+01    0.4532923    0.2332794  21.65  0.001842624    2.907    0.656
        25  -9.4647    141.2584     12.6892   4.4257095043e+01   4.8386645345e+01    0.3301001    0.2228193  -4.69  0.001720771    1.853    0.460
        26  -8.3186    136.5034      1.4996   4.1352123935e+01   5.0494224273e+01    0.2361087    0.1157908  71.67  0.001105089    1.875    0.467
        27  -9.0523     96.5148     12.9702   5.3762104795e+01   5.8771587383e+01    0.3721516    0.1974498  23.04  0.001689775    2.319    0.569
        28  -8.8424    115.3878      4.2276   4.6011915552e+01   5.5283413266e+01    0.2762249    0.2069297 -41.95 0.0007078731    1.575    0.365
        29  -9.2615    113.9678     10.1613   4.8518382750e+01   5.5111657777e+01    0.4395228    0.1919803  39.16 0.0002964045    2.335    0.572
        30  -9.6185     85.2624     13.0918   5.6957804890e+01   6.1138405209e+01     0.401262    0.2610108 -53.80  0.001747905    2.457    0.593
        31  -8.6416    125.0694     13.0112   4.7288964139e+01   5.2250703361e+01    0.2706246    0.2361091 -31.07   0.00064234    1.287    0.223
        32  -9.0706    126.4967      8.9681   4.5591586334e+01   5.2275595229e+01    0.2661675    0.2371337  55.55 0.0007126857    1.024    0.023
        33  -9.5867    125.6190      5.1577   4.4414639172e+01   5.2805377149e+01    0.3465951    0.2382402  27.85  0.001178878    1.578    0.366
        34  -7.7280     80.4229     12.6966   5.8257093820e+01   6.2159566344e+01    0.2251659    0.1132845 -30.55  0.001110194    2.116    0.527
        35  -7.9120    156.0000      9.4213   4.0978735970e+01   4.5090193637e+01    0.2583471   0.07604419 -23.46  0.000836393    3.856    0.741
        36  -9.5578    132.4012      5.3780   4.3310135807e+01   5.1168958885e+01    0.4300955    0.2427903  45.80  0.002195469    1.642    0.391
        37 -10.0197     63.1111      3.0607   5.9520224481e+01   6.6410143608e+01    0.3993609    0.2989664  47.18  0.001608099    1.360    0.265
        38  -9.3728    110.2774      5.2174   4.7431737754e+01   5.6382531135e+01    0.4794051    0.2500002 -21.90  0.002400382    2.125    0.530
        39  -9.1364    101.9652      8.0743   5.0414978976e+01   5.8021217451e+01     0.246881    0.2187396  71.86 0.0008632695    1.261    0.207
        40  -8.4926    104.2285      2.5782   4.7712900524e+01   5.7966863217e+01     0.385464    0.1734416  30.13  0.001620867    2.645    0.622
        41  -8.5789     97.6123      6.1423   5.0684804332e+01   5.9149706892e+01    0.2607494    0.1688367  16.17 0.0006706646    1.684    0.406
        42  -8.4356     95.9917      3.0275   4.9798446503e+01   5.9760580647e+01     0.255528    0.1919574  37.31 0.0007661326    1.146    0.127
        43  -8.5840     84.7758      6.8183   5.4366246469e+01   6.1832976924e+01    0.4230223    0.1647369  33.38  0.001698524    2.911    0.656
        44  -8.7198     89.0732      3.7318   5.1847117029e+01   6.1195613388e+01    0.3676061    0.2262207 -34.24  0.001266192    1.902    0.474
        45  -7.9833    153.9663      5.3140   4.0019033220e+01   4.5950289240e+01    0.2187055   0.09380041 -85.99 0.0007046991    4.326    0.769
        46  -7.6636    143.4018      5.1283   4.1476092233e+01   4.8535014978e+01    0.1734522    0.1109126 -42.51 0.0006013055    1.738    0.425
        47  -7.4656    150.7358      1.9990   3.9449792176e+01   4.7012736616e+01    0.1476981     0.114457 -22.30 0.0006887433    1.494    0.331
        48  -9.8536    140.7385    118.5268   7.6887354654e+01   3.1103531718e+01    0.5896367     0.403596 -64.23  0.001510837    1.848    0.459
        49  -7.0310    249.3228    250.6509   8.0974936616e+01  -1.1319663021e+01    0.0941029    0.0877469  17.20 0.0007048993    1.746    0.427
        50  -8.8695    239.1298    249.9585   8.2627025909e+01  -9.9813417144e+00    0.1941379    0.1318749  20.03 0.0005060742    1.201    0.168
        51  -9.0278    218.3466    249.6826   8.6304568014e+01  -7.2320042147e+00    0.2051185    0.1627477  37.67  0.001393856    1.524    0.344
        52  -9.6659    200.3727    250.1667   8.9718589187e+01  -4.8049060694e+00    0.3589928    0.1124727  38.40  0.001531183    2.769    0.639
        53 -10.0815    186.8072    246.3427   9.1737454429e+01  -2.3049731138e+00    0.2596812     0.196841  45.92  0.001633093    1.506    0.336
        54  -9.2634    178.2650    249.2640   9.3822893305e+01  -1.4685321109e+00     0.198567    0.1516446 -28.22  0.001282493    1.471    0.320
        55 -10.3017    169.3490    249.5271   9.5601860285e+01  -1.8093404282e-01    0.4051425    0.2720276 -61.50  0.002301678    2.303    0.566
        56  -9.9290    138.7726     92.8270   7.0329034187e+01   3.6979314214e+01    0.7103724    0.4158893 -38.51  0.002210517    1.709    0.415
        57 -10.4978    132.0109    119.8591   7.9517481158e+01   3.2653808255e+01    0.9096196    0.6550747  85.20  0.002505549    2.181    0.542
        58 -10.3724    139.6292    104.2103   7.3335450704e+01   3.4436537064e+01     1.173681     0.378834 -47.91  0.002255501    3.362    0.703
        59 -10.3491    117.0125    125.2111   8.4964271150e+01   3.4444822064e+01    0.8809938    0.5874612 -88.37  0.001744293    2.687    0.628
        60 -10.0653    108.9055    114.6578   8.4638909176e+01   3.8467620286e+01    0.7931476    0.5271505  79.87  0.002976683    2.757    0.637
        61 -10.8805    133.5567    109.6137   7.6404602947e+01   3.4598735477e+01     1.515667    0.5898417 -50.96  0.004845055    2.903    0.656
        62 -10.7275    123.4779     91.4105   7.4001107020e+01   4.0643996295e+01     1.105257    0.6797209 -33.63  0.003192488    1.716    0.417
        63  -9.5359    108.9911    105.9693   8.2319130828e+01   4.0447331565e+01    0.5554126    0.5453042  47.58  0.002670837    1.073    0.068
        64 -10.2833    127.5814    102.5578   7.6074761772e+01   3.7408470654e+01    0.7196044     0.581704  41.48  0.002225792    1.256    0.204
        65 -11.1999    120.6422    110.6937   8.0229059703e+01   3.7062579803e+01      1.67718    0.8364763 -57.65  0.005891141    2.537    0.606
        66  -8.6481    112.2984    133.9590   8.8352057531e+01   3.3269791746e+01    0.3497781    0.2673362  88.40  0.001137147    1.730    0.422
        67 -10.3341    108.8007     99.6199   8.0619765837e+01   4.1907248531e+01    0.9603402    0.5402868  63.28  0.003299976    3.177    0.685
        68  -7.9964    112.9058    127.7503   8.6731115869e+01   3.4632470287e+01    0.3073643    0.2099916 -80.45  0.001240941    2.186    0.543
        69  -9.8662     42.0085    122.9398   1.0716409189e+02   4.6254505308e+01    0.6756819    0.3495229  87.64  0.002593144    3.095    0.677
        70  -9.9031     27.3254    122.7894   1.1167233830e+02   4.7643493921e+01    0.5420899    0.2977798  69.45  0.002039208    2.462    0.594
        71  -8.1873    157.9632    121.9666   7.3509868530e+01   2.6617540859e+01    0.2476985    0.1972947 -84.37 0.0009225726    1.674    0.403
        72  -8.9641     93.6524    102.9302   8.6183265398e+01   4.3984037798e+01    0.7302662    0.4138438  22.70  0.002873413    2.357    0.576
        73  -8.8058     99.6910    118.6370   8.8362084506e+01   3.9227547220e+01    0.5016874    0.3386051  -1.16  0.002021687    2.367    0.577
        74 -10.2626     92.0485    113.0142   8.9293702407e+01   4.1899557075e+01    0.6595804    0.5203246  73.66  0.001583303    1.627    0.385
        75  -8.6324      1.6067    116.7792   1.1867623541e+02   5.0835586620e+01    0.3408935    0.1317845 -83.43  0.001246194    2.545    0.607
        76  -8.7157    152.9814    115.9133   7.3144666068e+01   2.8999612758e+01    0.2504363    0.1969448 -83.13 0.0009177951    1.708    0.415
        77 -10.3305     78.3410    113.1280   9.3623124947e+01   4.4085640420e+01    0.5993617    0.3724037 -78.24  0.001775378    2.361    0.576
        78  -9.5725     81.1271    101.0524   8.9712248666e+01   4.6523261807e+01    0.6416822     0.379551 -39.78  0.001392415    1.681    0.405
        79  -8.3892     81.6929     94.3490   8.7716251071e+01   4.7975691373e+01     0.410928    0.2551247   0.66  0.001599189    2.713    0.631
        80  -7.8563     21.4465    115.9404   1.1248674862e+02   4.9786093461e+01    0.1787124   0.09764342  82.52 0.0003854794    2.354    0.575
        81  -7.6342    167.3792    114.1440   6.9312732023e+01   2.6156657662e+01    0.2249389    0.1407355 -51.43 0.0006787925    1.705    0.414
        82  -8.7238     64.7544     85.9234   9.1237613628e+01   5.2440352162e+01    0.6429363    0.3571931  -5.95  0.002266901    3.658    0.727
        83 -10.5662     62.9795     95.7111   9.4472996539e+01   5.0435063748e+01    0.8977746    0.5472804 -85.71  0.002122463    3.203    0.688
        84 -10.4040     65.5026    110.4878   9.7161388755e+01   4.6566769086e+01    0.8919096    0.5568089 -67.81   0.00140681    1.710    0.415
        85  -8.9922     59.0215    109.2956   9.9031724553e+01   4.7698392979e+01    0.5030594     0.250026 -69.30  0.001325819    2.372    0.578
        86 -11.1395     21.6598    102.2726   1.1025536717e+02   5.3085394982e+01     1.620707    0.8240278  67.82   0.00661363    3.403    0.706
        87  -9.5009     39.1590     55.4376   9.2060258807e+01   6.2081802136e+01    0.9250126    0.2341973 -45.17  0.003355076    3.187    0.686
        88  -9.0855     44.1620     54.0438   8.9439213145e+01   6.1794871315e+01    0.3584654    0.1927112 -31.89 0.0007788189    1.800    0.444
        89 -10.6929     25.7412     77.8774   1.0390463983e+02   5.8500180932e+01    0.7865972    0.4903667 -83.23  0.003938529    2.172    0.540
        90  -9.8209    156.0852    248.8829   9.8130599119e+01   1.9114745083e+00    0.4577151    0.2177167  55.41  0.001858207    3.524    0.716
        91 -10.5807     55.0864     70.9741   9.0479159679e+01   5.7002956019e+01    0.6154133    0.3653941  50.01  0.001208011    2.419    0.587
        92 -10.2827     49.9119     53.7672   8.6910517317e+01   6.1144266588e+01      0.83958    0.3224043 -49.52  0.003274439    2.550    0.608
        93  -9.3288     56.5208     43.1340   8.0181974734e+01   6.2174702125e+01     0.728134    0.5321266  -4.03  0.004165092    1.353    0.261
        94  -9.5072     55.2036     63.3461   8.8012143983e+01   5.8568618865e+01    0.4677756    0.2945413  12.94  0.001576367    1.841    0.457
        95 -10.0437     62.5388     60.7935   8.4265784726e+01   5.8055696421e+01    0.6667489    0.2433365  33.76  0.001339904    2.889    0.654
        96 -10.3438     34.5523     90.5980   1.0344059241e+02   5.4820680213e+01    0.7749839    0.3458453 -75.89  0.002841033    3.423    0.708
        97 -10.3533     36.6624     81.3030   1.0048911508e+02   5.6777270417e+01     1.350871    0.5994745 -13.22  0.003996706    6.080    0.836
        98  -8.7251     13.8361    105.3642   1.1336098501e+02   5.2871870092e+01    0.2403606    0.1903364 -30.68 0.0009200859    1.377    0.274
        99  -8.7390    158.8732    111.8304   7.0662895829e+01   2.8542357780e+01    0.2739117    0.2161625 -38.16 0.0003732661    1.246    0.197
       100  -8.4728    149.6784    110.0605   7.2400770041e+01   3.0970333971e+01    0.3129231    0.1372935 -48.99 0.0007718898    2.437    0.590
       101 -10.8447     44.8158    102.2250   1.0230585923e+02   5.1048557633e+01    0.8640243    0.4936826  79.03  0.003094259    3.458    0.711
       102  -8.5935     40.0147    106.9546   1.0490278983e+02   5.0389104655e+01    0.2081924    0.1777187 -62.67 0.0004890474    1.050    0.047
       103  -8.6941    150.4821     89.0273   6.6339342842e+01   3.5040213300e+01    0.4968267    0.2444242 -32.86  0.001455487    2.234    0.552
       104  -9.4568    149.3799    103.2460   7.0620445182e+01   3.2456417349e+01    0.4269089    0.2863622 -55.25 0.0009773304    1.671    0.401
       105  -9.2125    149.9352     96.4796   6.8598248636e+01   3.3703156952e+01    0.4606723    0.4005553 -66.93  0.002305826    1.278    0.218
       106  -9.7873      6.5079    103.8271   1.1553768210e+02   5.3668300761e+01    0.4112277    0.2520023  74.99  0.001529619    1.945    0.486
       107  -8.3275    166.1536    103.8920   6.6876657454e+01   2.8497321681e+01    0.3002451    0.2013945 -52.55 0.0004963106    1.599    0.375
       108  -8.0935     73.6529    102.6252   9.2588296221e+01   4.7303358264e+01    0.2724002    0.1713337 -56.60  0.000520613    1.526    0.345
       109  -9.3250    246.5080    101.6682   5.2097433097e+01   1.1524775491e+01    0.3609354    0.1780871  54.69  0.001670233    2.343    0.573
       110  -9.1219    159.0063    101.0221   6.7719584558e+01   3.0710599370e+01    0.4489832     0.209823 -41.16 0.0005174404    2.096    0.523
       111 -10.2531    242.0000     95.9854   5.1444700085e+01   1.3319278078e+01    0.5375773    0.1497406 -39.72  0.001891789    2.963    0.662
       112  -9.5716    109.7947     63.9454   6.9216890535e+01   4.8876654817e+01    0.5361992    0.2833695 -45.53  0.002194082    2.048    0.512
       113  -8.7432    111.0296     58.1179   6.6859043082e+01   4.9616955299e+01    0.3371201    0.2728895   1.25 0.0008293118    1.345    0.257
       114  -9.4597     94.3708     97.2502   8.4397536933e+01   4.5150208726e+01    0.3491125    0.2928961 -73.74 0.0007603866    1.425    0.298
       115  -8.7604     96.2514     90.8566   8.1967032215e+01   4.6225536941e+01    0.6232037    0.3765988  -8.43  0.002164061    3.277    0.695
       116  -9.6332    105.2691     71.3039   7.3035980761e+01   4.8470523516e+01    0.8968994    0.4557138 -30.68  0.003516615    2.238    0.553
       117 -10.2747     99.9310     85.5526   7.9217284473e+01   4.6670864868e+01    0.2626046    0.2353796 -38.62 0.0001933583    1.091    0.084
       118 -10.3765    104.0186     82.7403   7.7079488206e+01   4.6459865177e+01    0.5746248    0.3400935 -54.76 0.0009352972    1.993    0.498
       119 -10.1379      4.3291     89.3426   1.1414512828e+02   5.7192785622e+01    0.6045951    0.2910137  88.82  0.002511755    2.784    0.641
       120  -9.4167      6.2854     78.6116   1.1160048496e+02   5.9569273763e+01    0.4963062    0.2054527 -34.34   0.00233482    2.485    0.598
       121  -7.9777    249.6738     92.6759   4.9684057366e+01   1.2353971100e+01    0.1284894    0.1016349   1.10  0.000533323    1.691    0.409
       122  -8.9201    157.5904     90.8070   6.5195411513e+01   3.3037732735e+01    0.4786011    0.2464024 -28.50  0.001750539    2.379    0.580
       123 -10.2435     47.8836     84.4688   9.7037631846e+01   5.4892793675e+01      0.64974    0.4020171 -65.42  0.002147233    1.740    0.425
       124  -7.4720    174.6015     88.2104   6.0804683692e+01   2.9515338727e+01    0.2075952    0.1453735 -27.89 0.0009315244    1.534    0.348
       125 -10.2447     85.4600     86.6623   8.4252682656e+01   4.9059333059e+01    0.5062895    0.3847932  60.71 0.0009401076    1.721    0.419
       126  -9.8332     87.3928     78.8443   8.1219029161e+01   5.0388531893e+01    0.7823599    0.4585049  12.39  0.002972892    2.816    0.645
       127  -8.9501    195.9359     85.8973   5.6153825589e+01   2.4931929104e+01     0.338058    0.2282221 -28.58 0.0008962782    1.565    0.361
       128  -8.1257    163.5833     86.2906   6.2582473271e+01   3.2475207945e+01     0.414407    0.2221067 -24.96  0.001268418    2.449    0.592
       129  -9.9278     14.1715    111.0824   1.1408454732e+02   5.1472529986e+01    0.5025592    0.2623565  83.98  0.001914457    2.426    0.588
       130  -7.7926    116.5161     85.0016   7.4047148352e+01   4.3440023770e+01    0.2342171    0.1483788 -41.73  0.000888752    1.559    0.359
       131  -8.8010    157.6992     83.0905   6.2960903521e+01   3.4460175155e+01    0.4349953    0.2528779 -36.27    0.0013628    1.731    0.422
       132  -9.2264    140.4404     82.2647   6.6786790353e+01   3.8664396580e+01    0.5536217    0.2871777 -35.98  0.001368403    1.975    0.494
       133  -9.1204    139.8520     74.8131   6.4664741117e+01   4.0180859156e+01     0.635567    0.2511878 -45.81  0.001488311    2.767    0.639
       134  -9.4151    138.2822     66.5297   6.2461441028e+01   4.2004488694e+01    0.3820217    0.2607499 -45.74 0.0006153809    1.544    0.352
       135  -8.5815    139.0106     62.0045   6.0849653965e+01   4.2589455497e+01    0.3525785    0.2236192  33.09  0.001140451    1.830    0.454
       136  -7.4366    170.6795     83.3352   6.0253858881e+01   3.1327007609e+01    0.1586783    0.1176343 -72.47  0.000704978    1.704    0.413
       137  -8.3819    149.9310     81.0692   6.4142094735e+01   3.6670580463e+01     0.346696    0.1999908 -50.13  0.000753695    1.915    0.478
       138  -9.2325     74.3419     79.0296   8.5789756736e+01   5.2532753683e+01    0.7232471    0.2953182 -48.31  0.001756242    2.303    0.566
       139  -8.1688     63.6406     81.5290   9.0393816433e+01   5.3574256480e+01    0.2486382    0.1229177 -50.56 0.0007075439    1.851    0.460
       140  -8.8253    118.9094     80.5776   7.1996169353e+01   4.3812367194e+01    0.3395592    0.2506491 -46.43  0.000623696    1.393    0.282
       141  -8.5423    120.1494     75.9187   7.0180277047e+01   4.4442836460e+01    0.2800982    0.2424787  28.72 0.0006730088    1.160    0.138
       142  -8.6919    164.4548     94.1298   6.4588056205e+01   3.0794703887e+01    0.3338279    0.2515523 -44.55 0.0008010906    1.312    0.238
       143  -7.8728     69.2955     79.1412   8.7632604846e+01   5.3281388249e+01    0.2964171    0.1060432 -43.63  0.001068201    2.600    0.615
       144  -7.5683    166.5242     78.7206   5.9806021536e+01   3.3140280851e+01    0.2062593    0.1390934 -49.44 0.0006758788    1.541    0.351
       145  -7.8947    184.1952     78.1728   5.6206984485e+01   2.9009391776e+01    0.2145109    0.2027048   2.27 0.0006268098    1.167    0.143
       146  -8.6994    156.8814     76.1744   6.1123483060e+01   3.5901321181e+01     0.390641    0.2136601 -53.20  0.001518135    2.210    0.548
       147  -7.1742     58.3142     77.2740   9.1132118774e+01   5.5228329196e+01    0.1402519   0.09799524 -20.07 0.0002200975    1.560    0.359
       148  -9.3533    127.3620     75.1980   6.7981292015e+01   4.2977994704e+01    0.3737143    0.2913866 -63.34 0.0009068027    1.573    0.364
       149  -8.8096    130.0970     68.6405   6.5177907373e+01   4.3543436974e+01    0.6028302    0.2995095  28.82  0.001951174    3.445    0.710
       150  -8.0712    130.3055     64.6829   6.3847948774e+01   4.4181523139e+01    0.3676044    0.1629988 -32.31  0.001235242    2.437    0.590
       151  -9.8408     81.5512     72.3009   8.1124504297e+01   5.2748189455e+01    0.5396448    0.3210452 -57.40 0.0009902503    2.134    0.531
       152  -8.9413     83.5246     64.7392   7.7905927108e+01   5.3888031317e+01    0.5900614    0.3857571  -2.01  0.002399998    2.132    0.531
       153  -8.7402    171.0432     74.5802   5.7712900951e+01   3.2771249338e+01     0.225597    0.1443235  55.52 0.0003612812    1.563    0.360
       154  -9.1057    201.2082    246.3840   8.8984885134e+01  -4.4045506368e+00    0.1766723   0.09688171  40.05  0.000960149    1.750    0.428
       155 -10.1100    174.4328    245.1129   9.3973769783e+01  -2.7710522675e-01    0.3965561    0.1171911  32.84  0.001476687    3.247    0.692
       156  -8.3921    209.9435    239.1748   8.6200365362e+01  -4.6535161302e+00    0.1840558    0.1520145  -2.76 0.0004040722    1.124    0.110
       157  -8.6951     97.9587    244.3293   1.0923832413e+02   1.1326730543e+01    0.1919111    0.1508944  70.91 0.0005685071    1.268    0.212
       158 -10.6843     16.5080     66.8076   1.0501935859e+02   6.1628614610e+01     1.473217    0.3203062 -59.36  0.005152492    3.264    0.694
       159 -10.9079     21.8554     53.3591   9.9071545715e+01   6.4102861717e+01    0.8287099    0.5378144  85.89   0.00318869    3.417    0.707
       160  -8.0088    158.6659    236.3311   9.5862952721e+01   3.5397878358e+00    0.1266982   0.09421968  60.96 0.0007052175    1.728    0.421
       161  -8.9068    188.0846    234.1678   8.9618230695e+01  -6.8105068086e-01    0.2032242    0.1965187 -31.34   0.00125376    1.352    0.260
       162  -8.4926    248.0464    233.2882   7.8328767454e+01  -9.0501546852e+00    0.1619689    0.1229548   5.86 0.0004232889    1.055    0.052
       163  -8.8490    208.5743    221.6467   8.3539402087e+01  -1.8975944106e+00    0.2372391    0.2242364 -65.43 0.0009327633    1.601    0.375
       164 -10.4040    228.3574    215.2420   7.8684693428e+01  -3.8947342265e+00    0.2181072    0.1835901  11.20 0.0002427516    1.134    0.118
       165 -10.2543     12.0705     45.6554   1.0130607333e+02   6.6350433179e+01    0.8786244     0.394387   0.53  0.003846186    2.812    0.644
       166  -9.9940      5.0323     41.9179   1.0360480500e+02   6.7502919970e+01    0.4694898    0.2739551 -60.19  0.001705472    1.577    0.366
       167  -8.8042    197.9901    211.4943   8.3835457746e+01   1.3654835232e+00    0.2217385    0.1821818 -26.61 -5.575262e-05    1.239    0.193
       168  -8.1495    162.7235     72.9289   5.8924537311e+01   3.5060298199e+01    0.2776817    0.1885656 -53.48 0.0007866735    1.615    0.381
       169  -8.9495    115.2880     71.9061   7.0267298072e+01   4.6252436040e+01    0.5218966    0.2539673 -33.35  0.001550668    2.205    0.547
       170  -7.7867    169.3887     71.2406   5.7087326905e+01   3.3734725271e+01    0.2049311    0.1344381 -46.45  0.000342316    1.546    0.353
       171  -9.3975    146.9850     69.2870   6.1272056886e+01   3.9468148328e+01    0.4508089    0.2750747 -55.19 0.0008569208    2.013    0.503
       172  -9.4659    149.7777     47.0451   5.3734945919e+01   4.2271110853e+01    0.7587865    0.1898316 -34.97  0.002359615    3.789    0.736
       173  -9.1879    146.8716     60.4082   5.8546698026e+01   4.0966406210e+01    0.5961763    0.2468395 -41.91  0.001535886    2.488    0.598
       174  -8.3170    147.8251     53.5369   5.6183771921e+01   4.1801330837e+01    0.4144603    0.1831795 -28.12  0.001549694    2.586    0.613
       175  -8.4248    156.5948     69.5768   5.9229483844e+01   3.7110030522e+01    0.3450111    0.1504222 -30.93  0.001233732    2.561    0.609
       176  -9.7331     94.7916     68.3818   7.5362432978e+01   5.1106644417e+01    0.4264737    0.2709306 -47.08 0.0008135049    1.659    0.397
       177  -9.4075     97.1466     58.6611   7.1247673374e+01   5.2419479849e+01    0.7684026     0.464173 -10.59  0.003122646    2.481    0.597
       178  -8.3669    122.1001     61.4235   6.4915033805e+01   4.6610163457e+01    0.3938285    0.2088846  33.92  0.001230062    2.257    0.557
       179  -9.4503     48.5583     77.3276   9.4864899252e+01   5.6421555586e+01    0.6108389    0.3576483  -6.51  0.002555753    2.445    0.591
       180  -8.2715    170.7853     64.7739   5.4962140870e+01   3.4453471703e+01    0.2039399    0.1674465 -70.03 0.0004655619    1.329    0.247
       181  -8.3066    157.2702     62.9491   5.7099897475e+01   3.8038629972e+01    0.2687362    0.2266274 -62.68 0.0007100862    1.283    0.221
       182  -8.5141    164.4805     60.7069   5.4986167665e+01   3.6634962710e+01    0.3341666    0.1493945 -30.60  0.001110182    2.430    0.589
       183  -9.9098     73.1631     59.3088   7.9718813965e+01   5.6689259976e+01    0.4652058      0.28535 -52.80 0.0008918274    1.947    0.486
       184  -9.6203     75.1595     50.8300   7.5889174821e+01   5.7882437207e+01    0.6315168    0.3690602  -6.95  0.002591127    2.686    0.628
       185  -7.5028    152.5044     59.9863   5.7196724555e+01   3.9669560954e+01    0.2209964    0.1457685 -34.70 0.0007070192    1.552    0.356
       186  -8.6710    130.0085     57.9998   6.1733673483e+01   4.5358850893e+01    0.2819501    0.2283232 -66.71 0.0005067693    1.521    0.342
       187  -8.6623     87.7194     58.6263   7.4325832090e+01   5.4251659303e+01    0.2600477    0.2143976 -51.40 0.0008113497    1.418    0.295
       188  -9.2931    138.8345     55.5349   5.8811688568e+01   4.3664149468e+01    0.6388505     0.225036 -35.54  0.001574848    2.855    0.650
       189  -8.8310    141.9556     48.3840   5.5798608455e+01   4.3983688050e+01    0.2936843     0.201782 -37.58 0.0004849399    1.512    0.338
       190  -9.4107    118.2582     54.9903   6.3764242664e+01   4.8534303560e+01    0.5380327    0.3185873 -31.33  0.001344864    1.755    0.430
       191  -8.9362    121.0698     46.8695   6.0207858190e+01   4.9141871017e+01    0.3218209    0.2324792 -36.23 0.0004856134    1.449    0.310
       192  -7.3322    169.2715     55.6691   5.2610224528e+01   3.6231998661e+01     0.148142    0.1075294 -65.65 0.0002282757    1.588    0.370
       193  -8.6641    162.4503     52.9089   5.3060449500e+01   3.8316094586e+01    0.4670987    0.2512137 -23.79  0.001705383    2.241    0.554
       194  -7.6312    162.4891     46.4949   5.1133579697e+01   3.9224026486e+01     0.203316    0.1293503 -45.45 -5.280642e-05    1.636    0.389
       195  -8.5404    105.6830     52.2789   6.6356440557e+01   5.1724790647e+01    0.5261125    0.2758078 -31.05  0.001854801    1.993    0.498
       196  -7.6927    152.7635     53.5911   5.5171216241e+01   4.0589711101e+01    0.1950344    0.1382239  71.18 0.0003732005    1.526    0.345
       197  -9.1025    121.1513     65.9202   6.6664465627e+01   4.6049096559e+01    0.4090373    0.2725509 -55.56  0.001071739    1.875    0.467
       198  -7.7490    172.4585     50.0781   5.0428340574e+01   3.6265946663e+01    0.2106966    0.1402888 -33.13  0.000430676    1.551    0.355
       199  -8.4955    157.1688     49.0314   5.2895060748e+01   4.0176293634e+01    0.3235593    0.1718158 -48.03  0.001355782    2.094    0.522
       200  -9.8857    130.5298     46.2306   5.7667272481e+01   4.7028146641e+01     1.034462    0.4836696 -18.55    0.0018984    3.214    0.689
       201  -8.5960    136.4648     26.9870   4.9870192324e+01   4.8073828467e+01    0.2684372    0.1920787 -66.17 0.0007379722    1.765    0.433
       202  -8.8282    132.8513     35.8562   5.3619676975e+01   4.7877777771e+01    0.3176193    0.2480156 -45.14 0.0005687933    1.410    0.291
       203 -10.7648    134.0121     30.9936   5.1720825196e+01   4.8198856979e+01    0.2683521    0.2438408  40.17            0    1.057    0.054
       204  -7.3197     89.3458    216.2967   1.0796082433e+02   1.8028825381e+01    0.1218916    0.1024727 -10.23 0.0006307735    1.673    0.402
       205 -10.3728     85.1891     48.0331   7.1286298395e+01   5.6539973245e+01    0.4467741    0.3201232 -57.28 0.0009014696    1.981    0.495
       206 -10.3014     90.5559     38.0701   6.5659025231e+01   5.7018356687e+01     1.159952    0.4083558  34.46  0.003671925    4.052    0.753
       207  -7.2852     56.0000    215.9258   1.1510364860e+02   2.2577983777e+01    0.1984717   0.06527469 -69.78  0.000716563    3.022    0.669
       208  -9.8869     76.1515     32.1343   6.8096084940e+01   6.0635566011e+01    0.5402352    0.3896057  64.28 0.0009259884    2.091    0.522
       209  -9.0306    196.7357    216.0116   8.4881273736e+01   8.3044701430e-01    0.2588075    0.1853547  37.27 0.0004402815    1.360    0.265
       210  -7.4572    119.6464    211.8357   1.0066839688e+02   1.4309126920e+01     0.176734    0.1266515 -74.79 0.0007510834    1.686    0.407
       211  -9.6999     79.3304     24.0158   6.3554571283e+01   6.1102753847e+01    0.4998038    0.2484683  29.90  0.001454329    2.210    0.548
       212  -9.0200     84.7037     21.8981   6.0904966459e+01   6.0296904400e+01    0.2608059    0.2200966  20.83 0.0006538032    1.027    0.027
       213  -8.6060    111.9173     46.9341   6.2659459490e+01   5.1198492687e+01    0.2508916    0.2333579  12.73  0.000429254    1.031    0.030
       214  -7.9500    112.6775     42.6918   6.0921426892e+01   5.1648863028e+01    0.2942602    0.1641008  14.70  0.001060273    3.256    0.693
       215  -8.1922    116.4864     38.5111   5.8409826040e+01   5.1366873194e+01    0.3304465    0.1598696  47.98  0.001415454    1.887    0.470
       216  -8.7414    118.9268     34.4373   5.6330583019e+01   5.1339507813e+01    0.3238116     0.197087 -26.50 0.0007595367    1.758    0.431
       217  -9.4699    153.6954     40.8734   5.1040108300e+01   4.2153064575e+01    0.4739473    0.2522628 -37.96  0.001509111    1.929    0.482
       218  -8.5297    153.0603     34.5124   4.9174906238e+01   4.3123600765e+01    0.3170643    0.2007605 -54.04  0.001337409    1.830    0.453
       219  -8.2451    110.0544     26.4490   5.5582066424e+01   5.4339592846e+01    0.2580525    0.2249366  26.64  0.001397206    1.074    0.069
       220  -9.3594    110.4106     33.2535   5.8049149786e+01   5.3430777184e+01    0.4159019    0.2676812 -41.54  0.001580429    1.758    0.431
       221  -9.0374    104.9320     40.7474   6.2350132247e+01   5.3631194971e+01    0.4013496    0.2226043 -46.02  0.001057349    2.200    0.545
       222  -8.4982    106.0597     36.4704   6.0428207870e+01   5.3975588197e+01    0.3059213    0.2187028  30.15 0.0007417251    1.388    0.279
       223  -9.1137    139.6314     39.8354   5.3502376856e+01   4.5727966724e+01    0.4103587    0.2074537 -39.25   0.00143166    2.078    0.519
       224  -8.1814    122.4797     41.4694   5.7962588719e+01   4.9584289160e+01    0.2238648    0.1620271  20.27 0.0007374883    1.587    0.370
       225  -8.7409    144.1861     36.4281   5.1460323147e+01   4.5061082997e+01     0.249703    0.2123443 -54.90 0.0004499374    1.282    0.220
       226  -9.2583    101.0603     32.5588   6.0336155725e+01   5.5577685083e+01    0.4652263    0.2286063 -28.07  0.001712335    2.145    0.534
       227 -10.1469      9.9695    207.2124   1.2390242505e+02   2.9331607854e+01     0.454495    0.3099176  20.68  0.002943613    2.000    0.500
       228  -9.6448     60.1725     33.2871   7.4651673056e+01   6.3212243089e+01    0.5218142    0.2706928 -40.74  0.001620719    2.012    0.503
       229  -8.3529     62.4008     26.8178   7.0954311654e+01   6.3789728654e+01    0.2876663     0.155095  40.14  0.001315361    1.797    0.444
       230  -6.9740    208.3072    207.3094   8.1043050905e+01   3.9028951806e-01    0.1362842   0.09222134   0.63 0.0003103607    1.615    0.381
       231  -8.2656    198.6316    207.0153   8.2902111815e+01   2.0023262249e+00    0.2321477    0.1709667  23.96 0.0004417923    1.240    0.194
       232  -8.5122    167.9956     33.2839   4.6285158485e+01   3.9589543341e+01    0.1890514    0.1700381  74.29 0.0004823546    1.030    0.029
       233  -7.5567    225.2074    203.2505   7.7070620565e+01  -1.6169137404e+00    0.1564427    0.1461882  11.32 0.0005095981    1.296    0.228
       234  -8.6510     92.0685     20.9406   5.8275434769e+01   5.8891796148e+01    0.3583095    0.1809243  31.76  0.001321892    2.141    0.533
       235 -10.4295    165.8927    201.5753   8.8762560852e+01   8.5171154217e+00    0.2555447      0.24412  -4.36  0.000407145    1.091    0.084
       236  -7.2853     56.7006    201.7234   1.1359304374e+02   2.5573506760e+01    0.1134259   0.09802224 -37.16 0.0002699677    1.536    0.349
       237  -8.5821    118.0066    199.2039   9.9173488949e+01   1.7202748009e+01    0.2035684     0.193799 -68.29 0.0002982027    1.118    0.105
       238  -9.0346    144.0184     25.9429   4.8089886924e+01   4.6353329824e+01    0.2509232    0.1946602 -27.25 0.0008281858    1.408    0.290
       239  -9.1625    192.2289    194.3243   8.1843853203e+01   5.2687254073e+00    0.7586782     0.405222 -62.86  0.002393538    5.268    0.810
       240  -9.4531    118.8444     21.5237   5.1658992568e+01   5.2868074116e+01    0.2987082    0.2832201 -61.66 0.0005545505    1.216    0.178
       241  -8.6673    187.8875    186.6236   8.1259703587e+01   7.4310557814e+00    0.2282363    0.2114736 -26.51 0.0004218233    1.140    0.123
       242  -8.4643    139.8568     18.1360   4.6285127470e+01   4.8198647042e+01     0.196365    0.1749799 -73.75  0.000316916    1.219    0.179
       243  -9.1674     50.3385    190.6761   1.1390938532e+02   2.8838718756e+01    0.2098701    0.1913736 -81.13 0.0004104686    1.159    0.138
       244  -8.0974    111.3011     21.3517   5.3345192174e+01   5.4626308141e+01    0.2811043    0.1904075 -16.70  0.001491875    1.624    0.384
       245  -8.6781    233.3563     17.9345   3.4873787002e+01   2.6084884639e+01    0.2011179    0.1582709  78.70 0.0003745466    1.249    0.200
       246  -7.4391    173.4603    183.9378   8.3827732348e+01   1.0554381992e+01    0.1894932    0.1300839 -71.20 0.0008076162    2.441    0.590
       247  -8.7487     95.8453     16.8076   5.5512853819e+01   5.8533017833e+01    0.2306076    0.2126921 -25.52  0.000408798    1.247    0.198
       248  -7.5617    115.0348    176.0041   9.6080508089e+01   2.2842414879e+01    0.1703174    0.1610288  52.14 0.0004416685    1.024    0.024
       249  -7.4441    100.9654    176.0172   9.9605864436e+01   2.5188426615e+01     0.161175    0.1523117  88.47   0.00091965    1.029    0.029
       250  -8.4292    112.2994     15.5458   5.0914370423e+01   5.4993338685e+01    0.2303574    0.1982249 -45.96 0.0005629609    1.370    0.270
       251  -8.8329     51.9010    175.0373   1.1180369395e+02   3.2320496844e+01    0.1892113    0.1678034 -88.81  0.001179336    1.042    0.040
       252  -7.3651    120.7262    172.3308   9.4001377671e+01   2.2691588377e+01    0.1475151    0.1141382  79.19 0.0003295556    1.592    0.372
       253  -7.8877    245.4247     12.6629   3.2837138151e+01   2.4136327816e+01    0.1390072    0.1086365 -31.84 0.0003944764    1.458    0.314
       254  -7.2759      8.5039    170.4773   1.2179087329e+02   3.7626676657e+01    0.1222666   0.09604555  87.39 0.0001576443    1.012    0.012
       255  -8.1708    230.6547    168.1114   6.9130088990e+01   3.2082869543e+00    0.2699054    0.1117469 -44.06  0.001082749    2.492    0.599
       256  -7.0275    146.3087    157.2198   8.4636796395e+01   2.1322500350e+01    0.1451404    0.1161898   9.13  0.000677923    1.473    0.321
       257  -8.7138    133.6927    146.7721   8.5515408071e+01   2.6161247398e+01    0.6350847    0.1944036 -53.34  0.001799132    3.800    0.737
       258  -7.4297      9.5016     12.4840   9.0169502297e+01   7.2497357995e+01    0.1157605   0.08452455 -19.46 -4.127308e-05    1.008    0.008
       259  -7.4633    195.3212     10.6780   3.6639934545e+01   3.5469895686e+01    0.1371411   0.08304272 -65.85 0.0007045316    1.674    0.403
       260  -9.4532    238.6630    145.5775   6.2967751491e+01   5.6369723632e+00    0.2528895    0.1928175  11.44  0.001390837    1.485    0.326
       261  -9.6366     66.4973    143.6337   1.0339819479e+02   3.8212103044e+01     0.515735    0.3977592  89.16  0.002181838    1.378    0.274
       262 -10.2284     58.1769    124.4484   1.0240655799e+02   4.4067160321e+01    0.6478489     0.387366  86.45  0.002026745    2.520    0.603
       263 -10.5046     66.2217    129.4714   1.0090135837e+02   4.1785873977e+01    0.9308504    0.5033455 -55.58  0.004177093    1.657    0.396
       264 -10.1852     71.2585    125.8744   9.8648779769e+01   4.1992521366e+01    0.6290339    0.3873554 -77.72  0.001483928    2.020    0.505
       265  -9.7122    192.4433    133.0418   6.8642430918e+01   1.6906618804e+01    0.2886839    0.2476062 -31.92 0.0001719424    1.107    0.097
       266  -7.3921    236.7971    134.6100   6.0883666900e+01   7.8410055773e+00    0.1735233    0.1354463  60.38 0.0009451432    1.625    0.384
       267  -9.0476    135.6226    132.7940   8.1781589685e+01   2.8976786392e+01    0.5865283    0.2505902 -47.16  0.002068301    2.309    0.567
       268  -8.7687    131.7757    131.1643   8.2397088699e+01   3.0132160364e+01      0.38001    0.2638556 -84.60  0.001463132    2.341    0.573
       269  -9.1355     83.3975    131.6786   9.6187908862e+01   3.8764510586e+01    0.6657755    0.4031019  78.12  0.002369421    2.989    0.665
       270  -9.8631     98.6672    128.5567   9.1007362856e+01   3.7022095654e+01    0.6847284    0.4197609  72.70  0.002317551    2.990    0.666
       271  -9.6405    111.2772     89.9934   7.7089146315e+01   4.3493615762e+01     1.974841    0.7769504  28.08  0.004225101    7.695    0.870
