#   1 NUMBER                 Running object number                                     
#   2 MAG_AUTO               Kron-like elliptical aperture magnitude                    [mag]
#   3 X_IMAGE                Object position along x                                    [pixel]
#   4 Y_IMAGE                Object position along y                                    [pixel]
#   5 X_WORLD                Barycenter position along world x axis                     [deg]
#   6 Y_WORLD                Barycenter position along world y axis                     [deg]
#   7 A_WORLD                Profile RMS along major axis (world units)                 [deg]
#   8 B_WORLD                Profile RMS along minor axis (world units)                 [deg]
#   9 THETA_WORLD            Position angle (CCW/world-x)                               [deg]
#  10 FWHM_WORLD             FWHM assuming a gaussian core                              [deg]
#  11 ELONGATION             A_IMAGE/B_IMAGE                                           
#  12 ELLIPTICITY            1 - B_IMAGE/A_IMAGE                                       
         1 -14.9563    165.7217     44.3964   7.4724299084e+01   3.8092239981e+01     1.218326     1.099362   4.67  0.003940065    1.319    0.242
         2 -15.1972    183.7079     11.1181   6.3101757663e+01   3.7568048175e+01     2.293095     1.110328  66.82  0.007313007    1.714    0.416
         3  99.0000    125.1642    240.8801   1.2794979469e+02   7.1506968788e+00    0.6198515    0.1244227 -54.42    0.0019315    5.617    0.822
         4 -20.0072     64.9475    168.8252   1.3128608228e+02   3.2512981186e+01     18.36137      7.51622 -65.81   0.07522179    2.304    0.566
         5  -9.4588    135.2261    198.3027   1.1941483169e+02   1.3852250228e+01    0.1308923    0.1133494 -17.22 0.0002398443    1.469    0.319
         6 -13.6092    141.3978    164.3803   1.1152953747e+02   2.0160051968e+01    0.9797077    0.5411246  69.31  0.002040729    3.580    0.721
         7 -10.7658    151.9500    196.7704   1.1537409342e+02   1.0935688039e+01    0.3210204    0.2228782  40.55 0.0008645102    1.349    0.259
         8 -11.7552    152.1399    191.4537   1.1435279829e+02   1.2013125593e+01    0.5383369    0.4102613 -84.79  0.002417843    1.703    0.413
         9 -13.4661    144.1589    174.9088   1.1301303909e+02   1.7219830840e+01    0.9534447    0.8904631  -0.25  0.005112232    1.215    0.177
        10 -13.6661    137.6631    171.0470   1.1379211978e+02   1.9407618575e+01    0.8516797     0.471355  42.99  0.001801325    1.748    0.428
        11 -12.2168    155.0871    187.5101   1.1293856173e+02   1.2258182583e+01    0.3691318    0.3118823  81.28 0.0008910989    1.359    0.264
        12 -12.0519    151.3542    183.5026   1.1302089235e+02   1.3870225346e+01    0.4050128    0.2875378 -77.85 0.0004904341    1.913    0.477
        13 -10.3777    112.9906    196.3159   1.2414952921e+02   1.8403448600e+01    0.3775285    0.2505239  -6.94  0.001365118    3.865    0.741
        14  99.0000    134.7839    242.9273   1.2629018904e+02   5.1199814689e+00    0.3145678    0.1524887 -45.20 0.0009377099    2.645    0.622
        15  -9.5824    242.2638    184.6498   9.4328146830e+01  -4.1362137524e+00    0.1261632    0.1055215 -61.01 0.0003148296    1.614    0.380
        16 -10.3111    135.4761    179.8524   1.1602840922e+02   1.7855855678e+01    0.2868082     0.198281  45.13 0.0006699361    1.378    0.275
        17 -12.8157    204.3342    175.4382   9.9751089475e+01   4.6518618184e+00    0.4991719    0.4730625  47.85  0.001294266    1.131    0.116
        18 -12.5745    196.6103    175.9513   1.0146245187e+02   6.1196072028e+00    0.6541488    0.4303032 -63.14  0.002155077    2.155    0.536
        19 -12.5761    189.4421    155.5423   9.8542196333e+01   1.1743122054e+01    0.5366461    0.5088879  24.19  0.001506015    1.057    0.054
        20 -12.6098    193.0051    165.2212   9.9924641863e+01   9.0040924810e+00    0.4356265    0.3515125 -43.53 0.0009178367    1.257    0.204
        21 -12.1436    189.9614    160.9902   9.9645593442e+01   1.0512361460e+01    0.3742478    0.3306251  72.67  0.001150004    1.288    0.224
        22  -9.6758    138.6979    242.8930   1.2550042654e+02   4.4465563952e+00    0.1591155    0.1150736 -78.06  0.000380125    1.774    0.436
        23 -10.1946    129.6491    175.3050   1.1655270577e+02   2.0032635619e+01    0.2269806      0.19148 -62.87  0.000687692    1.213    0.176
        24 -12.4326    125.5548    172.3283   1.1697282963e+02   2.1515023401e+01     0.483893    0.4086162  70.25  0.001421231    1.209    0.173
        25 -10.8960    161.4998    239.7182   1.2044428258e+02   9.8722677270e-01    0.3959253    0.2231416  28.24  0.001588492    1.983    0.496
        26 -12.1002    176.9469    169.2632   1.0429322971e+02   1.1580109420e+01    0.3488978    0.2212239 -60.25  0.001454204    1.981    0.495
        27 -11.7346    230.1900    167.0750   9.2902145471e+01   1.1221387742e+00    0.4338193    0.1738671 -51.26  0.001437689    3.567    0.720
        28  -9.9311     11.3002    166.3177   1.4351767089e+02   3.8998107982e+01    0.1162418   0.07640619 -53.13 0.0007021595    1.618    0.382
        29 -12.1261     13.1922    240.1008   1.4870170992e+02   2.3184079137e+01    0.1705761    0.1236896 -82.05   0.00117739    1.317    0.241
        30  -9.0828     13.4278    236.4126   1.4844312035e+02   2.3873883999e+01    0.1969364    0.1207557 -86.63  0.001078662    1.315    0.240
        31 -10.0157      4.7104    162.6376   1.4462295670e+02   4.0359561125e+01    0.1189598   0.07102559 -54.23 0.0003131951    1.696    0.410
        32 -12.2939    166.9193    155.2979   1.0350549555e+02   1.6730224642e+01    0.4398116    0.3161625  75.25  0.001300464    1.903    0.475
        33 -11.8758     21.5363    236.2021   1.4705824370e+02   2.3034057963e+01    0.1759803    0.1232776  84.43  0.001131186    1.104    0.094
        34 -10.8357    131.0860    234.2212   1.2585450132e+02   7.3648535816e+00    0.1572997    0.1258983 -73.74 0.0006239885    1.421    0.296
        35 -11.2298    174.1968    148.7598   1.0035623011e+02   1.6533524253e+01    0.3656022    0.3172493 -81.95  0.001161497    1.323    0.244
        36 -12.3182    152.5055    139.0174   1.0315879602e+02   2.3517869859e+01    0.3750044    0.2737307 -56.64  0.001679398    1.452    0.311
        37 -11.3354      5.8628    138.6933   1.4190770069e+02   4.5686248086e+01    0.2868191    0.2048166  69.57  0.001512309    1.475    0.322
        38 -10.4781     11.5011    137.8360   1.4040026574e+02   4.5475923971e+01    0.2348979    0.1575574  37.51  0.001424052    1.758    0.431
        39 -10.1119    168.0241    134.5167   9.8402401046e+01   2.0996999456e+01    0.2406072    0.1559129  49.88 0.0006333647    1.545    0.353
        40 -12.5035    160.4306    127.8967   9.8554806762e+01   2.4173005860e+01    0.4803872    0.3754261 -60.16  0.001569773    1.383    0.277
        41 -10.6234    141.2019    229.3786   1.2306837523e+02   6.4779153375e+00     0.183289    0.1482702  54.93 0.0004642786    1.118    0.106
        42 -10.5332    127.1685    225.5347   1.2544686028e+02   9.7279390942e+00    0.3097798    0.1648835 -39.28  0.001328143    2.781    0.640
        43 -11.0108     17.3699    223.9214   1.4696560916e+02   2.5943137190e+01     0.157262   0.08659091 -79.35 0.0005633847    1.517    0.341
        44 -10.7577    167.7686    112.7599   9.3016762099e+01   2.5659469845e+01      0.32962    0.2312939 -82.45  0.001321746    2.104    0.525
        45 -11.5918    218.1145    219.7679   1.0571991797e+02  -5.7044404727e+00     0.273746    0.1860764 -52.17  0.001163722    1.992    0.498
        46 -13.4103    101.1283    242.2169   1.3288236190e+02   1.0904311825e+01    0.7531409    0.6399028 -54.90  0.004881244    1.486    0.327
        47 -11.3421    107.7974    250.6618   1.3254699070e+02   8.2546357097e+00    0.1024963   0.09552968 -35.46  0.000674877    1.511    0.338
        48 -11.2731      9.6843    102.0132   1.3585836463e+02   5.3663120323e+01     0.246461     0.233099 -74.65  0.001084224    1.210    0.174
        49 -11.0109    204.9348    110.6004   8.4774692445e+01   1.7255864322e+01    0.3572243     0.292367  22.16  0.001348965    1.517    0.341
        50 -13.4680     11.3646    206.0617   1.4680893146e+02   3.0261346873e+01    0.4127076    0.2840067  33.00  0.002261719    1.851    0.460
        51 -10.2154     16.4355    201.5461   1.4550873002e+02   3.0724512636e+01    0.1577842   0.08725441 -69.23 0.0001917761    1.581    0.368
        52 -10.7002    145.3200     81.4364   8.9724170928e+01   3.7168887596e+01    0.2078172    0.1461482  61.08 0.0008000024    1.498    0.332
        53 -11.8570    106.5053    206.4765   1.2715372584e+02   1.7306575621e+01    0.2495344    0.2221087  85.61 0.0007265836    1.079    0.073
        54 -14.5180    153.9062     59.0520   8.1260425324e+01   3.8884819611e+01     1.381472     1.100325  45.00   0.00292226    1.217    0.178
        55 -10.5388    160.5755    247.3810   1.2175941938e+02  -1.3640650145e-01    0.3914593    0.2122187  22.03  0.001554142    2.850    0.649
        56 -13.2097    170.0901     36.6363   7.1802169648e+01   3.8025992905e+01    0.4173809    0.3849478  76.16 0.0009060936    1.046    0.044
        57 -11.1826     13.5312     59.8250   1.2583828240e+02   6.2154001443e+01     0.182667    0.1715944 -30.03 0.0004001046    1.265    0.210
        58 -12.8583    104.8804    202.8869   1.2698954160e+02   1.8371067020e+01    0.3523602    0.2709203  41.09 0.0008780126    1.304    0.233
