#   1 NUMBER                 Running object number                                     
#   2 MAG_AUTO               Kron-like elliptical aperture magnitude                    [mag]
#   3 X_IMAGE                Object position along x                                    [pixel]
#   4 Y_IMAGE                Object position along y                                    [pixel]
#   5 X_WORLD                Barycenter position along world x axis                     [deg]
#   6 Y_WORLD                Barycenter position along world y axis                     [deg]
#   7 A_WORLD                Profile RMS along major axis (world units)                 [deg]
#   8 B_WORLD                Profile RMS along minor axis (world units)                 [deg]
#   9 THETA_WORLD            Position angle (CCW/world-x)                               [deg]
#  10 FWHM_WORLD             FWHM assuming a gaussian core                              [deg]
#  11 ELONGATION             A_IMAGE/B_IMAGE                                           
#  12 ELLIPTICITY            1 - B_IMAGE/A_IMAGE                                       
         1 -11.5135     40.9029     38.5604   8.5893979512e+01   6.5803458847e+01    0.5550394    0.3062138  -3.25 0.0008401829    2.714    0.632
         2 -11.2520    123.3210     31.2620   5.4166458827e+01   4.9650237368e+01     1.465248    0.4251294  51.57   0.00462023    2.891    0.654
         3 -11.5020     18.8254     28.1955   9.3904139470e+01   7.0369287604e+01    0.5885626     0.377297 -53.85 0.0007345801    1.854    0.461
         4 -10.8085     26.2194     21.8673   8.6320710531e+01   7.0623108450e+01    0.5171236    0.2988398   0.80  0.002100385    1.952    0.488
         5 -11.8009      2.0585     25.0970   1.0367230955e+02   7.2303126592e+01    0.2864207    0.1690237 -51.93 0.0006152004    1.554    0.356
         6 -10.5334    182.6398     17.9933   4.1367291797e+01   3.6696663280e+01    0.5198452    0.2747206  38.82  0.001524051    2.817    0.645
         7 -12.1040    116.9035     22.2083   5.2301159714e+01   5.2232017764e+01    0.2802622    0.2697631  81.44 0.0003985056    1.112    0.101
         8  -8.9715     67.2475     11.2033   6.1102464524e+01   6.4867188688e+01    0.3803888    0.2254849  67.02  0.001809908    2.219    0.549
         9 -10.2379     60.9329     18.3955   6.7033934759e+01   6.5373292359e+01    0.4102544    0.2899923  -8.24   0.00141038    1.477    0.323
        10 -10.9365     67.1634     15.5387   6.3246260531e+01   6.4429627209e+01    0.5412989    0.3016836  59.43  0.001225332    2.010    0.503
        11 -11.4338    166.8013     17.2867   4.2909070721e+01   4.0488238609e+01    0.5358201    0.3319789  29.75  0.001632364    2.344    0.573
        12 -10.9541    133.0898     12.7845   4.6115120449e+01   4.9150180705e+01     0.235516     0.224681  85.59 0.0003061396    1.100    0.091
        13  -9.1582    128.2566      8.4480   4.5430751907e+01   5.0723860892e+01    0.3388022     0.183023  80.61  0.001593152    1.903    0.475
        14  -9.6907    126.9490     16.7164   4.8449776211e+01   5.0303650958e+01    0.5429541     0.286521 -31.43  0.002609416    2.054    0.513
        15  -9.1083     51.5363     13.0599   6.8285353340e+01   6.7820487732e+01    0.3710683    0.1509853 -30.89 0.0009647969    2.602    0.616
        16  -9.3913     55.2051     10.4985   6.5356304340e+01   6.7401906939e+01    0.4181895    0.3065957  77.62  0.002158336    2.428    0.588
        17  -9.0119     49.2486      8.1477   6.6655669382e+01   6.8801489314e+01    0.1746828    0.1639861  18.13 0.0004186029    1.289    0.224
        18 -10.9542     16.7395     17.4996   9.0136343714e+01   7.2447883862e+01    0.6195839    0.3868996  21.30  0.003346268    1.497    0.332
        19 -11.7622      5.6469     14.7966   9.6562776750e+01   7.3952032679e+01    0.6698066    0.3964019 -52.66  0.002904501    1.899    0.473
        20  -9.9795     23.5306      1.3648   7.6306484098e+01   7.3910989311e+01    0.2206343    0.1342379  33.05 0.0001513695    1.474    0.322
        21 -10.4931     13.7181     11.4580   8.8986448398e+01   7.3747695929e+01    0.3739866    0.2358354 -26.94  0.001497608    1.381    0.276
        22 -10.2757     14.5223      4.0521   8.4074170532e+01   7.4761009421e+01      0.31569    0.1745722 -31.79  0.000978313    1.698    0.411
        23 -10.2563     18.0315      1.7508   8.0171259939e+01   7.4629458233e+01    0.2605405      0.15439  30.61 0.0007806288    1.543    0.352
        24 -10.3479     16.7606      8.0066   8.4892431181e+01   7.3925685460e+01    0.2543634    0.1833077 -40.32 0.0003850801    1.664    0.399
        25 -11.5244     24.9412      6.9170   7.8863639052e+01   7.3003571020e+01    0.2162834    0.1748542  -3.37  0.000303591    1.122    0.109
        26 -11.7858     20.8163      6.1278   8.1032937030e+01   7.3677051764e+01    0.3412612     0.235384  -8.48 0.0007687985    1.266    0.210
        27  -9.3720    230.2476     14.3907   3.6634439310e+01   2.6874571399e+01    0.2315352    0.1490759 -28.83  0.001307408    1.674    0.403
        28  -9.8202    116.7958     15.3719   4.9850519198e+01   5.2936361813e+01    0.3589169    0.2022829  49.94 0.0009254299    1.568    0.362
        29  -9.0634    112.3287     14.8912   5.0561916024e+01   5.4076980293e+01    0.2306591    0.1895587 -12.49  0.001357046    1.394    0.283
        30 -10.6395    174.9676     11.9038   4.0572608039e+01   3.9080592262e+01    0.6190943    0.3523516  34.94  0.002981959    2.601    0.616
        31  -9.9126    147.5426     12.6569   4.3981839880e+01   4.5599668026e+01    0.3867726    0.2854375  72.59  0.001160235    1.191    0.161
        32  -8.9866    143.1423     11.0871   4.4098249883e+01   4.6822489218e+01    0.2848969    0.1852129  53.35  0.000746967    1.444    0.308
        33  -9.4466    219.2536     12.2383   3.6927865677e+01   2.9298924215e+01    0.2265882    0.1720776 -75.12  0.001090229    1.121    0.108
        34  -9.5207     98.6563     12.6684   5.2690315977e+01   5.7591739682e+01    0.3371499    0.2220118 -69.10   0.00163051    2.241    0.554
        35  -9.9551     90.7442      1.8067   5.0025456181e+01   6.0371850529e+01    0.3928403    0.1907331  69.71  0.001125156    2.024    0.506
        36  -9.4246     87.1833      7.0709   5.3160258808e+01   6.0791285076e+01    0.3023394    0.2684452  55.39  0.001919059    1.107    0.096
        37  -9.3829     88.9602     13.0535   5.5280630991e+01   5.9843605399e+01    0.2271509    0.1846276   7.61 0.0004362673    1.315    0.239
        38  -9.3338     91.7694      8.3148   5.2543887505e+01   5.9611284648e+01    0.3891061    0.1994169  40.06  0.001215593    1.826    0.452
        39  -9.0786     75.5381     12.7312   5.9054711012e+01   6.2920312378e+01    0.2260477      0.21661 -67.69  0.001154552    1.339    0.253
        40  -9.6221     78.9490     11.5193   5.7439765345e+01   6.2278594146e+01    0.2447125    0.1757676  -6.16 -0.0001041025    1.538    0.350
        41  -9.4886     32.5090     12.3825   7.7528046363e+01   7.1159735400e+01    0.2139649    0.1827937  -4.82  0.000563672    1.192    0.161
        42 -10.6374    192.0185      8.0085   3.8034785735e+01   3.5547401312e+01    0.3450579    0.2900395 -49.45 0.0003170897    1.190    0.159
        43 -10.7049    193.6866      3.9020   3.6925013308e+01   3.5556839040e+01    0.6511498    0.1859758  63.23  0.002552957    3.043    0.671
        44 -10.0604     42.6921     10.2165   7.0886574802e+01   6.9762716555e+01    0.4429853    0.1921825  31.00  0.001509566    2.298    0.565
        45  -9.0542     37.6879      9.7464   7.3183575160e+01   7.0674443112e+01    0.1714267    0.1389654  44.75 0.0005786731    1.518    0.341
        46  -8.9076     45.1868      5.5831   6.7072888695e+01   6.9832882200e+01    0.2392815    0.1423219  24.59 0.0003976271    1.561    0.360
        47 -10.0059     49.5810      2.1751   6.3182079639e+01   6.9339052700e+01    0.3298442    0.1487638  41.56 0.0006902962    1.809    0.447
        48  -9.9683    224.6700      9.1254   3.5908600778e+01   2.8514555757e+01     0.202823    0.1612468 -72.06 0.0001288911    1.044    0.042
        49  -9.9241    211.8611      8.9689   3.6738258386e+01   3.1155978706e+01    0.3373516    0.2046633  65.86  0.002044355    1.670    0.401
        50 -10.7722    208.4455      4.1848   3.5921909569e+01   3.2333991169e+01    0.3699761     0.251512 -55.55  0.001547604    1.268    0.211
        51  -9.9740    119.8642      8.8289   4.6945202153e+01   5.2763048353e+01    0.2936146    0.2453478  39.41 0.0009918385    1.213    0.175
        52 -10.5918    202.4623      8.5942   3.7344196465e+01   3.3195100494e+01    0.2714061    0.1973948 -74.60 4.400913e-05    1.194    0.163
        53  -9.8456    165.2232      7.8886   4.0504483305e+01   4.1752800589e+01    0.3622122    0.1813542 -41.95   0.00090879    1.978    0.494
        54 -11.0510    160.2425      2.8070   3.9622054955e+01   4.3379790770e+01    0.4370694     0.277364  72.10 0.0008206626    1.362    0.266
        55 -11.1444    109.3833      5.8333   4.7750987692e+01   5.5579639146e+01    0.7130482    0.4189285  56.76    0.0037327    1.407    0.289
        56 -10.6022    119.4729      2.4160   4.4745770286e+01   5.3369556867e+01    0.2437291     0.183256  53.98   0.00052607    1.177    0.150
        57 -10.4873    115.9333      1.9852   4.5169636128e+01   5.4271093418e+01    0.2537205    0.1616324  63.28 0.0004243289    1.303    0.232
        58  -8.6327     74.2211      7.8097   5.7156449622e+01   6.3676812637e+01     0.187629    0.1260338  35.62 0.0006627653    1.306    0.234
        59 -10.6801    248.4315      4.6695   3.3673601480e+01   2.4415219326e+01    0.2954756    0.2352324 -11.82 0.0001417825    1.827    0.453
        60  -9.9459     61.5616      4.9293   5.9970660035e+01   6.6665000929e+01    0.3832783    0.2899165 -67.30  0.001597879    2.236    0.553
        61  -8.4424    174.0117      1.2462   3.7889272213e+01   4.0260860228e+01    0.1570016   0.09133271  77.22 0.0003921309    1.502    0.334
        62  -9.1753    170.0118      6.5610   3.9657148236e+01   4.0736584413e+01     0.249161    0.1026813  68.11  0.001150231    2.080    0.519
        63  -8.9971    173.9852      4.9511   3.8852033013e+01   3.9947268496e+01    0.2313521     0.139446 -49.16  0.001294406    1.610    0.379
        64  -9.3810    152.9900      4.6673   4.0937420737e+01   4.4971411518e+01    0.2552575    0.1807089 -30.82  0.001498415    1.565    0.361
        65  -9.1463     39.6736      4.5812   6.9162916667e+01   7.0933659589e+01    0.2917484    0.2245724 -24.28  0.001852789    1.450    0.310
        66 -10.2535     30.8322      3.2375   7.3094862326e+01   7.2570148529e+01    0.2521879    0.2088576 -36.07 0.0005074409    1.663    0.399
        67  -9.9184    218.2868      2.9787   3.5022646263e+01   3.0401180785e+01    0.2432529    0.2161025  76.45  0.001480873    1.291    0.225
        68 -10.7777    180.1030      2.2614   3.7621172570e+01   3.8766834644e+01    0.3618354    0.2067122 -88.19  0.001976815    1.641    0.391
        69 -10.3692     73.9799      2.1591   5.4536094795e+01   6.4208188356e+01    0.3425109    0.2390884  60.95   0.00142146    1.348    0.258
        70  -9.7434     69.0005      2.0661   5.6002606935e+01   6.5317899920e+01    0.2800636     0.175071  26.96  0.001526521    1.552    0.356
        71 -10.0025    238.1303      2.8776   3.3864997833e+01   2.6502933535e+01    0.1795195    0.1144384 -61.13 0.0006982655    1.249    0.199
        72  -9.2270    146.3705      3.2291   4.1285598184e+01   4.6698542287e+01    0.2772417    0.1653763  33.72  0.001405804    2.131    0.531
        73  -9.0208    143.4762      2.5512   4.1430372173e+01   4.7459271099e+01    0.2747393     0.141909  56.60 0.0007139811    1.718    0.418
        74  -9.6101      3.3966      2.4155   9.1538942203e+01   7.6178532860e+01    0.3308062    0.1616979  -9.71  0.001652436    2.323    0.569
        75  -9.1519     80.5917      1.6747   5.2469531715e+01   6.2747156245e+01    0.3311698    0.1533229  65.45  0.001503849    2.070    0.517
        76  -8.8577    186.0197      1.1649   3.6866296182e+01   3.7515516381e+01    0.1597562   0.07734285  76.93 0.0003284582    1.834    0.455
        77 -10.2518      6.0872     97.4802   1.1875521821e+02   5.5507850653e+01    0.6096169    0.4505778 -87.17  0.003468299    1.382    0.276
        78  -9.1867    201.5213    249.7356   8.8924980836e+01  -3.4330537877e+00    0.2137853    0.1296006  20.96 0.0006655126    1.332    0.249
        79 -10.6955      4.1857    116.3738   1.2183388712e+02   5.0787814605e+01    0.3827296    0.2720708  15.92  0.002179502    1.610    0.379
        80  -9.0613      1.3916    113.4510   1.2250675997e+02   5.1668290389e+01    0.2604176     0.114609 -78.15 0.0006885554    2.037    0.509
        81 -10.4689      4.0241    109.8927   1.2115350661e+02   5.2452310202e+01    0.4391025    0.3849944  89.99  0.002765061    1.146    0.127
        82  -9.0267      7.5881    106.5302   1.1940774345e+02   5.3131440656e+01    0.2628928    0.1878468 -60.59 0.0004995918    1.186    0.157
        83  -8.8577     48.6047    115.7688   1.0550853744e+02   4.7294889475e+01    0.1943859    0.1379603 -74.23 0.0001777516    1.524    0.344
        84  -8.5738     71.9872    112.9715   9.6392366222e+01   4.4849022985e+01    0.1807675    0.1640898 -42.29 -0.002661949    1.066    0.062
        85  -9.5800     32.5115    112.2757   1.1085431577e+02   4.9866904177e+01    0.4331574    0.2143895  71.44  0.001408135    4.139    0.758
        86  -8.7274     49.2290    111.9759   1.0450238986e+02   4.8196172028e+01    0.1994101    0.1164413 -60.82 0.0008444105    1.632    0.387
        87  -9.8541     62.9241    110.8528   9.9168539101e+01   4.6710701654e+01    0.2761466    0.2017252 -52.82 0.0003007372    1.311    0.237
        88  -9.1709    231.6699    110.3420   5.7076347440e+01   1.3853005956e+01    0.1318669   0.09224965 -60.49            0    1.746    0.427
        89  -9.2699    128.7911    109.1668   7.7344279673e+01   3.5053845967e+01    0.3138706    0.1812592  55.39  0.001208378    2.118    0.528
        90 -10.4159    117.8276    106.3159   7.9659744802e+01   3.7980229267e+01     0.517602    0.3081356 -28.21  0.001287244    2.051    0.512
        91  -9.1034     37.0601    108.3590   1.0839797855e+02   5.0445002732e+01    0.3302161    0.1641349 -54.16 0.0006046571    1.757    0.431
        92 -10.6406     36.9256    103.4947   1.0748636723e+02   5.1703142737e+01     0.550032    0.2705532   3.06  0.002105396    2.847    0.649
        93 -10.2352     95.0691    106.8444   8.6878877449e+01   4.2384527021e+01     0.655777     0.200743  44.69  0.001870275    3.694    0.729
        94  -9.7608    137.3092    107.0771   7.4510877623e+01   3.3660788961e+01    0.2246552     0.200256 -38.35 0.0008827697    1.123    0.109
        95  -9.2910     74.2139    104.8884   9.3578884718e+01   4.6487650122e+01    0.2282732    0.2167411 -89.20  0.001218777    1.209    0.173
        96  -8.9243     62.8433    104.8439   9.7763782982e+01   4.8222708953e+01    0.2998958     0.206167   9.05 0.0007839323    1.677    0.404
        97  -9.0955     66.3897    102.7985   9.5922567850e+01   4.8209287654e+01    0.3166735    0.1947382  31.23  0.001003518    1.649    0.394
        98  -9.9299    100.4883    103.0658   8.4072609855e+01   4.2214681528e+01     0.371069    0.2510548 -36.01  0.001379971    1.520    0.342
        99 -10.0277    101.2942     99.0058   8.2663206578e+01   4.2966406243e+01    0.4306992    0.4148078  44.72  0.001708109    1.116    0.104
       100  -9.0048    174.8623    102.9068   6.4840255466e+01   2.6269012794e+01    0.2106881    0.1889047   0.44  0.001142881    1.184    0.156
       101  -8.6534     47.7962    102.4006   1.0296867926e+02   5.0798294010e+01    0.4132982    0.1624718 -60.41  0.001045823    2.442    0.591
       102  -9.1694     50.8573     99.1635   1.0100678031e+02   5.1236838925e+01    0.2481579    0.2125278   7.69 0.0006878296    1.196    0.164
       103  -9.8210    139.1552    102.0755   7.2668284887e+01   3.4276335348e+01    0.2503458    0.2263152  61.49 0.0002477323    1.208    0.172
       104  -9.3987     84.9513    102.2730   8.9063730546e+01   4.5298814183e+01     0.216322    0.1986105  -0.38 0.0003003514    1.063    0.059
       105 -10.1021    104.5517     90.9871   7.9265804581e+01   4.4046516465e+01    0.3684952    0.2213777  42.28            0    1.644    0.392
       106 -10.6357    109.2988     99.1866   8.0201348536e+01   4.1303704119e+01    0.6349505    0.3650166  46.08  0.001670757    1.785    0.440
       107  -9.8895    108.9000     95.2304   7.9174259970e+01   4.2239296301e+01    0.4462896    0.3246562  62.60  0.001964399    1.765    0.433
       108 -10.5302     57.4550     99.6332   9.8533155403e+01   5.0261398626e+01    0.3465461    0.2559352 -34.97  0.001263991    1.326    0.246
       109  -9.3003     77.8881     99.5277   9.0819545352e+01   4.7168097907e+01      0.24189    0.2211733 -82.65 0.0005681025    1.304    0.233
       110 -11.1787     15.9175     98.0743   1.1489614576e+02   5.4801945060e+01    0.3653746    0.2935067  20.30 0.0004626433    1.387    0.279
       111  -8.4410     12.6547     93.7044   1.1550350868e+02   5.6108339011e+01    0.2261382    0.1627079 -45.20  0.001165752    1.224    0.183
       112  -8.7679    157.0407     98.6863   6.7485284410e+01   3.0960758167e+01    0.2021007    0.1873969  41.10 0.0002742441    1.093    0.085
       113  -9.9227    124.2109     98.4490   7.5624698894e+01   3.8294798566e+01    0.3834344    0.2496586  20.75  0.001374606    2.017    0.504
       114  -9.5315     43.0812     99.6346   1.0421266271e+02   5.2034257017e+01    0.2903282    0.1164156  32.99  0.001106536    2.529    0.605
       115  -8.7161    117.4110     98.2906   7.7517801890e+01   3.9792497390e+01    0.2005326    0.1510388 -50.79 0.0003483839    1.424    0.298
       116  -9.8850     34.0113     97.9084   1.0750187961e+02   5.3403745667e+01    0.2220367    0.1994555 -37.07  0.001281621    1.027    0.027
       117  -9.6284     27.4914     91.7914   1.0892603498e+02   5.5527553012e+01    0.2456424    0.2164676 -42.37 0.0004826275    1.005    0.005
       118  -9.8989     33.4760     91.2992   1.0628978208e+02   5.5110735468e+01     0.559599    0.2029266 -44.01  0.001803409    2.568    0.611
       119 -11.2901     30.4606     85.3626   1.0622815725e+02   5.6858098848e+01    0.7831539    0.4448512 -10.43  0.002264427    2.166    0.538
       120  -9.4468    130.4873     96.0602   7.3229237187e+01   3.7404915165e+01    0.3769265    0.2510352 -11.27  0.001053554    2.184    0.542
       121 -10.3801     23.3997     95.5165   1.1138013556e+02   5.4921690787e+01    0.2925142    0.2396961 -46.89 0.0005313055    1.073    0.068
       122  -8.3175    184.2648     96.6972   6.1474873561e+01   2.5346416433e+01    0.1400682    0.1080507 -64.61 -0.000275831    1.523    0.343
       123  -9.4643    135.2823     96.0126   7.1959226434e+01   3.6347676531e+01    0.2231344    0.2030139 -30.82 0.0004798041    1.097    0.089
       124  -8.0758     62.6794     96.2906   9.5644407573e+01   5.0340934186e+01    0.1460843    0.1183058  65.67 0.0006505146    1.604    0.377
       125  -9.2312     52.2678     94.3325   9.9249830129e+01   5.2249906932e+01     0.355811    0.2294063  77.12  0.001170753    2.894    0.655
       126  -9.1225     42.1962     95.2057   1.0355701608e+02   5.3239995007e+01    0.2819542    0.1929882  63.64 0.0007312621    2.074    0.518
       127  -8.7706     73.5128     94.9811   9.1165407826e+01   4.8968953805e+01    0.2242583     0.147517 -50.29 0.0003500496    1.507    0.337
       128  -9.6509     47.0957     92.5460   1.0090351749e+02   5.3331883981e+01    0.4321126    0.2143508 -49.30  0.001819652    1.814    0.449
       129 -10.2974     48.4918     88.1552   9.9197270616e+01   5.4228443143e+01    0.5181606    0.2512493  44.36            0    2.578    0.612
       130 -10.5557     43.7330     88.3082   1.0123535155e+02   5.4763153262e+01    0.5398825    0.2292085  25.94  0.002129874    2.423    0.587
       131  -8.5330    172.5028     92.4735   6.2605698507e+01   2.8645319196e+01     0.144505    0.1397321 -26.75  0.000112946    1.016    0.016
       132  -9.6135    116.9504     91.7820   7.5746933803e+01   4.1247739982e+01    0.2725615    0.2213775 -27.83  0.000319788    1.268    0.211
       133 -10.6003    124.1429     88.2644   7.2663017036e+01   4.0370667563e+01    0.5039738    0.2781525 -49.46  0.001996373    2.025    0.506
       134  -9.3416    132.7390     82.0037   6.8509934463e+01   3.9615432968e+01    0.2904669    0.2081262  32.25 0.0006453682    1.505    0.336
       135  -9.1246     58.2793     88.8634   9.5368178011e+01   5.2753157701e+01    0.3812779    0.1866395 -67.71  0.001298258    3.244    0.692
       136  -9.1503      7.7682     89.4083   1.1684006360e+02   5.7453813915e+01    0.3243062    0.1598127  41.46 0.0009231069    2.482    0.597
       137  -8.6347     97.7920     88.7793   8.0775888858e+01   4.5897900428e+01    0.2063045    0.1863439  84.27 0.0004752994    1.378    0.274
       138 -10.1735     87.2627     86.7382   8.3737260544e+01   4.8399245057e+01    0.6161932    0.3296238 -44.01   0.00217075    1.865    0.464
       139  -9.5063     16.1899     86.9393   1.1279664061e+02   5.7583446069e+01    0.3598127    0.2301978 -29.64  0.001465606    1.543    0.352
       140  -8.9849     94.6429     87.0327   8.1288138705e+01   4.6901397690e+01    0.3392098    0.2129531 -10.57  0.001259963    2.561    0.610
       141  -9.1354     70.0958     86.4964   9.0009818628e+01   5.1494777855e+01    0.2437277     0.211125 -59.69 0.0006373458    1.300    0.231
       142 -10.2039     80.2369     84.2362   8.5492314027e+01   5.0249566334e+01    0.4957427    0.3669872   6.83  0.001575189    1.550    0.355
       143 -10.7678     73.8138     80.9335   8.6872140332e+01   5.2112849381e+01    0.6460546     0.391376 -46.23  0.002471996    1.641    0.391
       144  -9.2398     63.7713     86.7438   9.2563739458e+01   5.2439897994e+01    0.4560178    0.2507477 -19.30  0.001621104    2.925    0.658
       145  -8.7166     11.0594     85.9723   1.1484537580e+02   5.8134241659e+01    0.2287122    0.1228178 -41.07 0.0006756231    1.666    0.400
       146  -9.8659    155.1563     84.8489   6.4091003782e+01   3.3917390738e+01    0.2917708    0.2050945 -52.74  0.000608771    1.554    0.356
       147 -11.2124    150.0807     80.3997   6.3932085113e+01   3.5876800466e+01    0.7302769     0.310388  61.27  0.002439914    3.088    0.676
       148 -10.3698    128.9030     85.7899   7.0639760228e+01   3.9779353520e+01    0.4420277    0.3534099  17.84  0.001645262    1.412    0.292
       149  -9.8484     55.3166     81.6947   9.4538856097e+01   5.4850433829e+01     0.748414    0.3421956  41.65  0.002898573    2.500    0.600
       150 -12.4586     52.9297     74.9087   9.3507715852e+01   5.6732087741e+01    0.4739816    0.3451478 -52.32 0.0004550558    1.404    0.288
       151 -10.6309     45.4912     68.7979   9.4897192661e+01   5.9095333524e+01    0.7392465    0.4030657 -17.36  0.001779163    2.581    0.613
       152  -9.3562     50.2927     83.6947   9.7227521841e+01   5.5062852055e+01      0.23691    0.1275708  36.06 0.0005583743    1.956    0.489
       153  -9.2267     47.0688     81.8538   9.8089300487e+01   5.5907608150e+01    0.2360402    0.2136665 -71.18 0.0004249238    1.292    0.226
       154 -10.2019     20.6703     79.4240   1.0924634323e+02   5.9119812840e+01    0.5438329    0.2490679 -70.27  0.001707946    2.351    0.575
       155 -10.4623     17.4937     74.2489   1.0954788092e+02   6.0596969890e+01    0.4466999    0.3015029 -68.05  0.001402542    1.487    0.327
       156 -10.8134    179.2197     79.9997   5.8091186200e+01   2.9252143526e+01    0.3290724    0.3025437  -6.01  0.001889858    1.189    0.159
       157 -10.1978    142.9164     80.8550   6.5689569909e+01   3.7465602567e+01    0.2356803    0.2305518  16.25 0.0002639428    1.014    0.014
       158 -10.4985    166.5106     79.2718   6.0229441673e+01   3.2259388301e+01    0.4281277    0.1946548 -44.65  0.001672401    2.228    0.551
       159  -9.4266      2.1426     79.7328   1.1769618746e+02   6.0104297193e+01    0.3081121    0.1595054 -62.49  0.001544303    1.564    0.361
       160  -9.6376     42.1349     80.9726   9.9991286752e+01   5.6709074267e+01    0.3386765    0.2848501 -17.43  0.001886816    1.126    0.112
       161 -10.8980     89.5491     74.1075   7.8878005178e+01   5.0595752572e+01    0.4634008    0.3578162 -54.93 0.0008168673    1.525    0.344
       162 -10.7238     94.9301     72.1278   7.6378677167e+01   4.9884206568e+01    0.6526244    0.3911226 -38.30  0.001499409    1.708    0.414
       163  -9.0535     61.4402     76.2694   9.0330078779e+01   5.5173655922e+01    0.3717154    0.1638091 -47.72 0.0005127793    2.183    0.542
       164  -9.8274     65.8083     76.4741   8.8607717146e+01   5.4434908257e+01      0.61769    0.3987263  66.35  0.001866677    3.100    0.677
       165  -9.8628     68.9711     74.1803   8.6591326471e+01   5.4405376684e+01    0.3252511    0.2710492 -32.07 0.0004881399    1.158    0.136
       166  -9.7229    110.6212     76.7959   7.2970897434e+01   4.5607982099e+01     0.295236    0.2676325  -3.95 0.0009376983    1.118    0.106
       167 -10.7268     81.1815     75.7150   8.2411941969e+01   5.1895616520e+01    0.6213486    0.3428831  23.39  0.002394083    2.253    0.556
       168 -12.0515     79.6728     70.0405   8.1057372915e+01   5.3339268044e+01    0.3447172     0.268557  18.35 0.0002361122    1.295    0.228
       169  -8.9654     28.3528     75.7804   1.0483751930e+02   5.9363548176e+01    0.2591789    0.1436095 -48.09 0.0008280583    1.553    0.356
       170  -9.6086    160.1607     74.8369   6.0238706088e+01   3.4467141936e+01    0.2029506    0.1737554  21.27 0.0004087345    1.325    0.245
       171 -10.5589    170.9687     73.4326   5.7806436364e+01   3.2185009098e+01    0.3168999    0.2502684  58.57 0.0008351367    1.282    0.220
       172 -10.4211    199.6722     71.8440   5.2788060610e+01   2.6031055619e+01    0.2437656     0.225005 -21.52 0.0004594656    1.170    0.145
       173  -9.9759    152.1609     72.8489   6.1300310890e+01   3.6675544261e+01    0.2691003    0.2382662 -51.96 0.0006139064    1.160    0.138
       174 -10.7525    145.3888     71.1653   6.2258376970e+01   3.8558450972e+01     0.488285    0.3296862  22.63  0.001882042    2.016    0.504
       175 -10.2839    143.8889     66.3951   6.1152664023e+01   3.9698338305e+01    0.2939308    0.2702022  58.12 0.0006840004    1.064    0.060
       176  -9.9783    147.5346     64.4729   5.9796049683e+01   3.9132475664e+01    0.2520384    0.2359378  -5.66 0.0005485308    1.145    0.126
       177  -9.0356    102.1340     69.8621   7.3279629696e+01   4.8778698163e+01    0.2289028    0.2082236  61.71 0.0007363545    1.234    0.190
       178  -9.6913     10.4289     69.3549   1.1183051794e+02   6.2209747757e+01    0.2802064    0.1635784 -48.13 0.0007230317    1.399    0.285
       179  -9.4509    173.6684     69.0594   5.6146585221e+01   3.2248732575e+01    0.2692936    0.2017378  50.39 0.0007809759    1.370    0.270
       180  -8.7182     64.2080     69.3550   8.6912982194e+01   5.6223465935e+01    0.2083222    0.1303237  41.27 0.0009197793    1.698    0.411
       181  -8.9896      1.4850     55.4873   1.1325102600e+02   6.5878262210e+01    0.3113284    0.1566118  10.42  0.001575684    2.129    0.530
       182  -9.4343     15.3583     64.6476   1.0827379725e+02   6.3008460754e+01    0.3560938    0.2122239 -17.39  0.001810013    1.726    0.421
       183 -10.7653      2.0312     67.3040   1.1550179798e+02   6.3105847998e+01    0.6081116    0.2219013 -49.43  0.002715674    2.041    0.510
       184 -10.1052      9.0110     61.9988   1.1084492351e+02   6.4014521789e+01    0.4027426    0.2809657 -13.59  0.001646431    1.409    0.290
       185 -10.8976      4.2479     59.8675   1.1280399636e+02   6.4750749390e+01    0.5468873    0.2904258 -32.27  0.002712756    1.686    0.407
       186  -8.6783    157.1733     68.3779   5.8990399774e+01   3.6216369351e+01    0.1996529    0.1373307  69.07 0.0009348197    1.598    0.374
       187 -10.3583    120.4026     66.2016   6.6758162840e+01   4.5300233765e+01    0.5256474    0.3650799 -20.09  0.001556962    1.683    0.406
       188  -9.6963     26.4762     67.6741   1.0356849432e+02   6.1431143347e+01    0.6072669    0.3329229   7.00   0.00283366    2.028    0.507
       189 -11.2403     32.5964     64.5352   9.9664473295e+01   6.1550476624e+01    0.2710953    0.2259563  -7.84 0.0001657508    1.124    0.111
       190 -10.8913     31.9121     59.3675   9.8377825244e+01   6.2764719308e+01    0.4590088    0.2913253 -41.04  0.002101669    1.395    0.283
       191 -10.9382    134.9257     65.0214   6.2751082017e+01   4.2063972694e+01     0.514766    0.4385638  58.14  0.002725668    1.157    0.135
       192  -9.6558     75.0545     66.1033   8.1438636591e+01   5.4989006364e+01    0.2363866     0.199674 -26.56 0.0003120509    1.160    0.138
       193  -9.5672    106.6205     66.0743   7.0616450431e+01   4.8477630524e+01     0.308021    0.2011411  42.60 0.0002489925    1.460    0.315
       194 -10.0197     25.0139     54.4382   1.0033111839e+02   6.4524123809e+01    0.3733091    0.2047727 -45.04  0.000487062    1.575    0.365
       195 -10.5209     22.8907     63.4354   1.0415620860e+02   6.2714636560e+01    0.6104911    0.2748074 -25.63  0.002423363    2.674    0.626
       196 -10.2395     21.9714     59.5431   1.0350165287e+02   6.3671102532e+01    0.3647541    0.2283231 -51.61 0.0008311996    1.422    0.297
       197  -9.9105    204.1140     63.6113   5.0186002352e+01   2.6277772558e+01     0.424458    0.2669085  84.34  0.002121323    1.976    0.494
       198  -9.9529     82.9011     63.7003   7.7638399676e+01   5.3947544639e+01    0.4410494    0.2935576 -54.72   0.00153443    1.922    0.480
       199 -10.0830     97.1438     63.8984   7.2817106817e+01   5.0953247366e+01    0.2137434    0.2067054  73.15 0.0003736665    1.199    0.166
       200  -9.6286     66.0234     63.6542   8.4174758161e+01   5.7088820912e+01    0.3541691    0.2771714  32.16 0.0009964136    1.258    0.205
       201  -9.1769    164.5602     51.5000   5.2827908608e+01   3.6963774405e+01    0.3161269    0.2250276  45.09  0.001378454    1.494    0.331
       202  -9.8330    159.9808     60.9442   5.6320979915e+01   3.6697327910e+01    0.3751308    0.2192904 -42.08  0.001118346    1.711    0.416
       203  -9.9958    162.9353     57.4330   5.4788305357e+01   3.6511071204e+01    0.4367955    0.2192137 -32.40  0.001211667    2.052    0.513
       204  -9.5720    193.9744     60.3420   5.0742611468e+01   2.8940502726e+01    0.2652804    0.1819215 -31.22            0    1.473    0.321
       205  -8.2150    116.2843     61.2970   6.6234819354e+01   4.7087620295e+01    0.1492032    0.1130231  17.29 0.0005103401    1.546    0.353
       206 -10.6459     70.5139     59.9302   8.0994327658e+01   5.7023843473e+01    0.3208826    0.2912576  69.70  0.001019594    1.463    0.316
       207  -9.9088     53.7711     60.6745   8.8387122055e+01   5.9671209612e+01    0.2691903    0.2396684  -1.92  0.000459219    1.034    0.033
       208 -10.4917    150.2801     59.7259   5.7816158755e+01   3.9206141329e+01    0.3381724     0.252486  79.07  0.001262929    1.516    0.340
       209  -9.1509     47.7670     58.3071   9.0293742109e+01   6.1032210626e+01    0.4845843    0.2552019  -2.19  0.001692678    3.510    0.715
       210  -9.1056     15.7760     59.8703   1.0680443118e+02   6.4076550170e+01    0.2005415    0.1481873 -33.52 0.0005709374    1.149    0.129
       211  -9.6276     14.1519     55.3415   1.0640105468e+02   6.5209805850e+01    0.3809778    0.1775655 -61.55  0.001053849    2.054    0.513
       212  -8.6149      8.4479     43.5642   1.0608362719e+02   6.8153290839e+01    0.2867978    0.1187651 -53.76 0.0009873547    1.978    0.494
       213 -10.4119      6.9430     51.1792   1.0917955541e+02   6.6584161134e+01    0.4652227    0.3254275  84.24  0.002493944    2.166    0.538
       214  -9.7567     10.9832     50.3281   1.0668637077e+02   6.6530544201e+01    0.2675219    0.2341586 -51.59 0.0007934747    1.212    0.175
       215 -10.3271     12.1658     44.4802   1.0420187208e+02   6.7711599770e+01    0.4237002    0.1810059 -54.41  0.001183774    2.015    0.504
       216 -11.7126     14.3084     39.0677   1.0107141295e+02   6.8674573693e+01    0.5838862    0.4670082 -63.88  0.002709805    1.552    0.356
       217 -10.8787      4.4306     37.4369   1.0654405393e+02   6.9682440529e+01    0.5306279    0.4291457 -62.44   0.00341846    1.406    0.289
       218  -9.8966      5.0029     32.0078   1.0430919473e+02   7.0759306231e+01    0.3046301    0.1650125 -19.34  0.001561989    1.727    0.421
       219  -9.7001    105.1092     57.5908   6.8121953220e+01   5.0277013246e+01    0.2921277    0.2072005 -33.59 0.0005377812    1.478    0.323
       220 -10.4002     39.7506     57.9496   9.4009587608e+01   6.2167463205e+01     0.271512    0.2432348 -48.36  0.001133012    1.269    0.212
       221  -8.5771    180.4957     58.5136   5.2221899195e+01   3.2239859883e+01    0.1356577    0.1281898 -71.98 -0.0001093282    1.007    0.007
       222 -10.2671    167.0843     56.6330   5.3851630559e+01   3.5640662307e+01    0.3828414    0.2403481  60.01  0.001142641    1.556    0.357
       223 -10.3153    171.9127     53.4703   5.2190758365e+01   3.4946809569e+01    0.5390292    0.2550132 -27.26  0.001918619    2.399    0.583
       224  -9.4108    175.1132     50.1866   5.0805379229e+01   3.4644989944e+01    0.2573973    0.2396971 -61.73 0.0007020183    1.045    0.043
       225 -10.0039    135.6467     56.5514   5.9910155765e+01   4.3223577312e+01    0.6421041    0.3266933  37.52  0.002411884    2.388    0.581
       226  -9.0050    127.8045     57.5477   6.2043763607e+01   4.4960971376e+01    0.2294226    0.1414953  55.36 0.0003576079    1.555    0.357
       227  -8.9591    225.2174     56.8471   4.6148480810e+01   2.2866800438e+01    0.2335295    0.1740454 -15.38  0.001374595    1.688    0.408
       228  -9.5584     65.0954     56.7272   8.2013849473e+01   5.8602309298e+01    0.2370863    0.1899789  17.14 0.0003529869    1.178    0.151
       229  -9.6435     61.7001     52.1767   8.1703517958e+01   6.0045523462e+01    0.3733148     0.306547  67.83  0.001937866    1.844    0.458
       230 -10.5661     71.5329     51.5763   7.7407046935e+01   5.8370996489e+01     1.122427    0.3290913 -39.39  0.003668241    3.524    0.716
       231 -12.6675     61.8821     43.9365   7.8293268146e+01   6.1476798253e+01    0.4557074     0.326388 -31.28 0.0005996409    1.402    0.287
       232 -10.0580     68.0181     44.5223   7.5976932786e+01   6.0246496741e+01    0.3239435    0.2304588  47.09  0.001599907    1.504    0.335
       233  -9.9914     65.6303     49.1369   7.8836133288e+01   5.9898532506e+01     0.396609    0.2181483 -30.39  0.001760962    1.932    0.482
       234 -10.4612     68.9635     47.9860   7.7007379692e+01   5.9482107228e+01    0.2611245    0.2360852 -22.82            0    1.168    0.144
       235  -8.7154    127.9618     51.5351   6.0026312171e+01   4.5832686481e+01    0.3058942    0.1665137  52.62 -8.826843e-05    1.698    0.411
       236 -11.3067    118.8109     52.5803   6.2603565732e+01   4.7876145470e+01    0.6226044    0.3905812  47.74 0.0006535241    1.484    0.326
       237 -11.0258    125.1271     46.0016   5.8828694376e+01   4.7312892458e+01    0.5027187    0.4447182  35.85  0.001114837    1.117    0.104
       238  -9.1773    111.1833     56.2783   6.5915850036e+01   4.9095111579e+01    0.2143053    0.1859957  34.75 0.0005411537    1.091    0.083
       239  -9.4900     53.7381     53.9848   8.5930471993e+01   6.1011102869e+01    0.4361844    0.2903173   6.73  0.002108867    1.685    0.406
       240  -8.7996     53.6958     50.0426   8.4419081580e+01   6.1770552886e+01    0.1942084    0.1624959 -16.00 0.0003514719    1.096    0.088
       241  -9.7379     31.7868     41.6077   9.2013958602e+01   6.6431761369e+01    0.3016667    0.2624008 -59.03  0.001756839    1.532    0.347
       242  -9.8452    115.9210    248.7810   1.0656946371e+02   7.7511956302e+00    0.2295808    0.2122387   7.16  0.001261102    1.172    0.147
       243  -9.7764     44.7153     54.9835   9.0536939449e+01   6.2134041383e+01    0.3303672    0.2454388   1.40  0.001607933    1.326    0.246
       244  -9.3876     42.5274     44.4768   8.7548715526e+01   6.4489803707e+01    0.2115259    0.1744571  20.40 0.0005108751    1.193    0.162
       245 -10.4790     42.2615     49.5193   8.9681396778e+01   6.3558708320e+01    0.5387595    0.2382853 -44.01  0.001623378    2.139    0.532
       246  -9.9576     38.2556     46.3319   9.0467215761e+01   6.4713121256e+01     0.365655    0.2865432  30.90  0.002098184    1.380    0.276
       247  -8.0063    242.0320     55.6805   4.4238422759e+01   1.9809843758e+01     0.185195   0.08604443 -83.74 0.0007047677    4.389    0.772
       248 -10.0313    191.5203     54.1193   4.9511948951e+01   3.0349541494e+01    0.2745361    0.2324224 -30.16 0.0008517086    1.243    0.196
       249 -10.3397    148.9081     54.4159   5.6490060272e+01   4.0323980701e+01    0.4812855     0.294434  64.08 0.0004070103    1.640    0.390
       250  -8.0590     90.7203     37.2896   6.4860791858e+01   5.6620186890e+01      0.14809    0.1263032  27.61 0.0002665687    1.078    0.072
       251  -9.3913     90.6120     40.7872   6.6289223124e+01   5.6149529778e+01    0.3419944    0.2631159 -60.42  0.001402681    1.790    0.441
       252 -11.1454     93.9958     45.0356   6.6877508499e+01   5.4768714582e+01    0.4533404    0.3078944  44.23  0.002240855    1.347    0.258
       253 -11.0756     93.5475     49.5171   6.8730943538e+01   5.4175951755e+01    0.7798223    0.4288637 -34.04  0.002719667    1.919    0.479
       254 -10.5186     31.3237     52.7484   9.6450040533e+01   6.4243528949e+01    0.5454628    0.2587078  31.76  0.002177406    2.186    0.543
       255 -10.7356     90.7220     47.6723   6.8943025516e+01   5.5087050302e+01    0.6285775    0.2607737  43.10  0.001371589    2.248    0.555
       256  -8.8710    106.5535     52.9704   6.6055717817e+01   5.0693315077e+01    0.2289434    0.1814445  46.46 0.0003069521    1.180    0.153
       257  -8.4061     83.0875     52.2316   7.3312758899e+01   5.5966132550e+01    0.3276369    0.2258572 -54.28 0.0009421725    1.934    0.483
       258  -9.1189     79.4850     48.1743   7.3034858144e+01   5.7383739240e+01    0.2528888    0.1380668 -41.54 0.0009736788    1.997    0.499
       259 -10.7502     17.5575     46.7054   1.0184741861e+02   6.6830422896e+01      0.53989    0.3696494 -67.71   0.00292913    1.826    0.452
       260  -8.4041     21.3920     46.2574   9.9534846891e+01   6.6592913500e+01    0.2004619    0.1333658  -9.70  0.001089138    1.456    0.313
       261  -9.6958     25.1490     47.8214   9.8007289895e+01   6.5911952938e+01    0.2354067    0.1688936 -43.44            0    1.275    0.216
       262  -9.3015     27.0749     44.2929   9.5652495539e+01   6.6434474122e+01    0.2228824    0.1502843 -35.81 0.0005976968    1.303    0.233
       263  -8.3881    212.3923     51.7914   4.6394904496e+01   2.6140560190e+01    0.1559002    0.1161318 -25.42 8.580409e-05    1.472    0.320
       264 -10.5382    153.7642     49.1242   5.3996976842e+01   3.9892238505e+01    0.5438898    0.2820049  71.38  0.001926196    2.207    0.547
       265  -9.4953    181.5940     48.7951   4.9498101242e+01   3.3323524724e+01    0.2723963    0.2033155 -56.68 0.0009691783    1.321    0.243
       266  -9.9281    180.2767     45.6591   4.8853627206e+01   3.4039941423e+01    0.3339427     0.171773 -49.90 0.0009006838    1.991    0.498
       267 -10.3163    114.5046     45.9952   6.1408498604e+01   4.9873773321e+01    0.4081104    0.2864865 -19.24  0.001753259    1.625    0.385
       268  -8.5210    112.7499     41.3254   6.0186112877e+01   5.0944763899e+01    0.2031208     0.174677  48.14  0.000142839    1.062    0.059
       269  -8.9696    224.8342     48.5105   4.4349759092e+01   2.4023585324e+01    0.1647767    0.1163642  71.90   0.00100067    1.500    0.333
       270  -9.9381    204.1693     46.5953   4.6098771440e+01   2.8560364249e+01    0.3091891    0.2131735  43.29  0.001507601    1.807    0.447
       271  -9.9013     31.8171     47.8590   9.4423052250e+01   6.5195091224e+01    0.2042902    0.1668164   1.19 0.0005488564    1.123    0.109
       272  -8.8935    164.7292     46.1420   5.1282633428e+01   3.7647266648e+01    0.2624603     0.157333  39.49 0.0007547432    2.023    0.506
       273  -9.6073    245.1056     44.0745   4.1594042779e+01   2.0695808457e+01    0.2301005    0.1848646 -41.15  0.001294034    1.170    0.145
       274  -9.1300    185.3887     44.0835   4.7758128931e+01   3.3063880085e+01    0.2354994      0.16922  57.92 0.0008326303    1.414    0.293
       275  -9.4749    175.3573     43.6545   4.9003833544e+01   3.5447270344e+01    0.3132573    0.1644663 -50.79  0.001425863    1.993    0.498
       276  -8.9105    149.9775     44.0364   5.3147230607e+01   4.1498642276e+01    0.2083577     0.191199  53.07 0.0003277863    1.084    0.077
       277  -9.9227    103.9518     43.0004   6.3148717611e+01   5.2791541580e+01    0.3407926    0.2829458  69.50  0.001828064    1.345    0.257
       278  -8.6327     82.2904     43.9375   7.0337970990e+01   5.7479800486e+01    0.2207735    0.1034028 -53.03 0.0005469527    4.183    0.761
       279  -9.0179    200.1053     43.1701   4.5737756157e+01   2.9878790047e+01    0.1767969    0.1693135  54.54 0.0005009953    1.218    0.179
       280 -11.8146    103.7063     38.6525   6.1584192184e+01   5.3451284499e+01    0.4554032    0.2641056  57.33 0.0003244267    1.659    0.397
       281  -9.0819    143.3968     42.3955   5.3846979038e+01   4.3325781937e+01    0.2997665   0.08521166  49.24 0.0009579087    3.399    0.706
       282 -10.8707    228.2926     38.0988   4.1766660824e+01   2.4619264022e+01     0.340714    0.1757777 -46.20 0.0006747154    1.630    0.387
       283  -9.6897    163.7722    246.3738   9.5984073041e+01   1.7882935889e+00    0.1723498    0.1421541   8.89  0.001148566    1.091    0.083
       284 -10.1730    127.4315     39.4815   5.6108731960e+01   4.7626520364e+01    0.4097286    0.3420424 -78.02  0.002237979    1.373    0.271
       285 -12.2059    107.3622     29.1588   5.7038797980e+01   5.3780417700e+01    0.6025901    0.5001419  69.06  0.003402743    1.235    0.190
       286 -10.4633    135.7075     36.0554   5.3286023144e+01   4.6021764339e+01    0.4626205    0.2619124 -47.54 0.0003950466    1.991    0.498
       287 -10.8161    131.9401     36.0149   5.4012009117e+01   4.6955659104e+01    0.3742445    0.3524797 -73.56 0.0008251941    1.124    0.110
       288 -10.2469    117.2889     32.6973   5.5991819985e+01   5.0955919651e+01      0.22375    0.2159754  35.71 0.0002235471    1.076    0.071
       289 -10.9476    113.8509     32.1548   5.6590014731e+01   5.1857358082e+01    0.2715735    0.2376587 -20.23 0.0002925534    1.254    0.202
       290  -8.7869    222.2741     40.4060   4.2811028427e+01   2.5544831162e+01    0.1619903    0.1071992 -89.22 0.0009439806    1.585    0.369
       291  -9.8117    186.0734     36.7046   4.5772999657e+01   3.3822515719e+01    0.3446088    0.2428202  69.32 0.0008923694    1.370    0.270
       292  -9.9602    182.4120     39.5174   4.6956082982e+01   3.4322468917e+01    0.2183862    0.2053906 -37.87  7.72654e-05    1.160    0.138
       293 -11.0885    178.3368     37.1852   4.6867154166e+01   3.5555431078e+01    0.4606862    0.2930324 -87.57  0.001399742    1.758    0.431
       294  -9.2509    158.0103     38.9509   5.0279545731e+01   4.0191169333e+01    0.2794652    0.1935869 -42.04  0.001110729    1.470    0.320
       295  -8.1201    196.6411     39.6815   4.5281655972e+01   3.1076125488e+01    0.1276611   0.09615032  34.19 4.556624e-05    1.760    0.432
       296  -8.5952    165.9473     39.5154   4.9223882933e+01   3.8204904641e+01    0.1928014    0.1266424  67.22 0.0003581735    1.447    0.309
       297  -8.5675    120.5980     38.8837   5.7423227245e+01   4.9373808299e+01    0.1987195    0.1261628 -44.70 0.0009346303    1.769    0.435
       298  -8.6734     82.3884     38.7014   6.8174478115e+01   5.8246557149e+01     0.177058    0.1330809 -16.65  0.000922275    1.413    0.292
       299  -9.4445     25.0994     38.7568   9.4607382175e+01   6.7735115733e+01    0.2120377    0.1627916 -30.77 0.0006261604    1.144    0.126
       300  -9.1473    238.1853     38.0604   4.0927707292e+01   2.2708420945e+01    0.1641891    0.1501184 -34.05  0.001201004    1.282    0.220
       301 -10.1132    209.3253     34.1054   4.2621401108e+01   2.8987478493e+01    0.4436532    0.3149847   4.78   0.00239608    2.300    0.565
       302  -9.6464    212.6773     26.9188   4.0671856066e+01   2.9102253851e+01    0.4289265    0.2546706  19.83  0.001819917    4.138    0.758
       303  -9.4149     86.5495     35.5415   6.5481684513e+01   5.7788626570e+01    0.3873513    0.2056075 -14.69  0.001571747    2.622    0.619
       304  -9.0379    248.0694     35.6726   3.9681853542e+01   2.1153749175e+01    0.1962639    0.1193028 -49.20 0.0005221044    1.314    0.239
       305  -8.5986    162.4901     36.4437   4.8866005190e+01   3.9413933397e+01     0.134575    0.1237697  63.99 0.0002464793    1.089    0.082
       306  -9.7849    143.4080     34.7048   5.1435907149e+01   4.4286521573e+01    0.3972535    0.2966181 -51.90  0.001242496    1.438    0.305
       307  -9.9777    145.2491     29.1691   4.9394817773e+01   4.4477090856e+01    0.5179284    0.3385136  68.82  0.002569186    1.419    0.295
       308  -8.9402     82.0542     32.0000   6.5488446871e+01   5.9252399261e+01    0.3943105   0.07299689  51.77  0.001051118    4.932    0.797
       309  -9.7947     77.5445     34.8268   6.8252974408e+01   5.9829852326e+01    0.4912807    0.2429586  50.84  0.001342706    1.968    0.492
       310  -8.6412     75.6890     31.3194   6.7406482693e+01   6.0705493998e+01    0.1837478    0.1633377 -81.29 0.0003138363    1.590    0.371
       311  -9.4609     71.3205     29.9210   6.8394918719e+01   6.1802479353e+01    0.2640384    0.2117408  17.27 0.0006510832    1.157    0.136
       312  -9.8553     75.3627     27.2726   6.5741430513e+01   6.1307743137e+01    0.3503783    0.3054367  63.40  0.002053512    1.375    0.273
       313  -9.5255     41.6806     22.1479   7.7773202660e+01   6.8354199037e+01    0.2612996    0.2464618   7.37 0.0007578361    1.339    0.253
       314  -9.3693     48.2578     34.0360   8.0194313543e+01   6.5455320186e+01    0.4570329    0.1913965  22.72  0.001556361    3.716    0.731
       315 -11.2635     56.2860     33.4753   7.6190819654e+01   6.4176915510e+01    0.5589532    0.4079745  52.31  0.001193042    1.727    0.421
       316 -10.5060     51.9517     28.9899   7.6090243741e+01   6.5623258008e+01    0.2195518    0.1723964  31.80 0.0003323202    1.206    0.171
       317  -9.9634     48.2257     25.1533   7.6006526560e+01   6.6831793591e+01    0.4847448    0.2316361  38.15  0.001122691    1.916    0.478
       318  -9.4591    191.1283     40.0709   4.6020370901e+01   3.2262129187e+01    0.2599668    0.2049144  -8.75  0.001021971    1.637    0.389
       319  -9.3062    233.3770     31.6292   3.9977319238e+01   2.4381613572e+01    0.2842811    0.2016491 -79.04   0.00186491    1.343    0.255
       320  -8.6226    215.4491     33.4607   4.1896595007e+01   2.7774044748e+01    0.1219107    0.1033982 -64.36 3.611138e-05    1.003    0.003
       321  -8.8303    202.7606     32.1005   4.2799747331e+01   3.0635193618e+01    0.2208554    0.1525858 -28.74  0.001280073    1.550    0.355
       322 -10.6304    186.4821     31.0372   4.4277159741e+01   3.4396283890e+01    0.4679041    0.3069049  46.54  0.001685049    1.778    0.437
       323  -9.9389    182.8111     28.3823   4.4015242305e+01   3.5542764211e+01    0.2615496    0.2102484  53.98  0.001013251    1.341    0.254
       324  -9.5294    153.5816     31.5716   4.8796553371e+01   4.2156236910e+01    0.4505527    0.1631867  50.44  0.001719254    2.714    0.632
       325 -10.0461     46.9175     47.5459   8.6620605203e+01   6.3279526834e+01    0.3396266    0.2329412 -35.15 0.0005620299    1.391    0.281
       326 -11.2292     24.9408     30.9727   9.1407338553e+01   6.9211020838e+01      0.40475    0.3033505  25.01  0.001052552    1.389    0.280
       327  -9.0074      1.4585    244.0806   1.3051991260e+02   2.1427181510e+01    0.1503763   0.09324881  87.88 0.0004490846    1.528    0.345
       328  -9.7052     33.7655     30.0344   8.5893046723e+01   6.8280035288e+01    0.4366221    0.3480116 -57.37  0.002522657    1.858    0.462
       329  -9.5791     37.6412     26.8071   8.2228643649e+01   6.8264922453e+01    0.2713146     0.194448  13.48 0.0007905767    1.250    0.200
       330  -9.6106    202.9173    242.1426   8.7495848828e+01  -2.5718666620e+00    0.1883895    0.1326192   5.46 0.0004874426    1.098    0.089
       331  -9.4730     21.7610     23.6332   8.9943531794e+01   7.0862182838e+01    0.2189086    0.1050267 -39.18 0.0005147936    1.910    0.476
       332  -9.2986    247.8500     30.8171   3.8739029482e+01   2.1751873054e+01    0.1590237    0.1435825 -57.19  0.001222124    1.200    0.166
       333 -10.4188    163.4368     27.2095   4.6103927255e+01   4.0254296957e+01    0.7232509    0.3132024  53.42  0.003152066    2.225    0.551
       334 -10.8549    222.0588     26.9196   3.9880490621e+01   2.7162872563e+01    0.3578306    0.3141782  14.50  0.001676991    1.611    0.379
       335  -8.4789    195.9603     29.0796   4.2764609337e+01   3.2479324326e+01    0.1486228    0.1265676 -56.44 0.0005094038    1.091    0.084
       336  -8.4475     94.6321     29.7388   6.0649440124e+01   5.6714425472e+01    0.1495674   0.09331513  32.59 0.0006979901    1.647    0.393
       337  -8.0425     65.5255     29.4800   7.0444634066e+01   6.3028581080e+01     0.142536    0.1154775  18.01 -8.86669e-05    1.099    0.090
       338  -8.6412     42.5091     28.5141   8.0488055407e+01   6.7256277403e+01    0.1360211    0.1108243   3.90 -7.507925e-05    1.024    0.024
       339  -8.7049    208.0089     26.5086   4.0993920723e+01   3.0138202901e+01    0.1735893    0.1114195  75.35 0.0004515991    1.516    0.340
       340  -8.9463    221.2753    237.5668   8.3336769135e+01  -4.1358999547e+00    0.1605095    0.0898178  14.33 0.0008315075    1.556    0.357
       341 -10.6376    172.3570     23.4783   4.3940866060e+01   3.8527350449e+01    0.6236363    0.2848907  66.12  0.002898022    1.977    0.494
       342  -8.9763    168.3188    237.6680   9.3765490278e+01   2.5289629529e+00    0.1168035   0.09510659  47.46 0.0005745234    1.692    0.409
       343  -9.6583    205.9967     22.9434   4.0352460911e+01   3.0961933449e+01    0.3239948    0.2165836  54.44   0.00191663    1.698    0.411
       344  -9.5110    188.8299     22.4476   4.1860283887e+01   3.4814059591e+01    0.3399982    0.2230973  22.05  0.001715573    2.524    0.604
       345 -10.7040    153.7681     23.0010   4.6221856887e+01   4.3055950743e+01    0.2446182    0.2251388  68.43 0.0003377775    1.074    0.069
       346  -8.3789    139.6717    236.7066   9.9807047839e+01   6.6067953865e+00    0.1317388   0.08926823   0.51 0.0007021349    1.626    0.385
       347  -9.3883    123.4662     22.7057   5.1158686202e+01   5.0564831091e+01    0.5575069    0.2815623 -77.66  0.001763406    4.754    0.790
       348  -8.4962     70.4461     21.5343   6.4895553263e+01   6.3055192759e+01    0.1839989    0.1244424 -34.63 0.0005212375    1.681    0.405
       349  -9.8449     61.7121     23.4272   6.9160916561e+01   6.4591413491e+01    0.4389511    0.1932031  39.39  0.001683863    2.038    0.509
       350  -9.1095     31.3326    232.0397   1.2378854072e+02   2.1048975526e+01    0.3065517     0.110704  57.50  0.001328528    2.873    0.652
       351  -8.9142    162.4132    225.2084   9.3118000459e+01   5.3670126639e+00    0.3074378    0.2412224  82.18  0.001590977    2.650    0.623
       352  -8.6064    223.7181    225.0237   8.0833412329e+01  -2.7287409286e+00    0.1693766    0.1236841  -5.64 0.0005978591    1.039    0.038
       353  -8.6942    231.6568     23.3114   3.8377816912e+01   2.5649401824e+01    0.1262266   0.06834574 -61.99  0.000704591    1.702    0.412
       354  -9.3499    109.4403     21.5105   5.3658872837e+01   5.4126848974e+01    0.2616783    0.2054933 -13.95 0.0008313424    1.445    0.308
       355 -11.3041    105.0298     20.8785   5.4433874594e+01   5.5259252956e+01    0.2869949    0.2444675  89.87 0.0003010444    1.346    0.257
       356 -10.0856    163.9661     20.3076   4.4090623886e+01   4.0862190065e+01    0.3324848    0.1718284 -80.68  0.001060186    2.516    0.603
       357  -8.5429    131.9911    225.4861   9.9963724577e+01   9.6755777390e+00    0.2007144    0.1141233  30.85 0.0004209258    1.500    0.333
       358  -8.5163      2.2058    224.4197   1.2962908119e+02   2.5240716813e+01    0.1590836   0.08156839  42.15 0.0005251335    1.591    0.371
       359  -8.6423    196.3387    222.3365   8.5584292662e+01   1.1379675877e+00    0.1373146   0.08246968  -3.16 0.0007051273    1.755    0.430
       360  -9.1426     88.6493    220.9160   1.0957947098e+02   1.6623372834e+01     0.224858    0.1683804  19.63 0.0005342198    1.316    0.240
       361  -8.2884     86.2501     22.4197   6.0066663330e+01   5.9496581104e+01     0.143542   0.09348603  19.98 0.0006298713    1.741    0.426
       362 -10.2868    218.6909     19.1747   3.8465038879e+01   2.8695569505e+01    0.2973907    0.2115284 -72.74   0.00146751    1.246    0.198
       363  -9.1142    151.3774     18.9842   4.5362204417e+01   4.4052721879e+01    0.3681591     0.190927  36.01  0.001520388    2.644    0.622
       364 -10.1913     93.4920     19.7880   5.6901605736e+01   5.8114132859e+01    0.3028861    0.2115471  50.49   0.00112653    1.232    0.188
       365  -9.4891     37.1044     19.2452   7.8699672733e+01   6.9496269302e+01     0.502247    0.2459974  11.67  0.001913377    3.460    0.711
       366  -8.0097    183.6638    219.3186   8.7650070558e+01   3.3414887400e+00    0.1173765    0.1020095  49.13 0.0007049114    1.702    0.413
       367  -8.9845     43.5857     15.5707   7.3370470536e+01   6.8943295251e+01    0.3970165    0.1932431  46.96  0.001865005    2.192    0.544
       368  -8.0849     48.6314     13.7068   6.9946829576e+01   6.8282509822e+01    0.2107318    0.1268355  16.27  0.001068901    1.774    0.436
       369  -9.1561    203.1254    217.8218   8.3483880342e+01   9.2070614327e-01    0.1756242    0.1436284   4.73 0.0002625941    1.121    0.108
       370  -9.1197    230.9971    209.1837   7.6806143969e+01  -1.3948772597e+00    0.1862727    0.1270464  -2.90 0.0004357931    1.233    0.189
       371  -9.9443    199.2376     17.8391   3.9757411409e+01   3.2973806719e+01    0.2784208    0.2079534 -62.08  0.001124045    1.190    0.160
       372 -10.0877    144.7635     17.3630   4.5810341577e+01   4.5837090655e+01     0.335906    0.2364094  55.16  0.001242816    1.324    0.245
       373  -9.1593     35.5057    201.4798   1.2065497736e+02   2.7194819111e+01    0.1271167    0.1125762  62.18 -3.665518e-05    1.006    0.006
       374  -8.6561     19.5352    200.5377   1.2448470910e+02   2.8922507630e+01    0.1232285      0.10636  67.17 0.0001371289    1.006    0.006
       375  -8.5331    120.4106    199.2346   9.8780102656e+01   1.6555446718e+01    0.1763713    0.1408457 -70.94 0.0007169549    1.597    0.374
       376  -9.0174      7.1035    194.8358   1.2712308024e+02   3.1249450631e+01    0.2709123   0.08481943  43.25  0.001180621    2.616    0.618
       377  -8.1814     81.5820    189.5640   1.0739513075e+02   2.4437024062e+01    0.1400301    0.1286132  47.64            0    1.048    0.046
       378  -8.2383     92.2976    188.3197   1.0435234804e+02   2.3199717948e+01    0.1439864    0.1084153 -18.77 0.0007019958    1.617    0.381
       379  -8.8346      5.7377    182.9125   1.2677004996e+02   3.4110507659e+01    0.1707003    0.1390769  85.00 0.0003949191    1.075    0.070
       380  -9.0975     55.2256    181.2128   1.1348590682e+02   2.9812801270e+01    0.1898137    0.1837699 -38.30 0.0005464886    1.127    0.113
       381  -9.2346      7.6140    174.7496   1.2577443342e+02   3.5914391454e+01     0.180575    0.1048362  85.97 0.0006372302    1.615    0.381
       382  -9.3769    233.1499     18.3936   3.7260729759e+01   2.5888377118e+01    0.3490487    0.1440139  87.03  0.001686056    2.801    0.643
       383  -9.6662     17.4936    174.5077   1.2313466023e+02   3.5213905616e+01     0.208254    0.1259879   0.60 0.0009282364    2.246    0.555
       384  -9.4269    225.9283     16.7362   3.7414802493e+01   2.7486059201e+01    0.2096794    0.1402536 -46.66 0.0005961604    1.281    0.220
       385  -9.5562    208.2212     16.9765   3.8800096098e+01   3.1118545660e+01    0.2070909    0.1540035  85.61 0.0006675003    1.245    0.197
       386 -10.4318      7.5003    166.9106   1.2526717569e+02   3.7823603567e+01    0.4161536    0.2125544   3.39  0.001937138    2.702    0.630
       387 -10.7073     16.7818    165.2812   1.2257885565e+02   3.7537396115e+01    0.4740877    0.2429392  -5.78  0.002010798    3.104    0.678
       388  -8.3718    103.4459     16.4308   5.3072318805e+01   5.6088021112e+01    0.1387941    0.1150164  45.74 0.0008031378    1.068    0.064
       389 -11.6244     37.6561    159.4097   1.1593580405e+02   3.7160814309e+01    0.6362422    0.3980545  53.12  0.002821007    1.671    0.402
       390  -9.4834    179.4954     13.4356   4.0516522181e+01   3.7878399106e+01    0.2263619    0.1604144  79.35 0.0005277322    1.271    0.213
       391 -10.1433    243.1354     13.9081   3.5731341232e+01   2.4458504056e+01    0.1797606    0.1521275  79.57 0.0009809106    1.331    0.249
       392  -8.9166    154.7460     13.7192   4.3361692577e+01   4.3741514811e+01    0.1692692    0.1320509 -73.38 0.0004001858    1.268    0.211
       393  -8.8215    139.5134     13.9168   4.5502838969e+01   4.7459191164e+01    0.2267915    0.1541399  59.59 0.0006484314    1.302    0.232
       394 -12.1802     30.7263    154.9736   1.1750386655e+02   3.8953753823e+01    0.6601685    0.4871816  60.83   0.00267692    1.392    0.282
       395 -10.5084     24.2973    162.7227   1.2021214526e+02   3.7559824876e+01    0.3433328    0.1988932  37.02  0.001733118    1.697    0.411
       396 -10.7684      4.4193    147.0015   1.2464033660e+02   4.2971806605e+01    0.3998877    0.2784508  85.73  0.001371151    1.328    0.247
       397 -10.2514      2.0000    158.5367   1.2619605360e+02   4.0243294527e+01    0.3223733    0.1626066 -78.30  0.001607961    1.731    0.422
       398 -10.2081      2.2518    153.2315   1.2574977566e+02   4.1542474124e+01    0.3810854    0.1857957  89.56  0.001393869    1.958    0.489
       399  -9.6862    249.1440    153.8134   6.3468354539e+01   4.3916874592e+00    0.1759068    0.1243192 -12.71 0.0004716556    1.333    0.250
       400 -11.2227     12.2035    151.8316   1.2273656753e+02   4.1246354160e+01    0.3811325    0.2869888  37.54  0.002232736    1.384    0.277
       401  -9.7063     45.9423    151.3765   1.1237202225e+02   3.8352957736e+01    0.2390752    0.1878084 -61.49 0.0002910569    1.216    0.177
       402  -9.8521     54.1935    146.0257   1.0896757839e+02   3.8790051140e+01    0.2251591    0.2044497  25.13 0.0002744276    1.140    0.123
       403 -11.2068     14.1170    143.4236   1.2136913675e+02   4.3250368589e+01    0.5473289    0.2505363 -38.55   0.00230874    2.632    0.620
       404  -9.6800      5.6208    141.3038   1.2379991819e+02   4.4340339099e+01    0.2423541    0.2061085 -51.64 0.0007709865    1.195    0.163
       405 -11.0181      9.7752    131.9641   1.2159556055e+02   4.6474660975e+01    0.5532857    0.2635155 -17.64  0.002292048    3.029    0.670
       406 -10.9446      2.1675    135.4977   1.2437105204e+02   4.6010257996e+01    0.5343915    0.2421437 -74.44  0.001679479    1.871    0.466
       407  -9.3644    236.0066    136.9874   6.2057971118e+01   8.9421340792e+00    0.1969685    0.1634512 -27.04 0.0004520525    1.029    0.028
       408  -9.9484     34.3984    136.6879   1.1403115954e+02   4.3337294638e+01    0.3035639    0.2460446  26.36 0.0008694382    1.314    0.239
       409  -9.2764     15.5133    135.4341   1.2009289665e+02   4.5205363298e+01    0.1337067    0.1194157 -69.51 0.0001459194    1.027    0.027
       410 -11.1290     43.0122    131.1733   1.1028496748e+02   4.3914358836e+01    0.5488987    0.4369808 -46.00  0.002368992    1.217    0.178
       411  -8.1950    248.6941    133.6810   5.9545477350e+01   7.4942008536e+00    0.1243197   0.08564963  -9.05 0.0002287531    1.633    0.388
       412 -11.5086     28.6948    132.0006   1.1529220694e+02   4.5072361467e+01     0.249414    0.2398387 -84.70 0.0003210647    1.058    0.055
       413  -8.8269     23.7250    133.4020   1.1714707508e+02   4.5119501668e+01    0.1729325    0.1314776  -6.12 0.0003815531    1.535    0.349
       414  -9.4243     61.6500    131.0759   1.0389517416e+02   4.1718721004e+01    0.2412499     0.201807  45.33 0.0005437903    1.260    0.207
       415 -10.2289     19.9005    130.5662   1.1807474688e+02   4.6149475655e+01    0.3751361    0.1974556  53.59  0.001445687    2.217    0.549
       416  -9.9757     34.1781    128.3194   1.1288113140e+02   4.5540187359e+01    0.3042307     0.215896 -58.26 0.0008331097    1.281    0.219
       417  -9.8613     32.9330    122.2728   1.1237672016e+02   4.7232117378e+01    0.3368086    0.2005623 -72.71  0.001567751    1.645    0.392
       418  -8.2357     88.5278    127.5125   9.4183548808e+01   3.8569993481e+01    0.1547191    0.1493621 -12.89 5.262121e-05    1.002    0.002
       419 -11.1904      6.8644    123.8805   1.2171885941e+02   4.8721618735e+01     0.469419    0.2552627 -38.47   0.00141045    1.941    0.485
       420  -8.9139    217.7256    125.0023   6.2371857142e+01   1.3950483982e+01     0.197915     0.158693 -31.49 0.0008566672    1.084    0.077
       421  -8.6435     59.5704    125.4910   1.0351941389e+02   4.3432289673e+01    0.1474567    0.1411028 -50.33 8.599673e-05    1.021    0.021
       422  -8.5412     30.2006    125.5679   1.1385276802e+02   4.6618141497e+01    0.1718252    0.1344223  -7.59 0.0009158704    1.448    0.309
       423  -9.7437    132.5175     21.2578   4.9005811421e+01   4.8475701937e+01    0.2910769    0.2451856  59.17  0.001520946    1.071    0.066
       424  -9.5326     71.9265    123.7308   9.8875715772e+01   4.2154601925e+01    0.2639455    0.2192515 -66.69 0.0003784066    1.271    0.213
       425  -9.2957     36.3210    123.6297   1.1138829550e+02   4.6559810796e+01    0.1517496     0.102926  65.73            0    1.799    0.444
       426  -9.2204    236.9594    120.9969   5.8591926282e+01   1.1294329087e+01    0.2020939    0.1462243  -2.14  0.001136916    1.700    0.412
       427  -9.1733    123.6749    121.0460   8.1895699199e+01   3.3518849116e+01    0.2449779    0.2133472  49.96 0.0003657269    1.228    0.186
       428 -10.1405     19.9619    109.4327   1.1513339882e+02   5.1620502761e+01    0.4114818    0.2857967 -67.25  0.001817843    1.290    0.225
       429  -8.4076     13.7414    109.6998   1.1752059968e+02   5.1966603086e+01    0.1840251     0.148828  73.70 0.0002767525    1.358    0.264
       430 -11.2098     20.8965    119.5769   1.1628330568e+02   4.8928229192e+01    0.7407886    0.4405812  75.42  0.003394817    2.097    0.523
       431 -10.4674     13.7588    113.5365   1.1804108118e+02   5.0977804170e+01      0.42434    0.2171233  18.95  0.001993325    2.151    0.535
       432  -9.7318     93.5836    119.0748   9.0532859579e+01   3.9754874952e+01    0.3000927    0.2537593  16.75 0.0008007279    1.210    0.173
       433  -9.8470     43.0438    119.4041   1.0823900416e+02   4.6975309324e+01    0.3375635    0.2470247  33.73   0.00107522    1.441    0.306
       434  -9.4672     72.6474    118.9099   9.7549325598e+01   4.3262873462e+01    0.3255882    0.1854714  46.57  0.001321606    1.998    0.500
       435 -11.1325     28.3925    116.2033   1.1305112511e+02   4.9210824280e+01    0.4479989    0.3385374 -77.75 0.0009871423    1.313    0.239
       436  -9.0367     83.5181    117.1042   9.3387536684e+01   4.1976384106e+01    0.2303398    0.1514471 -53.02 0.0007040096    1.517    0.341
       437  -8.4844     54.5108    117.5883   1.0371882624e+02   4.6113710649e+01    0.1449061    0.1400818 -38.44 0.0001119533    1.029    0.028
       438  -9.3986      1.9414     92.9082   1.1978306141e+02   5.6846383275e+01    0.2267893    0.1869432  30.55 0.0006913136    1.419    0.295
       439  -9.4974      3.3419    103.0273   1.2057102741e+02   5.4232034614e+01    0.3666584    0.1640691 -72.00  0.001181093    1.905    0.475
