#   1 NUMBER                 Running object number                                     
#   2 MAG_AUTO               Kron-like elliptical aperture magnitude                    [mag]
#   3 X_IMAGE                Object position along x                                    [pixel]
#   4 Y_IMAGE                Object position along y                                    [pixel]
#   5 X_WORLD                Barycenter position along world x axis                     [deg]
#   6 Y_WORLD                Barycenter position along world y axis                     [deg]
#   7 A_WORLD                Profile RMS along major axis (world units)                 [deg]
#   8 B_WORLD                Profile RMS along minor axis (world units)                 [deg]
#   9 THETA_WORLD            Position angle (CCW/world-x)                               [deg]
#  10 FWHM_WORLD             FWHM assuming a gaussian core                              [deg]
#  11 ELONGATION             A_IMAGE/B_IMAGE                                           
#  12 ELLIPTICITY            1 - B_IMAGE/A_IMAGE                                       
         1 -12.2607    104.6511     12.0760   3.5908217668e+02   5.6931404777e+01    0.5637259    0.3476115 -24.35  0.001752142    1.830    0.454
         2 -12.8169    105.5162     19.9531   2.0931640725e+00   5.5875535213e+01    0.3628476    0.2860753 -69.31 0.0006217643    1.285    0.222
         3 -11.8536     58.0524     29.4059   2.0492301228e+01   6.5907007441e+01    0.6029269    0.4002376 -11.08  0.001132186    2.113    0.527
         4 -11.0636     20.6453     21.6522   3.7611399321e+01   7.3909428755e+01    0.5480939    0.2829225 -34.62  0.002592466    2.094    0.522
         5 -11.0871    134.7253     22.0726   3.5806461323e+02   4.8313463782e+01    0.3524241    0.2545803 -15.24  0.001880286    1.752    0.429
         6 -11.9568     35.4259     18.4906   2.5814826152e+01   7.2060456073e+01      0.59642    0.4781795 -28.98  0.003234081    1.293    0.227
         7 -12.3597     48.4906     12.6786   1.5445814555e+01   7.0280887181e+01    0.7507349    0.2662068  53.08  0.003000569    2.523    0.604
         8 -11.8359     23.1420     10.5829   2.8719744460e+01   7.5386434232e+01    0.7158895    0.3599122  27.07   0.00329214    2.290    0.563
         9 -11.7312      9.3009     19.4496   4.5555827974e+01   7.5711008497e+01    0.7103523    0.3364245  -0.56   0.00267233    3.742    0.733
        10 -11.2149     16.5455     13.4918   3.5807388238e+01   7.5916145158e+01    0.2762946    0.2102757 -24.18 0.0009026512    1.288    0.224
        11 -11.8110     16.8393      9.8759   3.3103428380e+01   7.6471490167e+01    0.5857787    0.2922983  49.58  0.001920073    2.753    0.637
        12 -12.0689    164.3819     18.2371   3.5347849774e+02   4.1589956158e+01    0.4119606    0.2833873  39.40   0.00222424    2.057    0.514
        13 -12.1450    127.3079     15.7515   3.5693391128e+02   5.0854110281e+01    0.5650759    0.3345565 -25.62  0.002029018    1.883    0.469
        14 -11.3834    134.9229     14.4464   3.5549327809e+02   4.9095028424e+01    0.5804261    0.2316561  65.02  0.002494266    2.234    0.552
        15 -11.0390     88.7060      7.9178   3.4811641324e-01   6.1333008890e+01    0.3303534    0.3011721  68.11  0.001179971    1.047    0.045
        16 -10.4981    225.5913     13.4824   3.4806355822e+02   2.9201193567e+01     0.196292    0.1324291 -48.44 0.0004658392    1.126    0.112
        17 -11.3036    243.5105     14.4588   3.4741599566e+02   2.5871871571e+01     0.207101    0.1577841  27.09  0.001393612    2.450    0.592
        18 -11.2776    121.4000     11.3488   3.5618365095e+02   5.2782930993e+01    0.3206425    0.1856749 -82.54  0.001540101    1.801    0.445
        19 -11.1429    212.0272      9.9494   3.4798882478e+02   3.2182303014e+01    0.3067157    0.1736571 -27.72  0.001157589    1.840    0.456
        20 -11.5901     63.7923      9.8640   7.8888332626e+00   6.7181524185e+01    0.3694561    0.2287266  56.26  0.001208308    1.421    0.297
        21 -10.7974     62.4893      6.5064   6.4345058192e+00   6.7828387175e+01    0.3024087    0.1826369  47.02 0.0009639215    1.514    0.339
        22 -10.8931    168.2117      9.6098   3.5072846152e+02   4.1609640684e+01    0.3924509     0.186858  62.26  0.001836159    2.168    0.539
        23 -10.6880      1.3125      8.2683   4.6626517066e+01   7.8622964510e+01    0.3300294   0.09705649 -53.24  0.001346771    3.182    0.686
        24 -11.5550     86.1596     14.2934   3.8476818014e+00   6.1328293647e+01    0.5925909    0.4058727 -38.79   0.00316804    1.556    0.357
        25 -10.1569      5.6471      8.9875   4.2642158804e+01   7.8054958049e+01     0.173314    0.1443293 -26.03  0.000818742    1.118    0.106
        26 -10.0590    185.8263      6.8164   3.4874976332e+02   3.7945920365e+01    0.1709686    0.1541696 -85.13  0.000668282    1.232    0.188
        27  -9.9081     78.0412      7.2995   2.4739723167e+00   6.4025760936e+01    0.1941111    0.1535133  69.60  0.000665859    1.139    0.122
        28 -10.4253    128.9660      4.7538   3.5290092903e+02   5.1509733859e+01    0.1889502    0.1790554 -22.35  0.001232277    1.274    0.215
        29 -12.0058    133.8668      2.3937   3.5157913022e+02   5.0504081650e+01    0.6247179    0.2503948  80.81  0.002684553    2.313    0.568
        30 -10.3057    223.7306      2.3602   3.4578140581e+02   3.0689491983e+01    0.2038587    0.1206657 -56.98   0.00056056    1.248    0.199
        31 -10.5157    218.8241      3.2021   3.4617044652e+02   3.1540361361e+01    0.1803536     0.115506 -59.21 0.0007538814    1.170    0.146
        32 -11.3152     40.6835      3.8628   1.3390661404e+01   7.2953255024e+01    0.3205264    0.2391121  37.58 0.0009945361    1.215    0.177
        33 -11.7792    113.9372      2.1310   3.5375317683e+02   5.5497524008e+01    0.4894134     0.221195  81.57  0.001605396    2.087    0.521
        34 -10.9549    105.9722      2.4473   3.5496914403e+02   5.7476565529e+01     0.350922    0.1907043 -69.60  0.001639448    2.050    0.512
        35 -10.5709    242.0089      1.9800   3.4500405237e+02   2.7409649005e+01     0.135553   0.09326714 -53.60  0.001003615    1.017    0.017
        36 -10.7388    207.4751      2.4797   3.4652606047e+02   3.3843028329e+01    0.2144991    0.1007437  83.18 0.0006759244    2.080    0.519
        37 -10.4632    210.4805      1.4830   3.4616181367e+02   3.3339914342e+01    0.1652639     0.122852 -58.80 0.0006199899    1.012    0.012
        38 -10.2331    153.9721      6.5400   3.5101963740e+02   4.5245589923e+01    0.1861677    0.1121102  81.04 0.0003580838    1.509    0.337
        39  -9.8661     12.4182      1.8513   3.0800950077e+01   7.8350211036e+01    0.1645498    0.1059035 -22.87 0.0005509263    1.645    0.392
        40 -10.0378      1.9109      1.8162   4.1399169505e+01   7.9705987042e+01    0.1924874    0.1396496 -11.81  0.001209122    1.302    0.232
        41  -9.9747    152.4827      1.4483   3.4962130861e+02   4.6070543991e+01    0.2389199    0.1104408  80.71 0.0006238014    1.960    0.490
        42 -10.1589     22.2506      3.5637   2.4179435907e+01   7.6535004220e+01    0.3106443    0.1047047 -30.66  0.001197145    3.605    0.723
        43 -11.1552      7.9525    114.2441   6.9431107993e+01   5.2107653648e+01    0.3396395    0.2799405 -60.09 0.0006618091    1.174    0.148
        44 -12.1888      2.6156    111.6504   7.1367787141e+01   5.3143062537e+01    0.5166499    0.3511497 -77.37  0.001653283    1.322    0.243
        45 -11.7306      2.9667    104.2426   7.0510842704e+01   5.5161304781e+01    0.5618618    0.3247662  45.78  0.001467177    1.786    0.440
        46  -9.8102     48.8424    111.6242   5.2397100701e+01   4.8760067109e+01    0.2197222    0.1318589  40.87 0.0005967942    1.665    0.400
        47 -11.2572     79.9815    107.8551   3.9942215465e+01   4.4800064161e+01    0.4247464    0.3417594  13.35  0.001170442    1.493    0.330
        48 -11.6372     22.4821     94.8050   6.0435721807e+01   5.6345907152e+01     0.551706    0.2826006 -31.47   0.00216653    2.486    0.598
        49 -11.8056     16.0238    108.4713   6.5400053861e+01   5.3132347103e+01    0.4396227    0.3585599 -24.02  0.002363901    1.373    0.271
        50 -11.9341     17.5291    101.2996   6.3740190480e+01   5.4992796182e+01    0.5244186    0.2330402 -87.67  0.001285298    2.659    0.624
        51  -9.3922    180.3421    106.3115   1.4445728451e+01   2.4902113456e+01    0.1353868    0.1068431  -0.30 0.0006278332    1.699    0.411
        52 -10.5401     47.3866    102.2275   5.1004436703e+01   5.1489894982e+01    0.4062996    0.1650328 -47.55  0.001418511    2.554    0.609
        53 -10.6493     50.5057    100.5575   4.9339467993e+01   5.1500341202e+01    0.3823251    0.2508542 -48.67   0.00152204    1.520    0.342
        54 -10.6779     35.2005    102.9684   5.6295952319e+01   5.2814588907e+01    0.2548957    0.2157717  -2.11  0.000311668    1.332    0.249
        55 -11.4992      8.2929     95.7860   6.7150856810e+01   5.7168732108e+01    0.2995574    0.2632887  -7.87  0.001720031    1.253    0.202
        56 -11.3182    210.3680     98.1327   8.1091368378e+00   2.0732328472e+01    0.2102935    0.1853357 -48.93 0.0002726758    1.079    0.073
        57 -11.9198     68.0528     95.1451   4.0979422068e+01   5.0117247598e+01    0.3589335    0.3339474   4.94 0.0007218954    1.177    0.150
        58 -11.5168    248.0215     95.9775   3.3516469168e+00   1.4951289777e+01    0.2554474     0.140433 -29.59  0.001482163    1.660    0.398
        59 -10.2177     77.1550     96.5237   3.7970117301e+01   4.8138039208e+01    0.2242656    0.1534079  37.69  0.000513335    1.484    0.326
        60 -10.0126     43.0043     94.6790   5.1160386852e+01   5.4089659719e+01    0.2102662    0.2023205  37.53 0.0007822479    1.072    0.067
        61  -9.3978    125.9783     93.7753   2.2388479407e+01   3.8655542826e+01    0.1886271    0.1251829  49.72 0.0003110561    1.547    0.354
        62 -11.0120     78.8950     91.4790   3.5925344297e+01   4.9036129526e+01    0.5885258    0.2008523 -55.83  0.001794801    3.230    0.690
        63  -9.8489     35.4925     92.0473   5.3911564885e+01   5.5729080033e+01    0.2311519    0.1422111 -67.06 0.0008597461    1.579    0.367
        64 -10.5810     98.0714     90.6832   2.9271799869e+01   4.5356375671e+01     0.243272    0.2149009 -54.63 0.0004298927    1.119    0.106
        65  -9.8926     43.9023     90.3493   4.9731321277e+01   5.5110940957e+01    0.1944499    0.1848985  17.64   0.00034935    1.097    0.089
        66  -9.3400     38.4872     90.4785   5.2194210038e+01   5.5782061718e+01    0.1487817    0.1406159 -48.31 0.0001101038    1.045    0.043
        67 -11.6327      5.7565     88.0209   6.7311948077e+01   5.9431936063e+01    0.5852573    0.3681964   7.32  0.002203002    1.772    0.436
        68 -10.8567      2.7936     81.5446   6.7895275730e+01   6.1332507981e+01    0.3869759    0.2058347  59.61   0.00169311    2.207    0.547
        69 -11.6848     18.5473     86.8315   6.0855318024e+01   5.8847619083e+01    0.4093419    0.3109938  80.31  0.001882041    1.421    0.296
        70 -10.5418     29.6926     87.6823   5.5647139210e+01   5.7548198527e+01    0.3784982    0.2168906   1.40  0.001124374    2.340    0.573
        71 -11.0688     28.2995     84.1518   5.5535205365e+01   5.8633327936e+01    0.5997959    0.4556252  31.05  0.001620848    1.360    0.265
        72  -9.9730     52.2114     87.1633   4.5262319980e+01   5.4734131953e+01    0.2052307    0.1749935  81.88 0.0004745596    1.301    0.231
        73  -9.2187    104.6552     86.7227   2.6107170937e+01   4.4820072339e+01    0.1519183     0.124224   8.57 0.0002870027    1.629    0.386
        74  -9.7144     90.1567     85.8159   3.0354204306e+01   4.8107973773e+01    0.3353497     0.185494 -68.10  0.001158414    2.833    0.647
        75 -11.2168     44.7864     84.1350   4.7739904347e+01   5.6598443436e+01    0.4551103    0.4047669  81.96  0.001975636    1.210    0.173
        76  -9.3269    118.4774     85.4941   2.1919656475e+01   4.2023467971e+01    0.1516343    0.1456593 -74.76 -6.227581e-05    1.015    0.014
        77  -9.8709     36.9595     85.5370   5.1718513728e+01   5.7271781658e+01    0.2234803    0.1461667  25.90  0.001029742    1.589    0.371
        78  -9.2205    143.4903     84.4132   1.5772699943e+01   3.6616745901e+01    0.1457897    0.1369084 -69.57 0.0001858319    1.017    0.016
        79 -12.1671     60.8829     83.4117   4.0522460496e+01   5.4265702969e+01    0.2976422    0.2720749  60.67 0.0004108389    1.130    0.115
        80  -9.9440    113.3433     82.6505   2.2430334314e+01   4.3757074198e+01    0.2445695    0.1817654 -82.38 0.0008556558    1.696    0.410
        81 -12.7014    247.5983     77.0869   3.5967256404e+02   1.7597478703e+01     0.614041    0.2244526 -37.32  0.003084031    2.026    0.506
        82 -10.0008     76.7918     75.5672   3.1790147219e+01   5.3142961811e+01    0.3245699    0.2403621  69.59  0.001157766    1.656    0.396
        83  -9.3040    118.7594     78.3261   1.9692674341e+01   4.3400013283e+01    0.1507311    0.1128652 -71.10 0.0001266052    1.529    0.346
        84 -10.0559     58.2554     77.9660   3.9981731966e+01   5.6035750955e+01    0.2137011    0.1893378 -54.96 0.0004506316    1.119    0.106
        85 -10.3690     89.0505     77.1646   2.8001157036e+01   5.0253888069e+01     0.366561    0.1925246  51.50  0.001398031    1.975    0.494
        86 -11.0091     52.7929     76.0634   4.1787228102e+01   5.7401823130e+01    0.3303363    0.2518927  55.97  0.001609637    1.457    0.314
        87  -9.2918    158.9740     75.9883   1.0487440662e+01   3.4671325996e+01    0.1672106    0.1515823 -63.68 0.0003739375    1.010    0.010
        88 -10.3584     94.5519     75.4458   2.5655382650e+01   4.9431931493e+01    0.2611116    0.2531585  89.28 0.0005884348    1.003    0.003
        89 -11.3800     14.2317     74.5695   6.0673539555e+01   6.2448789601e+01    0.3525294    0.2622041 -81.82  0.001851467    1.374    0.272
        90 -11.6395     27.7062     73.3238   5.3215478397e+01   6.1510695584e+01    0.3142804    0.2550583  -3.03 0.0002125057    1.339    0.253
        91 -11.3075      2.1569     71.1136   6.6663054590e+01   6.4120048936e+01    0.5342332    0.2167072 -70.26  0.002216372    2.149    0.535
        92 -13.2808      5.3920     61.5504   6.3008325338e+01   6.6406344882e+01    0.8158523    0.4813075 -11.36  0.001515189    1.899    0.473
        93 -10.7226     34.7686     71.2178   4.8979806292e+01   6.1205608515e+01    0.4192745    0.2195721  37.81  0.001462092    1.940    0.485
        94 -10.3332     40.6990     72.8377   4.6483006169e+01   6.0013768294e+01     0.295156    0.2406814 -17.89 0.0007409083    1.362    0.266
        95 -10.8844     40.4045     68.6348   4.5341253889e+01   6.1082885780e+01    0.3171451    0.2445902  32.68  0.001453938    1.313    0.238
        96 -11.2517     74.9450     79.0925   3.3623318284e+01   5.2710145317e+01    0.6067936    0.3544996  54.57  0.002477981    1.952    0.488
        97 -11.4726    122.7281     68.4235   1.5636960109e+01   4.4359131483e+01    0.3890231    0.2563655  45.65 0.0009272382    1.633    0.388
        98 -10.5732    101.9814     66.8486   2.0539410303e+01   4.9496345346e+01    0.2344317    0.2133638 -51.83 0.0003508271    1.104    0.094
        99 -10.0917     14.1426     67.3789   5.9156106789e+01   6.4315299173e+01    0.4980704    0.1450073  13.67  0.001561431    4.210    0.762
       100 -10.2865    202.0843     63.6167   1.2705674796e+00   2.7515178299e+01    0.2548988    0.1683999 -34.58  0.001049389    1.409    0.290
       101 -11.6022     39.5940     56.5363   4.1641433584e+01   6.4035299291e+01    0.3181545    0.2427598  37.36 0.0005809907    1.324    0.245
       102 -11.3885     43.4387     60.4150   4.1051014247e+01   6.2569701274e+01    0.4781409    0.2479227 -56.32 0.0008319292    1.977    0.494
       103 -11.5808     46.4667     59.4983   3.9200160193e+01   6.2298178022e+01    0.6259151    0.2478322  45.62  0.002227073    2.849    0.649
       104 -10.3676    105.6021     63.3024   1.8311076498e+01   4.9328100255e+01    0.1971137    0.1801966  78.98   0.00074559    1.069    0.064
       105 -10.8380     92.7534     62.5897   2.1832183159e+01   5.2425856732e+01    0.3413651    0.2508357  71.63 0.0008352107    1.560    0.359
       106  -9.8099    159.5002     62.5074   6.6825987030e+00   3.6777848462e+01    0.2372994     0.120313  50.45 0.0008836013    2.220    0.550
       107  -9.9466    150.8830     60.8722   7.6450257442e+00   3.9024327374e+01    0.1984662     0.191628 -22.58 0.0005291227    1.219    0.179
       108  -9.6374    113.4898     60.4917   1.5288692262e+01   4.7974545195e+01    0.1481837    0.1404768 -88.92 2.511379e-05    1.013    0.012
       109 -10.1811     21.5063     57.5317   5.2220338508e+01   6.6096404813e+01    0.2363103    0.2168304 -54.60  0.001034982    1.076    0.071
       110 -11.2571     25.3241     55.5467   4.9317482015e+01   6.6153977832e+01     0.791284     0.511906  87.28  0.003507291    2.386    0.581
       111 -10.2294    106.2452     58.2259   1.6379280530e+01   5.0099033938e+01    0.2061972    0.1689271 -84.46 0.0005535349    1.327    0.247
       112 -12.1487     73.8599     49.4736   2.3277985239e+01   5.9100669006e+01     1.190213    0.4236337 -52.97  0.003458063    4.464    0.776
       113 -10.9457    124.3976     56.9688   1.1566759968e+01   4.5962787213e+01    0.2591324    0.1964146  45.41 0.0003296179    1.450    0.311
       114 -10.2820     88.0000     56.4269   2.1091955541e+01   5.4671734550e+01    0.3164313   0.08475764 -40.95 0.0009221609    3.834    0.739
       115 -10.4354    156.7568     53.8283   4.6534036653e+00   3.8750958077e+01    0.2687353    0.1646419 -79.09  0.001220871    1.995    0.499
       116 -11.3666     31.2765     53.1122   4.4988630640e+01   6.5983929788e+01    0.4291974    0.2689311   5.73  0.001944194    2.040    0.510
       117 -10.8062    126.1925     51.8137   9.4872898913e+00   4.6366608249e+01    0.4555233    0.2276889 -23.21  0.001663286    2.995    0.666
       118 -10.4963     59.7668     50.3034   2.9338838954e+01   6.1856546276e+01    0.5036885    0.2728604 -59.59  0.001990416    2.539    0.606
       119 -10.2135     61.6349     46.2156   2.6798927059e+01   6.2271828855e+01    0.3076365    0.1751547 -31.98  0.001315044    2.084    0.520
       120 -10.8195    243.7092     51.0299   3.5475944631e+02   2.1609296399e+01    0.1627961    0.1124153 -45.86 0.0003610621    1.073    0.068
       121 -10.3602    112.3687     50.2146   1.2010619906e+01   4.9988592347e+01     0.317919    0.2614763  -5.56  0.001041253    1.595    0.373
       122 -12.2812    119.7757     37.5871   5.9162932034e+00   5.0070302678e+01    0.6033275    0.3551723 -53.83  0.001793844    1.787    0.440
       123 -11.3958    117.0109     47.6510   1.0041017538e+01   4.9263775260e+01    0.4613606    0.3400887  31.02   0.00136402    1.776    0.437
       124 -11.5710    116.4272     43.7484   8.7959041487e+00   5.0005380854e+01    0.3664487     0.293562  29.75  0.001626227    1.569    0.363
       125 -10.3561    155.3902     48.3543   3.2755817863e+00   3.9878513520e+01    0.2533978    0.1335271 -28.56 0.0006838781    2.130    0.531
       126 -10.5448      9.4829     55.5449   5.9068523782e+01   6.7639178593e+01    0.2599238    0.2134231  44.79 0.0008953965    1.363    0.267
       127 -10.2404     82.7640     47.5224   1.9345000604e+01   5.7466904640e+01    0.3515567    0.2112586 -18.69  0.001392887    2.623    0.619
       128  -9.5152     52.2816     48.3002   3.1933018973e+01   6.3675345770e+01    0.1404046    0.1104805  -5.17  0.000243261    1.547    0.353
       129  -9.9923      2.3491     48.5921   6.2011379966e+01   6.9794273633e+01    0.2311437    0.1191168  19.41 0.0006612978    1.995    0.499
       130 -12.4022     41.6294     44.2396   3.5605696478e+01   6.6357645658e+01    0.9173599    0.3481988  36.22  0.003463536    2.620    0.618
       131 -10.6169     23.5218     37.2045   4.3415748728e+01   7.0471859957e+01    0.4386343    0.2178572  44.55  0.001906817    2.397    0.583
       132 -11.5094     26.4550     42.9910   4.3976795873e+01   6.8863443434e+01    0.3410864    0.2691529  57.21 0.0005113358    1.574    0.365
       133 -10.4293     13.5518     46.0263   5.3597726654e+01   6.9593290624e+01    0.2833832     0.181877 -27.02  0.001146324    1.628    0.386
       134 -10.3372     20.6554     45.8574   4.8819942561e+01   6.8921937597e+01    0.2215738    0.1794855  -5.09 0.0006126179    1.252    0.202
       135 -11.1826    110.1401     39.8717   8.7862487352e+00   5.2131429793e+01    0.5134784    0.3494764 -21.49  0.001777624    1.815    0.449
       136 -10.0489    156.0036     41.9996   1.3292336622e+00   4.0630643154e+01    0.2113015    0.1875163 -65.42 0.0007093629    1.042    0.040
       137 -10.0015     56.9139     41.7325   2.6897258844e+01   6.4049124344e+01     0.206626    0.1703912  46.27  0.001121756    1.181    0.153
       138 -10.6361     18.2446     40.3929   4.8339547186e+01   7.0406826314e+01    0.2821227    0.1758483 -36.62  0.001426705    1.589    0.371
       139 -10.3924    249.9707     38.9859   3.5193822398e+02   2.2030672663e+01    0.1713806    0.1186313 -50.80 0.0003847663    1.041    0.039
       140 -11.4893     79.0905     34.8859   1.5215723748e+01   6.0374339945e+01    0.5789881    0.4253353 -29.05  0.002359985    1.502    0.334
       141 -11.3605      3.6198     36.6078   5.7643096720e+01   7.2540421695e+01    0.4344621    0.3280291 -53.24  0.001304403    1.216    0.177
       142 -10.0165     60.5295     36.9470   2.3103270599e+01   6.4158049187e+01     0.244211    0.2005761 -43.62 0.0006707934    1.287    0.223
       143 -10.8793     63.6916     33.4087   2.0117841689e+01   6.4069469476e+01     0.526189    0.1340963  46.90  0.001263004    3.664    0.727
       144 -10.6164    175.6624     34.5272   3.5684141896e+02   3.7079162445e+01    0.3108227    0.1507742 -58.68  0.001316363    2.036    0.509
       145 -10.3098    219.4783    248.4943   3.3497602104e+01  -2.7916449874e+00    0.1055956   0.07391944  -4.89 0.0001773297    1.021    0.020
       146 -12.7484    112.5843     25.0870   2.7309890893e+00   5.3498033352e+01    0.7441391    0.3278114  60.83  0.003054083    2.037    0.509
       147 -10.7246    131.8198    240.8144   4.8763899182e+01   7.5313314316e+00    0.1841409    0.1423302   4.53 0.0006913514    1.182    0.154
       148 -10.6898    240.1088     32.5623   3.5124254005e+02   2.4452406216e+01    0.2059579     0.168781   7.30  0.001273628    2.014    0.503
       149 -10.7821    153.1166     35.7797   3.5988191963e+02   4.2149332140e+01    0.2301148    0.1909273 -66.86 0.0005218897    1.067    0.063
       150  -9.5335    217.2245     31.9817   3.5261103935e+02   2.8709187797e+01    0.1533567   0.08044388 -37.20 0.0008522685    1.580    0.367
       151 -10.9154      9.9405     30.3424   5.0304217015e+01   7.3423003035e+01    0.3384452    0.2763893  17.77  0.002079007    1.224    0.183
       152 -11.4518    247.7145    222.7602   2.5521678010e+01  -2.2541142126e+00    0.2728426    0.2176843 -16.95  0.002289744    1.324    0.245
       153 -11.4097     48.8643     29.9889   2.5015809790e+01   6.7685717801e+01    0.6704322    0.2348536  40.06   0.00241243    2.960    0.662
       154 -10.8883    170.4632     29.9848   3.5615462655e+02   3.8822313397e+01    0.2475317    0.1574815 -78.58  0.000441874    1.547    0.353
       155 -12.7028    164.6486     27.3752   3.5604363520e+02   4.0479763232e+01    0.3919683    0.2953065  81.43 0.0008778331    1.269    0.212
       156 -11.5171    157.1702     29.1708   3.5740811128e+02   4.2019853868e+01    0.3033117    0.2306456 -66.64 0.0009819122    1.174    0.148
       157 -12.5232    127.1345     28.3244   1.3374406560e+00   4.9457216628e+01    0.6791599    0.3643927  76.20  0.001823848    1.864    0.464
       158 -11.9022     26.5024     27.4032   3.6628340615e+01   7.2009980699e+01    0.4475806    0.3251115 -56.07   0.00159698    1.607    0.378
       159 -10.1222    177.5261     28.9759   3.5516919119e+02   3.7346140993e+01    0.1953344    0.1149266 -35.55 0.0008424654    1.590    0.371
       160 -10.1812    188.8289     27.5602   3.5377344513e+02   3.5031289192e+01    0.2609559    0.1898213  38.87   0.00149439    2.038    0.509
       161 -11.3043    230.3697     26.5337   3.5057206963e+02   2.6880967980e+01    0.1966214    0.1861093 -54.64  0.001091976    1.359    0.264
       162 -10.7715    183.6255     26.5446   3.5396665391e+02   3.6283449677e+01    0.3359427    0.1359764 -46.07  0.001409644    2.016    0.504
       163 -11.2064    149.4589     27.5586   3.5786884776e+02   4.4061221729e+01    0.4398042    0.1019423  65.72  0.001468527    3.692    0.729
       164 -10.0750    206.2475     25.2683   3.5185856649e+02   3.1661754093e+01    0.1700954    0.1066963 -58.24 0.0004486074    1.296    0.228
       165 -10.9139     46.3960     24.0249   2.3051752200e+01   6.9126563090e+01     0.314803    0.2395083   0.05  0.000806298    1.569    0.363
       166 -10.4261     46.6060     19.7963   2.0556113149e+01   6.9716411659e+01     0.222975    0.1949163  65.05  0.000947671    1.281    0.219
       167  -9.8397    229.5653    199.2250   2.4554892468e+01   2.5470088831e+00    0.1607919   0.08240634 -27.12 0.0009469643    1.656    0.396
       168 -10.1954    232.5970    190.7840   2.2715396134e+01   3.3797265258e+00    0.1532918   0.08875414 -40.09 0.0009513566    1.622    0.384
       169 -10.5351    177.4863     21.9889   3.5331384331e+02   3.8173486485e+01    0.2829508    0.2132736  39.63  0.001060696    1.873    0.466
       170 -10.6352    181.9543     19.0000   3.5215193942e+02   3.7514296431e+01    0.2886288    0.1588833  67.31  0.001234315    1.865    0.464
       171 -10.5677    169.2746     23.0176   3.5435029590e+02   3.9920623297e+01    0.2123141    0.1653223  87.93 0.0003775171    1.202    0.168
       172 -11.9456    149.2605     22.5216   3.5634674740e+02   4.4701900586e+01    0.4643635    0.1928266  76.62  0.001832121    2.402    0.584
       173 -11.4214    249.2130     21.2576   3.4849392307e+02   2.4168708632e+01    0.2179449    0.1560926  62.63  0.001589968    1.899    0.473
       174 -11.0460     68.7726     20.4943   1.1846956318e+01   6.4783809008e+01    0.3608718    0.2594745 -45.53  0.001442397    1.538    0.350
       175  -9.8065    243.2499    186.0163   2.0383487666e+01   2.8719217796e+00    0.1461484   0.07340522 -34.19 0.0008816452    1.565    0.361
       176  -9.8311     39.8091     15.1744   2.1283662844e+01   7.1722611740e+01    0.2070891    0.1687826  13.34 0.0005366913    1.261    0.207
       177 -11.4088      6.5089    185.6859   7.4826824792e+01   3.3226999018e+01    0.2860529    0.1869323  61.55  0.001573003    1.332    0.249
       178 -11.4276      3.2276    181.8308   7.5567004507e+01   3.4427770631e+01    0.3401104    0.1924807 -54.28  0.001688033    2.043    0.511
       179  -9.1486     34.5384    180.4872   6.6518753454e+01   3.1980660891e+01    0.1391242    0.1239287  59.57 0.0001805763    1.007    0.007
       180  -9.6629    248.9932    175.5036   1.7834617259e+01   3.6699165255e+00    0.1174355    0.0993367  75.10 0.0008094997    2.458    0.593
       181 -11.8770      9.2771    166.7140   7.3031798098e+01   3.7801297051e+01    0.2924196    0.2287578  13.20  0.001189367    1.440    0.306
       182  -9.6547    157.0041    165.9984   3.1807964499e+01   1.7713866309e+01    0.1654416    0.1496551 -21.57 0.0005196848    1.029    0.028
       183  -9.8098     74.9827     19.0190   9.1166999482e+00   6.3507367370e+01    0.2255851    0.1510365  32.64 0.0007140741    1.722    0.419
       184 -10.3225     18.3006    165.3282   7.0173974986e+01   3.7422481175e+01    0.1388964   0.09967309 -43.69 0.0004102957    1.641    0.391
       185 -10.0593    205.1308    163.1476   2.2167612677e+01   1.0965237022e+01    0.1911362    0.1475726 -18.57 0.0008258583    1.162    0.140
       186 -12.3650     13.2291    160.1805   7.1389241164e+01   3.9199590169e+01     0.420915     0.289496 -43.14  0.002156255    1.715    0.417
       187 -11.4014    235.8940     15.8963   3.4806000037e+02   2.7058779651e+01    0.1549311    0.1409357 -50.10  0.001231305    1.344    0.256
       188 -11.1318    228.5267     15.5216   3.4834765850e+02   2.8438038893e+01     0.221476    0.1403047 -57.67 0.0006672168    1.194    0.163
       189 -10.2452    241.5915    153.2495   1.4931577169e+01   7.6429613957e+00    0.2514721    0.1869338  78.38  0.001487395    2.957    0.662
       190 -10.0455    104.4182    154.2115   4.2419972195e+01   2.9003569286e+01    0.2118076     0.145601 -70.06 0.0009550783    1.703    0.413
       191  -9.9421    186.6401     14.8440   3.5072774833e+02   3.6939478615e+01    0.1845216   0.08641464 -42.87 0.0009451197    1.731    0.422
       192 -10.7538    112.0445     14.8486   3.5891432644e+02   5.4784951803e+01    0.2136323    0.1652948 -74.95 0.0005626488    1.259    0.205
       193 -10.4669    190.6186     12.8079   3.4994008821e+02   3.6296563753e+01    0.1805695   0.08506307 -43.53 0.0005285348    1.696    0.411
       194 -10.3420     55.4237    152.7915   5.6996391881e+01   3.6751541808e+01    0.2155544    0.1293506 -54.94 0.0009045558    1.690    0.408
       195 -10.1454      4.6664    153.3238   7.3680521636e+01   4.1658176650e+01    0.1541605   0.08375326  56.02 0.0003852688    1.708    0.415
       196 -11.8602    106.3553     31.8114   6.5830324785e+00   5.4199817484e+01    0.6442004    0.3441545  42.76  0.002743895    2.212    0.548
       197 -11.6058     21.2043    150.5535   6.8035352716e+01   4.1099103962e+01    0.2560919    0.2477843 -58.37 0.0003921264    1.150    0.130
       198 -11.6162     24.6037    147.1879   6.6571347462e+01   4.1702983490e+01    0.3576878    0.2426282 -55.39  0.001075014    1.519    0.342
       199 -10.7422     45.2822    149.4849   5.9869747699e+01   3.8892472465e+01    0.3951945    0.2261031 -46.08  0.001690622    1.964    0.491
       200 -10.3891     16.5879    147.7067   6.9335363617e+01   4.2264586786e+01    0.2000353    0.1242737  84.62 0.0007751724    1.562    0.360
       201 -10.7766     32.8940    143.9184   6.3375212074e+01   4.1780438006e+01    0.2660938    0.2274418 -83.81 0.0007154113    1.113    0.102
       202 -12.1313      3.6778    142.0437   7.3305710248e+01   4.4751582470e+01    0.5368821     0.329885  28.37  0.002509376    1.634    0.388
       203 -10.6945     40.4762    137.8715   5.9949056009e+01   4.2608461086e+01    0.3058149    0.2328357 -86.18 0.0007604798    1.302    0.232
       204 -11.3587     30.3089    132.6600   6.2914401649e+01   4.5138916811e+01    0.3414816    0.2500879 -37.66 0.0009029716    1.556    0.357
       205 -11.7502     23.9924    136.7825   6.5696386340e+01   4.4608228444e+01    0.4370805    0.2732144 -24.92  0.001936062    2.118    0.528
       206 -12.0574     12.3707    135.4340   6.9744540209e+01   4.5947481398e+01    0.5972248    0.2622896 -46.71  0.002343116    2.563    0.610
       207  -9.3527     26.7076    127.2996   6.3570054627e+01   4.6976740404e+01    0.1533462    0.1012976  60.96 0.0001775739    1.565    0.361
       208 -11.0978     11.5705    125.0807   6.9082241333e+01   4.8861589486e+01    0.4568835    0.1909811 -57.59  0.001729398    2.222    0.550
       209 -10.4567     20.4794    133.9984   6.6666507873e+01   4.5688705601e+01    0.2957376    0.2282978 -60.22  0.001025727    1.282    0.220
       210 -10.1315      1.7927    124.7750   7.2775725321e+01   4.9578619751e+01    0.2068559    0.1459074  63.11  0.001073174    1.361    0.265
       211 -12.1961    245.7361    119.1279   8.0695774400e+00   1.2008891370e+01    0.4001312    0.2089358 -54.05  0.002141572    2.278    0.561
       212 -10.8810    104.1808    122.5513   3.5811953507e+01   3.6665406937e+01    0.3163055     0.279075  50.22  0.001384822    1.143    0.125
       213  -9.7776    218.3232    116.3127   1.0913081105e+01   1.6532909764e+01    0.1215027   0.09048519  -9.17 0.0002818894    1.657    0.397
       214  -9.8767     43.4387    115.9123   5.5344378289e+01   4.8290591440e+01    0.2250146    0.1236541  80.88 0.0008068577    2.621    0.619
       215 -10.0128     78.8663    114.8481   4.2021858285e+01   4.3223782562e+01    0.2330205    0.2121192 -19.77 0.0004939692    1.230    0.187
       216 -11.9346     26.7165    105.9812   6.0469195517e+01   5.2884274926e+01    0.6902251    0.6191209 -44.10  0.003824378    1.145    0.127
       217 -11.5731     22.3874    114.0887   6.3509122169e+01   5.1043838676e+01      0.53473    0.3119938  -2.96     0.002094    2.251    0.556
       218 -11.5621     27.5462    112.1345   6.1103840377e+01   5.1103100643e+01    0.4600957    0.3093881  45.85  0.001385057    1.516    0.340
