#   1 NUMBER                 Running object number                                     
#   2 MAG_AUTO               Kron-like elliptical aperture magnitude                    [mag]
#   3 X_IMAGE                Object position along x                                    [pixel]
#   4 Y_IMAGE                Object position along y                                    [pixel]
#   5 X_WORLD                Barycenter position along world x axis                     [deg]
#   6 Y_WORLD                Barycenter position along world y axis                     [deg]
#   7 A_WORLD                Profile RMS along major axis (world units)                 [deg]
#   8 B_WORLD                Profile RMS along minor axis (world units)                 [deg]
#   9 THETA_WORLD            Position angle (CCW/world-x)                               [deg]
#  10 FWHM_WORLD             FWHM assuming a gaussian core                              [deg]
#  11 ELONGATION             A_IMAGE/B_IMAGE                                           
#  12 ELLIPTICITY            1 - B_IMAGE/A_IMAGE                                       
         1 -13.9813     95.0162     68.9127   3.3257223597e+01   4.9784077095e+01    0.6741557     0.310809 -52.19  0.003038214    2.292    0.564
         2 -10.8910     40.0185     14.5460   3.4238322176e+01   6.8544288845e+01     0.193376     0.151997  13.69  0.001278288    1.639    0.390
         3 -10.7798    235.6678    216.3223   3.3536269511e+01   1.8311910369e+00   0.09115917   0.07314283 -67.54 0.0007049937    1.701    0.412
         4 -11.1367    222.9912    215.5045   3.5190236005e+01   2.9130417709e+00     0.121197   0.08779659  58.19 0.0008102921    2.542    0.607
         5 -10.3189    225.8344    212.2528   3.4356461597e+01   3.2277648682e+00     0.151767    0.1109063 -88.89 0.0009549119    2.810    0.644
         6 -11.4377    162.5166    194.0925   4.2240293638e+01   1.2599789683e+01    0.3549973    0.2446845  40.22  0.002074517    1.708    0.415
         7 -10.8612     56.6683    188.3299   6.7986762725e+01   2.6935796289e+01    0.1644624    0.1066061  57.77 0.0007051908    1.719    0.418
         8 -11.2914     38.7155    179.2056   7.2586118520e+01   3.1411348887e+01    0.4012756    0.1543792  37.67  0.001422807    2.396    0.583
         9 -11.2102     35.7396    173.9857   7.2976050055e+01   3.3184632390e+01    0.3682432    0.1888399  32.47  0.001491064    1.831    0.454
        10 -10.4087     37.6692    164.3112   7.1172246454e+01   3.5714873590e+01    0.1662148    0.1070621  56.32 0.0006351606    1.671    0.402
        11 -11.4254    109.5436    158.6723   4.8348102803e+01   2.7599618900e+01     0.542681    0.2563925  36.59  0.002236833    2.169    0.539
        12 -12.0753    120.3931    155.8061   4.5143256765e+01   2.6655839083e+01    0.4192682    0.2424796  50.42  0.001900668    1.955    0.488
        13 -12.2410    108.5593    146.2534   4.6405161130e+01   3.0747695969e+01    0.4824788    0.2693132  58.43  0.001980456    2.320    0.569
        14 -10.4548     39.3322    147.6724   6.8367551526e+01   4.0200903934e+01    0.1669553    0.1079616  58.19 0.0007051547    1.715    0.417
        15 -11.3814    150.5664    146.1413   3.6825344217e+01   2.4261589930e+01     0.290831    0.1402239  55.26    0.0012346    2.795    0.642
        16 -10.9651     55.9824    145.9824   6.2241573736e+01   3.8625348281e+01    0.3335919    0.1483594  61.37  0.000954364    4.095    0.756
        17 -11.3674     89.9634    144.5456   5.1205421469e+01   3.4079080805e+01    0.5948454    0.2411422  37.63  0.002210469    2.407    0.585
        18 -12.0991    114.2261    133.8780   4.2652945661e+01   3.2739704605e+01    0.4982367    0.2036728  50.50  0.001835328    2.856    0.650
        19 -13.7701     86.6780    131.9539   4.9819879973e+01   3.7731558747e+01    0.9435865    0.4466333  45.96  0.003727584    2.160    0.537
        20 -12.3811    132.2891    130.6982   3.7821041024e+01   3.0455918793e+01    0.4779351    0.2842623 -88.44  0.001933436    2.866    0.651
        21 -14.1393    100.9098    127.4668   4.4875762813e+01   3.6458057820e+01    0.8922352     0.599867  73.34  0.004084434    1.888    0.470
        22 -11.7053    145.0409    132.3255   3.5450501142e+01   2.8032629001e+01    0.3443851    0.1537278  51.78  0.001472921    2.603    0.616
        23 -13.3250    120.6366    126.3187   3.9633160164e+01   3.3370240940e+01     0.706638    0.2638519  47.78  0.002655978    2.853    0.649
        24 -12.2704     59.8452    124.0423   5.7033730960e+01   4.3880813282e+01     0.729601    0.4306989  76.79  0.002783522    2.595    0.615
        25 -12.1939     44.2276    122.8154   6.2559119546e+01   4.6350877817e+01    0.7353075    0.4064041  70.01  0.002713611    2.736    0.635
        26 -11.1539     29.1710    123.4969   6.8606484627e+01   4.7945334813e+01      0.38738    0.1421082  53.49  0.001095201    4.314    0.768
        27 -13.4879    144.6118    120.2000   3.3270116551e+01   3.0611495832e+01    0.5372508    0.3437734  44.54  0.002862924    1.768    0.434
        28 -12.9159     72.5108    120.0698   5.1919947178e+01   4.2935929181e+01    0.6009797    0.2916822  43.96  0.002416912    2.020    0.505
        29 -12.9416    131.7270    118.7917   3.5649211443e+01   3.3093950791e+01    0.4560662    0.3120927  70.84  0.002349509    1.686    0.407
        30 -14.0574    108.7734    112.6477   3.9781539139e+01   3.8449767372e+01    0.8382652    0.4887041 -74.84  0.003585784    2.249    0.555
        31 -15.0001     95.4520    111.2053   4.3042638329e+01   4.1138894183e+01     1.145857    0.6937138  54.35  0.005307828    1.710    0.415
        32 -14.8477     84.2384     99.0451   4.3641308355e+01   4.5833256796e+01    0.9966334    0.5902547  62.55  0.004379177    2.026    0.506
        33 -13.5905     81.1147    114.2364   4.7946554951e+01   4.2924847106e+01    0.5485383    0.3929473  61.20  0.002681917    1.492    0.330
        34 -14.0397    124.8507    112.1894   3.5842158058e+01   3.5681467331e+01    0.8322579     0.401793  42.60    0.0036648    2.271    0.560
        35 -14.7521    130.0851     74.5212   2.6720388410e+01   4.1920569192e+01    0.8604507    0.5203805 -71.01  0.004486945    1.784    0.440
        36 -14.2543    140.4747     92.0229   2.8488561510e+01   3.6831596677e+01    0.7831981    0.4890941  65.38  0.004236376    1.652    0.395
        37 -13.8356    151.7410     88.9642   2.5870749408e+01   3.5345162424e+01    0.5481483    0.3759211 -59.61  0.003042152    1.281    0.220
        38 -13.9557    142.1339     83.9310   2.6511186520e+01   3.7992524617e+01    0.8140876    0.3081281  58.45   0.00346248    2.800    0.643
        39 -16.0363    149.6599    105.5107   2.9492242185e+01   3.2653955192e+01     1.840211    0.9984717  59.89   0.00924571    2.029    0.507
        40 -14.9094    125.7156     91.6077   3.1338613534e+01   3.9645572575e+01    0.8841137    0.7506644  79.98  0.005446387    1.083    0.077
        41 -13.4255     67.9195    110.6736   5.1516549062e+01   4.5952310812e+01    0.6269305    0.3689817  53.67  0.002729195    1.847    0.458
        42 -14.8428    130.0568    101.3095   3.2475001492e+01   3.6957730702e+01    0.9818533    0.6810179  64.72  0.005374748    1.471    0.320
        43 -14.3210    166.0156     94.8993   2.4727985586e+01   3.1798696627e+01    0.5824268    0.4341287 -81.69   0.00371424    1.239    0.193
        44 -15.4015    105.0175     82.2956   3.3980389892e+01   4.5368828622e+01       1.0134    0.8314974  75.08  0.005994632    1.124    0.110
        45 -14.5681     96.2150     95.3796   3.9327986426e+01   4.4430220848e+01    0.7068992     0.682305  64.89  0.004257502    1.149    0.129
        46 -14.8017     87.9517     85.3174   3.9298697118e+01   4.8033564027e+01    0.8631019    0.6349485 -88.53  0.004517837    1.568    0.362
        47 -14.6716    119.2761     80.2985   3.0215552666e+01   4.2983440834e+01    0.7059932    0.5539374 -70.49  0.004221034    1.191    0.160
        48 -15.2256    111.5268     99.4554   3.6273113688e+01   4.0742603386e+01     1.302511    0.8081699  66.82  0.006238747    1.836    0.455
        49 -15.1010     64.5371     94.9602   4.9199716534e+01   5.0154102651e+01     1.086495    0.7879889  34.31  0.005566546    1.366    0.268
        50 -13.0205     44.4736    100.1150   5.8018511662e+01   5.2037871198e+01    0.7174361    0.4218985  77.19  0.002797709    2.779    0.640
        51 -13.5429     73.9409     78.7611   4.2000194357e+01   5.1945028929e+01    0.6240644    0.2437341 -45.56  0.002395724    2.976    0.664
        52 -11.3829    157.7814     75.3956   2.2204802017e+01   3.6582448775e+01    0.1573221    0.1077717  55.91 0.0009133259    1.658    0.397
        53 -13.2571    140.6446     74.3375   2.4755319359e+01   3.9934282335e+01    0.3876883    0.2514943 -88.83  0.002149821    1.645    0.392
        54 -14.2161     82.2587     70.0333   3.7124382037e+01   5.2061673212e+01    0.7666298    0.3523661 -49.30  0.003399638    2.345    0.574
        55 -13.3431     62.4893     70.8371   4.3870445619e+01   5.5567497512e+01    0.7116002    0.1912737 -54.41  0.002290457    4.365    0.771
        56 -12.5865    164.1301     70.9733   2.0415183861e+01   3.6157000062e+01    0.2753235    0.1483297 -75.52   0.00141419    2.149    0.535
        57 -13.4657    147.7249     66.8323   2.2000711375e+01   3.9833359902e+01    0.4158575    0.2388239 -64.21  0.002305733    1.648    0.393
        58 -13.4415    139.1151     65.9811   2.3221658070e+01   4.1608318001e+01    0.3617177    0.2560736 -54.68  0.002223173    1.367    0.268
        59 -13.6714    122.1253     64.3529   2.5957115866e+01   4.5189725119e+01    0.4349016    0.2843708 -49.98  0.002480451    1.575    0.365
        60 -10.3316     96.9990    225.5090   6.1351429524e+01   1.2974598051e+01     0.204932   0.09317295  44.38 0.0008104296    2.565    0.610
        61 -11.5615    236.5897     61.7325   1.1380726522e+01   2.6041441662e+01    0.1745759   0.09344762 -77.25  0.001216394    1.774    0.436
        62 -13.8702    106.0316     69.7997   3.0735487590e+01   4.7453499311e+01    0.4523059    0.3511063 -54.12  0.002688171    1.354    0.262
        63 -12.6337    131.5080     56.7149   2.2464712258e+01   4.4552181633e+01    0.2263702     0.209756 -83.75  0.001580947    1.295    0.228
        64 -10.9404     25.5890     56.1909   5.5785068784e+01   6.4195859665e+01    0.2620655    0.1865223 -19.83  0.001430331    1.696    0.411
        65 -12.6415    119.7785     53.7179   2.3895882788e+01   4.7346136070e+01    0.2839459    0.2407868  18.71  0.001724912    2.066    0.516
        66 -12.8750     73.8101     53.1807   3.5066165724e+01   5.6637404920e+01    0.4196889    0.2728511 -26.41  0.002059225    2.559    0.609
        67 -11.6193    159.6089     61.8203   1.9228040175e+01   3.8407807056e+01    0.1771554   0.08947057 -58.05 0.0009590338    1.763    0.433
        68 -12.3550    140.1187     55.3318   2.0733767779e+01   4.3079296890e+01    0.2439068    0.1589162 -59.90  0.001479371    1.399    0.285
        69 -11.1241     22.8147     48.8323   5.5066366181e+01   6.5958590217e+01    0.1795978    0.1423941  48.75   0.00108886    1.341    0.254
        70 -12.4042     51.0000     64.0022   4.6382152793e+01   5.8864882544e+01    0.3564293    0.1916924 -46.40  0.001696023    2.097    0.523
        71 -10.3459    112.0000     44.9810   2.3252435080e+01   5.0220287771e+01    0.1841523   0.06772463 -43.56 0.0007030225    2.929    0.659
