#   1 NUMBER                 Running object number                                     
#   2 MAG_AUTO               Kron-like elliptical aperture magnitude                    [mag]
#   3 X_IMAGE                Object position along x                                    [pixel]
#   4 Y_IMAGE                Object position along y                                    [pixel]
#   5 X_WORLD                Barycenter position along world x axis                     [deg]
#   6 Y_WORLD                Barycenter position along world y axis                     [deg]
#   7 A_WORLD                Profile RMS along major axis (world units)                 [deg]
#   8 B_WORLD                Profile RMS along minor axis (world units)                 [deg]
#   9 THETA_WORLD            Position angle (CCW/world-x)                               [deg]
#  10 FWHM_WORLD             FWHM assuming a gaussian core                              [deg]
#  11 ELONGATION             A_IMAGE/B_IMAGE                                           
#  12 ELLIPTICITY            1 - B_IMAGE/A_IMAGE                                       
         1 -14.9432      6.1857     71.0956   9.7913264273e+01   6.0780694730e+01     1.092371    0.6691198 -57.21  0.005402492    1.266    0.210
         2 -11.7847    194.7834     23.4131   2.6922629721e+01   3.3237190648e+01    0.4460622    0.3170086 -31.27  0.002442398    1.504    0.335
         3 -13.6137    188.4595     25.3603   2.8219194002e+01   3.4569279877e+01     1.458899    0.5376664 -56.06  0.004744663    4.058    0.754
         4 -13.0692    120.6899     26.7221   4.0486699889e+01   5.1400068897e+01    0.8540381    0.7019953  42.75  0.004320962    1.104    0.094
         5 -14.5005    146.7427     29.9842   3.6104956671e+01   4.4557845079e+01     1.599313    0.7776676  62.42  0.006769206    1.898    0.473
         6 -13.4686    132.1025     32.4982   3.9945393689e+01   4.7906583644e+01    0.7804829    0.6137833 -45.10  0.003285709    1.412    0.292
         7 -13.6974      3.1264     10.1907   8.1796926835e+01   7.3198802457e+01    0.7616844    0.4403678 -48.34  0.004844069    1.569    0.363
         8 -13.6175      8.8527      3.0880   7.4784047957e+01   7.3913160418e+01    0.8894447    0.4833915  40.57   0.00450175    3.096    0.677
         9 -16.1062     14.2407     19.9628   7.9395059726e+01   7.0729937837e+01     1.978176    0.9028368 -30.93   0.00886562    1.953    0.488
        10 -14.4914     25.0788     13.6886   7.0492706654e+01   7.0741124276e+01    0.7222056    0.4556136  22.82   0.00449691    1.557    0.358
        11 -13.7595    216.7098     28.5563   2.5765580944e+01   2.7389537300e+01    0.8231444    0.3190268 -54.33  0.003223304    2.878    0.653
        12 -14.2707    217.4835     11.7859   2.1707090015e+01   2.9129264313e+01    0.9780958    0.8464791 -56.31   0.00348657    1.132    0.117
        13 -12.0723     46.7022     20.6438   6.2889576868e+01   6.6957328790e+01     0.398394    0.2720702   9.42  0.002330751    1.402    0.287
        14 -12.6363    224.6745      4.4108   1.9428720251e+01   2.8269260705e+01    0.3744014    0.2461614  44.70  0.001603609    2.036    0.509
        15 -13.2512     86.0109     14.5747   4.4974659224e+01   6.0647260250e+01    0.6982515    0.4356208 -47.82  0.003446295    2.264    0.558
        16 -15.2410     98.6699     11.3321   3.9977755038e+01   5.8219247532e+01     1.586663    0.8347444  58.01  0.006709568    1.758    0.431
        17 -12.4402     69.9870     16.1878   5.1117867998e+01   6.3660796884e+01    0.3443683    0.3249803 -61.69  0.001834505    1.520    0.342
        18 -12.0684     58.9949     16.0297   5.5326794874e+01   6.5651527993e+01    0.3418871     0.269042  25.21  0.002139604    1.138    0.121
        19 -11.8498     46.6143     12.9553   5.9220980739e+01   6.8044542871e+01     0.270628    0.2302562   1.78  0.001441618    1.132    0.116
        20 -13.9369     41.6707      4.4437   5.7146511178e+01   6.9860581210e+01    0.6834496     0.486398   7.43  0.003581495    1.195    0.163
        21 -10.7323    123.4053     11.2131   3.4209633485e+01   5.2400599399e+01    0.1716555    0.1259645 -36.76 0.0004290048    1.540    0.351
        22 -11.3346     74.8671      8.2970   4.5724340850e+01   6.3596511905e+01    0.3692433    0.1726713 -14.64  0.001317535    2.531    0.605
        23 -12.1303    153.0096      8.7292   2.8242153496e+01   4.5243993781e+01    0.2883719    0.2096352  52.32  0.001195936    1.282    0.220
        24 -12.2464    120.1964      3.6041   3.2051096604e+01   5.3857468122e+01    0.4276002    0.2145434  74.22  0.001885262    2.166    0.538
        25 -10.7729     66.9840      4.2799   4.6532265954e+01   6.5541024441e+01    0.1812852    0.1396677  35.66 0.0005205505    1.137    0.121
        26 -13.5239    187.7264     12.2178   2.4779454242e+01   3.6194675323e+01     1.035738    0.5576823 -41.39  0.005134044    1.840    0.456
        27 -14.3925    166.5575     28.9157   3.2340049037e+01   3.9656919708e+01     1.337816    0.9210895  78.55  0.006238752    1.458    0.314
        28 -10.8928     59.4250      7.5173   5.0993457479e+01   6.6594987303e+01     0.216991   0.09518001  36.58 0.0007626812    2.071    0.517
        29 -11.4331     81.5446      1.5073   4.0467267503e+01   6.2866520045e+01    0.4586459   0.08765871  54.29  0.001529186    3.816    0.738
        30 -11.6758     60.9726      1.4849   4.7345565993e+01   6.6943841630e+01    0.3791083    0.1082554  50.34  0.001478489    3.202    0.688
        31 -12.2975    109.6450     42.0381   4.9008714297e+01   5.1938114252e+01    0.5444769    0.2456226  46.64  0.001502928    2.046    0.511
        32 -12.9120    107.7607    247.6588   9.4230518690e+01   9.4187705066e+00    0.6442921    0.4282035  82.38  0.003775161    1.998    0.499
        33 -13.3932     97.4402    239.1730   9.5419735398e+01   1.2388419070e+01    0.8328789    0.4094135  38.72   0.00437483    1.673    0.402
        34 -13.9817     92.1185    230.8633   9.5650998898e+01   1.4675729175e+01    0.5358468    0.4927082  63.05  0.003749372    1.144    0.126
        35 -11.9201     51.5827    248.8633   1.0511545802e+02   1.6723829553e+01    0.2986332    0.1691152  86.05  0.001845022    1.832    0.454
        36 -12.5546      2.8458    248.8374   1.1365396876e+02   2.1946963173e+01    0.3848222    0.2252476  72.87  0.002584433    1.293    0.227
        37 -13.5760      9.5219    245.7269   1.1241379579e+02   2.1862937945e+01    0.6861753    0.3246513  60.61     0.003555    1.584    0.369
        38 -11.4340     25.9154    158.8300   1.0343560121e+02   3.8523156377e+01    0.2881404    0.1790797   7.97   0.00135857    2.385    0.581
        39 -12.0896     77.0561    156.8741   8.9705653766e+01   3.2947670366e+01    0.4218459    0.2918259  29.56  0.001531919    1.567    0.362
        40 -13.4989     73.4153    153.7432   9.0196140924e+01   3.4228480432e+01    0.7192541    0.5241513  29.12  0.003228254    1.497    0.332
        41 -12.1899     22.5466    166.4108   1.0496879122e+02   3.7053749141e+01    0.2139785     0.172684  87.65 0.0001945527    1.026    0.025
        42 -12.5093    209.3475    154.8627   5.7341284895e+01   8.6051845159e+00    0.6318711    0.3519661  36.86  0.002855301    1.838    0.456
        43 -11.5885     85.9309    152.9606   8.6644854299e+01   3.2556169132e+01    0.4677597    0.2006593 -46.03  0.001745322    2.627    0.619
        44 -11.6268    103.3538    149.9914   8.1348090581e+01   3.0396648604e+01    0.3768383    0.2474244 -34.77  0.001663322    1.873    0.466
        45 -12.6742     60.7338    147.2115   9.2683266448e+01   3.7534667477e+01    0.4454187    0.3168585   4.07  0.002215834    1.991    0.498
        46 -12.6587     36.6055    194.8013   1.0413814454e+02   2.9228521578e+01    0.3598845    0.1975791  83.58  0.001914932    1.810    0.447
        47 -11.9162     40.5897    137.1628   9.6933192013e+01   4.2334799393e+01    0.2951987    0.1832509  59.48  0.001454866    1.787    0.440
        48 -13.0822    246.8305    134.1058   4.6240960855e+01   5.1799686702e+00    0.4633289    0.3802767 -32.45  0.002790674    1.098    0.089
        49 -12.0608     45.2110    133.3395   9.5033303048e+01   4.2787706202e+01    0.4608801    0.2808871 -83.62  0.002245105    1.739    0.425
        50 -14.2764    235.1465    128.1900   4.6811613591e+01   8.2781626623e+00    0.8689224    0.4681218 -44.86  0.003994698    1.845    0.458
        51 -12.1002    135.6706    132.3640   6.8862643444e+01   2.8306550123e+01    0.5483934    0.2276791  46.52  0.001885049    2.465    0.594
        52 -12.8272    223.5626    128.3863   4.8807685025e+01   1.0480922712e+01    0.4560629    0.3419639 -88.62   0.00218173    2.186    0.543
        53 -13.4634     83.2355    113.2478   7.9434711604e+01   4.2642368646e+01     1.122783     0.889613  28.47  0.005749732    1.345    0.256
        54 -14.2080    106.2823    121.3826   7.4362967176e+01   3.6672721574e+01     1.673997      1.13931  29.79  0.007525511    1.597    0.374
        55 -14.5926    105.4347    105.7591   7.0687275666e+01   4.0467524173e+01     1.381148     1.270553 -38.54  0.006346559    1.068    0.063
        56 -13.2666     95.7074    110.4772   7.4871806124e+01   4.1180691238e+01    0.8968615    0.5523071 -60.76  0.003218499    1.792    0.442
        57 -11.3297    181.3379    120.6957   5.5115339710e+01   2.0813176463e+01     0.153921    0.1238997 -83.08 0.0005503062    1.672    0.402
        58 -11.8518      4.0273    119.7660   1.0545035566e+02   4.9486861960e+01    0.4356645     0.172678  13.83  0.002011109    3.316    0.698
        59 -12.6541     42.2929     90.6711   8.8156207491e+01   5.3505438918e+01    0.3087513    0.2360583 -63.80 0.0004208917    1.231    0.188
        60 -12.3965     36.6769     92.9648   9.0683722463e+01   5.3516626053e+01    0.5247812    0.3060937  -1.36  0.001595274    2.383    0.580
        61 -14.6216     15.8749    108.3772   1.0044064676e+02   5.1479296564e+01     1.760008     1.018513 -85.35   0.00921407    1.730    0.422
        62 -13.3638      2.2780     97.4410   1.0342392354e+02   5.4871656651e+01    0.7222295    0.2484732 -75.51  0.003102781    2.519    0.603
        63 -14.2343     22.8020     95.0325   9.6024703280e+01   5.4192154294e+01     1.056913    0.9118471  34.06   0.00564813    1.357    0.263
        64 -11.8312    121.6697    112.3600   6.7690695347e+01   3.5717818714e+01    0.2981517    0.2803659 -54.36 0.0008039808    1.087    0.080
        65 -12.2002     63.1965    109.8751   8.5137190346e+01   4.6412469872e+01    0.5602958    0.3207669 -60.66  0.002558956    1.651    0.394
        66 -11.7538    169.7989    107.6629   5.4300027306e+01   2.5989912056e+01    0.3444237    0.2167735 -49.32  0.001454796    1.685    0.406
        67 -11.1906     42.2757    107.0947   9.1530576308e+01   4.9557214720e+01    0.2908316    0.1813357  10.06  0.001428028    2.056    0.514
        68 -12.4852    136.0289    103.0952   6.1277337428e+01   3.4654413269e+01    0.7138623    0.3179376  47.09  0.001791443    2.256    0.557
        69 -13.6011    121.3478    101.8185   6.4952137928e+01   3.8125211735e+01    0.7317301    0.4256761  36.97  0.002980847    1.794    0.443
        70 -12.3818     49.1756     93.6687   8.6348075727e+01   5.2047473839e+01    0.4504747    0.4190456  55.82  0.002753684    1.226    0.184
        71 -11.9966     51.2874     98.8690   8.6768512142e+01   5.0562681308e+01    0.6529511    0.3410296 -15.41  0.002280091    3.931    0.746
        72 -11.5713     46.2449     98.9827   8.8551745584e+01   5.1103468067e+01    0.2967395    0.2251561 -68.89  0.001265301    1.283    0.221
        73 -11.9875     61.0077     97.8388   8.3152154673e+01   4.9601924997e+01    0.3945042    0.2945184  79.63  0.001955455    1.819    0.450
        74 -13.2479    136.1548     95.3482   5.9071989249e+01   3.6246689513e+01    0.5507714    0.4276566  41.74    0.0026045    1.281    0.219
        75 -11.7640    134.9415    126.1110   6.7549887387e+01   2.9857847479e+01    0.3975672    0.2306751 -45.96 0.0009652156    1.736    0.424
        76 -13.1563     29.5632     89.4053   9.2540822465e+01   5.4995325738e+01    0.9045376    0.5027777  69.18  0.003800082    3.167    0.684
        77 -11.6644     35.5670     86.6924   8.9753881517e+01   5.5103561119e+01    0.2456875     0.244075 -26.70  0.001083253    1.156    0.135
        78 -12.9713    188.2259     84.3837   4.4323364799e+01   2.5967239420e+01    0.7122087    0.3133965  43.02  0.002561419    2.622    0.619
        79 -12.8391    237.6128     80.3985   3.5541581383e+01   1.5502718018e+01     0.418756    0.2849006  82.33  0.002142899    1.871    0.466
        80 -13.9927    164.2793     71.7417   4.5512942649e+01   3.3982316613e+01     1.428146    0.9975036  62.52  0.006599009    1.480    0.324
        81 -13.6277    160.7931     81.0272   4.8957594120e+01   3.3200159444e+01     1.378098    0.7171617  26.19  0.004095055    4.076    0.755
        82 -14.3806    169.3371     77.0612   4.5999341790e+01   3.1818513076e+01     1.579716     0.511473  52.41  0.005067993    2.968    0.663
        83 -13.3200     65.5475     52.1251   6.7819372338e+01   5.8839665252e+01     1.263433    0.6941818 -27.90  0.005685103    2.001    0.500
        84 -13.5010     54.2058     67.7923   7.7588434856e+01   5.7309714262e+01     1.697798     0.721581  28.97  0.007082582    2.543    0.607
        85 -13.3302     87.2565     65.3739   6.4470869247e+01   5.2570905145e+01     0.998278    0.6177185   6.19  0.003957693    2.607    0.616
        86 -13.0249     54.5935     82.0969   8.1510516453e+01   5.4096776204e+01    0.5926309    0.4405872 -64.78  0.003162328    1.434    0.303
        87 -14.0646     61.0973     75.8292   7.7317470378e+01   5.4645070807e+01    0.6959098    0.4706256 -31.24  0.001198954    1.488    0.328
        88 -13.1528     71.2865     74.9967   7.3278299094e+01   5.3327897493e+01    0.6582029    0.4101218   2.87  0.002367264    2.399    0.583
        89 -12.2728     77.1584     73.1562   7.0578264165e+01   5.2773117357e+01    0.5403284    0.3144344 -25.31  0.001669253    2.175    0.540
        90 -11.8572     47.3409     81.7342   8.4148871397e+01   5.5043218195e+01     0.350394    0.2557797 -56.96  0.001502961    1.273    0.215
        91 -12.9662    213.1980     78.4010   3.8544271568e+01   2.1135083106e+01    0.9466395    0.5610169  85.09  0.003842557    2.648    0.622
        92 -12.7675    135.6136     79.7341   5.4605760902e+01   3.9476483384e+01    0.7354699    0.3870262  49.83  0.002502427    1.879    0.468
        93 -12.0159    113.8333     80.1042   6.0764213421e+01   4.4303035755e+01    0.4141614    0.3459873 -29.75 0.0008345839    1.208    0.172
        94 -10.3080     69.3292     80.2893   7.5567763602e+01   5.2472882078e+01    0.1470223    0.1056991 -16.10 0.0004399766    1.620    0.383
        95 -11.2212     42.4999     79.5101   8.5437387509e+01   5.6081354136e+01    0.2938502    0.1577898 -42.11   0.00111706    1.703    0.413
        96 -11.0270     41.5229     76.4840   8.5047667989e+01   5.6872420074e+01    0.2601702     0.176254 -54.09 0.0007653364    1.310    0.236
        97 -13.1994     28.3848    245.7907   1.0913433409e+02   1.9921107710e+01    0.4156247    0.2476404  58.65  0.002854711    1.262    0.208
        98 -14.1083      4.9390     63.5213   9.6949090791e+01   6.2534649809e+01    0.6394033    0.5432472  -4.90  0.003414875    1.340    0.254
        99 -11.6532     26.4846     75.1959   9.0673247935e+01   5.8548520539e+01    0.4191028    0.2545888  74.22  0.001899345    2.907    0.656
       100 -12.4502    218.6539     74.1374   3.6675575590e+01   2.0576836171e+01    0.3367019    0.2758458 -80.22  0.001379673    1.318    0.241
       101 -12.1174    214.6752     71.8440   3.6688688882e+01   2.1835410868e+01     0.318451    0.2582382  62.04  0.001437511    1.287    0.223
       102 -13.6060    199.1769     69.9208   3.8584554778e+01   2.5755644353e+01    0.8220216    0.4728612  47.96  0.003089838    1.850    0.460
       103 -10.1197     96.2372     69.6786   6.2895779092e+01   5.0006203120e+01    0.1382352    0.1173283 -70.96 0.0002496281    1.515    0.340
       104 -12.6798    134.2183     66.3693   5.0788349568e+01   4.2256081773e+01    0.6570502    0.4776951  34.72   0.00229032    1.438    0.305
       105 -12.3119     31.3335     62.6797   8.5522888972e+01   6.0923157445e+01    0.5595958    0.2976584 -67.85  0.002608673    2.266    0.559
       106 -11.8511     24.7991     59.2379   8.7396184320e+01   6.2222354133e+01    0.4946037    0.2524516 -51.25  0.001914636    1.586    0.370
       107 -11.0903     99.8771     65.3379   6.0266254765e+01   5.0112045408e+01    0.2311514    0.1898134  58.28 0.0008045509    1.412    0.292
       108 -12.6622    199.8405     61.7509   3.6336189297e+01   2.6864935161e+01    0.3291119      0.28619 -30.38  0.001190775    1.201    0.167
       109 -13.6158    177.8234     57.2149   3.8714030275e+01   3.2954833227e+01     0.934546    0.6015377 -47.28  0.003484415    1.593    0.372
       110 -12.6834     79.1746     60.6873   6.5717955975e+01   5.4942059241e+01    0.5182884     0.455404 -29.59  0.002846993    1.105    0.095
       111 -12.9610     82.2874     54.4919   6.2396126912e+01   5.5541392149e+01    0.6619145    0.4463518  32.13   0.00255661    1.473    0.321
       112 -14.5482    120.0062     54.5969   5.0612455223e+01   4.7601496185e+01    0.9695687    0.6630971  34.29  0.002977042    1.509    0.337
       113 -10.9993     38.8028     59.9988   8.1559617436e+01   6.0768681322e+01    0.2035508    0.1548354 -87.85  0.001087404    2.033    0.508
       114 -13.1839     91.8403     57.9510   6.0336377124e+01   5.3093121897e+01    0.5379642    0.5053852   1.95  0.002408508    1.042    0.041
       115 -11.4631     17.7764     55.4112   8.9474940542e+01   6.3564101158e+01    0.3114899    0.1574665 -62.04  0.001592241    1.826    0.452
       116 -11.6887    247.9042     54.4382   2.8454221222e+01   1.7151444793e+01    0.4198241    0.1256988 -51.01  0.001426926    3.838    0.739
       117 -13.8081    102.7612     50.3575   5.4092168087e+01   5.2157884220e+01     1.042359    0.6597126 -55.89  0.003091479    2.238    0.553
       118 -12.9412     97.8028     50.5853   5.5725464840e+01   5.3170653779e+01    0.4001695    0.3581554 -67.84  0.001406417    1.426    0.299
       119 -11.7536     37.4453     52.4348   7.9774426182e+01   6.2478187527e+01    0.4594935    0.2281785 -28.35  0.002076516    2.266    0.559
       120 -11.8183    135.8214     49.9437   4.5027717089e+01   4.4558560671e+01    0.4464303    0.2663047  33.68  0.001730349    1.958    0.489
       121 -10.9499      5.4928     50.9145   9.3910165691e+01   6.5243133726e+01    0.2092303     0.130465 -35.69  0.001278727    1.367    0.268
       122 -10.7531     23.5760     50.2184   8.5363194910e+01   6.4222248126e+01    0.1750474   0.09267968 -44.28 0.0003864725    1.529    0.346
       123 -13.1898    157.3374     44.1388   3.8586228955e+01   4.0026559905e+01    0.9431605    0.4837097  42.19  0.003816243    2.153    0.536
       124 -12.8701      3.9337     43.4831   9.2765062674e+01   6.6873177181e+01    0.4762707    0.3098322 -20.83  0.003031885    1.476    0.323
       125 -12.3801     11.7391     43.6800   8.9030418153e+01   6.6405773750e+01    0.4246485    0.2329109 -24.68  0.001837493    1.781    0.438
       126 -14.2370    212.2986     41.2970   2.9386855160e+01   2.6803634476e+01     2.075042    0.6904407  73.62  0.006722166    4.089    0.755
       127 -13.8900    171.3529    242.9491   8.0986406458e+01   5.2606658289e-01    0.7900836    0.5266188  19.52  0.004671135    1.434    0.303
       128 -12.3001     59.9850    246.5052   1.0338649434e+02   1.6116035550e+01     0.269087    0.1658575  17.06  0.001442523    2.748    0.636
       129 -12.0850    147.4967    239.0371   8.5222535105e+01   4.8231926380e+00    0.1643526    0.1278981 -49.96  0.001031591    1.589    0.371
       130 -12.6996     24.6822    217.2792   1.0821517028e+02   2.5763096197e+01    0.5239277    0.2596259  59.88  0.003023132    1.703    0.413
       131 -14.2317    122.0924     36.9314   4.3849777517e+01   4.9759789639e+01     1.350714    0.5236153  46.59  0.005056815    2.382    0.580
       132 -13.0288    139.8434     21.5729   3.4624623819e+01   4.7267823744e+01    0.9844314    0.2831537  60.84   0.00282651    2.929    0.659
       133 -12.4326     75.8594     37.2712   5.8105423145e+01   5.9639306998e+01    0.4032496    0.2329337  40.66  0.001064398    1.675    0.403
       134 -11.6259     70.6287     36.3407   5.9694932824e+01   6.0726213637e+01    0.2682628    0.2445905  -1.97 0.0007974664    1.112    0.101
       135 -12.6608    242.3619     36.0855   2.4956404518e+01   2.0740865213e+01    0.5269181    0.2658003  72.92  0.002084003    2.071    0.517
       136 -13.9703     26.1353    226.6908   1.0849380387e+02   2.3747828564e+01    0.7181592    0.3661844 -57.87  0.004120211    2.423    0.587
       137 -13.5946     20.1176    224.1245   1.0948852887e+02   2.4867612870e+01    0.4879652    0.3738588 -87.31  0.002390506    1.250    0.200
       138 -12.0050     14.2340    222.8192   1.1052598861e+02   2.5704162267e+01    0.3627506    0.1898994  76.74  0.001439368    1.640    0.390
       139 -14.0003     65.2231    223.4502   1.0049810084e+02   1.9798239832e+01     1.019173    0.6205893  53.99  0.005990064    1.387    0.279
       140 -13.9801     64.1441    214.4949   9.9907868261e+01   2.1742661098e+01     0.596483    0.3648217  54.45  0.003414879    1.417    0.294
       141 -12.9873     44.1044     32.5428   6.9354567123e+01   6.5424777144e+01    0.6731467    0.5197062  31.21   0.00414993    1.428    0.299
       142 -11.2157     34.9687     34.7466   7.4577549619e+01   6.6141126295e+01    0.2225966    0.1673648  -2.48 0.0006664653    1.237    0.191
       143 -12.4310    223.7652     20.5347   2.3174678859e+01   2.6719314099e+01    0.3554413    0.2737979  82.35  0.001600055    1.217    0.178
       144 -12.9404     59.4796    212.9799   1.0076175278e+02   2.2653166465e+01    0.3720869    0.2082198 -62.27  0.001247659    1.896    0.473
       145 -12.6486     94.3682    218.3529   9.3810299334e+01   1.6752230005e+01    0.2604047    0.2007381  57.68  0.001320509    1.157    0.136
       146 -12.2072     63.2711     25.3300   5.7874833164e+01   6.3659990744e+01    0.5387787    0.3319588   3.29  0.002647179    1.978    0.494
       147 -11.4674     30.7431     25.5739   7.2906153523e+01   6.8208009570e+01    0.3237188    0.1833633  13.12   0.00175815    1.867    0.464
       148 -11.5911     36.2966     23.1266   6.9029454248e+01   6.7967365024e+01    0.3077013    0.2038654 -22.32  0.001832654    1.330    0.248
       149 -11.8908      3.9030    212.1438   1.1194949827e+02   2.8778809476e+01    0.3442926    0.1375559 -88.16   0.00183691    2.224    0.550
       150 -11.3320     51.5095     20.5580   6.0671572244e+01   6.6251953316e+01     0.260362    0.1629727  26.85  0.001067355    1.499    0.333
       151 -10.7433    136.5197    211.4713   8.3664940615e+01   1.1397960084e+01     0.136272     0.118318  38.41 0.0002107773    1.006    0.006
       152 -11.7787     72.6026    206.7700   9.7298930790e+01   2.2222037298e+01    0.2749518     0.185055  55.99  0.001569102    1.323    0.244
       153 -12.0175     41.2482    206.6153   1.0409255257e+02   2.6174325020e+01    0.2252721    0.1311463  84.80  0.001263596    1.667    0.400
       154 -12.4953     57.6539    203.7013   1.0029334648e+02   2.4833533915e+01    0.5051686    0.2535976  88.25  0.002351317    2.428    0.588
       155 -13.3725     15.6802    197.1681   1.0879190129e+02   3.0818890794e+01     0.633083    0.3320107 -69.05    0.0036872    1.787    0.440
       156 -13.5778     30.1550    169.3601   1.0339214861e+02   3.5649277408e+01    0.8524829    0.4813346 -41.29  0.003398683    2.473    0.596
       157 -13.6388     22.2098    181.1575   1.0626047668e+02   3.3715508276e+01    0.8614586    0.3656868 -58.98  0.004227671    2.352    0.575
       158 -15.1766      8.2960    183.4111   1.0949685001e+02   3.4448426448e+01      1.21422    0.9284925  84.97  0.008491387    1.047    0.045
       159 -15.1075     15.9181    174.9784   1.0722302091e+02   3.5678253849e+01      1.91825    0.9171038  63.23  0.009858872    2.045    0.511
       160 -11.5529    200.9069    192.0143   6.6587741791e+01   3.7287700988e+00    0.2731467    0.2173664  -9.69  0.001446109    1.213    0.176
       161 -10.9925     79.8796    192.6759   9.4020321825e+01   2.4240860623e+01    0.3633927   0.06453523  42.15  0.001091259    4.315    0.768
       162 -12.4715     97.4854    187.9929   8.9203111023e+01   2.2620145139e+01    0.2328551    0.1765568  41.30   0.00126642    1.229    0.186
       163 -11.5574    155.5072    185.4988   7.5092599450e+01   1.3068019072e+01    0.1446978    0.1313916  24.28 0.0001102178    1.018    0.018
       164 -13.2359     55.3794     27.2202   6.2007184317e+01   6.4669792256e+01    0.6298051    0.3710563  39.42  0.002748055    1.746    0.427
       165 -11.9065     49.1154    181.9424   1.0008118622e+02   3.0691915072e+01    0.3312294    0.2023864 -69.73  0.001801238    1.543    0.352
       166 -12.2964    198.6026    181.4539   6.5008489506e+01   5.9231350915e+00    0.2831811    0.2643665  20.79  0.001436847    1.158    0.136
       167 -12.7357    124.0059    166.7867   7.9150289168e+01   2.2822778489e+01    0.6522713    0.4015974 -71.92  0.002702068    2.287    0.563
       168 -13.0296     40.1440    194.5938   1.0333855154e+02   2.8885054877e+01    0.4106556    0.2149078  79.92  0.002066544    2.027    0.507
