#   1 NUMBER                 Running object number                                     
#   2 MAG_AUTO               Kron-like elliptical aperture magnitude                    [mag]
#   3 X_IMAGE                Object position along x                                    [pixel]
#   4 Y_IMAGE                Object position along y                                    [pixel]
#   5 X_WORLD                Barycenter position along world x axis                     [deg]
#   6 Y_WORLD                Barycenter position along world y axis                     [deg]
#   7 A_WORLD                Profile RMS along major axis (world units)                 [deg]
#   8 B_WORLD                Profile RMS along minor axis (world units)                 [deg]
#   9 THETA_WORLD            Position angle (CCW/world-x)                               [deg]
#  10 FWHM_WORLD             FWHM assuming a gaussian core                              [deg]
#  11 ELONGATION             A_IMAGE/B_IMAGE                                           
#  12 ELLIPTICITY            1 - B_IMAGE/A_IMAGE                                       
         1 -14.9280    164.0890     44.0145   7.6667052880e+01   3.8668959136e+01     1.424073     1.132999 -13.43  0.004000214    1.416    0.294
         2 -14.9206    180.6900     10.6876   6.4077677716e+01   3.8401755259e+01     1.996382     1.160607  69.34  0.006981958    1.566    0.362
         3 -10.0113    134.5142    244.1176   1.2726495570e+02   7.3034694039e+00    0.2404613    0.1291709 -38.37  0.001247641    2.837    0.647
         4 -19.9216     66.4404    170.4733   1.3214311136e+02   3.1861140981e+01     17.26363     7.600007 -68.18   0.07784025    2.186    0.543
         5 -10.7613    141.5479    198.7290   1.1968510931e+02   1.3908677986e+01    0.2380993    0.1906864  67.19 0.0006758205    1.343    0.256
         6 -10.2719    121.8657    198.6642   1.2380070104e+02   1.7321775180e+01    0.1688983    0.1447599  59.54 0.0003586576    1.055    0.052
         7 -10.4583    111.7789    197.0936   1.2570899340e+02   1.9311387230e+01    0.3913718    0.2300306  20.86  0.001672105    2.900    0.655
         8 -11.5688    153.0352    193.0361   1.1635795842e+02   1.2911001036e+01    0.3141147    0.2676851  77.25  0.001019255    1.359    0.264
         9  99.0000    138.2633    242.4930   1.2638273680e+02   6.9704554544e+00    0.2717218    0.1611507  72.87  0.001336343    2.817    0.645
        10 -12.0195    125.1551    241.2682   1.2865801985e+02   9.2026491254e+00    0.4727743    0.1493609 -54.39  0.002059168    3.787    0.736
        11 -12.1175    153.3684    186.2449   1.1511304662e+02   1.4122516621e+01    0.2897357    0.2524201 -88.14 0.0007336289    1.345    0.257
        12 -10.2347    160.4434    242.0833   1.2224979909e+02   3.5265211759e+00    0.1542068    0.1200058 -43.90 0.0008578051    1.584    0.369
        13 -10.7769     30.4529    182.9518   1.4140894983e+02   3.3386562407e+01    0.1647501    0.1593789  61.57  2.95721e-06    1.389    0.280
        14 -11.0823    150.7090    180.3973   1.1463498928e+02   1.5741581677e+01    0.2350495    0.1706101 -62.28 0.0005689349    1.613    0.380
        15 -12.8401    177.3347    178.6911   1.0871212950e+02   1.0997187413e+01    0.4418452    0.3143639 -72.49  0.002074787    2.218    0.549
        16 -13.3457    142.0370    165.4650   1.1375178245e+02   2.0390884747e+01    0.6851137    0.4253867 -69.52  0.002092632    2.269    0.559
        17 -13.3875    143.1940    174.1723   1.1513669283e+02   1.8389954490e+01    0.9079508    0.5534838  31.66  0.003157594    1.817    0.450
        18 -11.5491    187.9025    174.7780   1.0580034313e+02   9.6679014417e+00    0.2614743    0.1891726 -69.00  0.001241104    2.128    0.530
        19 -12.3250    126.4718    172.4848   1.1857898697e+02   2.1835068002e+01    0.5279918    0.3526378  65.42  0.002472801    1.771    0.435
        20 -12.7775    177.4200    170.9321   1.0716701801e+02   1.2399454030e+01    0.5493366    0.2556433 -55.56  0.001986077    3.215    0.689
        21 -10.8386     11.9101    173.9461   1.4455507952e+02   3.7105538403e+01    0.1529033    0.1200894 -74.08            0    1.261    0.207
        22  -9.6840    151.2720    241.3386   1.2384026616e+02   5.0938765348e+00    0.1122145   0.08768634   9.93 0.0006991373    1.605    0.377
        23 -11.3374    109.1799    239.8204   1.3144829326e+02   1.1870036206e+01    0.1643516    0.1279572  61.83 0.0004029125    1.118    0.105
        24 -11.7042    230.2089    167.1022   9.6246736419e+01   2.9941617543e+00    0.4011334     0.158307 -47.31  0.001435109    3.580    0.721
        25 -13.7405    135.9588    169.9375   1.1597059846e+02   2.0617741711e+01    0.8531483    0.6013278  65.12  0.004163109    1.649    0.393
        26 -11.2395     25.3619    165.0608   1.4090712458e+02   3.7815714627e+01      0.17702    0.1654928  70.45 0.0005875138    1.278    0.218
        27 -10.4944     28.5280    238.8636   1.4564620073e+02   2.2579666561e+01    0.1369386   0.08407605  89.68  0.000631332    1.405    0.288
        28 -11.3573     23.2323    155.3422   1.4045610332e+02   4.0199300759e+01    0.4011112    0.1879714 -62.79  0.001884482    1.844    0.458
        29 -11.8477     12.6173    241.7259   1.4838349380e+02   2.3740424628e+01    0.1653893     0.133422 -87.02  0.001068806    1.394    0.282
        30 -11.8605    161.1063    152.8407   1.0689595814e+02   1.9178802811e+01    0.2285854     0.206892  76.60 0.0007821914    1.226    0.184
        31 -11.4470    152.9162    151.1592   1.0836676460e+02   2.1198000297e+01    0.2237383    0.2001225  81.75 0.0003506776    1.242    0.195
        32 -11.7904     21.5917    237.3845   1.4671531173e+02   2.3586311858e+01     0.141243   0.09297504 -83.36  0.001046242    1.402    0.287
        33 -11.4478    174.3244    148.4858   1.0306926844e+02   1.7301603800e+01     0.371791    0.2743619 -59.04   0.00136642    1.599    0.375
        34 -11.5367    131.0822    234.8846   1.2679938219e+02   9.3123118273e+00    0.1670775    0.1521624  80.05 0.0006537358    1.204    0.169
        35 -10.1545    141.6057    230.3993   1.2423675941e+02   8.3583831737e+00    0.1693076    0.1237232  64.32 0.0006018842    1.493    0.330
        36 -10.2936      1.8571    139.8958   1.4405892730e+02   4.5410239415e+01    0.1634634    0.1263718 -68.34 0.0003993224    1.215    0.177
        37 -11.4220      8.0278    138.3573   1.4242406593e+02   4.5316970393e+01    0.2876306    0.2277308  -0.88  0.001401323    1.854    0.461
        38 -10.8829     17.1274    224.6563   1.4678648019e+02   2.6373336876e+01    0.1165733   0.08017173 -83.78 0.0005554265    1.322    0.243
        39 -12.5371    160.5511    127.9651   1.0131425408e+02   2.4372897122e+01    0.5000646    0.3370458 -49.95  0.001757046    1.533    0.348
        40 -12.5949     22.6621    220.6390   1.4559721771e+02   2.6561766497e+01    0.2636892     0.154141 -69.54   0.00176048    1.727    0.421
        41 -10.9808     23.5770    215.3723   1.4511365338e+02   2.7476732589e+01    0.1573704    0.1010562 -79.76  0.000490032    1.401    0.286
        42 -11.3693    218.1142    219.6683   1.0832497972e+02  -2.6013683210e+00    0.1955326    0.1637868 -33.61 0.0008058642    1.428    0.300
        43 -10.8616    167.5695    112.5747   9.5868213649e+01   2.5903517862e+01    0.3435428    0.2360515 -79.84  0.001356396    2.367    0.578
        44 -10.8914    110.8154    211.6873   1.2786517606e+02   1.6629576628e+01    0.2001831    0.1587269  75.46   0.00028239    1.257    0.205
        45 -10.7149    205.3633    110.2500   8.7710396349e+01   1.7689758004e+01    0.3035204     0.208189  45.80 0.0008876392    1.522    0.343
        46 -12.7129    106.5623    205.4851   1.2793678457e+02   1.8496437583e+01    0.3609548    0.2790602 -81.36  0.001089079    1.367    0.269
        47 -14.8924    100.8382    242.4425   1.3324430828e+02   1.2663294259e+01    0.7281973    0.6373795 -70.97  0.005404757    1.369    0.269
        48 -13.2733     11.3916    206.1156   1.4676132684e+02   3.0500528214e+01    0.3614831    0.2350934  34.83  0.002169928    1.809    0.447
        49 -10.4958    153.2032    200.5146   1.1756495825e+02   1.1515222528e+01     0.222154    0.1872188 -52.22 0.0006622825    1.333    0.250
        50 -10.8522    107.7890    250.7033   1.3280811171e+02   1.0299765065e+01   0.09024242   0.08546208  15.10 0.0006304454    1.445    0.308
        51 -10.4616    138.7430    200.3622   1.2052395458e+02   1.4095584850e+01    0.2055796    0.1689426  58.66 0.0006617632    1.176    0.150
        52 -10.5280    144.9698     81.2821   9.2269192684e+01   3.7257766100e+01    0.2160598    0.2002749  47.52  0.000433121    1.088    0.081
        53 -14.4112    152.6478     58.5059   8.3484141376e+01   3.9369222334e+01     1.269743     1.102951  30.55 0.0009495047    1.210    0.173
        54 -10.4759    160.8703    247.3730   1.2285991366e+02   2.6992247501e+00    0.3645341    0.1697182  26.98  0.001145871    2.873    0.652
        55 -12.9590    168.4353     35.8559   7.3378098539e+01   3.8657777255e+01    0.3996268    0.3843102  18.66 0.0009035196    1.116    0.104
        56 -11.2926     13.4909     59.9619   1.2855928946e+02   6.2606208771e+01    0.1771556    0.1630079  57.57 0.0004286465    1.405    0.288
        57 -10.1945    141.0206     32.6748   7.7360555858e+01   4.5945417241e+01    0.2013711    0.1708184  58.32 0.0004017706    1.130    0.115
