#   1 NUMBER                 Running object number                                     
#   2 MAG_AUTO               Kron-like elliptical aperture magnitude                    [mag]
#   3 X_IMAGE                Object position along x                                    [pixel]
#   4 Y_IMAGE                Object position along y                                    [pixel]
#   5 X_WORLD                Barycenter position along world x axis                     [deg]
#   6 Y_WORLD                Barycenter position along world y axis                     [deg]
#   7 A_WORLD                Profile RMS along major axis (world units)                 [deg]
#   8 B_WORLD                Profile RMS along minor axis (world units)                 [deg]
#   9 THETA_WORLD            Position angle (CCW/world-x)                               [deg]
#  10 FWHM_WORLD             FWHM assuming a gaussian core                              [deg]
#  11 ELONGATION             A_IMAGE/B_IMAGE                                           
#  12 ELLIPTICITY            1 - B_IMAGE/A_IMAGE                                       
         1 -11.9181     45.3239     81.2098   1.0512583101e+02   5.5020357711e+01     1.415526    0.8197034 -51.04  0.007424681    1.442    0.306
         2  -9.4747     38.9495      8.4981   8.1832751809e+01   6.9453765650e+01    0.5858952    0.3052765  -8.68  0.002833991    2.555    0.609
         3 -10.4068     50.3027     36.1962   8.9222875894e+01   6.3648834054e+01    0.7581663    0.5275866 -70.60  0.003722833    2.819    0.645
         4 -10.6316     39.6058     29.8682   9.1260232991e+01   6.6052097609e+01    0.5009797    0.3105647 -43.25  0.002288678    1.453    0.312
         5 -11.9197     44.8272     22.3530   8.5756880999e+01   6.6661060906e+01     1.039794    0.8592082 -60.58  0.006542417    1.880    0.468
         6 -12.4942    129.1101     15.3566   5.5970291185e+01   5.1204492743e+01     2.022488     1.248942  53.06   0.01001475    1.448    0.309
         7 -11.8252    109.1715      4.7690   5.6198248083e+01   5.6950023441e+01     1.805142    0.8198366  56.13  0.008193345    1.925    0.480
         8 -11.7132    131.2266      3.4997   5.1138566714e+01   5.1823802346e+01     2.028935    0.3226598  63.13  0.005731639    4.690    0.787
         9 -10.6766    121.1407      4.0492   5.3304247444e+01   5.4217432827e+01    0.6098405    0.4658126  66.46  0.002510661    1.290    0.225
        10 -13.6479    168.9140     12.2420   4.7999364739e+01   4.1444869023e+01     2.994541      1.96726  68.44   0.01391114    1.390    0.281
        11 -11.4658     77.9751     14.6957   6.9342375451e+01   6.2452609252e+01     1.083358    0.6258037 -29.16  0.005687848    1.702    0.413
        12 -11.2906     84.1697      3.8501   6.2369958342e+01   6.2424630062e+01    0.9096361    0.4548847  46.52  0.004110115    1.762    0.433
        13 -10.2909     71.2812      5.5458   6.7298357792e+01   6.4734034599e+01    0.6186345    0.3382903  35.36  0.002890963    1.683    0.406
        14  -9.4103    104.4660     26.1493   6.6172457405e+01   5.5649875617e+01     0.407554    0.3205092  62.59  0.002227406    1.452    0.311
        15 -10.3725    116.4286     16.7913   5.9345618097e+01   5.4072416265e+01    0.8610278    0.3548534 -34.54  0.003535148    2.518    0.603
        16  -9.5988     94.0993     17.4305   6.5503296936e+01   5.8934365795e+01    0.4299333    0.3526105  78.80  0.001845246    1.688    0.407
        17  -9.6851     69.8129     13.6516   7.1692333360e+01   6.4064518169e+01    0.2747068    0.2345287 -33.45  0.001755438    1.383    0.277
        18  -8.6069     20.7300     13.7612   9.3332630013e+01   7.0672116526e+01    0.3662733    0.1450755 -33.83  0.001832131    2.209    0.547
        19  -8.1417     49.6506      6.6738   7.6145886373e+01   6.8205622240e+01     0.213458    0.1019371  30.12  0.001063606    2.130    0.531
        20  -7.9731     54.1681      7.4073   7.4640268922e+01   6.7427379732e+01    0.1542607    0.1129656  47.73 0.0005855956    1.719    0.418
        21 -10.5419     60.2999      4.2768   7.0637496148e+01   6.6800612637e+01    0.7957867    0.4120703 -17.98  0.004145888    1.916    0.478
        22  -8.5526     52.2676      1.9058   7.2582606464e+01   6.8370049846e+01    0.3621427    0.1959169  28.94  0.001994891    1.770    0.435
        23 -10.3487    248.9033      6.5493   3.8241910413e+01   2.2358477242e+01    0.5085137    0.3916892  20.97  0.002982851    2.001    0.500
        24 -11.7950    155.6556     20.8938   5.2879891758e+01   4.3938990782e+01     1.060717    0.5524678  63.39  0.003230867    1.771    0.435
        25  -9.1046    214.0537      4.5129   4.0619849781e+01   3.0757729703e+01    0.2069991    0.1186697  74.63 0.0009065625    1.604    0.377
        26  -9.7486    203.8595      3.5019   4.1325922113e+01   3.3384617222e+01    0.3719583    0.2115659 -70.81  0.001772293    1.879    0.468
        27  -8.4170     26.9748      3.1823   8.4924269389e+01   7.1622056371e+01     0.201047    0.1320208 -40.23   0.00128989    1.651    0.394
        28 -11.1082     74.6503     27.3307   7.6109634698e+01   6.1367485753e+01    0.8657077    0.5166876  51.20  0.004345067    2.017    0.504
        29  -8.6762     40.2795      1.7735   7.7709061070e+01   7.0148534658e+01    0.2301295    0.1366199  23.77 0.0008639055    1.611    0.379
        30  -8.5025     16.8821      1.6806   8.9497906875e+01   7.2872916986e+01    0.1715033    0.1378886  25.55 0.0009749402    1.594    0.373
        31  -9.4684     74.4996     68.7329   9.1536588542e+01   5.3956830004e+01    0.4492847    0.3484562  -6.61  0.002413885    1.486    0.327
        32  -8.7973     83.8875     69.4965   8.8618251326e+01   5.2279538382e+01    0.3657659     0.141348  39.33  0.001374593    2.774    0.639
        33  -9.2580     45.3546     62.3437   1.0012152581e+02   5.9144866508e+01    0.2748597    0.2070207 -25.37  0.001066254    1.322    0.243
        34  -8.6647     66.6828     63.6538   9.2663628148e+01   5.6172317267e+01    0.1929064    0.1375637   7.89 0.0009966656    1.708    0.415
        35  -8.2947     69.9985     61.7399   9.0863904211e+01   5.6074421098e+01    0.2019523    0.1909274 -75.44  0.001056712    1.283    0.221
        36 -10.3177     38.5677     83.2262   1.0790895463e+02   5.5245223508e+01    0.6018268    0.3351399 -78.23  0.002822227    2.256    0.557
        37  -8.7686     76.1222     59.9786   8.8125346557e+01   5.5474144235e+01    0.2674755    0.1786477 -37.03  0.001364366    1.379    0.275
        38  -8.6135    138.8794     77.6821   7.5218885681e+01   3.9384021323e+01    0.3650753     0.208628 -29.61  0.001443203    1.964    0.491
        39  -8.4800     93.9148     57.4870   8.1318284385e+01   5.2833241084e+01    0.2118686    0.1403846  41.94  0.001024093    1.565    0.361
        40  -9.0103    199.2461     55.6153   5.6271213380e+01   2.8041714265e+01    0.2567376    0.2422394  36.01 0.0003985424    1.157    0.135
        41  -8.6455     66.3161     54.6109   8.9789282967e+01   5.8031565301e+01    0.4088532    0.1369483 -43.14  0.001541316    2.679    0.627
        42  -8.1417     35.8025     53.0997   1.0108953211e+02   6.2046311090e+01    0.1840182    0.1587703 -60.57  0.001211278    1.267    0.211
        43  -8.0356     23.5966     52.6913   1.0592466080e+02   6.3189915007e+01    0.1631014    0.1022048 -64.23  0.000933422    1.558    0.358
        44 -10.0708     85.1162     48.3114   8.0883249189e+01   5.6119217468e+01     0.701817    0.5018243  59.76  0.003521572    1.912    0.477
        45  -8.0456     98.4777     43.9701   7.4937006288e+01   5.4297539454e+01    0.1974121    0.1170229 -55.51 0.0008097391    2.509    0.601
        46  -8.4501    107.6687     43.3599   7.1966221444e+01   5.2480520759e+01    0.1449537    0.1143901 -70.29 0.0007041138    1.799    0.444
        47 -10.1249      3.3396     40.5214   1.1122666790e+02   6.6946542839e+01    0.3779983     0.368315  89.53  0.002716509    1.367    0.268
        48  -8.6779    111.4130     42.1851   7.0462643753e+01   5.1851492647e+01    0.2017829    0.1306121 -42.57 0.0007105854    1.653    0.395
        49  -9.7268     82.2028     39.6986   7.8567170506e+01   5.8107717173e+01    0.3533073    0.3046746  31.14  0.002098903    1.191    0.160
        50 -10.1110    174.1097    242.3400   1.0199740913e+02   9.2973493585e-01    0.2942509    0.1241675  33.68  0.001380405    2.228    0.551
        51 -10.0740    203.6216    225.7786   9.4143043899e+01  -1.6074313746e+00    0.2006703    0.1649282 -40.27  0.001320853    1.525    0.344
        52 -11.5651      9.8684    141.5459   1.2467199199e+02   4.4119304234e+01    0.7150763    0.4727203  39.43  0.004687016    1.706    0.414
        53  -8.9766    108.7593     38.5917   6.9851433447e+01   5.2977701119e+01    0.1970098    0.1373947  60.48  0.000953767    1.645    0.392
        54  -9.3046     40.9120    142.1914   1.1713373507e+02   4.1173087331e+01     0.276758    0.1862747  32.83  0.001605668    1.731    0.422
        55  -9.2359     68.5352     36.3352   8.2106979129e+01   6.0987569977e+01     0.430501    0.3245786  49.90  0.002436962    1.679    0.404
        56  -9.2094     11.6532     34.1375   1.0560709039e+02   6.7737609220e+01    0.4102336    0.2397111 -40.48  0.002361643    1.322    0.243
        57  -8.6221     27.6164     35.1035   9.8626700521e+01   6.6330693338e+01    0.2699659    0.1720427  20.74  0.001651266    1.760    0.432
        58  -9.5786     86.4701     31.4516   7.3802792008e+01   5.8598242651e+01    0.2949609    0.2362378 -34.96   0.00169035    1.302    0.232
        59  -8.7228     96.9925     29.4311   6.9666945758e+01   5.6794247051e+01    0.5170103    0.2248195 -15.96  0.001709088    3.931    0.746
        60  -9.7818     91.2532     29.3387   7.1393139323e+01   5.7970590713e+01    0.4727468    0.3493389 -66.02  0.002341358    2.228    0.551
        61  -9.9226    225.1158     28.9971   4.5720704352e+01   2.5268515090e+01    0.4975277    0.3472753  67.65  0.001959812    1.420    0.296
        62 -12.6676    241.6866    131.8610   6.8699289393e+01   5.8120524875e+00     1.476983     1.219857  40.38  0.005465742    1.293    0.227
        63 -10.7006     10.8240    128.6607   1.2320643027e+02   4.6980744115e+01     0.277694    0.1907086 -59.84  0.001800925    1.357    0.263
        64 -10.1622     18.1094    127.3995   1.2119657822e+02   4.6722645684e+01    0.3477192    0.1610309  67.46  0.001514225    2.718    0.632
        65  -8.5568     73.6878    118.6585   1.0443806019e+02   4.2729049280e+01    0.1433297    0.1032603 -32.75 0.0007046305    1.700    0.412
        66  -9.2934      3.0680    116.5572   1.2397873173e+02   5.0259786399e+01    0.1843389    0.1693447 -74.64  0.001156362    1.236    0.191
        67  -9.8155     14.9935    113.2377   1.2034610473e+02   5.0236564323e+01    0.3139466   0.09927423 -57.05  0.001398428    2.450    0.592
        68  -9.7124     17.1154    104.4715   1.1856812064e+02   5.2115424724e+01    0.5418718    0.3052684  86.33  0.002869708    1.953    0.488
        69  -9.0216    240.2393    107.5719   6.3268180555e+01   1.0050474943e+01    0.1940731    0.1317238  39.34 0.0009505327    1.647    0.393
        70  -8.4912    125.4723     28.9655   6.1871322904e+01   5.0492531152e+01    0.2589661    0.2158171 -13.20  0.001415427    1.244    0.196
        71  -8.9239     46.4857    103.0112   1.0942961136e+02   4.9853354649e+01    0.2648713    0.1865684 -40.02  0.001477283    1.493    0.330
        72  -9.1017     47.0029     99.4816   1.0857472633e+02   5.0627467638e+01    0.2654265    0.2479899   3.95  0.001256277    1.274    0.215
        73  -9.0119    111.0133     16.5017   6.0545843446e+01   5.5350748520e+01    0.3238429    0.2298945  51.19  0.001355697    1.307    0.235
        74  -8.5004     20.2483     22.9732   9.7497430993e+01   6.9165008262e+01    0.2924357    0.1349959  32.82  0.001577488    2.621    0.618
        75  -9.0927     30.3097    101.9446   1.1420989100e+02   5.1666159018e+01    0.2106245    0.1884182 -29.02 0.0008557433    1.310    0.236
        76  -9.2884     64.0110     15.7843   7.4841654191e+01   6.4784107692e+01    0.2364711    0.2179798  68.48  0.001071839    1.635    0.388
        77  -9.7249    248.3623     15.2973   4.0249227989e+01   2.1494444985e+01    0.2604917    0.1942453 -62.78  0.001166202    1.157    0.135
        78  -8.4932    185.6621    244.6897   1.0022700067e+02  -1.2325069304e+00    0.1210485   0.07985716  17.19 0.0003173055    1.686    0.407
        79  -9.2611      2.8541     88.5510   1.2067113762e+02   5.6630390342e+01    0.3187646    0.2029656 -76.51  0.001380596    1.276    0.217
        80  -8.5157    226.2617     14.3217   4.1940915503e+01   2.6738411997e+01    0.3496778    0.1382485  65.64  0.001489933    2.350    0.575
        81  -8.9791     20.1082     88.9162   1.1520124325e+02   5.5486304580e+01    0.1885779    0.1510882 -88.03  0.001236132    1.268    0.212
        82  -8.1995     12.7861     89.6051   1.1767721516e+02   5.5822179547e+01    0.1453196    0.1069511  43.52 0.0009390718    1.649    0.394
        83  -8.6570    100.9963     83.7766   8.7606253522e+01   4.6218816330e+01    0.3282859    0.1851289 -46.01  0.001411208    1.687    0.407
        84  -8.7918    228.3319     78.8218   5.8008090922e+01   1.7339330280e+01    0.4300715     0.259538  -9.39  0.001702474    2.619    0.618
        85  -8.0988    221.5330     81.0142   5.9600697819e+01   1.8570305500e+01    0.2339846    0.1382239 -34.40  0.001033597    1.599    0.374
        86 -10.2939     25.0039     65.8846   1.0877589012e+02   6.0279287700e+01    0.8156404    0.2347277 -50.82  0.003451989    2.498    0.600
        87  -9.8819      9.3510     80.1836   1.1726763741e+02   5.8157505889e+01    0.5330136    0.2616333 -32.38    0.0027825    2.420    0.587
        88 -10.6161      3.8178     75.8133   1.1841880846e+02   5.9428213606e+01    0.5205085    0.4820933 -19.53  0.004027638    1.327    0.246
        89 -10.5621     17.3956     73.1019   1.1316142640e+02   5.9239979086e+01    0.5211921     0.399345 -48.49  0.002853969    1.124    0.111
        90  -9.2834     66.5314     29.6592   8.0090893300e+01   6.2380495992e+01    0.3372391    0.2147097 -24.85  0.001627341    1.479    0.324
        91 -10.4502     12.0686     69.6297   1.1438433467e+02   6.0342536502e+01    0.8329385    0.2282226 -56.52  0.003688379    2.392    0.582
        92  -9.9327     78.4686     76.0696   9.2439386723e+01   5.1786553224e+01     0.531495    0.2108462 -38.61  0.001918179    2.778    0.640
