#   1 NUMBER                 Running object number                                     
#   2 MAG_AUTO               Kron-like elliptical aperture magnitude                    [mag]
#   3 X_IMAGE                Object position along x                                    [pixel]
#   4 Y_IMAGE                Object position along y                                    [pixel]
#   5 X_WORLD                Barycenter position along world x axis                     [deg]
#   6 Y_WORLD                Barycenter position along world y axis                     [deg]
#   7 A_WORLD                Profile RMS along major axis (world units)                 [deg]
#   8 B_WORLD                Profile RMS along minor axis (world units)                 [deg]
#   9 THETA_WORLD            Position angle (CCW/world-x)                               [deg]
#  10 FWHM_WORLD             FWHM assuming a gaussian core                              [deg]
#  11 ELONGATION             A_IMAGE/B_IMAGE                                           
#  12 ELLIPTICITY            1 - B_IMAGE/A_IMAGE                                       
         1 -14.4633    193.2952     33.3904   5.5707388250e+01   3.2849627575e+01     2.011212     1.441817   1.56  0.006930094    1.737    0.424
         2 -14.8602    203.3441     21.3416   5.0637557423e+01   3.1685273115e+01     2.242929     1.508549  23.62  0.002979737    1.919    0.479
         3 -11.9407     32.9990     11.9988   9.1096749240e+01   6.8414225270e+01    0.2444882    0.1467051 -43.00  0.001521119    1.483    0.326
         4 -10.8567     49.9800      6.9964   8.1754901516e+01   6.7159514409e+01    0.1498752    0.1165707 -13.90 0.0006559247    1.011    0.011
         5 -11.7706     42.6223      6.3934   8.4456876195e+01   6.8177196444e+01    0.2395955    0.1720702 -12.24  0.001371524    1.175    0.149
         6 -12.0946     39.5573      3.4468   8.4328525796e+01   6.8957177985e+01    0.4202569    0.2054358  20.78  0.002205739    2.527    0.604
         7  -8.8379     81.2405      5.6527   7.0022272030e+01   6.2426218834e+01    0.1175886   0.09204096 -40.86 0.0002491032    1.569    0.362
         8 -11.2064    207.2025    181.9745   9.0783232488e+01   5.4761225186e+00    0.4275022    0.2453336 -53.82  0.001967955    2.603    0.616
         9 -17.1280     73.3582    152.1073   1.1302551905e+02   3.5006588625e+01     22.87186     10.34838  88.09   0.07311612    5.365    0.814
        10 -11.2220    195.6619    170.0048   9.0655032191e+01   9.5891316436e+00    0.4529816    0.3788267 -75.39  0.001914202    1.598    0.374
        11 -10.2781    193.7712    164.7593   8.9985751914e+01   1.0824985516e+01    0.3635237    0.2705357 -71.12  0.001815817    1.979    0.495
        12 -11.4132     46.0642    172.8275   1.2098675313e+02   3.4089912002e+01    0.4046642    0.2281236  58.93  0.002321529    1.599    0.375
        13 -17.9471      7.9061    239.9624   1.3140193750e+02   2.6048184220e+01     7.060051     1.581345 -77.56    0.0374979    3.788    0.736
        14  -9.6375    164.4912    206.0181   1.0263148974e+02   9.8142150009e+00    0.1620919    0.1263014 -47.14 0.0005474159    1.539    0.350
        15 -10.5700    146.0686    168.3263   1.0014754100e+02   1.9675213377e+01    0.2183964    0.1925323 -38.59 0.0006158035    1.323    0.244
        16 -10.5875    211.1745    179.3170   8.9561914023e+01   5.1003729555e+00    0.3707516    0.2587308   5.02   0.00148989    1.789    0.441
        17 -12.3919     92.5735    157.4201   1.0963099697e+02   3.1116482114e+01     0.534135    0.4096836 -31.25  0.002998339    1.995    0.499
        18 -10.3873    140.2187    157.0376   9.9344944155e+01   2.2957572883e+01    0.2694179    0.2079178 -87.49 0.0005724392    1.505    0.336
        19 -10.6821    189.8315    154.7965   8.8725387959e+01   1.3316538075e+01    0.4359846    0.3380924  53.00  0.001782732    1.274    0.215
        20 -15.2080     10.8718    206.3813   1.2945728434e+02   3.1372896886e+01    0.8322427    0.4355196  31.24  0.004980259    2.801    0.643
        21 -11.2088    133.7010    144.4361   9.8367291016e+01   2.6731940700e+01     1.062473    0.2556822 -55.14  0.002674905    6.160    0.838
        22 -10.7923    174.4003    148.4988   9.0503627510e+01   1.7684673932e+01    0.3758291    0.2857459 -43.39  0.001286373    1.394    0.282
        23 -10.4666    144.2859    146.7653   9.6508041884e+01   2.4200653723e+01     0.323931    0.2338154 -67.78  0.001621128    1.585    0.369
        24 -11.2056    105.2921    141.5358   1.0421794898e+02   3.2446988494e+01    0.5355146     0.331578 -32.54  0.002377518    2.618    0.618
        25 -12.3190     92.9055    142.1175   1.0714720383e+02   3.4316847894e+01     0.257342    0.2259047 -62.31 0.0004012497    1.180    0.152
        26  -9.6781    180.1086    192.6040   9.7656690473e+01   9.0312172229e+00    0.2012231    0.1803049 -75.18 0.0007153165    1.353    0.261
        27 -10.9296    113.7163    131.4672   1.0036090935e+02   3.3153586688e+01    0.7089319    0.3026795  34.81  0.001562203    3.097    0.677
        28 -11.4085    119.2621    124.7316   9.7654230038e+01   3.3592376886e+01    0.7451599    0.4147554 -26.72  0.002550734    3.902    0.744
        29 -10.5378    106.0167    130.8705   1.0206115739e+02   3.4621728596e+01     0.332509    0.2736512 -79.97  0.001286356    1.191    0.160
        30 -11.1209    100.8276    127.8452   1.0271185546e+02   3.6149733577e+01    0.2755751    0.2387625 -17.05 0.0007547693    1.548    0.354
        31 -10.1059    135.0000    120.0361   9.2876729040e+01   3.1539766167e+01    0.2819594    0.1476416 -47.60  0.001143705    1.894    0.472
        32 -10.8026    136.0000    128.5673   9.4562368563e+01   2.9559916120e+01    0.3934585    0.1929249 -50.75  0.001611738    2.064    0.515
        33 -10.4750    135.7722    124.0191   9.3604827495e+01   3.0552598524e+01    0.2760887    0.2078047 -46.05  0.001046699    1.340    0.254
        34 -14.4277     34.2382    208.4275   1.2586211149e+02   2.8650976080e+01     2.043835    0.5120838  62.76  0.006996365    6.388    0.843
        35  -9.6883    167.8685    189.3104   9.9407971834e+01   1.1855485712e+01     0.216714    0.1798228 -68.23  0.001083851    1.437    0.304
        36 -10.2344    160.5079    127.4874   8.8812252114e+01   2.4666715462e+01    0.2704459    0.1374824 -54.16 0.0009730204    2.334    0.571
        37 -10.2620    125.6905    127.4063   9.6706099580e+01   3.1814314577e+01    0.3200992    0.2088683 -78.56 0.0009752317    2.137    0.532
        38 -10.0373    109.0863    120.0181   9.9107888632e+01   3.6447695747e+01    0.2028743     0.188151 -80.78 0.0003402833    1.011    0.011
        39 -12.2138     23.8231    116.1521   1.1965144214e+02   4.8215559863e+01    0.3555393    0.1927097  86.24  0.001459712    1.922    0.480
        40 -12.2255     20.4910    111.5286   1.1988623077e+02   4.9483112932e+01    0.3674598    0.2196115 -77.59   0.00181977    1.329    0.248
        41  -8.7925    110.6865    116.2769   9.7900382181e+01   3.6976708878e+01     0.140762    0.1071346  83.29 0.0004408792    1.564    0.360
        42 -10.2653    167.6969    112.4845   8.3608764244e+01   2.6000754801e+01    0.3948444    0.2854287 -74.05  0.001203229    1.915    0.478
        43 -10.5560    134.5474    104.5910   8.9235276386e+01   3.4853648298e+01    0.6107156    0.1407461 -46.48  0.001657672    4.305    0.768
        44 -10.1696    205.4637    110.1794   7.5327300719e+01   1.7606983310e+01    0.3253906     0.211481  42.39 0.0008920748    1.553    0.356
        45 -10.7474    144.8980    179.3839   1.0223872861e+02   1.7852512114e+01    0.3163379    0.2211066  31.71  0.001688031    1.652    0.395
        46 -10.5061     80.7958    196.2223   1.1679619006e+02   2.5139911595e+01    0.3904341    0.3049427 -25.83  0.002347455    2.601    0.616
        47 -11.0231    204.3542    199.1339   9.4348449237e+01   3.5611044413e+00    0.2367789    0.1527567  35.91 0.0009508344    1.353    0.261
        48  -9.9593    190.6590    217.3052   9.9659861923e+01   3.5455303218e+00    0.1186899   0.08811668  66.69 0.0007041143    1.681    0.405
        49 -10.0783    238.5327     98.4845   6.6581324076e+01   1.1826198755e+01     0.145895    0.1367169 -15.78 0.0008095719    1.005    0.005
        50  -9.7650    121.5386     98.5344   9.0911966029e+01   3.8746504174e+01    0.1456613    0.1386912 -60.27 0.0001502259    1.010    0.010
        51 -11.5072    119.6135    111.0136   9.4483587638e+01   3.6467443522e+01    0.3950793    0.2583193  59.29  0.001837633    1.744    0.427
        52  -9.0698    167.0116     94.4866   7.9008174701e+01   2.9612217309e+01    0.2141349    0.1398361  79.69  0.000808591    2.437    0.590
        53  -9.8687    164.0281    215.2121   1.0403020929e+02   8.5067180244e+00    0.1929245    0.1541884 -78.27 0.0006982294    1.593    0.372
        54  -9.3426    155.5306     79.5053   7.7302023260e+01   3.5146243030e+01    0.1526053    0.1501473 -20.74   0.00011483    1.003    0.003
        55  -9.2258     64.6972     70.0823   9.9384114242e+01   5.4053339661e+01    0.1791198    0.1430864 -46.87 0.0002279616    1.067    0.063
        56 -10.9738    160.3232     61.8420   7.0822049156e+01   3.7121692222e+01    0.3770046    0.2900172 -78.33 0.0006231137    1.710    0.415
        57 -13.9075    183.8078     41.0913   5.9652810450e+01   3.4308059499e+01     1.297949    0.8385507  38.15  0.001130551    1.700    0.412
        58 -10.1288    173.6828    247.9892   1.0662802962e+02   2.4784021586e+00    0.1504453     0.127999  46.36  0.001159681    1.139    0.122
        59 -16.6765     56.3627    204.1648   1.2185960128e+02   2.6870564917e+01     5.172938     2.696237 -83.41   0.03188428    1.793    0.442
        60 -10.0459    170.6078     20.2017   5.5176149434e+01   4.0436924504e+01    0.1952744     0.140347  -3.96 0.0002200147    1.603    0.376
        61  -9.3211    196.1889    245.9169   1.0273241570e+02  -9.0754155613e-01    0.1503026    0.1099526  25.15 0.0006333599    1.348    0.258
        62 -12.3787    193.8419    194.9042   9.5519893748e+01   6.1102514301e+00     1.031309    0.5679497 -58.29  0.004616488    3.086    0.676
        63 -10.9295    189.6612     15.0973   5.0623292613e+01   3.5998453030e+01    0.2483041    0.1972304  87.53 0.0006924169    1.299    0.230
        64 -10.1180    159.5050     14.4838   5.5136355095e+01   4.3950553588e+01    0.1437145    0.1349221  45.72 5.447658e-05    1.003    0.003
        65 -10.4650    170.0725    239.6925   1.0620819335e+02   4.1020342185e+00    0.1783636     0.165638  -3.55 0.0004624214    1.395    0.283
        66 -11.6982    183.2462    234.1958   1.0331163569e+02   2.6195221496e+00    0.3946887    0.1879009  53.77  0.002050009    2.067    0.516
        67  -9.3735    100.5258    234.4903   1.1710697463e+02   1.5753444271e+01    0.1122077   0.08230098  63.53 0.0001718697    1.022    0.021
