#   1 NUMBER                 Running object number                                     
#   2 MAG_AUTO               Kron-like elliptical aperture magnitude                    [mag]
#   3 X_IMAGE                Object position along x                                    [pixel]
#   4 Y_IMAGE                Object position along y                                    [pixel]
#   5 X_WORLD                Barycenter position along world x axis                     [deg]
#   6 Y_WORLD                Barycenter position along world y axis                     [deg]
#   7 A_WORLD                Profile RMS along major axis (world units)                 [deg]
#   8 B_WORLD                Profile RMS along minor axis (world units)                 [deg]
#   9 THETA_WORLD            Position angle (CCW/world-x)                               [deg]
#  10 FWHM_WORLD             FWHM assuming a gaussian core                              [deg]
#  11 ELONGATION             A_IMAGE/B_IMAGE                                           
#  12 ELLIPTICITY            1 - B_IMAGE/A_IMAGE                                       
         1 -13.4908    226.3459      2.8003   3.8741461925e+01   2.7893509466e+01     2.109828    0.6418791  61.13  0.006381984    3.013    0.668
         2 -13.6780    183.6285     45.3789   5.5407366063e+01   3.3446724437e+01     1.165205     0.923075   0.50 0.0008878589    1.556    0.357
         3 -14.0437    194.0920     37.0149   5.1355090828e+01   3.1906073251e+01     1.406411     1.128363 -24.06  0.003786025    1.345    0.257
         4 -14.6995    203.2557     26.4572   4.7174183700e+01   3.0914847497e+01     1.852161     1.387602  30.66  0.001623975    1.691    0.409
         5 -13.1491     42.4517      5.5546   7.7840357238e+01   6.9251155874e+01    0.5215026    0.3632922  -2.08  0.003354663    1.253    0.202
         6 -11.9746     60.4999      2.4840   6.8865403553e+01   6.6807498617e+01    0.4687586    0.2767168 -46.42  0.002364806    2.711    0.631
         7 -13.9421     74.3424    157.3553   1.1056893679e+02   3.3356491464e+01     0.633149    0.5784582  50.71  0.003411552    1.206    0.171
         8 -13.9378     60.9612    191.0979   1.1777749839e+02   2.7657019450e+01    0.8621529    0.7565902 -79.93  0.005923026    1.229    0.186
         9 -15.5752     53.0397    203.9031   1.2059497334e+02   2.6003168837e+01     4.693504     1.599554  56.04   0.02032509    2.925    0.658
        10 -15.7096     67.9064    144.0355   1.1013585882e+02   3.7372028572e+01     6.438962     3.087982  64.11   0.02455425    3.173    0.685
        11 -11.9721    193.0496    194.7656   9.0615711825e+01   4.7301917077e+00     0.939072    0.4976605 -63.11  0.002949243    5.826    0.828
        12 -11.2861    107.8934    203.3749   1.0943862603e+02   1.8261854100e+01    0.2677792     0.179441  77.14 0.0008903191    1.703    0.413
        13  -8.8425     87.6454    202.7037   1.1352798834e+02   2.1531354835e+01    0.1135888    0.1014902  -7.65 0.0007033827    1.693    0.409
        14 -10.4934     96.9938    200.6094   1.1134703991e+02   2.0534354262e+01     0.296685    0.2425802 -17.19  0.001069183    1.972    0.493
        15 -18.2955      8.6798    240.0938   1.3063462025e+02   2.4066417796e+01     15.52624     1.702026 -78.06   0.04998979    8.422    0.881
        16 -11.4886    208.6427    196.6066   8.7953780773e+01   1.6358760704e+00    0.3161596    0.2208179 -46.39  0.001103918    1.753    0.429
        17 -11.1844    112.6678    196.2099   1.0747323333e+02   1.8902720778e+01    0.4275049    0.2880413   3.59  0.001808745    3.378    0.704
        18 -10.3084     81.6550    194.6825   1.1383800667e+02   2.4055204244e+01    0.4184352    0.1768993  52.69  0.001873792    2.269    0.559
        19 -10.6383     96.9195    191.1589   1.1014926359e+02   2.2481106079e+01    0.2884837    0.2252912 -49.86 0.0009571959    1.520    0.342
        20  -9.6726     99.7824    187.5975   1.0904660154e+02   2.2772828843e+01    0.1919308    0.1530197  56.87 0.0002564618    1.127    0.112
        21 -10.8821    150.3405    187.6911   9.8100259525e+01   1.3920355458e+01    0.2695696    0.2083954 -84.59  0.001058926    1.688    0.408
        22 -10.3666     99.4414    180.6360   1.0813578581e+02   2.4308530697e+01    0.2335394    0.2153255  66.73 0.0005682463    1.092    0.084
        23 -12.0964     73.6876    176.7392   1.1337950092e+02   2.9053282978e+01     0.401082    0.2767305 -40.58  0.001672669    2.028    0.507
        24 -12.2821     78.0282    171.4005   1.1169282734e+02   2.9623790270e+01     0.399833    0.2665687 -49.47  0.002128964    1.724    0.420
        25 -11.5094    143.0578    172.4697   9.6976213453e+01   1.8303766721e+01    0.4852611    0.2979466 -46.46  0.002279875    1.741    0.426
        26 -10.3559     55.3011    174.5532   1.1721981925e+02   3.1972225257e+01    0.2840672    0.1668182  68.71  0.001507105    1.714    0.417
        27 -10.9012     46.9843    174.0639   1.1900098044e+02   3.3082458746e+01     0.317705    0.2385448 -77.08  0.001830109    1.188    0.158
        28  -9.5574    205.0538    167.4510   8.2904237143e+01   7.0321491242e+00    0.3275141     0.132329  42.73  0.001266671    2.391    0.582
        29  -9.6579    162.3125    167.4376   9.1754771657e+01   1.5550515458e+01    0.2265258    0.1749587 -71.60 0.0004144995    1.654    0.396
        30 -10.2460     58.3675    166.1938   1.1554909147e+02   3.3467709761e+01    0.3235726    0.1372956 -65.13  0.001479332    2.110    0.526
        31 -10.4265    229.6259    165.8148   7.7950266760e+01   2.6220406013e+00    0.1938201    0.1203543 -41.98  0.000609497    1.725    0.420
        32  -9.8840    192.6200    165.0534   8.4875668160e+01   9.9138683616e+00    0.2329696    0.1992752  50.92 0.0005998687    1.246    0.197
        33  -9.9472    156.9887    160.4937   9.1527285231e+01   1.8009920836e+01    0.2211096    0.1403417  45.15 0.0007041963    1.513    0.339
        34 -12.2202     92.1883    155.0011   1.0583029408e+02   3.1206524499e+01    0.5980529    0.4181423 -32.86  0.002899182    2.004    0.501
        35 -10.2010    189.2919    154.5882   8.3311342279e+01   1.2511466084e+01    0.2927757    0.1399846  49.24  0.001146673    2.165    0.538
        36 -11.4281    133.7517    144.7618   9.3641475430e+01   2.6035863910e+01     1.190399    0.3005391 -54.52  0.002886129    5.663    0.823
        37 -10.6852    174.4374    149.2269   8.5266739672e+01   1.6657081379e+01    0.3384399    0.2114073  40.65 0.0007863814    1.581    0.367
        38 -10.4161    143.9429    146.2491   9.1523305826e+01   2.3653892749e+01    0.3123091     0.195358 -75.62  0.001174995    2.680    0.627
        39 -16.6041     62.1847    247.5561   1.2236298666e+02   1.6708751532e+01     8.386806      2.69035  31.48   0.01476356    7.866    0.873
        40 -10.6859     86.9082    145.4508   1.0550813251e+02   3.4266921922e+01    0.3209629    0.2566951  82.97 0.0009248784    1.275    0.216
        41 -12.3184     92.6879    140.2212   1.0306459360e+02   3.4574707669e+01     0.282615    0.2449738 -56.50 0.0003782907    1.147    0.128
        42 -11.1976    105.3770    139.8952   9.9721607138e+01   3.2494515229e+01    0.5917359    0.3975939 -28.40  0.002604153    2.149    0.535
        43 -10.7003    105.9691    130.4069   9.7590217751e+01   3.4599772340e+01     0.407661    0.2953528 -60.19  0.001995708    1.351    0.260
        44 -10.6601    113.2807    130.4224   9.5671591966e+01   3.3252730247e+01    0.3189529     0.271887 -15.47 0.0008629987    1.452    0.312
        45 -10.7122    135.7268    127.8673   8.9343872072e+01   2.9379108250e+01    0.5592191    0.1722916 -48.69  0.001688317    3.285    0.696
        46 -10.0269    160.8579    128.1041   8.3371837157e+01   2.3905539523e+01    0.2464454    0.2217628 -85.72  0.001249779    1.252    0.201
        47 -10.8507    100.5754    126.6201   9.8210173511e+01   3.6443310955e+01    0.2742065    0.2354451 -21.12 0.0006874914    1.408    0.290
        48 -11.0161    119.2191    124.0833   9.2669309579e+01   3.3571449958e+01    0.5285472    0.3364492 -15.08  0.001889127    3.140    0.682
        49 -10.1115    109.0293    119.1815   9.4230710090e+01   3.6648505590e+01    0.2138311    0.2085343 -60.61 0.0003869621    1.038    0.037
        50  -9.9338    167.7611    112.5722   7.7860284160e+01   2.5533983225e+01    0.3293793    0.2341093 -68.32  0.001389071    1.882    0.469
        51 -10.1576    135.0000    112.1215   8.5602334702e+01   3.3005990045e+01    0.4339612   0.08762142 -45.11  0.001043798    4.866    0.794
        52 -11.7083    118.5940    109.8358   8.9322261937e+01   3.6928976374e+01    0.5356254    0.4640304  89.60  0.002480451    1.311    0.237
        53 -10.1290    205.4547    110.1614   6.9495092231e+01   1.7228312949e+01    0.3135924    0.2158673  41.59 0.0008968593    1.533    0.348
        54  -9.6440    134.5029    106.0109   8.4108689750e+01   3.4442464463e+01     0.246839    0.1519557 -43.76  0.001033871    1.594    0.372
        55 -10.1318    111.8012    217.8235   1.1045777363e+02   1.4893988362e+01    0.1754819    0.1545165  48.79 0.0004137101    1.150    0.131
        56  -9.4851     63.7500     99.3569   1.0280168702e+02   4.8565505830e+01    0.1716651    0.1337208  15.91 0.0005435038    1.574    0.365
        57 -10.1313     32.0071     96.0478   1.1213247021e+02   5.2822263533e+01    0.1905906    0.1549131 -63.58   0.00121116    1.006    0.006
        58 -11.3747     41.7330     91.9538   1.0819690167e+02   5.2855159275e+01    0.3051425    0.2280613  37.58  0.001093714    1.567    0.362
        59 -10.1361     39.9734     88.5043   1.0803961579e+02   5.3828600333e+01     0.214232    0.1506202 -59.20 0.0007048965    1.183    0.154
        60 -10.5622     52.9887     90.6811   1.0423916448e+02   5.1923012092e+01    0.2611001    0.1592313 -41.07  0.001316701    1.606    0.377
        61  -8.9729    156.4714     80.5461   7.1420524281e+01   3.4520504167e+01    0.1544273    0.1534318 -30.50 9.328695e-05    1.006    0.006
        62  -8.9762    184.3748     77.2857   6.4618163928e+01   2.8190476833e+01     0.161577    0.1188072  24.24 0.0007017013    1.717    0.418
        63  -9.6156     63.2669     69.8394   9.5196681466e+01   5.5267490973e+01    0.1971225     0.174175 -54.24 0.0006181512    1.155    0.134
        64 -11.3042    155.2228     57.7854   6.4624231399e+01   3.8826783187e+01    0.4266313    0.3067454 -79.16  0.001089649    1.913    0.477
        65 -10.1706    130.6865    213.1984   1.0610454387e+02   1.2648989444e+01    0.2076276     0.169659  68.24 0.0004055031    1.221    0.181
        66 -10.4865     58.1186    227.0767   1.2155486858e+02   2.0863139272e+01    0.1885548     0.133436  83.27 0.0006368859    1.226    0.184
        67  -9.5928    176.0000    239.9525   1.0111342823e+02   8.2674361006e-01     0.162097   0.07022088 -44.21 0.0005530727    2.862    0.651
        68 -10.9073    106.8647    210.4634   1.1054507050e+02   1.7054112156e+01    0.2563244    0.1869457  56.99 0.0007505138    1.186    0.157
        69 -15.4050     11.5203    206.4942   1.2854213167e+02   3.0016928838e+01    0.8721116    0.5417242  29.93  0.004793299    2.118    0.528
        70 -10.4108    158.0659     52.2247   6.2240934952e+01   3.8991956080e+01    0.2707258     0.241181 -78.18 0.0004115376    1.225    0.184
        71 -10.2381    189.5517     15.0079   4.5653358037e+01   3.5713211922e+01     0.217703    0.1772715  75.81 0.0005835952    1.136    0.120
        72  -9.9317     73.8320    230.8848   1.1902073444e+02   1.8099160928e+01    0.3738549     0.104841  47.29  0.001649736    2.734    0.634
