#   1 NUMBER                 Running object number                                     
#   2 MAG_AUTO               Kron-like elliptical aperture magnitude                    [mag]
#   3 X_IMAGE                Object position along x                                    [pixel]
#   4 Y_IMAGE                Object position along y                                    [pixel]
#   5 X_WORLD                Barycenter position along world x axis                     [deg]
#   6 Y_WORLD                Barycenter position along world y axis                     [deg]
#   7 A_WORLD                Profile RMS along major axis (world units)                 [deg]
#   8 B_WORLD                Profile RMS along minor axis (world units)                 [deg]
#   9 THETA_WORLD            Position angle (CCW/world-x)                               [deg]
#  10 FWHM_WORLD             FWHM assuming a gaussian core                              [deg]
#  11 ELONGATION             A_IMAGE/B_IMAGE                                           
#  12 ELLIPTICITY            1 - B_IMAGE/A_IMAGE                                       
         1 -11.6721     50.7699      9.9431   6.9455682403e+01   6.7594411139e+01     0.601564    0.4845659   3.72  0.002680713    1.061    0.058
         2 -12.5353     91.5985     18.3872   5.8613173608e+01   5.9025044482e+01     2.116442    0.6144086 -23.05   0.00708971    4.318    0.768
         3 -12.5348     52.1681     22.1837   7.4659066612e+01   6.5798127290e+01     1.604575    0.9262196   1.04  0.007922682    2.143    0.533
         4 -13.5660     69.8198     31.4961   7.1540521040e+01   6.1595401160e+01     1.390995     1.158814  57.21  0.005227663    1.651    0.394
         5 -12.2844    149.4095     65.4064   6.0351583590e+01   3.9044586905e+01     1.870061     1.407757  39.98  0.009077148    1.340    0.254
         6 -11.1836    155.8413     43.1597   5.2127549742e+01   4.0814984711e+01      1.06072    0.9102303  -1.34  0.005786853    1.348    0.258
         7 -11.8254     87.3697     40.5046   6.8895011915e+01   5.7004874945e+01    0.9060856    0.4752765 -32.49  0.003091696    1.942    0.485
         8 -11.5081      3.8409     27.1014   1.0097082060e+02   6.9974453527e+01    0.5501817    0.2387356 -29.68  0.002950472    2.016    0.504
         9 -11.8402     16.6662     38.3620   9.8181804351e+01   6.7057265960e+01    0.9559939    0.4985314  -9.38  0.005033462    2.175    0.540
        10 -12.0968     30.5846     25.0819   8.6113754491e+01   6.8162523979e+01    0.8814005    0.4899478 -20.79  0.004808031    1.758    0.431
        11 -12.9085     18.8907     15.5171   8.8041201585e+01   7.0858654955e+01     1.731302    0.6248834 -50.51  0.007488291    3.506    0.715
        12 -11.4704      7.0531     19.7126   9.6468204596e+01   7.1099457362e+01    0.4455906    0.2569472  -8.53  0.001057142    1.653    0.395
        13 -12.2191     25.3355      8.7374   8.1243920531e+01   7.1201660376e+01    0.6873094    0.2895394 -37.85 0.0005508894    2.201    0.546
        14 -12.3808     10.2315      3.4535   8.7248078538e+01   7.3445325295e+01     0.315026     0.234967  12.05 0.0003889991    1.352    0.260
        15 -12.2473      2.8278      2.9108   9.1587801243e+01   7.4105385674e+01    0.3269523    0.2453315  18.10  0.002393753    1.552    0.356
        16 -11.0226     12.6774     24.9258   9.5407481959e+01   6.9805649485e+01    0.3886758    0.2001622 -30.43 0.0006522968    1.618    0.382
        17 -10.2630    215.8029     23.3835   3.8190882355e+01   2.8547980086e+01    0.5746987    0.3938923  43.05  0.003134636    1.868    0.465
        18  -9.9981    204.5832     24.5123   3.9664433445e+01   3.1056097965e+01    0.5668309    0.2286128 -21.92  0.002155107    3.514    0.715
        19 -11.7046    123.5052     21.9960   5.1799025222e+01   5.1387851996e+01     1.322385    0.5593225  42.39  0.005341226    2.321    0.569
        20 -11.5958    131.6898     19.9650   4.9352218345e+01   4.9621708136e+01    0.6291425    0.4383813  37.13  0.001349541    1.427    0.299
        21 -11.0456    100.7299      5.3784   5.0808297618e+01   5.8288855111e+01    0.4301584    0.3011464  26.24 0.0003355484    1.388    0.280
        22 -11.5916    123.5839      8.5648   4.6983299160e+01   5.2685664178e+01    0.8413108    0.3798237  50.12     0.003828    1.847    0.459
        23 -11.5160    102.6142     10.8386   5.2526108686e+01   5.7378342431e+01    0.5894503    0.3732969  37.27  0.002681246    1.423    0.297
        24 -11.8689    106.5175      4.4579   4.9076561078e+01   5.7050746911e+01    0.6840882    0.5247077 -43.79  0.004032977    1.613    0.380
        25 -12.0521    110.9437     14.5987   5.1955178134e+01   5.5114252270e+01    0.5734634    0.3454146 -26.77  0.001598513    1.828    0.453
        26 -11.7847    116.6830     14.8049   5.0707669518e+01   5.3751889416e+01     0.650495    0.4043289 -22.34  0.002822234    1.793    0.442
        27 -11.4116    163.9753      6.0978   3.9664510129e+01   4.2938036875e+01     1.628904    0.9565672 -13.85  0.008161859    2.198    0.545
        28 -10.4824    157.4713      6.1462   4.0556264197e+01   4.4552592925e+01    0.6601767    0.3233652 -17.56  0.003014555    2.567    0.610
        29 -10.3524    181.9701     15.8224   4.0085782736e+01   3.7522781586e+01    0.4607074    0.2446177  46.73   0.00215096    2.074    0.518
        30 -11.1821    170.6644     14.6387   4.1219698348e+01   4.0454092821e+01    0.7821854    0.4936433  76.81     0.002988    1.471    0.320
        31 -10.9336    177.3942     20.9806   4.2089698335e+01   3.8106898697e+01    0.6535921    0.3537511 -11.38  0.002821214    2.772    0.639
        32 -11.6129    154.6508     17.3393   4.4367908031e+01   4.4190505919e+01    0.6835231    0.3469891  62.96  0.001921984    1.700    0.412
        33 -11.6106    149.8616     15.6742   4.4625829617e+01   4.5557189449e+01    0.6912932     0.470125 -21.45  0.002647813    1.700    0.412
        34 -10.8493     84.4830     19.2982   6.1190667543e+01   6.0398859617e+01    0.5498887    0.3236906  18.89  0.002556579    1.943    0.485
        35  -9.9219     80.0061     18.7469   6.2417993165e+01   6.1357707652e+01    0.3341101    0.2368365 -26.60  0.001621918    1.492    0.330
        36 -10.2441    212.1651     12.1287   3.5899987545e+01   3.0648791199e+01    0.5860098    0.3255076  75.56  0.003084266    1.638    0.390
        37  -9.4617    205.0968     15.7894   3.7467677530e+01   3.1915470018e+01     0.312252    0.1851063 -36.14  0.001658114    1.709    0.415
        38 -10.1578     41.6639      3.4163   7.0215452851e+01   6.9741060827e+01    0.3726034    0.2167238  -6.16   0.00150281    1.734    0.423
        39 -10.7656     39.0891      9.1966   7.4425843163e+01   6.9418566591e+01     0.437139     0.250958 -14.81  0.002127986    1.697    0.411
        40  -8.9145     36.3659      6.2785   7.4259524369e+01   7.0155777901e+01     0.191147    0.1330255   4.05 0.0007884047    1.197    0.165
        41 -10.5285     31.2922     11.9019   7.9675425612e+01   7.0069734783e+01    0.2605888    0.1874558 -11.09 0.0005003108    1.119    0.107
        42  -9.4200     66.0424     12.4505   6.4516416219e+01   6.4713579576e+01    0.2698354    0.1439632  33.72  0.001378674    1.678    0.404
        43  -8.9110    233.5401     10.5266   3.3707792414e+01   2.6000904239e+01    0.2135524    0.1138266 -54.62 0.0005357912    1.668    0.401
        44  -8.7891    233.5450      7.4846   3.3058839257e+01   2.6326348711e+01    0.1704531    0.1407753 -73.08 0.0005138941    1.032    0.031
        45 -10.8037    200.3245      5.6762   3.5479740762e+01   3.4094108056e+01    0.6071615    0.2738395 -39.64  0.002948537    2.132    0.531
        46 -10.1588     77.5444      9.0256   5.8928920482e+01   6.2886821532e+01    0.2622064    0.2149119  30.09 0.0005186392    1.043    0.041
        47  -9.6666     77.7420      4.4179   5.6779190088e+01   6.3282352118e+01    0.2501068    0.1371495  18.18   0.00118783    2.046    0.511
        48  -9.9430    226.2741      8.2275   3.3788427657e+01   2.7849183245e+01    0.2547184    0.1952456  41.67 0.0009774454    1.768    0.434
        49  -9.6087    250.5367      7.0752   3.1761561411e+01   2.2776550270e+01    0.2558928   0.08106495 -39.31  0.001053641    2.521    0.603
        50  -9.5968    248.8988      1.9546   3.0854382860e+01   2.3657539363e+01    0.2737353    0.1499237 -35.04 0.0007624708    1.802    0.445
        51 -10.8349    139.4467      4.6465   4.2796899587e+01   4.9153003681e+01      0.53518    0.2910649 -12.75  0.002490073    2.316    0.568
        52  -9.1916     82.9435      8.5218   5.7005114590e+01   6.1843782174e+01    0.1943449    0.1113108  49.92 0.0005027705    1.536    0.349
        53  -8.5400    190.3503      7.3228   3.6893655548e+01   3.6327912464e+01    0.1334013   0.08865909  44.66 0.0001220133    1.749    0.428
        54 -10.2986    185.8457      5.2856   3.6848700394e+01   3.7618184023e+01    0.3389517      0.24465  41.95  0.001170161    1.627    0.386
        55 -10.0873    181.5877      4.3685   3.7071117022e+01   3.8743774160e+01    0.2871094    0.2551192 -71.08  0.001020278    1.122    0.108
        56 -10.4137     56.8879      2.0935   6.2997524983e+01   6.7422112069e+01    0.3505964    0.1895936  38.21  0.001612258    1.565    0.361
        57 -10.1408     61.1434      5.6736   6.3128647028e+01   6.6315948467e+01    0.5111449    0.2415117  28.80  0.002465013    2.114    0.527
        58  -9.6597     67.5428      6.0190   6.0936994257e+01   6.5113008752e+01    0.2752554    0.1993798 -23.19 0.0009015533    1.480    0.324
        59 -10.8256     71.6131      3.5922   5.8384548747e+01   6.4568034994e+01     0.376495    0.3416345 -51.56  0.002511272    1.587    0.370
        60  -9.5399    217.9485      4.7381   3.3693098452e+01   3.0085375779e+01    0.2900152     0.201875  21.12  0.001323488    2.418    0.586
        61 -10.6587    132.3881      4.5460   4.3950210769e+01   5.0893135271e+01    0.4324164    0.3626849  34.03  0.002259881    1.214    0.176
        62  -9.4843    243.9960      4.5952   3.1706708568e+01   2.4398693725e+01    0.1859329    0.1498854 -38.30 0.0005855093    1.369    0.270
        63 -10.3668    125.8935     15.8726   4.9110366156e+01   5.1446914604e+01    0.4571332    0.3212204  14.87  0.001560611    1.673    0.402
        64 -12.9682      4.6460     10.2777   9.3907971971e+01   7.2830914070e+01    0.6580908    0.4912439 -11.94  0.001767041    1.122    0.109
        65  -9.5030     84.2654      3.5031   5.4402517429e+01   6.2024345529e+01    0.3265109    0.1458283  22.32  0.001316193    3.081    0.675
        66 -10.5246    208.6714      3.5977   3.4220190147e+01   3.2334816797e+01    0.4991692    0.2462482  63.08  0.002122287    1.871    0.465
        67 -10.6058     91.0147    121.4098   9.2609241233e+01   3.9712794596e+01    0.4934337    0.3763075 -37.55   0.00153047    1.352    0.260
        68  -8.7179    211.5022    250.5094   8.8286522558e+01  -6.8862207683e+00    0.1216997   0.09315276  16.74 -0.0001227445    1.022    0.021
        69  -8.5572    162.6662    250.3312   9.7722532993e+01   4.1182532070e-01    0.1221066   0.08793809  57.10 0.0007052177    1.728    0.421
        70 -11.5052     75.4932    119.9962   9.7087630917e+01   4.2506964784e+01    0.2503556    0.2438713  39.19 8.635819e-06    1.091    0.083
        71 -10.1211    116.1584    116.5633   8.3959100222e+01   3.6225409017e+01    0.2762234    0.2586897 -29.15 0.0002598644    1.065    0.061
        72  -8.6024    104.4851    115.9811   8.7234932389e+01   3.8615192120e+01    0.2354241     0.149363 -49.67  0.001017093    1.544    0.352
        73  -9.5408     98.5965    114.3516   8.8605145625e+01   4.0077925376e+01    0.4422711    0.2628116 -42.55  0.001459177    1.682    0.405
        74  -8.9774    108.3896    114.2127   8.5626341500e+01   3.8288694098e+01     0.222086    0.1468679 -59.68 0.0004920649    1.684    0.406
        75 -10.2295     84.9110    113.2773   9.2590750424e+01   4.2675818775e+01    0.2478035    0.2130967 -35.37 0.0002533926    1.154    0.134
        76 -10.0371     61.9970    109.2103   9.9072039060e+01   4.7002902663e+01    0.4890068    0.2789936  10.47  0.002041475    2.551    0.608
        77  -9.6098     74.6377    107.2526   9.4453407615e+01   4.5713982140e+01    0.4040261     0.226329  13.46  0.001565488    2.714    0.632
        78  -8.6358    121.4474    109.5226   8.0603708482e+01   3.6746372544e+01     0.157711    0.1502145  -8.35 -7.149858e-06    1.054    0.051
        79  -9.5205    113.3632    107.4650   8.2389743627e+01   3.8858288032e+01    0.3377507    0.2748703  12.98  0.001015211    1.398    0.285
        80  -9.1983    110.6848    104.4283   8.2361772405e+01   4.0076058882e+01     0.316301    0.1538783  40.55  0.001096812    2.080    0.519
        81  -9.9036     57.5917     85.5819   9.4893675818e+01   5.3121154025e+01     0.456777    0.2641439  -2.70  0.001876536    2.729    0.634
        82 -10.5861     47.9313    101.4155   1.0212719740e+02   5.0560446959e+01    0.9009208    0.5135402 -57.48  0.004380796    1.535    0.348
        83 -10.1080     53.7874    101.4738   1.0012396069e+02   4.9880601966e+01    0.4162553    0.2147806 -43.77 0.0005298581    1.836    0.455
        84  -9.6203     51.7692     86.2334   9.7202864136e+01   5.3684825232e+01    0.6361558    0.3242891 -17.21  0.002263659    3.695    0.729
        85  -9.1421     53.5043     82.0333   9.5460071391e+01   5.4429375011e+01    0.2311918    0.1778534 -56.15 0.0005183103    1.269    0.212
        86 -10.6681     55.4548     96.4518   9.8388423077e+01   5.0872337675e+01    0.3323911    0.2488311 -15.68 0.0004957098    1.522    0.343
        87 -10.1955     51.8920     92.2552   9.8650360862e+01   5.2279777362e+01    0.5082844    0.2500217 -46.16  0.002272452    1.810    0.447
        88 -11.1073    141.6700    102.6811   7.3227754939e+01   3.3822659184e+01    0.4834395     0.394411  19.20  0.001534552    1.377    0.274
        89 -11.0160    146.1530     99.8882   7.1303231685e+01   3.3375952069e+01    0.4385048     0.281087  36.53  0.001053853    1.659    0.397
        90 -10.0838     75.8544    102.1431   9.2796124747e+01   4.6741662613e+01    0.3341967    0.2740222 -52.78  0.001073744    1.164    0.141
        91 -11.2176     74.9871     95.0531   9.1256797544e+01   4.8522745631e+01    0.6029519    0.4233685 -37.38  0.001712568    1.387    0.279
        92  -9.8312     77.8410     90.1491   8.8944172186e+01   4.9193915530e+01    0.3001973    0.2683873  26.51 0.0007491267    1.167    0.143
        93  -9.5927     82.8679     89.8916   8.7156884826e+01   4.8434635862e+01    0.2306484    0.2079047  24.43            0    1.142    0.124
        94  -9.6931     82.4402     86.5267   8.6335574384e+01   4.9249702077e+01    0.2863622    0.2135962 -31.70 0.0007922869    1.328    0.247
        95  -9.7509    133.6789    102.0040   7.5151978950e+01   3.5757228486e+01     0.303571    0.2848457 -58.34 0.0006960994    1.128    0.113
        96  -9.8074    132.1730     98.1438   7.4471889722e+01   3.6906043465e+01    0.3567291    0.3265638 -42.70   0.00182622    1.106    0.096
        97  -9.7561     63.4364    102.0653   9.6959556837e+01   4.8528399929e+01    0.3878382    0.2595448 -17.28  0.001806255    1.937    0.484
        98 -10.7180      4.0255     98.7213   1.1660032719e+02   5.4631163947e+01    0.5080718    0.2140204 -70.44  0.001995696    1.887    0.470
        99 -11.8350      4.3988     88.1776   1.1494124204e+02   5.7062401145e+01    0.9488065    0.3261959 -59.87  0.002793086    2.040    0.510
       100  -9.8394      9.8689     76.8336   1.1098038515e+02   5.9377334217e+01    0.1866436    0.1297923 -47.28 0.0004697016    1.172    0.147
       101 -11.2483      5.2158     77.3201   1.1284249716e+02   5.9501109658e+01    0.2545678    0.2333472  64.03 0.0006893516    1.356    0.263
       102 -10.3259      3.5694     72.8058   1.1265826879e+02   6.0588940425e+01    0.3239108    0.1448227 -57.27  0.001011597    1.634    0.388
       103 -10.3498    156.2995     96.8475   6.7968050494e+01   3.1621513083e+01    0.3943868    0.2696635 -34.26  0.001737052    1.508    0.337
       104 -10.5356     88.0056     96.7060   8.7345708763e+01   4.6033351090e+01    0.4247457    0.3764645  47.54    0.0022796    1.231    0.188
       105 -10.2703    121.0086     96.5281   7.7125498168e+01   3.9680706757e+01    0.3117742    0.2382178  55.27  0.001363285    1.435    0.303
       106 -10.8195    117.1093     93.4748   7.7371890889e+01   4.1156158612e+01    0.5826085    0.4328915  13.96  0.002359176    1.656    0.396
       107 -10.1741    126.3473     92.0629   7.4319765283e+01   3.9461459567e+01     0.380899    0.3370872 -66.90  0.001496432    1.290    0.225
       108  -8.3270    126.7158     96.7420   7.5572893142e+01   3.8403627379e+01    0.1514598    0.1217129   6.06            0    1.479    0.324
       109  -9.1431    189.1331     93.8834   6.0106446476e+01   2.4394948420e+01    0.2399665    0.1854635  10.68  0.001112888    1.691    0.409
       110  -8.9971    103.6937     92.5601   8.1154602367e+01   4.4075331713e+01    0.3499352    0.1887415  25.88  0.001292841    2.463    0.594
       111  -9.2481    107.0000     87.9921   7.8785324837e+01   4.4397896163e+01    0.4703875    0.1033525 -44.63  0.001214676    4.513    0.778
       112  -8.8151     92.3012     88.3048   8.3552771509e+01   4.7143899094e+01    0.2103768    0.1783526 -34.11  0.000390009    1.134    0.118
       113 -10.1209     89.6516     86.8032   8.3985925914e+01   4.7945505434e+01    0.5214038    0.3631056   0.16  0.002318195    1.930    0.482
       114  -9.4335     67.1185     89.4772   9.2502983135e+01   5.0955832867e+01    0.5737639     0.268869 -64.34  0.002069382    3.013    0.668
       115 -11.0865    146.2285     84.6969   6.6921713766e+01   3.6363422816e+01     1.013643    0.5665277 -20.70  0.001565159    2.683    0.627
       116 -11.1775    166.8394     70.2106   5.8023320028e+01   3.3943008097e+01     1.105019    0.4881421 -37.80  0.004104486    2.264    0.558
       117 -11.0588    149.1871     34.5754   5.0725116606e+01   4.3605914225e+01     1.335163    0.3118393  53.74  0.004192513    3.394    0.705
       118 -11.0422    145.8974     75.8009   6.4346160052e+01   3.8092839726e+01    0.5323046    0.4000175  18.18  0.000986908    1.642    0.391
       119  -8.5484    211.3219    240.3241   8.6718420583e+01  -5.5169429507e+00    0.1289794    0.0804095   6.00 0.0007046866    1.681    0.405
       120 -11.2795    163.7791     52.5367   5.3440609046e+01   3.7491706803e+01     1.000457    0.6229166 -77.20  0.003483003    2.489    0.598
       121  -9.5522    190.5968    235.8182   9.0026969596e+01  -1.7512796473e+00    0.1508813    0.1229006 -48.58 0.0004536758    1.655    0.396
       122 -10.8348    136.2925     42.2723   5.5927346024e+01   4.5791783138e+01     1.359274    0.3837706 -46.10  0.003486637    5.967    0.832
       123  -9.9003    141.4970     45.0215   5.5673022995e+01   4.4131347278e+01    0.2562127    0.1987049  60.40 0.0003655094    1.236    0.191
       124 -10.7240    146.3278     42.2380   5.3742341841e+01   4.3319613845e+01    0.6932412    0.2038214  53.85  0.002221014    2.900    0.655
       125 -12.4475    147.2525     53.8415   5.7233929585e+01   4.1419019497e+01    0.4044445    0.3347864  35.62 0.0003163291    1.229    0.186
       126 -11.9601    145.7936     48.3734   5.5817257197e+01   4.2591126537e+01    0.3970436    0.2939459  36.44  0.000153361    1.403    0.287
       127 -10.1569    112.4876     87.3111   7.6915308388e+01   4.3417550007e+01    0.5810707    0.1804965 -37.87  0.001665139    3.740    0.733
       128  -9.2879    134.0000     84.0293   6.9848097465e+01   3.9350593773e+01     0.691873    0.3796089 -14.02  0.002040592    4.148    0.759
       129  -9.2916    137.7934     82.8344   6.8495661085e+01   3.8703193369e+01     0.484029    0.1664359  53.17  0.001131491    3.223    0.690
       130 -10.4478    119.0815     86.5682   7.4750345701e+01   4.2173446890e+01    0.4832762    0.2705077  41.92  0.001976823    1.778    0.438
       131  -9.4077    156.3177     85.1124   6.4634162088e+01   3.3873455830e+01    0.3149493    0.2640906 -25.98 0.0009439127    1.253    0.202
       132 -12.0078    161.2364     81.9415   6.2605783876e+01   3.3268244454e+01     0.444658    0.2925519  58.30  0.001954939    1.569    0.363
       133  -9.9671     93.7520     75.3652   7.9106457039e+01   4.9589285425e+01    0.7003245    0.4305368  18.17  0.002908969    2.172    0.540
       134 -10.7359     98.6687     76.8556   7.7976067874e+01   4.8345403279e+01    0.5585013    0.4428642 -56.45  0.001941588    1.460    0.315
       135  -9.8730    100.7456     83.0011   7.9229725507e+01   4.6682648358e+01    0.3574258    0.2572004 -34.50  0.001005691    1.386    0.279
       136 -11.2862    106.3774     77.7534   7.5826634272e+01   4.6623828850e+01     0.628992    0.4689657  -1.61  0.002927043    1.654    0.395
       137  -8.5151     72.5223     84.4589   8.9192263929e+01   5.1287893659e+01      0.20757    0.1371438  18.47 0.0001446439    1.736    0.424
       138  -8.8999     75.9596     83.7990   8.7787464206e+01   5.0900462161e+01    0.1868212    0.1756946  60.54  0.000499645    1.262    0.208
       139 -11.4044    177.0124     78.5182   5.8331023269e+01   3.0028036466e+01    0.2838111    0.2456908 -37.68 -4.192004e-05    1.162    0.140
       140 -10.2551    189.8536     76.9486   5.5483147220e+01   2.7177921819e+01    0.8159069    0.3082838  40.14  0.002392728    4.195    0.762
       141  -9.6171    139.7170     76.9333   6.6215485304e+01   3.9360695295e+01    0.4336259    0.2098376 -40.15  0.001275538    2.101    0.524
       142  -8.9508    202.4881     76.5498   5.3204351047e+01   2.4231864583e+01    0.2241338    0.1790861  22.91 0.0006767008    1.580    0.367
       143 -10.2328    127.7349     60.2767   6.4006001559e+01   4.5108757422e+01    0.8051786    0.4772422  65.80  0.003264603    2.188    0.543
       144 -10.8605    121.2750     53.5601   6.3461851854e+01   4.7701917851e+01    0.5345733    0.4852731  17.26  0.001173891    1.076    0.071
       145  -9.9948    116.6156     50.1500   6.3548515992e+01   4.9304303873e+01    0.4305559    0.2763064 -37.61  0.001682557    1.643    0.391
       146 -11.6328    115.4116     71.0789   7.0966539817e+01   4.5996999829e+01    0.9679462    0.7611495 -39.96  0.002652403    1.305    0.234
       147 -10.3757    108.2616     68.2579   7.2170279475e+01   4.8057686654e+01    0.3932594    0.3172171 -62.75  0.001951459    1.576    0.366
       148  -9.9371    126.8889     70.1814   6.7452299082e+01   4.3587145335e+01     0.414642    0.3494774 -65.57  0.001575252    1.433    0.302
       149 -10.6603    122.1491     66.8671   6.7676758158e+01   4.5263109184e+01     0.669856    0.3349695 -44.66  0.002635139    2.167    0.539
       150  -9.4718     69.9904     76.3429   8.7709810342e+01   5.3432876569e+01     0.282822    0.2210568 -26.50  0.001138364    1.229    0.187
       151  -8.8764    131.4552     75.4890   6.7906622525e+01   4.1562280636e+01     0.281463    0.1489314  60.49  0.001029612    2.393    0.582
       152 -11.2064     77.0288     61.3759   8.0264067917e+01   5.5329087456e+01    0.9123415    0.5574637 -36.67  0.002813943    1.573    0.364
       153  -9.5587    102.0943     68.6399   7.4209310102e+01   4.9265301593e+01    0.4091543    0.2464433 -41.85  0.001824314    1.685    0.406
       154  -9.3237    177.8348     68.2732   5.5316576757e+01   3.1545380483e+01    0.3369634    0.2214312 -29.13   0.00153369    1.640    0.390
       155  -9.0814    174.1139     67.4906   5.5802020341e+01   3.2592148998e+01    0.2553305    0.1824431  67.32 0.0006815317    1.456    0.313
       156 -11.2054     67.5623     69.7325   8.6554562224e+01   5.5182872679e+01    0.8041732    0.4279705  25.83  0.002482825    2.088    0.521
       157  -8.7777    131.9335     67.0639   6.5118638454e+01   4.2967424077e+01    0.2374155     0.177548  17.97 0.0006066269    1.596    0.373
       158  -9.2970     87.9175     65.0111   7.7657672576e+01   5.2707766867e+01    0.2990196    0.2003196 -49.58  0.001368313    1.665    0.399
       159  -9.0080    207.5232     61.2700   4.8521424184e+01   2.5441459216e+01    0.2708617    0.1258915 -39.19  0.001130897    2.019    0.505
       160  -8.2076    111.2291     62.3430   6.9295692027e+01   4.8489124576e+01    0.1467025    0.1111811  -1.61 0.0002248645    1.545    0.353
       161  -8.7319    181.8750     61.1264   5.2590574758e+01   3.1679279386e+01    0.4530987     0.184291  53.10  0.001697715    2.346    0.574
       162  -9.2499    198.5935     54.1580   4.8008752944e+01   2.8625427777e+01    0.2574914    0.1988133  74.99 0.0002757341    1.287    0.223
       163  -8.9631    191.2799     58.3295   5.0245363944e+01   2.9790041842e+01    0.3158486     0.221924  64.02 0.0004781488    1.398    0.285
       164 -10.6938    193.1115     54.1980   4.8851048264e+01   2.9952612504e+01    0.4183496    0.2915943  45.32  0.001294932    1.566    0.362
       165 -10.8494    184.9182     55.9649   5.0644876005e+01   3.1707749049e+01    0.4171758    0.3414453 -77.99 0.0003833639    1.290    0.225
       166 -10.7708    184.0203     51.6886   4.9615660656e+01   3.2555329185e+01    0.6353223    0.4194358  86.04  0.002125994    1.798    0.444
       167 -10.1522    106.8702     59.2867   6.9553720182e+01   4.9960415161e+01    0.2968989    0.2249583  24.33 0.0005325038    1.361    0.265
       168  -9.4880    211.5730     58.1460   4.7160220274e+01   2.4953821565e+01    0.4405593    0.2658658  89.13  0.001959001    2.149    0.535
       169  -9.3917    200.3261     59.2112   4.9064202221e+01   2.7463847502e+01    0.3481409    0.1673466  46.61  0.001404262    2.356    0.576
       170  -9.7915    174.2537     56.7321   5.2712160497e+01   3.4243998964e+01    0.5015318    0.2642695 -14.25  0.001760191    3.299    0.697
       171  -8.9585      6.7529     47.9608   1.0580969250e+02   6.5767268493e+01    0.1685458    0.1198902 -46.09 0.0003057659    1.086    0.079
       172 -10.5039      3.2340     56.2903   1.0943145148e+02   6.4199675974e+01    0.3256543    0.3051227  63.58  0.001965557    1.419    0.295
       173  -9.4363      3.8175     51.4002   1.0802641359e+02   6.5200359983e+01    0.1996672     0.188894 -24.36  0.001163798    1.264    0.209
       174  -9.2551    234.5145     55.5092   4.3611138464e+01   2.0149324987e+01    0.2549874     0.094993 -44.59  0.001036479    2.373    0.579
       175 -10.2858    133.4368     54.2751   6.0580921113e+01   4.4722995997e+01    0.5407758    0.3400764   3.44  0.002086953    2.578    0.612
       176  -8.9293     45.4692     56.0380   9.0911435817e+01   6.0898399965e+01    0.1926285    0.1565866 -32.23  0.001167906    1.072    0.067
       177 -10.1024     41.9243     53.8778   9.1709193714e+01   6.1730387284e+01    0.2368134    0.1851625 -17.25 0.0003803472    1.149    0.130
       178 -10.4753     44.6832     50.0076   8.9193542049e+01   6.2164916156e+01    0.2713457    0.2022716  17.44 0.0005363912    1.358    0.264
       179  -9.0049     12.1011     56.5178   1.0560395382e+02   6.3698587073e+01    0.1968828    0.1112179  21.32  0.001117493    2.031    0.508
       180  -8.4384    219.6932     54.6846   4.5227458447e+01   2.3576160515e+01    0.1302036    0.1067812  24.70  0.000264822    1.627    0.385
       181  -9.9195     70.4688     52.4017   7.9518800197e+01   5.8081229713e+01    0.3177342     0.287819 -64.38  0.001746531    1.496    0.332
       182  -9.6444     50.7648     53.4263   8.7793447545e+01   6.0761453959e+01    0.2888332    0.2259339  -0.43  0.001704283    1.231    0.188
       183 -11.6802     58.0843     48.7929   8.3091403564e+01   6.0634544278e+01    0.6559849    0.6339144  36.69  0.003086314    1.362    0.266
       184 -10.7393     66.0589     45.1178   7.8494087357e+01   6.0071423503e+01    0.5638963    0.3830872 -25.06  0.003025205    1.410    0.291
       185  -9.5840     37.1960     50.9109   9.2786238612e+01   6.2823214493e+01    0.2420628    0.1548113 -34.77  0.001054181    1.339    0.253
       186  -9.1832    228.0482     49.6846   4.3020221540e+01   2.2390035992e+01    0.1840517    0.1554858  83.92 0.0005165525    1.163    0.140
       187 -10.3225    173.9990     47.1043   5.0000896667e+01   3.5706353264e+01    0.7085636    0.2919793  52.13  0.002735381    2.290    0.563
       188  -8.9099     21.0647    232.3896   1.2394426845e+02   2.3166363868e+01    0.1551037     0.112192  57.55 0.0008227192    1.135    0.119
       189  -9.2959    222.5509     45.5818   4.2700163517e+01   2.4191198843e+01    0.2982485     0.150991  64.67  0.001266208    1.961    0.490
       190  -9.0986    219.3800     42.8951   4.2433919198e+01   2.5278142101e+01    0.2363251    0.1511754 -41.78  0.001138123    1.467    0.318
       191  -9.4046    206.3939     46.2909   4.4892124092e+01   2.7860874834e+01    0.4987424    0.1046635  62.00  0.001505423    4.251    0.765
       192  -9.4256    113.4019     31.8292   5.7814186723e+01   5.2614984749e+01    0.4129657    0.2444878  20.42  0.001553242    2.225    0.551
       193  -9.9089    105.8653     42.2582   6.3755868862e+01   5.2893677531e+01    0.4499565    0.3242746  43.04  0.002326049    1.283    0.220
       194 -10.5638    107.9328     29.3130   5.8322130059e+01   5.4175561160e+01    0.5321031    0.3835276  79.70  0.002624366    1.963    0.491
       195 -10.7008     98.2023     41.7957   6.5887499727e+01   5.4607845304e+01    0.6236624    0.3749009   6.77  0.002585466    2.507    0.601
       196 -10.5217    100.8426     37.8876   6.3601518924e+01   5.4609923937e+01    0.4805417     0.317383  43.51  0.001564558    1.388    0.280
       197 -10.6138    105.6997     34.0340   6.0727230606e+01   5.4072838061e+01    0.3636515    0.2111778  35.90 0.0001964465    1.693    0.409
       198  -8.2698    227.2944    231.6887   8.2291515966e+01  -6.6606391304e+00    0.1035556   0.09632754  35.63 0.0004119559    1.593    0.372
       199  -8.9829     12.5065    231.5183   1.2545298674e+02   2.4188917784e+01    0.1123663   0.07986877  68.92 7.109981e-05    1.040    0.038
       200 -12.3266     15.3007     31.0290   9.6312605701e+01   6.8522752633e+01     0.407092    0.2437353 -23.88 0.0006448132    1.453    0.312
       201  -8.7296    202.1593    229.0866   8.6652406709e+01  -2.5512892816e+00    0.1592523    0.1377656  31.24 0.0003273686    1.274    0.215
       202 -10.4509     36.4868     26.8246   8.3952365173e+01   6.7213847134e+01    0.3396531    0.1981962 -32.48  0.001006063    1.502    0.334
       203  -8.7280    137.2913    224.6767   9.9399011095e+01   8.7277445961e+00     0.130953   0.09631182  63.94 0.0003878745    1.612    0.379
       204  -9.1060     41.1354    221.7912   1.1941748175e+02   2.3095822489e+01    0.1438178     0.133588 -82.71 0.0005372348    1.322    0.243
       205  -9.1072    168.1135    199.6516   8.8638585686e+01   8.0534102125e+00    0.2035425    0.1626362  28.61 0.0005122241    1.131    0.116
       206  -9.9735    238.9812    197.6854   7.4013294124e+01  -3.5729189220e+00    0.1828487    0.1498408   5.86   0.00113777    1.064    0.060
       207  -9.5092     11.5666    192.5446   1.2342621025e+02   3.2294833447e+01    0.2228284     0.103747  32.67  0.001216773    2.225    0.551
       208  -9.1237    248.3226     44.3428   3.9663523641e+01   1.8744685241e+01    0.1173443   0.09884984  21.55 0.0007050476    1.729    0.422
       209 -10.0995    118.5340     42.3358   6.0277280363e+01   5.0021910388e+01    0.3959686    0.3409683 -16.35  0.002200548    1.216    0.178
       210  -9.3489    166.8864     41.9266   4.9725918513e+01   3.8202510962e+01    0.3077412    0.1916019  29.16  0.001329409    2.204    0.546
       211  -9.7225     23.0514     40.9451   9.5944293517e+01   6.6069924141e+01    0.3103357    0.1464756 -40.56  0.001233406    1.713    0.416
       212 -10.1580     29.4973     49.6692   9.5828923792e+01   6.3817080591e+01    0.3972304    0.2172407 -50.76  0.001635475    1.620    0.383
       213  -9.1456    215.1597     38.8533   4.1958486261e+01   2.6788011852e+01    0.2230452    0.1642967 -70.07  0.001139184    1.321    0.243
       214  -9.2889    174.4614     39.0267   4.7612329382e+01   3.6680416849e+01    0.2816269    0.1723756  49.09 0.0007788833    1.634    0.388
       215  -8.9096    203.6484     37.9275   4.3135955838e+01   2.9631121307e+01    0.2395822    0.1714628  60.58  0.001291213    1.377    0.274
       216  -9.1912    182.3403     37.9588   4.6087365604e+01   3.4847826260e+01    0.2937191    0.2420913 -65.07  0.001414949    1.225    0.183
       217  -8.9618    182.3205     34.3162   4.5085403110e+01   3.5315183934e+01    0.2176849    0.1918514  53.20 0.0005504303    1.174    0.148
       218  -9.8334    180.6686     31.7047   4.4604147259e+01   3.6049247500e+01    0.3928042    0.2399683  80.87  0.001580863    1.724    0.420
       219  -9.4513    192.3113     36.3274   4.4217077781e+01   3.2589720551e+01    0.2453647    0.1869581 -45.50 0.0009085215    1.310    0.237
       220 -10.2998    193.6039     32.5837   4.3057477762e+01   3.2742731962e+01    0.3980944    0.2634128 -44.05  0.001606364    1.499    0.333
       221  -8.9825    219.4844     32.6381   3.9986732416e+01   2.6579333409e+01    0.2862217    0.2075099  16.00  0.001476915    2.244    0.554
       222 -10.3476    221.9855     34.9333   4.0255736720e+01   2.5717338673e+01    0.4486333     0.290209  22.76  0.002051538    2.892    0.654
       223  -9.7790    226.3997     27.7501   3.8141628522e+01   2.5607700690e+01    0.4434162    0.2582093  49.13   0.00226273    2.098    0.523
       224  -9.5096    124.5724     35.8269   5.6457032600e+01   4.9485112309e+01    0.3218868    0.1692756  51.35  0.001102672    1.697    0.411
       225  -9.0425    119.9054     35.7995   5.7595091131e+01   5.0592812236e+01     0.216765    0.1906621  81.75  0.001006707    1.333    0.250
       226  -9.8648     10.1272    185.2060   1.2324814776e+02   3.4030296459e+01    0.2991328    0.1782383   5.40   0.00161105    2.910    0.656
       227 -10.5694    235.4329     32.9109   3.8420571487e+01   2.2968670501e+01    0.4293877    0.3188927   7.35   0.00184589    2.244    0.554
       228 -10.2551    238.9961     25.5016   3.6471893944e+01   2.3105123935e+01    0.4758756    0.2747323  55.20  0.001480378    1.983    0.496
       229 -10.2948    212.5253     30.1258   4.0149810500e+01   2.8506073357e+01    0.4993022    0.2286981  54.88  0.002246366    2.247    0.555
       230  -9.7123    210.2262     34.9780   4.1595110436e+01   2.8442717515e+01    0.2411919    0.1753787 -29.75  0.000785458    1.502    0.334
       231  -8.7948     36.6625    179.3112   1.1678229864e+02   3.2856098064e+01    0.1362999   0.08013122  65.62 0.0006966041    1.687    0.407
       232  -9.7911    135.4049     33.8033   5.3286622586e+01   4.7121429861e+01    0.3258076    0.1964741  21.67  0.001351494    2.306    0.566
       233 -10.2469    244.9769     33.5876   3.7673861680e+01   2.0835691970e+01    0.3470554    0.2228005  71.55  0.001315607    1.573    0.364
       234  -9.7520    173.3319     30.1151   4.5244093948e+01   3.8077266489e+01    0.4247409    0.2429828  30.50  0.001782244    2.600    0.615
       235 -11.1765    167.4129     29.1869   4.5892629436e+01   3.9675475046e+01    0.2771721    0.2705491 -19.11 0.0004438773    1.156    0.135
       236  -9.6161    147.9165     23.9910   4.7592398121e+01   4.5170756681e+01    0.2746555    0.1931806  55.65 0.0008267002    1.264    0.209
       237  -9.2688    146.1664     28.7361   4.9435733446e+01   4.5068312717e+01     0.375484    0.1805976  48.32  0.001600887    1.932    0.482
       238  -9.4468    150.8074     29.2210   4.8726588871e+01   4.3849777168e+01    0.3176872    0.2068708  40.60  0.001031977    1.595    0.373
       239  -9.8719    153.3419     24.6352   4.6840914583e+01   4.3739323415e+01    0.3690719    0.2861664   3.87  0.001476774    1.598    0.374
       240  -9.7297      3.3298    177.8995   1.2423868032e+02   3.6201550835e+01    0.2754611     0.183792 -40.92   0.00169456    2.072    0.517
       241 -11.8537     32.7106    166.2217   1.1642653927e+02   3.6324983999e+01     0.380542    0.2301597 -57.90  0.000561411    1.607    0.378
       242 -10.0631     18.9681    165.4918   1.1971313607e+02   3.7765477068e+01    0.1690112    0.1173385  34.98  0.001030142    1.587    0.370
       243 -10.1024     39.1221    159.1845   1.1402745641e+02   3.7356262490e+01    0.2869585    0.2014222  53.94  0.001020777    1.428    0.300
       244 -11.1326     19.0472    158.0764   1.1901693211e+02   3.9500432213e+01    0.4276442    0.2671808  -7.48  0.002228176    2.656    0.623
       245 -12.4669     12.2733    151.9549   1.2014818755e+02   4.1484331366e+01     1.065272    0.6030902  -0.87   0.00540586    2.913    0.657
       246 -12.2568     30.0267    142.1507   1.1441071984e+02   4.2371532814e+01     1.169202    0.6182619  66.41  0.005423599    2.322    0.569
       247 -10.6781     20.4755    117.8190   1.1400461579e+02   4.9072230320e+01    0.5054085     0.307506  25.35  0.002801814    1.920    0.479
       248 -11.0354     11.9334     95.8236   1.1351984896e+02   5.4884590153e+01    0.5149236    0.2651052 -57.42  0.001662055    1.510    0.338
       249  -8.7222    160.6988     24.9217   4.5701029354e+01   4.1857394259e+01    0.5112365    0.2717674 -46.44  0.002308503    2.081    0.520
       250 -12.3710     16.2243    143.6466   1.1832022484e+02   4.3159581514e+01    0.6899534    0.6031902  75.98  0.002943357    1.141    0.123
       251 -11.6444     13.4747    132.8079   1.1791313611e+02   4.5958944136e+01    0.7257724     0.417374  33.88   0.00328891    1.946    0.486
       252 -13.1953     12.0422    125.9649   1.1754817803e+02   4.7698343531e+01    0.4982659    0.3955812  87.13 0.0006065734    1.183    0.155
       253 -10.5831      3.3344    113.2297   1.1864270805e+02   5.1251880112e+01    0.3469683    0.2249217   7.80   0.00153564    1.990    0.498
       254  -9.5164    179.7600     25.0536   4.2893890337e+01   3.7061509141e+01    0.2058542    0.1805672 -89.05 0.0003419672    1.056    0.053
       255 -12.6167     12.3046    107.7463   1.1516091102e+02   5.2041591879e+01     1.098172    0.8141739 -35.97  0.006882564    1.422    0.297
       256  -9.5724     24.8553    154.1896   1.1715918967e+02   3.9925807728e+01    0.1681754    0.1313379 -57.72 0.0005213356    1.288    0.224
       257 -10.2803     30.8575    151.4241   1.1528973667e+02   4.0045458564e+01     0.271858    0.1558046 -67.92 0.0007201405    1.494    0.331
       258  -8.6253    198.5146     23.4378   4.0089377711e+01   3.2637939536e+01    0.1326898     0.117483  87.52 5.175704e-05    1.035    0.034
       259  -8.3774    185.2812     23.3287   4.1686865528e+01   3.5887326437e+01    0.1322031    0.0994608  36.61 0.0006208688    1.602    0.376
       260  -9.2544    232.7559     17.7479   3.5331158189e+01   2.5369854500e+01    0.3300019    0.1131179 -48.78  0.001416495    2.600    0.615
       261  -9.9097     26.6527     18.9687   8.5435199248e+01   6.9553052568e+01    0.3663634    0.1773834 -15.11  0.001709437    2.647    0.622
       262 -10.1311    247.1874     18.8059   3.4380407985e+01   2.2157116169e+01    0.3498462     0.191366  79.64  0.001113132    1.784    0.440
       263 -10.1976     45.5641    150.4779   1.1122214037e+02   3.8784552744e+01    0.2611657    0.2057503 -44.34 0.0006312231    1.398    0.284
       264  -8.9396     75.0852     18.8367   6.4141451891e+01   6.2300763132e+01    0.1837751     0.164329  31.70 0.0006015957    1.201    0.167
       265 -11.9107     98.8963     56.5691   7.1080536741e+01   5.2096422154e+01     1.318975    0.7916591  19.24  0.005392055    2.263    0.558
       266 -10.1071      5.0865    147.2214   1.2154477381e+02   4.3109316104e+01    0.2025577    0.1755838  61.83 0.0004909745    1.231    0.187
       267  -9.3827    211.3958     16.8847   3.7095992545e+01   3.0312398950e+01    0.3086984    0.1712979  59.11  0.001509568    1.783    0.439
       268 -10.6568     40.7301    146.3773   1.1199882406e+02   4.0302528495e+01    0.3043447    0.2395569 -19.86  0.001252295    1.659    0.397
       269 -10.3716     35.8021    145.8337   1.1328301749e+02   4.0930514739e+01     0.220615    0.1722339 -78.10 0.0003941065    1.117    0.105
       270  -9.4334    198.3804     16.6024   3.8379878082e+01   3.3432468608e+01    0.2301822    0.1983455  68.46 0.0005847903    1.160    0.138
       271  -9.9680     70.1279     16.8905   6.5046578174e+01   6.3458745987e+01    0.3134871    0.1719714  30.47  0.001096823    1.722    0.419
       272  -9.4292    239.4632     14.9923   3.4190100783e+01   2.4226574425e+01     0.224779    0.1594743  85.04  0.000559631    1.296    0.228
       273  -8.9006    193.7550     14.5657   3.8373825826e+01   3.4767691499e+01    0.1861644    0.1125228  88.33 0.0009353507    1.639    0.390
       274  -9.8445     38.0113    143.2315   1.1233414349e+02   4.1348884397e+01    0.2692085    0.1885485  41.00 0.0007284614    1.524    0.344
       275 -10.8346     15.6054    100.8077   1.1305887311e+02   5.3484137832e+01    0.4673331    0.2367921 -63.13  0.001726635    1.557    0.358
       276 -10.7112      6.3860    142.4891   1.2079330350e+02   4.4136430512e+01    0.2338888    0.1786452 -89.19 0.0005357476    1.100    0.091
       277  -9.1968     47.3948    139.3171   1.0912207830e+02   4.1328819358e+01    0.2710889    0.1102557 -61.58  0.001128471    2.101    0.524
       278  -8.5362    244.6405     12.6760   3.3310808263e+01   2.3386752467e+01    0.1125364   0.08869082  43.50 0.0007043466    1.777    0.437
       279 -10.0047     55.3636    133.4097   1.0584549317e+02   4.1876512417e+01    0.2967289    0.2728697  39.74  0.001782901    1.188    0.158
       280 -12.3602     87.4727     56.1248   7.4705829334e+01   5.4421575076e+01     1.061352    0.8476424 -75.85  0.005304332    2.000    0.500
       281  -9.9365      3.4773    136.4331   1.2100219887e+02   4.5752089908e+01    0.2952958    0.1740114   2.08  0.001643925    2.448    0.592
       282 -10.5414     66.3693    134.5623   1.0277594236e+02   4.0197266378e+01    0.3176785    0.2476532  75.84 0.0004684527    1.445    0.308
       283  -9.3507    230.1522     19.8657   3.6022251703e+01   2.5701619459e+01    0.2379158    0.1706623  71.03 0.0006029208    1.366    0.268
       284 -11.5681     67.8796    120.5287   9.9589639231e+01   4.3458761541e+01     1.285577    0.5620262 -51.40  0.003859241    2.068    0.516
       285 -10.2720     61.2601    120.2547   1.0161974731e+02   4.4401150905e+01    0.3732109    0.2737572 -59.78  0.001098003    1.246    0.197
       286 -12.2564     33.9323     70.3479   9.9966214944e+01   5.9099953641e+01     1.561241    0.7200033 -22.40  0.006172895    3.241    0.691
       287 -12.4728     21.4079     93.0535   1.0975140824e+02   5.4925710543e+01     2.055784    0.9322384  58.28  0.007599336    4.396    0.773
       288 -11.6913     37.6088     92.1916   1.0378072808e+02   5.3797605496e+01    0.8763969     0.766033 -30.16  0.004822488    1.130    0.115
       289 -11.3033     39.4506     79.6372   1.0017549469e+02   5.6513080579e+01    0.5025703    0.4653567  30.96  0.002738543    1.267    0.211
       290  -9.4228    235.4898    249.5022   8.3728546662e+01  -1.0035223862e+01     0.194808   0.09352887  40.78  0.001027653    2.295    0.564
       291 -13.3880     43.9525    124.7029   1.0783261563e+02   4.5306783782e+01     1.861107     1.181895 -38.22  0.009411488    1.736    0.424
       292 -12.7058     33.5319    118.5616   1.1006347420e+02   4.7825891445e+01     1.664626    0.8054289 -50.01  0.007843987    1.861    0.463
       293 -11.1975     22.5951     82.1269   1.0718882168e+02   5.7377876635e+01    0.7971156    0.5676852  55.67  0.004575961    1.865    0.464
       294 -12.2980     20.5231     64.9509   1.0410352696e+02   6.1356468781e+01     1.346656    0.9201006 -57.86  0.008086418    1.293    0.226
       295 -12.5319     32.7178     58.8731   9.7256390704e+01   6.1656612687e+01    0.5210403    0.3703546   2.04  0.001022772    1.481    0.325
       296 -12.1198     55.1815     66.2389   9.0224902919e+01   5.7633503958e+01     1.166372    0.5616896 -44.00  0.005286232    1.853    0.460
       297  -9.0239    108.6538    249.6817   1.0842787205e+02   8.7524815346e+00    0.1158657   0.09179352   7.70 0.0007048827    1.727    0.421
       298  -8.9782    148.1799    247.4088   1.0022975158e+02   3.1068272557e+00    0.1790596   0.09634076  44.25 0.0004977511    1.604    0.377
       299 -11.9715     34.4217     41.4174   9.0728306492e+01   6.4918592260e+01     1.211386    0.4129187  19.49  0.004051764    3.946    0.747
       300  -8.3725     21.3240    244.2954   1.2452985813e+02   2.0885089883e+01   0.08918696   0.08258057 -58.31 0.0005618671    1.621    0.383
       301 -11.7106     79.9935     33.4497   6.8622638065e+01   5.9462392871e+01    0.3547852    0.3070488  19.71 0.0003248121    1.054    0.051
       302 -12.2485     56.4275     37.7916   7.9526521306e+01   6.2780946812e+01     0.594145    0.3755939 -13.38  0.002259809    1.702    0.413
       303 -11.6090     49.4463     39.6382   8.3258836373e+01   6.3450865012e+01    0.5168461    0.3285875  -1.23 0.0009159466    1.760    0.432
       304  -8.6027     73.4044    129.5031   9.9704545264e+01   4.0474850473e+01    0.1445861    0.1331113 -72.30 0.0001555989    1.049    0.047
