#   1 NUMBER                 Running object number                                     
#   2 MAG_AUTO               Kron-like elliptical aperture magnitude                    [mag]
#   3 X_IMAGE                Object position along x                                    [pixel]
#   4 Y_IMAGE                Object position along y                                    [pixel]
#   5 X_WORLD                Barycenter position along world x axis                     [deg]
#   6 Y_WORLD                Barycenter position along world y axis                     [deg]
#   7 A_WORLD                Profile RMS along major axis (world units)                 [deg]
#   8 B_WORLD                Profile RMS along minor axis (world units)                 [deg]
#   9 THETA_WORLD            Position angle (CCW/world-x)                               [deg]
#  10 FWHM_WORLD             FWHM assuming a gaussian core                              [deg]
#  11 ELONGATION             A_IMAGE/B_IMAGE                                           
#  12 ELLIPTICITY            1 - B_IMAGE/A_IMAGE                                       
         1 -16.1612     31.0077    132.0486   1.1987643707e+02   4.4155596499e+01     4.163297     3.125203  46.64   0.02924191    1.507    0.336
         2 -12.7597    186.7643     33.6383   5.6825837093e+01   3.4538168907e+01     1.885647     1.267462   3.00  0.008296745    1.954    0.488
         3 -12.3023      7.8748      6.1422   1.0006844567e+02   7.1466766292e+01     1.014848    0.8334501  -5.59  0.008310084    1.332    0.249
         4  -9.3382    207.7429      2.2462   4.4577604855e+01   3.2577492899e+01    0.3105898    0.1382308  68.10  0.001296504    2.045    0.511
         5  -8.4580    211.9654      7.5277   4.5604974810e+01   3.0950710619e+01    0.2093967    0.1307537  71.71 0.0004154984    1.518    0.341
         6 -12.2688     59.5320    210.3359   1.2181901783e+02   2.5368364181e+01     0.259274    0.1814189 -50.05  0.001735346    2.244    0.554
         7 -13.7181    245.0957    236.7885   9.3594700278e+01  -7.7139979614e+00     3.380656     1.309259 -30.91   0.01798405    3.046    0.672
         8 -13.2998     89.5920    247.1542   1.1990485288e+02   1.5358139558e+01    0.6019763    0.1860864  56.54  0.002882595    2.944    0.660
         9  99.0000     29.4442    209.5292   1.2670349985e+02   2.8967171666e+01     1.411283    0.9705816 -43.51  0.009327405    3.022    0.669
        10 -14.2632     74.6693    248.9056   1.2229783399e+02   1.7087652131e+01    0.5463476    0.2150381  46.01  0.003286904    1.998    0.500
        11 -13.7275     72.1050    242.6907   1.2224688430e+02   1.8371408461e+01    0.4907017    0.2288284  44.08  0.003098762    1.888    0.470
        12 -12.2530     52.0923    216.7440   1.2353460529e+02   2.5149204541e+01     1.176511    0.3616107  61.81  0.005137609    3.709    0.730
        13 -17.3905     52.9699    247.2298   1.2539327437e+02   2.0048751170e+01     4.128094    0.4709539  49.28   0.01738584    4.322    0.769
        14 -15.9850     58.9099    236.5565   1.2383542531e+02   2.1007269366e+01     1.820232    0.3131672  47.07  0.008108135    3.652    0.726
        15  -9.2887     87.1188    250.9377   1.2057233031e+02   1.5133045663e+01    0.1176543   0.03707716  45.40 0.0005957157    2.425    0.588
        16  99.0000      1.8956    206.8963   1.3086321013e+02   3.2101230787e+01    0.5061073    0.1093527 -85.45  0.002034775    5.187    0.807
        17 -10.6796     69.9295    208.3954   1.1988648635e+02   2.4385719672e+01    0.1435652    0.1125654  73.49 0.0001447591    1.069    0.065
        18 -10.4783     17.3680    209.6061   1.2861500650e+02   3.0181741854e+01    0.1192421   0.06449587  62.28 0.0008556387    1.399    0.285
        19 -10.5227     54.1720    208.1434   1.2254797651e+02   2.6417994721e+01    0.1227359   0.08527358  76.38 0.0002466633    1.095    0.086
        20 -10.7480     76.9368    205.2840   1.1838390531e+02   2.4008710609e+01    0.1564826    0.1209847  76.93 0.0002672346    1.045    0.043
        21 -12.2148     40.6589    204.0219   1.2450670887e+02   2.8736552082e+01    0.3707578    0.1221904 -72.42  0.001942707    2.710    0.631
        22 -11.8420     44.8975    198.8962   1.2341101031e+02   2.9195821393e+01    0.2881869    0.1344057 -70.10  0.001746206    1.959    0.490
        23  -8.7229     49.8256    196.9845   1.2240729363e+02   2.8978805653e+01    0.3256344    0.2423938  82.00  0.002369573    1.051    0.049
        24 -10.5472     22.1902    206.4870   1.2768020147e+02   3.0254618718e+01   0.09587967   0.06031926 -85.75 0.0002571669    1.293    0.227
        25 -10.7094     48.8289    204.6272   1.2317861319e+02   2.7689625402e+01    0.1309436   0.09357614  63.00 0.0003755357    1.160    0.138
        26  99.0000      6.5575    202.5328   1.2993565535e+02   3.2452626203e+01    0.3980036    0.1524053  87.18  0.002358303    2.230    0.552
        27 -11.5349     62.2846    202.7427   1.2071758560e+02   2.6393646381e+01    0.1672187    0.1236905  69.03 0.0003766397    1.060    0.057
        28 -12.0276     58.7317    199.2650   1.2103912776e+02   2.7478680397e+01     0.238816    0.1631661  35.46 0.0008149596    1.889    0.471
        29  99.0000     17.9110    201.7352   1.2809146306e+02   3.1529422217e+01    0.1901747   0.07705554  75.25  0.001082211    2.269    0.559
        30  -9.1488     90.0558    196.8345   1.1516201987e+02   2.3705640901e+01    0.1675161    0.1334001  72.18 0.0004118977    1.002    0.002
        31  99.0000     25.9848    195.5972   1.2638861627e+02   3.1847959074e+01    0.3117056    0.1853975 -49.98   0.00195465    2.791    0.642
        32  -9.5419     20.4894    197.0237   1.2739281840e+02   3.2133818496e+01    0.1021944   0.07669994  88.83 0.0008149776    1.185    0.156
        33 -10.8163     20.6629    193.7300   1.2716051543e+02   3.2723543930e+01   0.09621331    0.0722397  86.64 0.0002509943    1.149    0.130
        34 -10.0077     38.5133    195.7635   1.2427220554e+02   3.0493553958e+01   0.09884689   0.07458177  64.28 0.0007424811    1.194    0.162
        35 -10.8312     57.8351    193.6799   1.2071048479e+02   2.8634230099e+01    0.1534102     0.112814  77.32 0.0004373629    1.047    0.045
        36 -10.6822     48.5834    189.7673   1.2202972219e+02   3.0485737219e+01     0.267678    0.2045335  26.56  0.001845032    2.042    0.510
        37 -10.6023     11.5837    191.1927   1.2851852808e+02   3.4051906514e+01     0.099549   0.06485846  70.04 0.0003119156    1.162    0.139
        38 -10.4904     35.1606    189.4893   1.2438737670e+02   3.2036509502e+01    0.2121876    0.1010612  40.98 0.0009853601    2.131    0.531
        39 -10.1946     14.0283    185.1645   1.2774768905e+02   3.4953258812e+01   0.09900264   0.06958392  82.96            0    1.023    0.023
        40 -11.9950     43.4915    183.2535   1.2239950887e+02   3.2321873940e+01    0.1757638    0.1336702  78.30 0.0003545592    1.038    0.036
        41 -11.2428     32.9017    183.7050   1.2434917285e+02   3.3380930862e+01    0.3030953    0.1477058  45.51  0.001891846    1.929    0.482
        42 -10.3795      6.2747    183.7761   1.2898022442e+02   3.5905862805e+01    0.1016135   0.07447945  77.34 0.0002260669    1.106    0.095
        43  -9.3072    231.5044    182.1292   8.6489420358e+01   8.5236735079e-01    0.2557399    0.1672271  42.71 0.0009240246    1.396    0.283
        44 -10.3589    246.5861    205.9870   8.8308879331e+01  -4.7363540472e+00     0.565289    0.4154592  66.24  0.003232291    2.378    0.580
        45  -8.8966     50.7456    180.3320   1.2079960275e+02   3.2061099179e+01    0.1068571   0.07736979  86.23 0.0001573328    1.095    0.087
        46  -9.6992    232.4435    177.4201   8.5417397399e+01   1.3109771214e+00    0.2589344    0.2357862  83.51 0.0001168603    1.570    0.363
        47  -7.0710     83.6791    176.9382   1.1408755699e+02   2.8448108933e+01    0.2454395    0.1731321 -44.50  0.001435092    1.994    0.498
        48  -9.2981     86.9125    172.0300   1.1282865944e+02   2.8962324467e+01    0.2541392    0.1852752 -52.08 0.0006787525    1.627    0.386
        49  -8.5201     54.2298    175.5291   1.1968029220e+02   3.2600109242e+01    0.1120305   0.07913847 -84.05 0.0001258048    1.187    0.157
        50  -9.4642    175.4473    172.2535   9.4977044297e+01   1.3253290157e+01      0.29665    0.2579892  55.35  0.000810588    1.105    0.095
        51  -8.2877    233.2676    172.3524   8.4275050062e+01   1.8482755740e+00    0.1357049   0.09313486   9.11 0.0004891724    1.626    0.385
        52  -7.6998    153.3591    172.2171   9.9349194693e+01   1.7567572860e+01    0.1783226    0.1502806  43.22 0.0002323989    1.137    0.120
        53  -9.8680     39.9239    172.1523   1.2209757945e+02   3.4903239753e+01    0.1503124    0.1140825  82.07  0.001086912    1.020    0.020
        54  99.0000    120.7530    232.3491   1.1357101288e+02   1.3056563366e+01     14.70775     2.119828  45.93   0.04854821    5.012    0.800
        55  -9.5164    200.4039    169.6290   8.9686282562e+01   8.6976892248e+00    0.2453254    0.2186872  28.64 0.0002326076    1.027    0.027
        56  -7.9863    196.3433    170.0988   9.0544125694e+01   9.4373395765e+00    0.2059263     0.171829  45.34 0.0006574903    1.116    0.104
        57  -9.5689    142.6822    169.9360   1.0111558564e+02   2.0010056392e+01    0.4522035    0.1861912  43.17   0.00135403    2.287    0.563
        58  -8.3447     97.0174    164.6757   1.0974867124e+02   2.8930639108e+01    0.1811539    0.1458742  61.93 0.0004389284    1.138    0.121
        59  -9.0290     93.1193    162.9790   1.1032326594e+02   2.9879645028e+01    0.3221637    0.2456287 -69.75 0.0009696984    1.252    0.201
        60 -14.3006     79.6810    235.0887   1.2050045425e+02   1.8569390686e+01    0.5328031    0.3074259  51.37   0.00366131    1.371    0.271
        61  -8.0294    104.2615    133.1307   1.0290971081e+02   3.4428742380e+01    0.1826525    0.1728201 -70.09   0.00108153    1.116    0.104
        62  -8.5017    161.6869    128.6140   8.8814981807e+01   2.4189886546e+01    0.4451676    0.3048207  86.26  0.001849266    2.330    0.571
        63  -8.0565    105.4494    154.1248   1.0633022228e+02   2.9760467705e+01    0.2128992    0.1714685  41.93 0.0006121348    1.346    0.257
        64  -8.7069     98.7421    140.6101   1.0555376453e+02   3.3720195080e+01    0.4155098    0.2453188  29.02  0.001486837    2.366    0.577
        65  -7.6371    165.6578    116.2868   8.5003985054e+01   2.5724465607e+01    0.1532891    0.1204683 -89.75 0.0002746551    1.643    0.391
        66  -7.2057    122.2465    115.6748   9.4923583342e+01   3.4969322174e+01    0.1424221    0.1093891 -81.70 0.0001619745    1.535    0.349
        67  -7.5372    161.9844    111.9759   8.4736189379e+01   2.7395016020e+01    0.1787858    0.1720695  51.51            0    1.032    0.031
        68  -9.4087    182.8165    138.4418   8.6598019009e+01   1.7718093593e+01    0.2431377    0.2100435 -38.29 0.0003921733    1.205    0.170
        69  -7.7014    220.1989    152.7594   8.2545397397e+01   7.3067784054e+00    0.1903344    0.1505297  14.38 0.0004829096    1.300    0.231
        70  -9.0812    196.9390    106.7454   7.6087322460e+01   2.0222227005e+01    0.3313569      0.26781  33.33  0.001190152    1.283    0.220
        71  -8.1187    163.7792    103.8661   8.2247440989e+01   2.8569369881e+01    0.2188692    0.2012727  12.79 0.0004059147    1.170    0.145
        72  -8.5324    122.9851     96.2518   8.9947572943e+01   3.8939509559e+01    0.2215622    0.1981947 -85.93 0.0005744424    1.214    0.177
        73  -7.6779    220.5304     97.4508   6.9318637820e+01   1.6182517246e+01    0.1492213    0.1433478  -6.25 5.787599e-05    1.006    0.006
        74  -7.7783    223.6756     95.6911   6.8321608887e+01   1.5722232043e+01    0.1554861    0.1141573  17.29 0.0002951601    1.651    0.394
        75  -7.7234    173.4729     89.4454   7.6211674803e+01   2.9005042488e+01     0.153472    0.1510852  12.39  5.86229e-05    1.013    0.013
        76  -7.9494    112.5270     88.5239   9.0597285724e+01   4.2579243316e+01    0.1446072    0.1356485 -38.05 0.0008091151    1.048    0.046
        77  -7.6342    133.7135    145.3304   9.8538929729e+01   2.6546781290e+01    0.1429064    0.1064427  86.44 0.0003665273    1.617    0.381
        78  -9.1022    107.5558     83.3120   9.0497396312e+01   4.4589149045e+01    0.5336914    0.2513474  55.81  0.001984357    2.963    0.663
        79  -8.0740     80.5146     78.5174   9.6859362296e+01   5.0095543786e+01    0.3062034    0.1929391 -20.26 0.0008489962    2.446    0.591
        80  -8.6041    164.4963     76.9001   7.4525179534e+01   3.3471052608e+01     0.333351    0.2144327  58.90  0.001431497    1.653    0.395
        81  -8.0811    160.1619     76.9235   7.5489211883e+01   3.4515928222e+01    0.2309591    0.2074156 -61.97 0.0004142586    1.196    0.164
        82  -8.7244    168.4958     72.1987   7.2256866841e+01   3.3323270867e+01     0.393718    0.1900362  38.51  0.001260515    2.520    0.603
        83  -7.8024    125.6692     66.7112   8.0660703017e+01   4.4272418303e+01    0.1499548    0.1150617   8.56 0.0002904595    1.622    0.384
        84 -10.1374    121.3982     61.8841   8.0228191346e+01   4.6066195609e+01    0.2541467    0.2460624 -49.95 0.0002359047    1.099    0.090
        85  -9.5812    160.6721     56.6574   6.9097156135e+01   3.7893462494e+01    0.2567782    0.1964642  -3.10  0.001099714    1.544    0.352
        86 -11.8395    172.7764     48.5345   6.4030320006e+01   3.6097424420e+01    0.7859042    0.5993923  36.15   0.00185555    1.379    0.275
        87 -10.0853     81.8141    223.2290   1.1917470368e+02   2.0218927984e+01     0.138809    0.1040313  66.89 0.0002331474    1.025    0.025
        88  -7.8923    217.2862     50.3806   5.7041325226e+01   2.4278480145e+01    0.2342554    0.1675168  27.73 0.0008143865    1.716    0.417
        89  -7.8388    138.0151     47.6975   7.1241253830e+01   4.4814525908e+01    0.2033772    0.1814931  43.05  0.000253199    1.121    0.108
        90  -7.9083     43.6796     22.7041   9.1169219982e+01   6.5538608466e+01    0.1221804   0.07763025 -17.24  0.000241711    1.615    0.381
        91 -12.2444     75.2074    220.0439   1.1999729153e+02   2.1651306104e+01    0.2377024    0.2133606 -40.56  0.001225824    1.921    0.479
        92 -11.3506     68.3146    213.7542   1.2062075012e+02   2.3647331516e+01    0.1521216    0.1118204  84.50 0.0002596099    1.149    0.130
