#   1 NUMBER                 Running object number                                     
#   2 MAG_AUTO               Kron-like elliptical aperture magnitude                    [mag]
#   3 X_IMAGE                Object position along x                                    [pixel]
#   4 Y_IMAGE                Object position along y                                    [pixel]
#   5 X_WORLD                Barycenter position along world x axis                     [deg]
#   6 Y_WORLD                Barycenter position along world y axis                     [deg]
#   7 A_WORLD                Profile RMS along major axis (world units)                 [deg]
#   8 B_WORLD                Profile RMS along minor axis (world units)                 [deg]
#   9 THETA_WORLD            Position angle (CCW/world-x)                               [deg]
#  10 FWHM_WORLD             FWHM assuming a gaussian core                              [deg]
#  11 ELONGATION             A_IMAGE/B_IMAGE                                           
#  12 ELLIPTICITY            1 - B_IMAGE/A_IMAGE                                       
         1 -12.3304    215.9852     50.6561   1.5999055034e+01   2.4743706741e+01    0.9854221    0.8489346  32.07  0.004969846    1.384    0.277
         2 -11.9314    232.7049     38.5754   1.1461147402e+01   2.2694770100e+01     0.720489    0.5685016 -43.12  0.003096104    1.099    0.090
         3 -10.7043      2.0019     10.5116   7.2666058610e+01   7.5545656682e+01    0.3918833    0.1942974 -64.82  0.002027316    2.128    0.530
         4  -9.1211     32.7690      5.2227   4.6504787885e+01   7.3211109165e+01    0.2037896   0.09231927 -27.81 0.0008942048    2.486    0.598
         5  -9.7524    125.9589    227.7935   6.9917173814e+01   1.2247244593e+01    0.2375348    0.1913735  53.22  0.001571084    1.390    0.281
         6 -14.8767     27.9794    180.1997   8.8433000193e+01   3.3732339072e+01     7.224671     2.931424  70.21   0.02277638    2.923    0.658
         7 -12.4823      3.3242    238.9863   9.6440634354e+01   2.4386987896e+01     0.546978    0.3646291 -78.52  0.003295297    1.709    0.415
         8  -8.5258     94.8300    220.1800   7.5882278769e+01   1.7790675074e+01    0.1598106    0.1308408  13.86 0.0003927923    1.320    0.242
         9  -8.5852     94.3246    206.3242   7.4500230509e+01   2.0403582043e+01    0.1245807   0.09595091  -4.98 0.0007048239    1.687    0.407
        10  -7.9451    129.4206    202.4700   6.5883810404e+01   1.6003728000e+01    0.1313526    0.1103049  27.84 0.0001475352    1.013    0.013
        11 -10.4464     73.8563    197.0201   7.8393999414e+01   2.4972345662e+01    0.4481291    0.2444108 -87.27  0.001360483    2.554    0.608
        12  -8.9793     71.4059    190.6828   7.8337878846e+01   2.6591855594e+01     0.190114    0.1760721 -85.32  0.000553257    1.192    0.161
        13  -8.7532    127.9596    197.2938   6.5479673139e+01   1.7151515466e+01    0.1842964     0.152348  27.42  0.000411063    1.035    0.033
        14  -9.3305     82.4638    194.5462   7.6016335696e+01   2.4334736269e+01    0.2952902    0.2061399  54.43  0.001669213    1.375    0.273
        15  -8.9092     76.5280    183.4289   7.6230213727e+01   2.7444237186e+01    0.4106711    0.2157195  73.71  0.001662096    3.080    0.675
        16  -9.8002     78.5113    179.3528   7.5227728733e+01   2.8046471381e+01    0.2872154    0.2300151  70.60  0.001046014    1.309    0.236
        17  -9.2109     99.0004    181.1833   7.0191958982e+01   2.4708502116e+01    0.2548499    0.2140698  28.22 0.0006867963    1.116    0.104
        18 -14.4189      6.8712    226.4053   9.5389788747e+01   2.6327475143e+01     2.927135     1.014226  31.20   0.01045514    2.241    0.554
        19 -10.7986     82.0394    134.8224   6.7536409836e+01   3.7680709937e+01    0.4487695    0.3110867 -41.81 0.0007514246    1.608    0.378
        20 -11.7129     57.0776    148.9254   7.7342527522e+01   3.7790171033e+01    0.4975134    0.3845655 -27.96 0.0009402692    1.622    0.383
        21 -11.2061     71.2262    160.6986   7.4802440845e+01   3.3192248524e+01     1.061121    0.4562316 -79.26  0.003673566    3.799    0.737
        22 -11.3702     59.8729    130.0854   7.3735099426e+01   4.2003052167e+01    0.6558524    0.4864557 -48.15  0.003423061    1.422    0.297
        23 -11.4417     55.1511    123.0558   7.4154475699e+01   4.4339745272e+01     1.054884    0.5087569  86.95  0.003373848    4.161    0.760
        24 -12.5952     68.6920    144.8267   7.3274435754e+01   3.7253281221e+01     1.608776    0.8107601  67.90  0.005715018    3.374    0.704
        25  -7.8178    142.0401    162.0097   5.6299840490e+01   2.1450005534e+01    0.1652225     0.155234  -1.41 0.0004161493    1.087    0.080
        26 -11.1881     79.2633    147.8593   7.0598282888e+01   3.5028919639e+01    0.7639549    0.5459676 -32.52  0.003467708    1.745    0.427
        27  -9.0724    245.2341    159.0625   3.5689421079e+01   4.6754456229e+00    0.2539714     0.134946 -35.64  0.001004881    1.771    0.435
        28  -8.6033    134.4977    148.9948   5.5621644889e+01   2.5398490082e+01    0.1908596    0.1332877 -79.58 0.0007039086    2.415    0.586
        29  -8.0645    100.8529    143.8838   6.3649167482e+01   3.2511999391e+01    0.1948976     0.161711  58.37            0    1.260    0.207
        30 -11.7146     12.0209    247.3700   9.5012559086e+01   2.2203896093e+01    0.3699046    0.2246673  76.76  0.001305418    1.558    0.358
        31  -8.1837     90.3887    143.1372   6.6533017086e+01   3.4411144394e+01    0.1985309    0.1403526 -76.11 0.0009395688    1.699    0.412
        32  -9.3164     95.7185    136.0511   6.3644740785e+01   3.5168893197e+01    0.4281817    0.3175866   1.23  0.002008322    1.780    0.438
        33  -8.5757     74.2990    135.3351   7.0020965695e+01   3.8728603391e+01    0.1457404    0.1102377 -25.40 0.0003883741    1.654    0.395
        34 -10.5379     54.3437    165.9520   8.0167284580e+01   3.4135794994e+01    0.4127353    0.2883162 -25.28  0.001426511    2.027    0.507
        35  -8.7639    106.3315    128.9043   5.9069192622e+01   3.4933505618e+01    0.4069839    0.2463232 -24.30  0.001561932    2.604    0.616
        36  -9.8659     48.1490    231.9671   8.7068258768e+01   2.1328417240e+01    0.2186519    0.1776779  80.17 0.0005601064    1.306    0.234
        37 -10.2902     14.7717    123.0229   8.7796524808e+01   4.8264628005e+01    0.4587394    0.1809185  52.38  0.001632741    2.701    0.630
        38 -10.8471     59.7202    161.3619   7.8136117399e+01   3.4538751628e+01    0.4194218     0.337462  84.91   0.00096317    1.272    0.214
        39  -8.6621     32.0820    118.1745   8.1358265861e+01   4.8070795894e+01    0.1959865    0.1766511 -43.79 0.0004308354    1.180    0.152
        40  -8.0750    141.6134    116.8569   4.6672500242e+01   3.0523538644e+01    0.2110386    0.1430944 -54.60 0.0009384539    1.708    0.415
        41  -7.9567    104.7329    116.9841   5.6877712077e+01   3.7927009019e+01    0.1966353    0.1956156  44.34   0.00021621    1.040    0.038
        42  -8.5327     94.9081    122.7554   6.1168307778e+01   3.8390947091e+01    0.2307945    0.1989208   2.31 0.0008422311    1.310    0.236
        43 -11.2327     69.8414    154.0493   7.4281953952e+01   3.4919948104e+01    0.8451131     0.359245  35.58   0.00156086    2.096    0.523
        44  -8.9548    247.0193    164.0034   3.6346787605e+01   3.7899959122e+00    0.1564067    0.1401843 -41.74 0.0004268478    1.602    0.376
        45  -8.7461    205.0959    110.6476   3.1985358813e+01   1.8425681170e+01    0.2377456    0.1799558  -0.61 0.0007822372    1.496    0.331
        46  -8.4189    155.2150    111.2230   4.2004492912e+01   2.8725335489e+01     0.247775    0.1805894 -85.05  0.001052515    2.265    0.559
        47  -8.9122    135.0983    107.6868   4.6032241908e+01   3.3758616303e+01    0.2985686    0.1715079 -54.96 0.0009293368    2.120    0.528
        48  -8.6360    109.7110    106.0890   5.2718137720e+01   3.9395219667e+01    0.2122335    0.1985077 -37.88 0.0005500662    1.103    0.093
        49  -9.1389    243.7919     94.8088   2.2830486960e+01   1.3478018658e+01    0.2052484    0.1234499  11.30 0.0009484758    2.812    0.644
        50 -13.8407      7.7870    208.0429   9.4591140934e+01   2.9728678489e+01     1.399335     1.135047  76.43  0.006585785    1.170    0.145
        51  -7.4791     86.6682     78.3184   5.2486205090e+01   5.0067421716e+01    0.1531446    0.1211601  78.07 0.0007048004    1.691    0.409
        52  -8.6421      8.3316     77.3147   8.5099521905e+01   5.9996807900e+01    0.1395461   0.08029232 -42.24 0.0007045747    1.682    0.405
        53 -10.0971      2.3118     67.0333   8.6413024571e+01   6.2779621810e+01     0.395084    0.1129953 -80.90  0.001354672    3.825    0.739
        54  -7.8139     82.7215     62.3102   4.8706752585e+01   5.4215215875e+01    0.1425202    0.1201406  88.31  0.000209898    1.560    0.359
        55 -10.0132     13.2724     60.5035   7.9902549278e+01   6.3813916653e+01    0.2675526    0.1972897 -75.47 0.0009507574    1.336    0.252
        56 -10.1400      1.8867     51.8061   8.4207698074e+01   6.6439765927e+01    0.4826932   0.06850484 -67.50  0.001560475    4.168    0.760
        57 -11.2721    206.5050     56.2718   1.8527304322e+01   2.6089378154e+01    0.5854511    0.3730015  35.62  0.002661284    2.041    0.510
        58  -9.3787     58.5318    248.5383   8.5935222850e+01   1.7344872259e+01    0.2325881    0.1774421  22.58 0.0009308071    1.387    0.279
        59 -10.7765    226.1729     43.4646   1.3204793370e+01   2.3466878836e+01    0.3983026     0.303917  42.29  0.001233495    1.597    0.374
        60 -12.9526     12.0216    239.7744   9.4780377899e+01   2.3500308655e+01     1.394815    0.2493589  47.74  0.002926285    2.984    0.665
        61 -12.5630      5.5432    249.5315   9.6288487649e+01   2.2408795049e+01    0.4917497    0.2795458  37.31  0.001651569    1.347    0.257
        62  -7.9029     89.0207     53.5169   4.3246815098e+01   5.4632030795e+01    0.2058977    0.1319752  69.19 0.0008092811    2.452    0.592
        63 -10.0604      2.0044     37.4465   8.1192334621e+01   6.9760187595e+01    0.4862655   0.07811717 -67.82  0.001553449    4.526    0.779
        64  -8.3435     65.0556     36.6508   4.5863407763e+01   6.2539285113e+01    0.2023496    0.1659713  34.42 0.0005725089    1.169    0.144
        65  -9.7988      1.8537     28.4115   7.8969303946e+01   7.1783895010e+01    0.2781298     0.134528 -57.65  0.001451826    1.682    0.405
        66 -10.3736      3.5560     24.7531   7.6696391543e+01   7.2501110763e+01    0.5226262    0.1742919  27.36  0.002275312    3.140    0.681
        67  -8.4421     60.0667     21.2666   4.0867788722e+01   6.6039147133e+01    0.1924148    0.1659262  24.20 0.0006025549    1.050    0.047
        68  -9.3947     72.3617    242.3178   8.2685722532e+01   1.6790788816e+01    0.2515534    0.1378736  52.02 0.0009039948    1.614    0.380
