#   1 NUMBER                 Running object number                                     
#   2 MAG_AUTO               Kron-like elliptical aperture magnitude                    [mag]
#   3 X_IMAGE                Object position along x                                    [pixel]
#   4 Y_IMAGE                Object position along y                                    [pixel]
#   5 X_WORLD                Barycenter position along world x axis                     [deg]
#   6 Y_WORLD                Barycenter position along world y axis                     [deg]
#   7 A_WORLD                Profile RMS along major axis (world units)                 [deg]
#   8 B_WORLD                Profile RMS along minor axis (world units)                 [deg]
#   9 THETA_WORLD            Position angle (CCW/world-x)                               [deg]
#  10 FWHM_WORLD             FWHM assuming a gaussian core                              [deg]
#  11 ELONGATION             A_IMAGE/B_IMAGE                                           
#  12 ELLIPTICITY            1 - B_IMAGE/A_IMAGE                                       
         1 -13.5970     56.8479     57.2224   8.1646461040e+01   5.9244779376e+01     1.263613    0.5566314 -33.88  0.005240006    2.390    0.582
         2 -13.4138     73.0286     65.1802   7.8288257323e+01   5.5197501959e+01     1.627697    0.9283553 -17.16   0.00658281    2.591    0.614
         3 -14.8725     11.2165     20.2210   8.8435723388e+01   7.0925526511e+01     2.715853     1.512622 -19.62   0.01611153    1.642    0.391
         4 -13.7080     42.0982     47.8257   8.4379639633e+01   6.2973116991e+01    0.8164482    0.5142881   6.69  0.002323821    1.762    0.432
         5 -13.1946     75.6612     32.7667   6.5123808327e+01   6.0035232202e+01     1.953134     1.008684  23.14  0.008271212    2.573    0.611
         6 -13.8969     42.4349     42.4901   8.2206040903e+01   6.3874387804e+01     1.425982      0.55154  21.74  0.003933871    3.691    0.729
         7 -15.4249     30.4017     81.4366   9.9555929208e+01   5.7299313016e+01      4.71843      2.76312 -64.17   0.02393427    1.693    0.409
         8 -12.8652     32.1503     30.1119   8.1895445563e+01   6.7203055153e+01     2.883784    0.9666685  40.19   0.01151004    3.908    0.744
         9 -11.9697    217.1491     39.0440   3.9099534637e+01   2.6621530347e+01     0.414865    0.3153682  39.01  0.001604768    1.776    0.437
        10 -12.2324     83.0904     22.2934   5.8395443826e+01   5.9873429502e+01    0.6296677    0.4051952  54.49  0.003390091    1.566    0.361
        11 -12.0803    123.3758     10.6612   4.4290931954e+01   5.2047589595e+01    0.4329587    0.2518752  59.05 0.0007734765    1.453    0.312
        12 -12.6099    115.2318     11.6573   4.6211562302e+01   5.3867653225e+01     1.321442    0.5266165 -43.85  0.005331363    3.291    0.696
        13  99.0000     66.8933     17.4292   6.1606665245e+01   6.3571016996e+01     0.678816    0.3950284  29.79  0.003118054    1.612    0.380
        14 -12.8926     75.7050     13.3808   5.6894482937e+01   6.2306341659e+01     0.492658    0.4165949  53.23  0.001946078    1.299    0.230
        15 -14.2015     85.5948      7.9440   5.1696344098e+01   6.0787501508e+01     1.587462    0.9109586  53.23   0.00859818    1.508    0.337
        16 -12.9432    104.4278      5.0128   4.6015921524e+01   5.6905708142e+01    0.6258646    0.5920728  -9.67  0.003072666    1.212    0.175
        17 -11.6000    149.4615     21.4725   4.3298261560e+01   4.4733487174e+01    0.4461432    0.3019318  59.27  0.001750173    1.313    0.239
        18 -13.0411    186.0575     12.3889   3.6009445698e+01   3.6854584120e+01    0.6975852    0.5191202 -23.53  0.004185296    1.609    0.379
        19 -12.0346    193.2602      6.6327   3.3874630967e+01   3.5745814875e+01    0.4287293    0.3100168 -42.85  0.001893221    1.405    0.288
        20 -12.5982     95.7336      3.4983   4.7356659211e+01   5.8965904373e+01    0.6078477    0.3404529  50.66  0.002678761    1.457    0.314
        21 -12.0844    175.1876     14.1293   3.7676001478e+01   3.9258500727e+01     0.326831    0.2740722  48.74  0.001336659    1.313    0.239
        22 -12.9371    163.3773      4.4447   3.6453868144e+01   4.2997156122e+01    0.6471384    0.4661633  76.22  0.003869162    1.197    0.164
        23 -11.0455    156.3242     10.0233   3.8911362346e+01   4.4194119666e+01      0.25476    0.2257243 -88.57  0.001006672    1.077    0.071
        24 -11.4191    151.0115      9.2087   3.9397787005e+01   4.5551352125e+01    0.3562887    0.2768397 -85.03  0.002127993    1.284    0.221
        25 -11.6572    155.6277     14.3625   4.0263627393e+01   4.3952706798e+01    0.4711777    0.2101176  58.22  0.002042738    1.920    0.479
        26 -11.7655    188.7321      4.3934   3.3758921995e+01   3.7008253597e+01    0.3599491    0.2759356 -13.48  0.001585811    1.717    0.418
        27 -12.2498    138.5354      4.5923   3.9789863632e+01   4.8950394816e+01    0.6714303    0.3103925  57.74  0.002353276    1.782    0.439
        28 -10.3458    128.7844      5.4752   4.1604570762e+01   5.1205325110e+01    0.2199799    0.1583009  56.32 0.0006453472    1.187    0.158
        29 -10.6735      5.1798      3.7031   8.4037144656e+01   7.3918616949e+01    0.4400954     0.214456 -13.99  0.002422466    2.190    0.543
        30 -11.1610     73.5413      1.4766   5.2276787769e+01   6.3806393860e+01    0.2226721    0.1176587  55.14 0.0006066085    1.704    0.413
        31  -9.9066    211.9707      1.4809   3.1106512773e+01   3.2023454125e+01    0.1778392    0.1018838  79.54 0.0005573296    1.538    0.350
        32 -11.1355     34.1398    177.2178   1.1389321168e+02   3.3567476046e+01    0.2769358    0.2237558   2.35  0.001651068    1.706    0.414
        33 -10.3354    170.7695     82.3949   5.7126033152e+01   3.0858318840e+01    0.2154597    0.1359923  44.95 0.0005052008    1.671    0.402
        34 -10.7620    162.4090     77.5773   5.7466538946e+01   3.3691291646e+01    0.3857921    0.1277365  49.25  0.001256777    2.982    0.665
        35 -12.3927    143.3820     74.9145   6.0836888728e+01   3.8688547970e+01    0.4798322     0.407956 -71.69  0.001515936    1.342    0.255
        36 -10.9073    156.7171     76.5666   5.8364978632e+01   3.5227160093e+01    0.2931553     0.138644  49.74  0.001131741    2.082    0.520
        37  -9.5078    234.7708     75.6108   4.5358633392e+01   1.7632522371e+01    0.1805093    0.1230699  81.37 0.0009584232    1.713    0.416
        38 -12.3080    118.4186     73.5725   6.6719743642e+01   4.4667602168e+01    0.4716204    0.3540138  17.23  0.001671672    1.593    0.372
        39 -11.9891    116.3958     69.7830   6.6061192367e+01   4.5800500136e+01    0.2786449    0.2581865  -8.82 0.0006697843    1.082    0.076
        40 -12.6208    118.0040     64.9277   6.4043631975e+01   4.6291292168e+01    0.4657927    0.4032365 -47.94  0.001329789    1.246    0.197
        41 -11.6750    150.7463     73.6425   5.8801561339e+01   3.7160710710e+01    0.2892429    0.2345227 -55.38 0.0006614539    1.309    0.236
        42 -10.6530    170.1243     71.4237   5.4225085875e+01   3.2885765070e+01    0.3326207    0.2722263  86.16  0.001514517    1.331    0.248
        43 -11.7017    203.2451    172.4399   7.2283471828e+01   6.7449980531e+00    0.3573387    0.2216971 -44.37  0.001709261    1.630    0.386
        44 -10.1764    241.3332    172.6714   6.5343565487e+01   2.8684510222e-01    0.1223923    0.1029092 -62.71 0.0007051839    1.719    0.418
        45 -12.2921    132.8210     67.2038   6.0982197853e+01   4.2506534776e+01    0.6012955    0.3164345  66.71  0.002212174    2.678    0.627
        46 -12.3263    126.2977     65.3544   6.2015872622e+01   4.4333416802e+01    0.4871317    0.3724793  84.84  0.002212015    1.760    0.432
        47 -10.6526    129.3206     62.3291   6.0293247907e+01   4.4136107676e+01    0.3404091    0.2975705 -18.70  0.001501942    1.207    0.171
        48 -12.1072    240.8631    155.7181   6.1954611298e+01   3.1720766191e+00    0.3497838    0.2666101  26.42  0.002031305    1.446    0.308
        49  -9.5932    176.9189     64.1544   5.0995519935e+01   3.2421601519e+01    0.1878278    0.1654191  33.44            0    1.291    0.225
        50  -9.8454    162.6809     90.5554   6.1030877972e+01   3.1285266262e+01    0.2958558    0.1444021  47.98 0.0009183051    2.071    0.517
        51 -11.3015    214.6402     60.9664   4.4533014645e+01   2.4142364223e+01    0.3940659    0.2393281 -37.48  0.001025375    1.562    0.360
        52 -10.7712    170.1652     62.9258   5.1849234478e+01   3.4239917274e+01    0.2807951    0.2227965  84.02 0.0003163861    1.351    0.260
        53 -10.2998    166.1107     63.0484   5.2627054666e+01   3.5201449952e+01    0.2466873     0.197338  56.02 0.0003547769    1.226    0.184
        54 -12.5130    125.0382     56.8987   5.9589368156e+01   4.6002964091e+01    0.4018912    0.2695735  42.63 0.0006087211    1.451    0.311
        55 -13.4827     69.7129     54.4793   7.5715098446e+01   5.7717765273e+01    0.8442014    0.7682302  84.38  0.003054412    1.582    0.368
        56 -11.6433    174.4636     56.4734   4.9307971959e+01   3.4180919500e+01    0.2641922    0.2367425 -83.69 0.0001497288    1.089    0.082
        57  -9.9335    249.3339     86.4252   4.5941724315e+01   1.3090669716e+01    0.1580092    0.1216183  87.13 0.0006517128    1.512    0.339
        58 -11.5458    132.4090     53.7683   5.6806365683e+01   4.4755772618e+01    0.3347253    0.2383885  56.27 0.0004161856    1.351    0.260
        59 -11.0330    145.5508     50.2580   5.2846738248e+01   4.2117822916e+01    0.3068975    0.2565992 -45.80 0.0008146154    1.254    0.203
        60 -12.0634    248.9197    130.6299   5.5429394305e+01   6.0079272967e+00    0.7739776    0.3177722 -39.39  0.003373286    2.038    0.509
        61 -10.2215    194.3736     47.8923   4.4008282396e+01   3.0650237425e+01    0.2160363    0.1725601 -89.90 0.0003386218    1.220    0.180
        62 -12.3211    246.4776    143.7945   5.8568608968e+01   4.2323871755e+00    0.7954925    0.5024741 -54.00  0.004033175    1.898    0.473
        63 -10.4058    156.2000     51.7673   5.1216218141e+01   3.9310039868e+01    0.3985552    0.2031189  44.49  0.001653309    2.105    0.525
        64 -10.4656    116.1258     45.4790   5.7975739313e+01   4.9762523993e+01    0.2183698    0.1937332 -20.09   0.00124224    1.180    0.153
        65  -9.8672    176.2908     45.2407   4.5928719284e+01   3.5329456991e+01    0.2317228    0.1445737 -70.09 0.0007939599    1.970    0.492
        66 -10.7676    204.3715     43.5119   4.1624627208e+01   2.8919872963e+01    0.2551932    0.2065592  58.50  0.001502488    1.319    0.242
        67 -11.1043    196.7224     41.9331   4.2191921802e+01   3.0902126900e+01    0.3758959    0.2247056 -19.38  0.001696271    2.254    0.556
        68 -10.4905    181.7679     43.4345   4.4621638098e+01   3.4251226474e+01    0.2216698    0.2129014  86.63 0.0001650654    1.089    0.082
        69 -11.1911    156.9093     43.6493   4.8683449682e+01   4.0265513135e+01    0.3356698    0.2298068  60.80 0.0007854836    1.364    0.267
        70 -10.7694    140.7325     43.8105   5.1815305363e+01   4.4183121277e+01    0.2527109    0.2168788  64.67 0.0003052567    1.113    0.102
        71 -10.3055    122.3179     43.3312   5.5717141472e+01   4.8632112215e+01    0.2240392    0.1918949  22.82 0.0005445583    1.203    0.169
        72 -11.4381    248.6375    139.9090   5.7423515436e+01   4.5161875390e+00     0.414704    0.3764818 -63.58  0.002651177    1.335    0.251
        73  -9.5660    159.7608     36.4122   4.6068159635e+01   4.0503274587e+01    0.1843595    0.1182568  54.13 0.0002857147    1.470    0.320
        74 -11.0432    140.7370     34.9324   4.9003934884e+01   4.5326332498e+01    0.3573957    0.1806082  57.73  0.001594929    1.772    0.436
        75  -9.9094    240.2603     34.5576   3.5866836700e+01   2.2258837785e+01    0.1532164    0.1082003  64.88 0.0006430636    1.539    0.350
        76 -10.4489    176.3520     33.4509   4.2710412885e+01   3.6830600492e+01    0.2335371    0.2011027  82.29 0.0004985026    1.061    0.057
        77 -10.1128    226.1335     39.1309   3.8184038680e+01   2.4646197936e+01    0.1755773     0.157527 -69.25 0.0004269456    1.099    0.090
        78 -11.7200    241.8868     22.7918   3.3302020390e+01   2.3360262765e+01    0.3517045    0.2082034 -65.33  0.001245753    1.505    0.336
        79 -12.5546     47.0830    142.2940   1.0589862602e+02   4.0796660704e+01    0.6926391    0.3383304  24.96  0.003016815    2.400    0.583
        80 -10.6901    215.0328    141.4805   6.3341126203e+01   1.0283307502e+01    0.2087124    0.1426267  45.01  0.001036751    1.604    0.377
        81 -10.9928      3.8983    140.0250   1.1788836179e+02   4.5191818328e+01    0.3435523     0.218026 -86.48  0.001979526    1.370    0.270
        82 -11.9755    201.1782    139.4021   6.5460382792e+01   1.3381664486e+01     0.297287     0.259085 -56.04  0.001445802    1.247    0.198
        83 -11.5896    191.5941    136.8502   6.6760520827e+01   1.5821656733e+01    0.4449635    0.3105633  56.99  0.002083769    1.682    0.405
        84 -12.5315    201.5843    129.1339   6.3004487346e+01   1.5257155751e+01     0.527315    0.3142515  30.78  0.002240299    2.155    0.536
        85 -12.3919    219.3245    122.7995   5.8369488881e+01   1.2843451629e+01    0.7594501    0.4287628 -40.12  0.003511683    1.586    0.370
        86 -10.5345    195.1993    113.0556   6.0356803554e+01   1.9650523573e+01    0.2608692     0.225179  51.66   0.00126715    1.234    0.190
        87 -11.1620    153.8970     20.1979   4.2228849563e+01   4.3787222388e+01    0.2940048    0.2268685 -67.32 0.0008382176    1.387    0.279
        88 -11.3237    141.0653     21.8081   4.4792863985e+01   4.6737444813e+01    0.3952837    0.2337467  71.01  0.001712712    1.630    0.387
        89 -10.1417    234.9964     21.4909   3.3578497169e+01   2.4932305061e+01    0.1779175    0.1070179  77.37 0.0008791207    1.594    0.373
        90 -10.5777    208.6482     18.7564   3.5279075558e+01   3.0967201783e+01    0.2429013    0.2112468  73.87  0.001112239    1.203    0.169
        91 -11.4252    111.6312    109.8608   7.9342977016e+01   3.8609586908e+01    0.2650633    0.1897652  46.67  0.001207151    1.456    0.313
        92 -10.9187    198.9860    108.3486   5.8507226610e+01   1.9704682920e+01    0.2727926    0.2068386 -31.37 0.0003829107    1.307    0.235
        93 -10.1365    201.7541     17.4534   3.5640962593e+01   3.2676756487e+01    0.2130669    0.1625328 -85.81 0.0007597964    1.157    0.136
        94 -12.4657    140.6680     96.4749   6.7777049625e+01   3.5236831220e+01    0.5246039     0.368545 -42.05  0.002343493    1.413    0.292
        95 -10.6863      1.9258     95.7050   1.1298973874e+02   5.5968181286e+01    0.2359839    0.1305138 -57.69  0.001309181    1.391    0.281
        96 -13.8213     70.5446     86.8274   8.6011544134e+01   5.1139308810e+01      1.30267    0.8655995 -30.80  0.006250271    1.562    0.360
        97 -14.5457     96.9419     72.2840   7.2611283550e+01   4.9437773570e+01      2.01407     1.004414  38.47   0.00306078    2.045    0.511
        98 -10.3018    188.0000    197.9999   8.0475277092e+01   4.7297521447e+00    0.2231739   0.07672853 -43.01 0.0008052976    2.962    0.662
        99 -12.1720     92.8397     58.7475   6.9306801854e+01   5.2703933728e+01    0.6908131    0.3557154 -29.90  0.002905842    2.127    0.530
       100 -14.5094     58.4729     78.5340   8.7954739990e+01   5.4717617899e+01     1.439615    0.8724456 -43.52  0.007019758    1.495    0.331
       101 -13.1856     84.2689     63.2959   7.3708853095e+01   5.3554668613e+01      1.14076    0.7816349 -17.23  0.005527334    1.662    0.398
       102 -10.4762    246.7483    183.4921   6.6574338497e+01  -2.2645537794e+00     0.232962    0.1502548 -30.97  0.000518854    1.329    0.248
       103 -14.3537      9.3049     64.2220   1.0397625700e+02   6.2694303761e+01     1.625577    0.8787957 -45.56   0.00910324    1.445    0.308
       104 -13.0594      3.1533     46.5039   1.0208797337e+02   6.6718420082e+01    0.7009907    0.5837868  45.56   0.00360949    1.702    0.412
