#   1 NUMBER                 Running object number                                     
#   2 MAG_AUTO               Kron-like elliptical aperture magnitude                    [mag]
#   3 X_IMAGE                Object position along x                                    [pixel]
#   4 Y_IMAGE                Object position along y                                    [pixel]
#   5 X_WORLD                Barycenter position along world x axis                     [deg]
#   6 Y_WORLD                Barycenter position along world y axis                     [deg]
#   7 A_WORLD                Profile RMS along major axis (world units)                 [deg]
#   8 B_WORLD                Profile RMS along minor axis (world units)                 [deg]
#   9 THETA_WORLD            Position angle (CCW/world-x)                               [deg]
#  10 FWHM_WORLD             FWHM assuming a gaussian core                              [deg]
#  11 ELONGATION             A_IMAGE/B_IMAGE                                           
#  12 ELLIPTICITY            1 - B_IMAGE/A_IMAGE                                       
         1 -14.8594    158.7404     43.2967   2.9029797514e+02   6.3069506493e+00   0.06320889    0.0464814 -54.82  0.004025565    1.331    0.249
         2 -12.4458    189.7815     14.5288   2.8976433246e+02   6.4475931020e+00   0.03434223   0.01677517 -75.80   0.00271369    2.897    0.655
         3 -13.4768    169.0926     14.8809   2.9000327042e+02   6.5684708566e+00   0.03996516   0.01870427  41.13  0.002804199    2.168    0.539
         4 -14.6011    170.7681      9.1276   2.8994839275e+02   6.6239244742e+00    0.0671502   0.04245133  25.93  0.004826241    1.611    0.379
         5 -12.7091    138.2416    198.4752   2.9149159810e+02   4.6586375135e+00   0.03194288    0.0198506  54.82  0.002877507    1.914    0.478
         6 -12.9358    189.6044    249.5493   2.9121967899e+02   3.7664430492e+00   0.02473078   0.01650701  12.24   0.00177085    1.727    0.421
         7 -12.1710    176.1921    248.9615   2.9136914679e+02   3.8538025986e+00   0.01458278   0.01128656 -60.37   0.00061883    1.280    0.219
         8  -9.7104    163.4075    250.4729   2.9152440411e+02   3.9133883261e+00  0.006494788  0.006307486 -46.88 8.876869e-05    1.019    0.019
         9 -20.2649     80.9705    181.2536   2.9204039131e+02   5.1993071112e+00    0.8592229     0.333384 -63.49   0.06801327    2.667    0.625
        10  99.0000     12.9837    242.8494   2.9319629440e+02   4.9022615449e+00   0.01935141  0.006735311 -43.47  0.001346925    3.470    0.712
        11 -14.1093    207.6392    178.1771   2.9057351347e+02   4.4728470527e+00   0.05136795   0.03097655 -67.08  0.004447272    1.746    0.427
        12 -13.8855    195.7466    171.2253   2.9066639245e+02   4.6238648435e+00    0.0420658   0.02366482 -77.35  0.002695172    2.298    0.565
        13 -12.2475    203.1537    172.5194   2.9058978654e+02   4.5644667683e+00   0.01877872   0.01369781 -74.92  0.001435978    1.501    0.334
        14 -11.1579    150.9535    241.5558   2.9161172026e+02   4.0900829485e+00   0.01432072  0.009681208 -68.59   0.00144633    1.555    0.357
        15 -12.1635    148.5551    188.5251   2.9131237967e+02   4.7103079549e+00   0.01118616   0.01094545   9.17 0.0005748027    1.028    0.027
        16 -12.1417    129.6605    182.4736   2.9149105371e+02   4.8930267395e+00   0.01937263   0.01123258 -56.26  0.001496106    1.666    0.400
        17 -10.4673     28.6323    240.7902   2.9300478550e+02   4.8322453852e+00  0.009737347  0.007265652  57.42 0.0007730537    1.504    0.335
        18 -14.5892    177.5521    171.1612   2.9087385692e+02   4.7341651596e+00   0.04793207    0.0334574 -81.08  0.004985349    1.691    0.408
        19 -10.3131    160.2051    247.6724   2.9154372778e+02   3.9646206771e+00    0.0142206  0.009549895 -13.83   0.00106948    1.969    0.492
        20 -11.1129     21.8747    239.2029   2.9307230485e+02   4.8908010132e+00  0.009326791  0.008185933 -40.35 0.0005426729    1.148    0.129
        21 -10.7323      7.6724    236.7376   2.9321956160e+02   5.0038731061e+00  0.007379007  0.006064764 -64.51 0.0004002575    1.221    0.181
        22 -12.3711    185.7421    167.9322   2.9076033952e+02   4.7217238573e+00   0.02105572   0.01064998 -62.15  0.001917641    1.978    0.494
        23 -12.2557    230.0736    166.8113   2.9024714708e+02   4.4673753394e+00    0.0165834  0.009761107 -76.23  0.001536493    2.084    0.520
        24 -11.9520    201.2962    165.3728   2.9056684722e+02   4.6572518635e+00   0.01669174   0.01141539  79.03 0.0009398066    1.961    0.490
        25 -11.1927    222.6622    162.0839   2.9030253064e+02   4.5660195998e+00   0.01650226   0.01060368  85.08    0.0010737    2.223    0.550
        26 -14.1350    163.8725    158.4808   2.9095189080e+02   4.9613297828e+00   0.02992773   0.02278929  35.49    0.0033682    1.310    0.237
        27  -9.8863      3.5090    158.4890   2.9278693975e+02   5.9233059979e+00  0.006542836  0.006366726 -31.70 -1.393595e-05    1.024    0.024
        28 -14.0743    152.6527    145.1535   2.9099785381e+02   5.1810628441e+00   0.02994744   0.02302334  77.20  0.003279478    1.562    0.360
        29 -10.9798     29.1601    156.5834   2.9248150773e+02   5.7916900132e+00   0.01228849   0.01040665 -42.01 0.0006306526    1.189    0.159
        30 -12.7512    195.8410    235.7515   2.9106347561e+02   3.8864830034e+00   0.01451062   0.01141592 -28.85   0.00113133    1.389    0.280
        31 -10.9894    191.8854    154.0672   2.9060449013e+02   4.8430322327e+00   0.01826099  0.008378559 -41.62  0.001504419    2.506    0.601
        32 -14.4566    143.3866    143.7081   2.9109489177e+02   5.2533267307e+00   0.04885576   0.02432736 -72.94  0.004104971    2.532    0.605
        33 -11.3355     17.1344    153.4963   2.9260021432e+02   5.8989183240e+00   0.02052601   0.01344209 -22.00  0.001659828    1.978    0.494
        34 -11.9027    139.6625    148.8831   2.9116943812e+02   5.2166213516e+00   0.01409541   0.01301982  19.64 0.0003796269    1.096    0.087
        35 -12.9359    174.1339    148.5528   2.9077327199e+02   5.0129241347e+00   0.02151884     0.016147  86.37  0.001444492    1.615    0.381
        36 -10.1871    182.4321    149.1921   2.9068238245e+02   4.9556454563e+00  0.009133682  0.006413969 -79.97 0.0007390494    1.658    0.397
        37 -10.3875     18.5886    148.4686   2.9255263112e+02   5.9476838027e+00   0.01335534  0.006554809  26.08  0.001184891    2.093    0.522
        38 -11.8810     27.2304    145.6635   2.9243640274e+02   5.9280432565e+00    0.0180042   0.01535804  21.41 0.0009606173    1.194    0.163
        39 -12.1245    175.8789    142.3607   2.9071506171e+02   5.0731185131e+00   0.01125296   0.00934338 -81.61 0.0006821212    1.307    0.235
        40 -12.7197    199.2473    222.6455   2.9094379069e+02   4.0156389986e+00   0.01916835   0.01138553  40.83 0.0009823476    1.702    0.412
        41  -9.7395     17.3628    223.5536   2.9302792710e+02   5.0966835735e+00  0.006672745  0.005940708 -35.92 0.0002166259    1.142    0.125
        42 -13.0850     11.6372    206.0756   2.9298618273e+02   5.3307271838e+00   0.03243656   0.01619104  22.65  0.002552492    2.174    0.540
        43 -14.0581    135.9392    128.0765   2.9108352675e+02   5.4766565615e+00    0.0703316   0.01723739 -66.08  0.003728807    6.060    0.835
        44 -11.7635    168.7346    202.2699   2.9116656447e+02   4.4319345013e+00   0.01544001    0.0102851  73.70 0.0008186795    2.049    0.512
        45 -11.8107    156.1648    132.8570   2.9088172080e+02   5.3003490238e+00   0.01000146  0.008933765  63.90 0.0003448939    1.193    0.162
        46 -13.2691    160.5539    128.1510   2.9080244338e+02   5.3276600803e+00   0.02109009    0.0190543  66.08  0.001717339    1.178    0.151
        47 -13.3587    155.7805    190.8197   2.9124395722e+02   4.6406435314e+00   0.02385402   0.01649259  43.61  0.001410401    1.487    0.327
        48 -13.4811    154.3877    186.0552   2.9123048673e+02   4.7034463517e+00   0.02925721   0.01559964  38.40  0.002762907    1.857    0.462
        49 -13.3227    157.5137    202.3242   2.9129509356e+02   4.4988035726e+00   0.02931325   0.02212461  82.77  0.002181799    1.611    0.379
        50 -14.4544    134.0383    146.2350   2.9121741456e+02   5.2806936215e+00   0.06766181   0.02642392 -72.43  0.004532876    4.000    0.750
        51 -13.1311    154.1763    195.8696   2.9129343078e+02   4.5926059958e+00   0.02760538   0.01789333  74.68  0.002605119    2.185    0.542
        52 -10.8890    205.4057    110.1668   2.9017847261e+02   5.2626299763e+00   0.01438158  0.009857132  13.54  0.001168072    1.643    0.391
        53 -12.3243    163.8557    202.9713   2.9122662656e+02   4.4532704324e+00   0.01720297    0.0147806 -86.98 0.0004223537    1.265    0.209
        54 -11.8738     24.9336    106.6671   2.9222251554e+02   6.3873822809e+00   0.02259686   0.01191956  14.86  0.001963709    2.383    0.580
        55 -12.5458    161.7371    197.6550   2.9121804814e+02   4.5267390356e+00   0.02136104   0.01740254  79.49  0.001838107    1.411    0.291
        56 -12.1634     40.5961     93.9259   2.9196444508e+02   6.4391430082e+00   0.02901118   0.01939918 -12.81   0.00274023    1.987    0.497
        57 -12.1338     48.6885     92.3093   2.9186172800e+02   6.4091192525e+00   0.02159967   0.01268454  10.46  0.001986729    2.168    0.539
        58 -12.0339     16.3364    250.1279   2.9320256942e+02   4.7990149560e+00  0.009690844  0.007989689 -53.36   0.00112049    1.193    0.162
        59 -11.6953      4.6262     89.6334   2.9235029359e+02   6.7034255543e+00   0.02108012   0.01135475   3.09  0.001673439    3.046    0.672
        60 -10.8902     30.8131    206.3020   2.9276820960e+02   5.2134669913e+00   0.01300387   0.01035804   4.17 0.0008591517    1.395    0.283
        61 -10.7694    142.7937     80.2022   2.9070906683e+02   5.9819811016e+00  0.009756067  0.009046109  70.56 0.0006945542    1.137    0.121
        62 -14.4143    148.2069     57.8251   2.9050856412e+02   6.2047162750e+00   0.05433504   0.04708668 -30.84 0.0009686762    1.201    0.167
        63 -13.5616    198.0714    246.0157   2.9110127903e+02   3.7558649040e+00   0.03494126   0.02178712  66.68  0.003239663    2.240    0.554
        64 -13.2557    162.5042     34.6736   2.9020144005e+02   6.3825886095e+00   0.02185568   0.01880302 -46.58 0.0008631156    1.155    0.134
        65 -10.9230     13.4090     59.8917   2.9206611762e+02   6.9905310419e+00   0.01070081  0.008834215  42.94 0.0004305291    1.234    0.189
        66  -9.3941    160.2907    243.3091   2.9151588742e+02   4.0139445800e+00  0.006791447  0.004910611 -28.55 0.0004725149    1.581    0.368
        67 -10.9254    167.9893    244.7135   2.9143663193e+02   3.9516310755e+00   0.01018069  0.008586583 -30.84 0.0005397427    1.247    0.198
        68 -10.9650    167.9914    240.7951   2.9141247886e+02   3.9963721481e+00   0.01232314  0.009189357 -61.15 0.0004102105    1.332    0.249
