#   1 NUMBER                 Running object number                                     
#   2 MAG_AUTO               Kron-like elliptical aperture magnitude                    [mag]
#   3 X_IMAGE                Object position along x                                    [pixel]
#   4 Y_IMAGE                Object position along y                                    [pixel]
#   5 X_WORLD                Barycenter position along world x axis                     [deg]
#   6 Y_WORLD                Barycenter position along world y axis                     [deg]
#   7 A_WORLD                Profile RMS along major axis (world units)                 [deg]
#   8 B_WORLD                Profile RMS along minor axis (world units)                 [deg]
#   9 THETA_WORLD            Position angle (CCW/world-x)                               [deg]
#  10 FWHM_WORLD             FWHM assuming a gaussian core                              [deg]
#  11 ELONGATION             A_IMAGE/B_IMAGE                                           
#  12 ELLIPTICITY            1 - B_IMAGE/A_IMAGE                                       
         1  -8.8326      3.6641     27.6921   1.1842581436e+02   7.1491577451e+01    0.2777056     0.148018 -88.18  0.001230361    1.963    0.491
         2  -9.0382     74.1105     19.5718   7.6145823269e+01   6.4398597818e+01    0.3481518    0.2030916 -51.35 0.0009128639    2.123    0.529
         3  -8.6089     55.5482     10.0482   7.9164049131e+01   6.9528887537e+01    0.2215955    0.1952973  70.00 0.0007059812    1.511    0.338
         4  -8.0992     47.4481     10.1533   8.3489254390e+01   7.0892820649e+01    0.1870431    0.1180694 -50.23 0.0009352588    1.769    0.435
         5  -8.6678     90.8494      9.1284   6.4620963346e+01   6.2174328288e+01    0.2184201    0.1930367 -56.30 0.0005831087    1.298    0.230
         6  -7.8751    101.3587      8.1991   6.1123875844e+01   5.9698685329e+01    0.2008116    0.1272872 -35.22 0.0003889934    1.609    0.379
         7  -8.5821     33.5128      5.2037   8.8894972370e+01   7.3829004730e+01    0.2867953    0.1929494 -67.24  0.001418612    2.455    0.593
         8  -8.4364     79.1054      4.3268   6.5796047014e+01   6.5517332615e+01    0.2456841    0.1815065 -47.08  0.001080589    1.566    0.362
         9  -8.4639    171.8325      3.8752   4.7004451011e+01   4.0979261981e+01     0.204004     0.191274  36.73 0.0002607835    1.137    0.121
        10  -7.8956    138.4001      3.1637   5.1154802774e+01   5.0314529305e+01    0.2025044    0.1303371 -35.62 0.0003669425    1.575    0.365
        11  -7.9837     44.6957      3.1791   8.0646035517e+01   7.2503472367e+01    0.1996798    0.1535216 -46.08 0.0007281073    1.443    0.307
        12  -8.1215     15.8058      3.3810   1.0079141679e+02   7.6134085068e+01    0.1568129    0.1081902  -2.63 0.0003327586    1.605    0.377
        13  -8.4197     62.3796      1.6278   7.0684841702e+01   6.9468910761e+01    0.2152102    0.1649018  62.78 0.0005768847    1.595    0.373
        14  -7.6708     39.4707      1.4930   8.2628549336e+01   7.3608706322e+01    0.1285955    0.1130128 -18.65 1.189041e-05    1.060    0.057
        15  -8.4356    190.8684    245.8928   9.9699691322e+01   3.5823498770e+00    0.1594775    0.1026745  21.35 0.0003039804    1.264    0.209
        16  -8.9247    242.8838    247.4682   9.1801008134e+01  -3.0631252751e+00    0.2260254    0.1221402 -19.33   0.00142687    1.997    0.499
        17  -8.5640    249.1144    249.1947   9.1116019660e+01  -3.9194685358e+00    0.1952121    0.1058425  -4.25  0.001440683    1.813    0.448
        18  -9.6710    246.5133    229.2463   8.8795440312e+01  -2.0457892867e+00    0.3138611    0.1729472 -24.17  0.001749169    1.974    0.493
        19 -10.0378    248.4288    242.1446   9.0286584053e+01  -3.3061977252e+00    0.3287041    0.2139126  -7.74  0.001733939    1.464    0.317
        20  -9.3023    247.8917    234.8024   8.9367436569e+01  -2.6656093819e+00     0.189932    0.1451247   4.55 0.0007711295    1.287    0.223
        21  -8.8514    238.8717    250.6466   9.2800887616e+01  -2.8355905563e+00    0.1964936   0.06587762  35.78   0.00105236    2.157    0.536
        22  -8.3894     93.8065    249.6353   1.1672880400e+02   1.5770528669e+01    0.1879547   0.09888418  63.15  0.001212812    2.112    0.527
        23  -9.3451    194.2351    240.0779   9.8451862032e+01   3.7129524846e+00    0.2980531    0.1479105 -33.11  0.001407724    2.590    0.614
        24  -8.9339    120.0230    245.1851   1.1176524637e+02   1.3050494620e+01    0.2532685    0.1538007  64.58  0.001678481    2.095    0.523
        25  -9.1767     78.4506    243.8237   1.1905821409e+02   1.8413430305e+01    0.3586265   0.08592384  51.72  0.001536535    3.856    0.741
        26  -8.2198     67.5362    245.0101   1.2106193125e+02   1.9510287031e+01     0.126402   0.09193812  87.76  0.001025883    1.578    0.366
        27  -9.0584    202.0751    242.9811   9.7529467203e+01   2.3983853519e+00    0.2194166    0.1411754 -25.75  0.001174023    1.915    0.478
        28  -8.8354    169.0290    243.5419   1.0307531744e+02   6.7264808515e+00    0.1592465    0.1361324  52.49 0.0005746423    1.517    0.341
        29  -9.5516    160.4805    240.9034   1.0425222189e+02   8.1742395405e+00    0.2858285    0.2116026  87.62  0.001603613    2.763    0.638
        30  -7.6251     49.6782    243.3291   1.2411733470e+02   2.1722285015e+01    0.1095186    0.0484517  55.48 0.0004960825    1.693    0.409
        31  -9.3708    183.1706    239.9859   1.0027973009e+02   5.2035538596e+00    0.3040515    0.2296385  57.41   0.00192736    1.967    0.492
        32  -8.1176    153.4055    242.2054   1.0561764664e+02   8.9814223978e+00    0.1161664    0.1016426  87.88 0.0005455578    1.739    0.425
        33  -8.1207     88.3386    242.2059   1.1718487980e+02   1.7453250331e+01    0.1270555   0.08556527  79.74 0.0005882232    1.760    0.432
        34  -9.2110    241.0359    239.0999   9.0969937562e+01  -2.1814819010e+00     0.304825      0.13072 -12.72  0.001740422    3.070    0.674
        35  -8.4261    214.3059    241.3051   9.5367112928e+01   9.7163936606e-01    0.1056586   0.05945501  16.29 0.0003321152    1.603    0.376
        36  -8.2993    146.0786    239.9659   1.0666835351e+02   1.0237944763e+01    0.1615678    0.1050897  54.35 0.0006335156    1.681    0.405
        37  -8.0849      1.6870    240.2989   1.3224035739e+02   2.6770360654e+01    0.1025156   0.03965455  54.50 0.0007011322    1.605    0.377
        38  -8.6598    209.0869    238.6183   9.5855745710e+01   1.8949973473e+00    0.1484123    0.1291015   8.61 0.0007737887    1.397    0.284
        39  -9.2032    135.3810    238.9592   1.0846479475e+02   1.1808386057e+01    0.1914109    0.1118161  50.03 0.0007319565    1.558    0.358
        40  -8.3685    129.1883    238.7309   1.0955079584e+02   1.2669605655e+01    0.1750134   0.09870966  47.29  0.000803608    1.445    0.308
        41  -9.0264    230.8379    236.9586   9.2225490685e+01  -7.4442900729e-01    0.1783618    0.1749254  -8.53  0.001213334    2.004    0.501
        42  -8.5264     26.3051    237.7284   1.2798666762e+02   2.4935792010e+01    0.2607424   0.04207564  55.93  0.001148485    3.999    0.750
        43  -8.6212     13.0380    238.0000   1.3028204447e+02   2.6129112626e+01    0.1514274   0.04072213  32.33 0.0007262214    2.928    0.659
        44 -10.1269    214.7547    233.1704   9.4239563473e+01   1.6633386217e+00    0.3501582    0.2934561  87.25  0.002321484    3.336    0.700
        45  -8.8727    203.2046    234.9416   9.6337957843e+01   3.0250746705e+00    0.2115578    0.1656373 -50.58  0.001361441    2.297    0.565
        46  -8.1593    204.2248    230.6061   9.5607988560e+01   3.3169783325e+00    0.1546836   0.09641749  19.39 0.0006382599    1.338    0.253
        47  -9.7570    175.6688    233.3249   1.0076267741e+02   6.9470599907e+00    0.3293449     0.219861 -58.27  0.002171709    2.718    0.632
        48  -8.6589    170.3809    235.7784   1.0196477108e+02   7.4020832633e+00    0.1508715    0.1066718 -47.65 0.0006412402    2.061    0.515
        49  -9.3974    108.9760    234.6251   1.1285084475e+02   1.5899925700e+01    0.3769197    0.1547822  49.13  0.001159906    2.034    0.508
        50  -8.1420     58.3962    237.0000   1.2225991774e+02   2.1713581454e+01    0.2293162   0.04372866  34.25 0.0009353933    3.940    0.746
        51  -8.4807     99.5769    234.3589   1.1455736736e+02   1.7155214540e+01    0.2266303     0.123142  60.32  0.001104782    1.933    0.483
        52  -8.6044     78.6495    234.2332   1.1840311829e+02   1.9778336427e+01    0.2261863    0.1202396  71.54  0.001089376    2.222    0.550
        53  -8.2757    122.8954    234.1361   1.1025722893e+02   1.4118034584e+01    0.1722081    0.1136082  51.91  0.001000037    1.364    0.267
        54  -9.2955     68.3854    232.4229   1.2017848857e+02   2.1266864287e+01    0.3755362    0.1362057  59.87  0.001886522    2.985    0.665
        55  -8.9565      8.5890    234.2200   1.3095902040e+02   2.7105867814e+01    0.1153686   0.07795213 -81.89 0.0009536805    1.714    0.417
        56  -9.4587    235.6587    231.2934   9.0717341810e+01  -8.6460326982e-01    0.2602932     0.159055   4.15 0.0008004902    1.483    0.326
        57  -8.7987    194.9071    232.1979   9.7357564741e+01   4.4214810125e+00    0.2555051    0.1523873 -24.69    0.0015107    2.066    0.516
        58  -8.0172    144.5026    233.0139   1.0622466384e+02   1.1311130501e+01    0.1713321    0.1106704  57.90  0.001116494    1.859    0.462
        59  -8.4974    140.0876    230.2306   1.0672945345e+02   1.2279094107e+01    0.2093824     0.113611  47.44 0.0009918339    1.587    0.370
        60  -8.3842    132.6928    232.7320   1.0833390359e+02   1.2973853567e+01    0.1823971    0.1231391  78.18  0.001156489    2.416    0.586
        61  -8.5314     92.4205    231.7355   1.1567602965e+02   1.8445150908e+01    0.2505836    0.1311706  70.77  0.001167978    2.599    0.615
        62  -9.4752    186.5191    230.8740   9.8603576530e+01   5.7137633446e+00    0.2320923    0.1916172  69.83  0.001249426    2.141    0.533
        63  -8.1179    157.8139    232.0214   1.0373586194e+02   9.5825216277e+00    0.1545849    0.1135183  65.03  0.000823807    1.983    0.496
        64  -8.8980      1.9773    231.1641   1.3203528127e+02   2.8150755140e+01    0.1898295   0.07554991  50.20  0.001004242    1.554    0.356
        65  -9.9759    149.6337    226.1488   1.0454269127e+02   1.1463201235e+01     0.442037    0.2895808  84.43  0.002335659    3.721    0.731
        66  -8.2999    229.6291    228.8419   9.1306303917e+01   1.2020123381e-01    0.1210945   0.09130412 -25.65  0.000776678    1.725    0.420
        67  -8.6458    162.4456    228.0511   1.0245329184e+02   9.4105452740e+00     0.255258    0.1221332  48.37   0.00122753    2.102    0.524
        68  -8.9138    127.9155    227.3180   1.0866853724e+02   1.4356428962e+01     0.244799    0.1518326  58.24   0.00111725    1.783    0.439
        69  -8.0393    120.0161    228.0162   1.1020805735e+02   1.5344953368e+01     0.181139    0.1051495  56.74  0.000907758    1.792    0.442
        70  -9.1865      8.4651    228.0742   1.3084638453e+02   2.8082124528e+01    0.1350419    0.0778477  83.26  0.001035238    1.604    0.377
        71  -7.6099    223.4815    227.4791   9.2080813848e+01   1.0457819507e+00    0.1069429   0.07643329  21.97 -8.258347e-06    1.060    0.057
        72  -8.4320    215.3318    226.7307   9.3278957406e+01   2.2000872530e+00    0.1481182    0.1064896  15.65 0.0002774207    1.101    0.091
        73  -9.0064    216.4837    223.6088   9.2661414403e+01   2.3478084374e+00    0.1966877    0.1901694 -20.31  0.000951339    1.750    0.428
        74  -8.8335    206.1969    225.7494   9.4635506003e+01   3.5365112870e+00    0.2669494    0.1431155 -30.78  0.001729606    2.246    0.555
        75  -7.7890    177.6615    227.2822   9.9678387105e+01   7.3496419318e+00    0.1049477   0.07285081  49.44  0.000265779    1.625    0.385
        76  -8.3066     49.3414    226.8655   1.2339681947e+02   2.4274846066e+01    0.1771579    0.0821213  86.09  0.001063984    2.493    0.599
        77  -8.5667    200.2221    225.6401   9.5613042637e+01   4.3707203844e+00    0.2654483    0.1504864 -18.15  0.001677551    2.208    0.547
        78  -8.2960    202.7399    220.3592   9.4473377911e+01   4.5729631059e+00     0.154091    0.1328994 -32.34 0.0005100981    1.646    0.392
        79  -8.9872     94.3451    224.5277   1.1474146660e+02   1.9270497938e+01    0.4209132    0.1479785  53.11   0.00198112    2.875    0.652
        80  -8.8248    180.5546    224.2878   9.8795575067e+01   7.2813150149e+00    0.1875278    0.1833793  16.64 0.0007492927    1.463    0.316
        81  -9.1094    180.2508    218.7172   9.8124378543e+01   7.9700105899e+00    0.3125232    0.2281861 -86.66  0.001685043    3.808    0.737
        82  -8.9448    104.7458    223.7228   1.1268995345e+02   1.8023942399e+01    0.2743586    0.1686312  71.63  0.001674896    2.083    0.520
        83  -7.6959     78.3077    225.6621   1.1787830477e+02   2.1117225850e+01     0.115163   0.06042364  57.51 0.0007042513    1.680    0.405
        84  -8.1469     38.7358    224.9553   1.2527540137e+02   2.5702082343e+01    0.1778615   0.07440881  61.13  0.001008581    1.980    0.495
        85  -8.6190    173.0629    223.4803   1.0000966336e+02   8.4448466510e+00    0.1683471    0.1556867  79.18 0.0007496998    1.645    0.392
        86  -8.1161    114.0043    224.0140   1.1095657479e+02   1.6732673301e+01    0.1720845    0.1071217  57.86 0.0005536506    1.616    0.381
        87  -7.8149     59.9548    224.4718   1.2127762291e+02   2.3475302162e+01    0.1637342     0.048071  49.73 0.0008088036    2.466    0.594
        88  -9.2456    225.4919    221.9532   9.0986617374e+01   1.2959308630e+00    0.1909115    0.1565819  -8.14 0.0006379825    1.402    0.287
        89  -9.3894    192.5430    221.5607   9.6365592820e+01   5.8830581258e+00    0.2383028    0.1985545  61.49  0.001159442    1.911    0.477
        90  -9.2084    160.3316    221.3285   1.0202794212e+02   1.0541487768e+01    0.4468865    0.1969097  53.13  0.002016816    3.371    0.703
        91  -8.0350    140.5667    222.8074   1.0583749545e+02   1.3190701086e+01    0.1264353    0.1065747  85.42 0.0005659756    1.645    0.392
        92  -9.2472    239.3743    221.6228   8.8779608108e+01  -4.9442819509e-01    0.2083287    0.1824655  33.84  0.001059232    1.739    0.425
        93  -9.1659    120.4214    219.2999   1.0926924750e+02   1.6530341716e+01    0.3722617    0.1764883  57.85  0.001853451    2.730    0.634
        94  -8.5979     82.9489    220.7118   1.1662591907e+02   2.1312982148e+01     0.249679    0.1106075  59.28  0.001328275    2.373    0.579
        95  -7.9891     73.2142    220.8349   1.1851363324e+02   2.2495464563e+01    0.1963391   0.07435763  59.00 0.0009469526    2.858    0.650
        96  -8.0124     27.5826    221.2333   1.2719353262e+02   2.7425445881e+01    0.1215694   0.08620632 -78.63 0.0009497573    1.643    0.391
        97  -8.5655    210.0815    219.4521   9.3124683445e+01   3.6414969224e+00    0.1599098    0.1468721 -11.24 0.0006243116    1.523    0.343
        98  -9.0069    248.5900    218.0895   8.6868858039e+01  -1.3639620645e+00    0.2687027    0.2044968  57.06  0.001754845    3.034    0.670
        99  -9.3594    133.0216    216.1724   1.0652191501e+02   1.5189430055e+01    0.4073955    0.2385229  67.28  0.002138844    2.835    0.647
       100  -8.6145    111.8603    217.5614   1.1074598389e+02   1.7977383298e+01    0.2102909    0.1145535  61.86  0.001163987    2.239    0.553
       101  -8.6689     62.4450    217.6951   1.2038825791e+02   2.4282618316e+01    0.2909975    0.1143308  54.17   0.00158918    2.104    0.525
       102  -8.7752     51.5274    217.5815   1.2249396595e+02   2.5540382423e+01    0.2144851    0.1265066  60.98 0.0007628861    1.377    0.274
       103  -8.7899    169.2947    216.0022   9.9729680596e+01   9.8999875656e+00    0.2254126    0.1830836  85.40 0.0009866417    2.148    0.534
       104  -8.6361    143.0354    216.5894   1.0466676739e+02   1.3678944541e+01    0.2168569     0.155652  64.32  0.001090765    1.791    0.442
       105  -9.0812    231.8361    215.0302   8.8978948718e+01   1.0998202298e+00    0.2951965    0.1862215  12.90  0.002054288    1.316    0.240
       106  -9.3039    236.5359    208.3020   8.7227315794e+01   1.1034400880e+00    0.3023039    0.2114234 -21.04  0.001402129    1.550    0.355
       107  -8.3673     18.6657    215.5368   1.2865974704e+02   2.9217692778e+01    0.1646104   0.08116483 -88.16  0.001095729    2.002    0.500
       108  -8.3875    185.8056    214.6983   9.6603994417e+01   7.6314698282e+00    0.1667081    0.1436853  72.63 0.0007347074    1.922    0.480
       109  -8.1460    154.2400    215.1679   1.0239338246e+02   1.2227514382e+01    0.1510221    0.1163483  51.56 0.0006272543    1.373    0.272
       110  -9.0910     93.1976    214.1393   1.1408409120e+02   2.1031576847e+01    0.3376057    0.1307441  52.87  0.001315433    2.471    0.595
       111  -9.5549    214.1944    212.3958   9.1430102909e+01   3.7927461938e+00    0.3282361    0.2397137  50.61  0.001816313    1.943    0.485
       112  -8.2868    197.2155    214.5625   9.4601689003e+01   5.9873019563e+00    0.1704385   0.08171935  29.56 0.0009512988    1.738    0.424
       113  -9.4216     73.1979    211.9863   1.1788119500e+02   2.3937508109e+01    0.5932815    0.1653788  53.91  0.002377529    3.820    0.738
       114  -8.2729    224.9440    212.7302   8.9730347863e+01   2.2591548255e+00    0.1537601    0.1353226 -21.85 0.0009066382    1.613    0.380
       115  -8.6432    161.5789    212.3416   1.0067082250e+02   1.1510959541e+01     0.176879    0.1504499  58.40 0.0007120175    1.459    0.315
       116  -8.1760    106.7728    213.0348   1.1129908349e+02   1.9371006467e+01    0.1824308     0.107041  64.84  0.001053114    2.025    0.506
       117  -9.1609    204.3413    211.0952   9.2888959792e+01   5.3396539616e+00    0.2013562    0.1964502 -37.15 0.0008729487    1.644    0.392
       118  -9.3636    175.7686    210.2735   9.7791116926e+01   9.6521800710e+00    0.3195482    0.2207288  65.00  0.001556767    2.541    0.607
       119  -8.5920      8.2321    211.8248   1.3050568375e+02   3.0776402792e+01     0.232637   0.04540325  59.95  0.001051113    3.555    0.719
       120  -8.3661      5.5048    208.0071   1.3092498382e+02   3.1662451015e+01    0.1439525   0.07883053  80.83  0.001020463    1.578    0.366
       121  -7.9270    242.6668    211.7245   8.6805604506e+01  -3.4608856292e-02    0.1118447   0.06136353  15.56 0.0004019096    1.601    0.375
       122  -8.4765    192.4293    210.7870   9.4895651855e+01   7.1133102910e+00    0.1654619     0.110481 -38.80 0.0006684057    1.936    0.484
       123  -8.7935    147.9154    210.5261   1.0301074850e+02   1.3796277906e+01     0.233294    0.1629404  60.15  0.001169106    1.758    0.431
       124  -9.1118    116.3251    210.5298   1.0915660694e+02   1.8418950322e+01    0.2827497     0.162098  60.31  0.001077857    2.006    0.501
       125  -8.5808     85.5101    209.5661   1.1522315505e+02   2.2780525430e+01    0.2592141    0.1217783  61.36 0.0009908288    2.386    0.581
       126  -8.4593     32.0685    210.0717   1.2589526736e+02   2.8860677833e+01     0.182515   0.08190696  58.45 0.0009358555    1.721    0.419
       127  -8.6110    139.2519    208.2472   1.0439827740e+02   1.5412507705e+01    0.2215447    0.1405177  61.14 0.0007834794    2.005    0.501
       128  -7.6494     46.2924    209.6098   1.2307847217e+02   2.7458574786e+01    0.1198044   0.05658546  60.06 0.0006289644    1.774    0.436
       129  -9.5225    246.3573    207.2031   8.5549120323e+01  -1.0916962216e-01    0.2278039    0.1569283 -16.17 0.0006528631    1.455    0.313
       130  -9.4711    250.0874    202.0515   8.4176168830e+01  -1.3179280933e-01    0.2767393    0.1488876 -18.69  0.001164193    1.801    0.445
       131  -8.0230    156.3414    207.8652   1.0107104879e+02   1.2895641147e+01    0.1804387    0.1123879 -57.85  0.000790411    2.409    0.585
       132  -7.8975    126.4959    208.5468   1.0693041841e+02   1.7252997914e+01    0.1202422   0.09086207  45.05  0.000807508    1.081    0.075
       133  -9.2540     99.3153    206.1440   1.1212065367e+02   2.1496400742e+01    0.3033587    0.1836775  71.15  0.001258331    2.041    0.510
       134  -8.2160     11.9851    206.9805   1.2966585010e+02   3.1282653725e+01    0.1292786   0.08949972  57.70  0.001007092    1.011    0.011
       135  -8.3391    109.0061    205.3383   1.1007500148e+02   2.0273447026e+01    0.1817006    0.1437888  67.82 0.0006193926    1.327    0.247
       136  -8.5932     56.4281    205.2986   1.2078920276e+02   2.7074095734e+01    0.2643025    0.1223984  66.18  0.001061629    2.191    0.544
       137  -9.3022    194.8866    203.5134   9.3405689230e+01   7.5970826462e+00     0.269923     0.237544 -20.27 0.0009821513    1.401    0.286
       138  -9.2703    192.3605    197.4193   9.2933076876e+01   8.7163132501e+00    0.2895912    0.2493707 -55.09  0.001313026    1.795    0.443
       139  -8.9271    183.5166    203.9178   9.5492149269e+01   9.2716103254e+00    0.2169316    0.1697981  55.98 0.0007633934    1.696    0.410
       140  -8.7695    131.4739    204.1883   1.0543631740e+02   1.7174974040e+01     0.256849    0.1704914  68.48  0.001106457    2.068    0.517
       141  -7.1830     92.3248    205.6160   1.1349265396e+02   2.2533708699e+01    0.1259722   0.06976783  60.78 0.0007015191    1.852    0.460
       142  -9.6554    163.9096    203.1271   9.9003969484e+01   1.2383027840e+01    0.3636138    0.2196301  53.47  0.001034505    1.939    0.484
       143  -8.5852    211.1122    202.2069   9.0411613695e+01   5.3272610449e+00     0.163553    0.1517222 -71.67  0.000499066    1.953    0.488
       144  -8.3575     48.2792    202.2367   1.2225841274e+02   2.8529656324e+01     0.222339   0.09647115  71.93  0.001138246    2.532    0.605
       145  -9.1124    242.9775    200.9939   8.5086093508e+01   9.2370438871e-01    0.2095853    0.1419872 -27.12 0.0008365201    1.702    0.412
       146  -8.9222    140.3006    201.0736   1.0329966119e+02   1.6308069674e+01    0.2528911    0.1906613  82.89 0.0008849482    1.971    0.493
       147  -8.5244     80.0933    201.4282   1.1563518628e+02   2.4857182233e+01    0.2612524    0.1276039  60.54  0.001388704    2.111    0.526
       148  -8.1442     10.5322    202.6660   1.2982265544e+02   3.2165287238e+01    0.1727629   0.07678723  33.64 0.0008868155    1.926    0.481
       149  -9.4150    149.5827    198.7284   1.0116198934e+02   1.5221703354e+01    0.3143839    0.2274413  76.33  0.001202261    2.224    0.550
       150  -8.9114    124.0947    199.5646   1.0636586213e+02   1.8994200990e+01    0.2371047    0.1634883  68.33  0.001238663    1.802    0.445
       151  -9.3063    112.7407    198.4275   1.0856111949e+02   2.0856822770e+01    0.3507305    0.2000593  62.41  0.001496416    2.118    0.528
       152  -9.2754     88.6112    198.2111   1.1356712935e+02   2.4288752281e+01    0.3748043    0.2251773  84.77  0.001736331    2.142    0.533
       153  -9.2410    236.9611    198.5263   8.5623799444e+01   1.9942185548e+00    0.2161097    0.1443456 -25.76   0.00112821    1.647    0.393
       154  -8.6793    177.1838    199.1103   9.5949010419e+01   1.0858684628e+01    0.2014511    0.1364098  55.14 0.0006703808    1.883    0.469
       155  -8.0912    202.3059    197.9823   9.1266264035e+01   7.1245399096e+00    0.1550953    0.1295595  12.86 0.0005007823    1.132    0.117
       156  -9.1261     61.4281    197.1443   1.1919476266e+02   2.7933731624e+01    0.3466296    0.1455977  65.35  0.001531872    2.745    0.636
       157  -8.7376     12.7525    197.4445   1.2922836279e+02   3.2904449045e+01    0.2600496   0.09063207  70.42  0.001374996    2.534    0.605
       158  -8.8517    216.1189    195.7099   8.8549206652e+01   5.3029681263e+00    0.2443287    0.1893173 -53.68  0.001156703    2.363    0.577
       159  -8.2931     36.1431    196.7337   1.2444579275e+02   3.0811797010e+01    0.1980126   0.06346346  58.24 0.0008281601    2.717    0.632
       160  -8.9164    185.2110    195.0203   9.3858454543e+01   1.0131225842e+01    0.1965479    0.1865001  53.00 0.0006367275    1.438    0.304
       161  -8.3234    133.0276    196.0304   1.0411330318e+02   1.8194411318e+01    0.1838839    0.1284654  60.67 0.0005568883    1.612    0.380
       162  -9.4832    245.4796    193.4344   8.3476597491e+01   1.3072091414e+00      0.24631    0.2053755  46.95  0.001293698    1.871    0.465
       163  -9.1651    240.6827    191.7041   8.3928908959e+01   2.1498415312e+00     0.225027    0.1938081  42.80  0.001007411    1.715    0.417
       164  -8.3860    237.4256    188.5116   8.3904573171e+01   2.9397967446e+00    0.1883405    0.1337245  -4.50 0.0007822094    1.249    0.199
       165  -8.7012    224.5710    194.1435   8.6897719720e+01   4.2224258153e+00    0.2045979    0.1819928 -37.86  0.001285672    1.737    0.424
       166  -9.1736    160.9066    194.5193   9.8365326447e+01   1.4047298607e+01    0.2688115    0.1881863  55.86 0.0009866416    1.673    0.402
       167  -9.0225     43.8003    193.3410   1.2265731490e+02   3.0628697413e+01    0.4031414    0.1605283  63.61  0.002035678    2.455    0.593
       168  -8.2412    230.8632    194.1681   8.5883598293e+01   3.3031535909e+00    0.1609154    0.1338214  17.82 0.0006018853    1.235    0.191
       169  -8.7740     77.0469    193.6964   1.1560215380e+02   2.6613912664e+01    0.2371434    0.1663758  80.34 0.0008623746    1.487    0.328
       170  -8.3301    205.0136    192.5507   8.9937527223e+01   7.3487406985e+00    0.2280001    0.1143804 -21.57   0.00118433    2.466    0.595
       171  -8.3099    198.8877    191.8911   9.0906526779e+01   8.3786914062e+00    0.1814223    0.1557491 -19.34 0.0006004107    1.352    0.260
       172  -8.5521    172.3786    191.9594   9.5784696500e+01   1.2574358755e+01    0.2067668    0.1529536  53.59 0.0009371817    1.573    0.364
       173  -9.2247    139.5229    190.6404   1.0207745055e+02   1.8024826547e+01    0.3192968    0.2270221  77.34  0.001038132    2.144    0.534
       174  -7.9992    179.1740    191.4057   9.4419319392e+01   1.1561334101e+01    0.1602025    0.1327448  14.50 0.0005887525    1.126    0.112
       175 -10.4439     92.1467    188.6167   1.1185435551e+02   2.5494022064e+01    0.8752021    0.2764862  48.10  0.003656705    2.782    0.640
       176  -8.4643      6.4896    191.0054   1.3029572032e+02   3.4611855445e+01    0.1587807   0.05124008  66.20 0.0008099948    2.520    0.603
       177  -8.6752    148.6438    189.3569   1.0004802209e+02   1.6768684452e+01    0.1860805    0.1545442 -74.48 0.0007735342    1.661    0.398
       178  -8.8593    216.7849    188.0419   8.7185736326e+01   6.0633092482e+00    0.2190742    0.2133164 -48.30  0.000866167    1.658    0.397
       179  -7.7034    210.2964    189.6414   8.8553041768e+01   6.8756402804e+00    0.1013038   0.09422208  62.93 0.0004087051    1.703    0.413
       180  -8.7940    191.7529    187.7395   9.1519996666e+01   1.0026662337e+01    0.2624684    0.2008892  74.85  0.001152502    2.586    0.613
       181  -9.3099    155.9964    187.5930   9.8318156355e+01   1.5846969002e+01    0.2743869    0.1996938 -61.30 0.0008973475    1.944    0.486
       182  -8.9963    129.2611    188.6303   1.0392656740e+02   1.9962871268e+01    0.2501683    0.1725137  63.47 0.0009078378    1.701    0.412
       183  -9.7983    120.9181    186.8965   1.0545875698e+02   2.1549100544e+01    0.4293075    0.2604234 -81.63  0.002142194    2.772    0.639
       184  -8.8954     34.3182    188.3757   1.2438894966e+02   3.2547449520e+01    0.2945008    0.1183345  64.03  0.001161703    2.287    0.563
       185  -9.0592    165.1235    186.6785   9.6378766446e+01   1.4493306661e+01    0.3121749    0.2264612 -61.54  0.001234493    2.072    0.517
       186  -9.3369    109.7384    186.4270   1.0779546192e+02   2.3331864115e+01    0.3547162    0.2128143  65.51   0.00132107    2.048    0.512
       187  -9.1237    228.7305    186.3175   8.4922436705e+01   4.4488782961e+00    0.2788621    0.1819278  49.40 0.0009523905    2.012    0.503
       188  -8.9138    249.3088    185.5420   8.1571128290e+01   1.5448081425e+00    0.1994336    0.1684185 -16.97 0.0009309148    1.477    0.323
       189  -8.9286    210.2272    184.4255   8.7698192438e+01   7.5015613861e+00    0.1932618    0.1492204 -13.76 0.0005246103    1.315    0.240
       190  -9.0764    202.7693    184.6465   8.9037295016e+01   8.6551662341e+00    0.1958354    0.1866323   9.29 0.0007915915    1.364    0.267
       191  -8.8278    182.9250    184.8929   9.2689187970e+01   1.1829899378e+01    0.1856266    0.1812493  31.97 0.0005327328    1.338    0.253
       192  -8.9942    174.3919    183.4419   9.4074813106e+01   1.3432376337e+01    0.2763157    0.2175662 -60.17 0.0008851629    1.876    0.467
       193  -9.0272     66.7996    184.7548   1.1705157935e+02   2.9564990573e+01    0.3454469    0.1373846  51.53   0.00123892    2.162    0.537
       194  -8.5850    224.1828    183.5811   8.5200579624e+01   5.4364337423e+00    0.1942019    0.1466743 -14.33 0.0005751405    1.312    0.238
       195  -8.2784    197.0485    183.9638   8.9943492924e+01   9.6576297954e+00    0.1655652    0.1452946  60.59 0.0005775416    1.638    0.390
       196  -7.8866      1.8730    183.8404   1.3105052719e+02   3.6318678516e+01    0.1581173   0.08383724  53.97   0.00106142    1.363    0.267
       197  -9.8496    241.0716    181.2051   8.2086137119e+01   3.1657973719e+00    0.3299021     0.221167 -48.19  0.001887645    2.838    0.648
       198  -8.9080     26.9738    181.1667   1.2560208672e+02   3.4649332068e+01    0.4060219    0.1226968  59.76  0.001390419    2.972    0.664
       199  -8.8295     24.3046    176.9542   1.2598137046e+02   3.5723460500e+01    0.3135889    0.1146568  75.83  0.001472647    2.863    0.651
       200  -9.2166    147.5000    180.5088   9.8982070869e+01   1.8334572366e+01    0.2813364    0.2127507  68.33  0.001196903    1.727    0.421
       201  -9.1375     54.9382    187.2130   1.1985726114e+02   3.0527143297e+01    0.3764165    0.1435124  57.32  0.001792327    2.483    0.597
       202  -8.7392    137.5533    179.3989   1.0089652780e+02   2.0154380743e+01    0.2584972    0.1785883  68.82 0.0008494322    1.971    0.493
       203  -8.6726    218.0743    177.7337   8.5208553097e+01   7.0568752402e+00    0.2446431    0.2012767 -65.76  0.001301188    2.385    0.581
       204  -8.7442    205.0628    177.9517   8.7494223166e+01   9.1184615462e+00    0.2228739    0.1620975 -25.01 0.0008007606    1.471    0.320
       205  -9.4041    191.4277    178.2719   9.0010538190e+01   1.1318379430e+01    0.2269973    0.2189277 -13.63 0.0005511945    1.337    0.252
       206  -8.1421    169.6715    179.0945   9.4290691910e+01   1.4844013702e+01    0.1896823    0.1344236  75.55 0.0009398274    2.721    0.632
       207  -9.0290     36.0268    176.9831   1.2336294256e+02   3.4571041610e+01    0.4710755    0.1525655  68.84  0.001824694    4.062    0.754
       208  -9.6329    248.2833    176.4357   8.0143586994e+01   2.6057932375e+00    0.3528226    0.2261647 -35.73  0.002129994    1.969    0.492
       209  -8.6235    250.5188    172.8951   7.9175899561e+01   2.6430852923e+00    0.1796985    0.1393618 -15.71 0.0004478937    1.306    0.234
       210  -9.3861    230.5125    176.7272   8.2975482281e+01   5.2322441963e+00    0.2335195    0.2297291  11.29  0.001628149    1.599    0.375
       211  -8.8337    129.1735    177.5279   1.0241717034e+02   2.1837495121e+01    0.2965665     0.186532  62.99  0.001167967    1.998    0.499
       212  -9.4116    183.0396    176.1964   9.1227351536e+01   1.3005862317e+01    0.2229679    0.2147323  35.50 0.0006775327    1.294    0.227
       213 -10.8559    101.7349    175.7274   1.0825070733e+02   2.6461077449e+01    0.4324678    0.2570272  34.83   0.00234673    1.543    0.352
       214  -8.8045     89.1360    176.8990   1.1124881433e+02   2.8080201049e+01    0.2556682    0.1452354  61.43 0.0008586905    1.846    0.458
       215  -9.9775     57.2708    173.0858   1.1821488089e+02   3.2994462172e+01    0.7623397    0.2884343  70.74  0.002717339    4.604    0.783
       216  -8.9147     12.9347    176.8264   1.2847783496e+02   3.6761565739e+01    0.2756845   0.08335801  52.86   0.00138541    2.372    0.578
       217  -9.0453     44.3563    182.1699   1.2183291722e+02   3.2679203119e+01    0.3249616    0.1641906  70.22  0.001210044    1.911    0.477
       218  -7.7629    211.5146    176.5213   8.6117379651e+01   8.2503638919e+00    0.1234263   0.09856265  17.72 9.194655e-05    1.007    0.007
       219  -9.3066    158.5797    175.0817   9.5858096940e+01   1.7328332827e+01    0.3182126    0.2313289  69.05  0.000849837    2.017    0.504
       220 -10.7676     76.0586    170.7553   1.1359949134e+02   3.1078112592e+01     1.030183    0.4185548 -84.46  0.003685936    4.709    0.788
       221  -8.8922     78.8283    158.6892   1.1156732923e+02   3.3141146819e+01    0.3763726    0.1565633  26.45  0.001465486    3.254    0.693
       222  -8.3166    224.4982    174.8645   8.3628323198e+01   6.3781311696e+00    0.1626769    0.1084799 -24.04 0.0009347159    1.525    0.344
       223  -9.6655    175.7453    172.1834   9.1946691869e+01   1.4823772370e+01    0.2922532    0.2190088 -32.27 0.0008113509    1.505    0.335
       224  -9.1070    143.1143    172.6840   9.8698225343e+01   2.0344555873e+01    0.2456421    0.1927562  80.31 0.0009415444    1.747    0.428
       225  -8.8189    134.8743    172.1029   1.0038008363e+02   2.1830371123e+01    0.1990793    0.1596682  61.25 0.0008080342    1.333    0.250
       226  -9.6499    121.3616    170.6317   1.0314096267e+02   2.4322492087e+01       0.3265    0.2415797  87.89  0.001099202    1.780    0.438
       227  -9.1126     44.9541    171.0039   1.2091648544e+02   3.4819946369e+01    0.3511312     0.165755  70.43  0.001316991    2.190    0.543
       228  -8.7849    205.8685    170.3222   8.6003948823e+01   9.9532871265e+00    0.2322618    0.1709206 -45.42 0.0009154754    1.852    0.460
       229  -9.0051    198.4038    170.4587   8.7368722573e+01   1.1190121005e+01    0.2094315    0.1865393  -5.99 0.0006845036    1.195    0.163
       230  -8.4792    237.0172    169.7987   8.0692300551e+01   4.9996697919e+00    0.1952026    0.1489467  -9.90 0.0006026626    1.203    0.169
       231  -8.9861    230.0325    169.3430   8.1726409769e+01   6.1410965978e+00    0.3320614    0.1540369 -36.01  0.001701075    2.404    0.584
       232  -9.2848    167.1112    168.7244   9.3065365851e+01   1.6841841354e+01    0.3163502    0.2293668  67.26 0.0008183898    2.035    0.509
       233  -8.6845    149.9471    169.4421   9.6729578953e+01   1.9713604436e+01     0.244883    0.1871442 -62.54 0.0008452244    1.714    0.417
       234  -8.3360    244.3966    169.2762   7.9449171108e+01   3.9305347713e+00    0.1439252   0.09913616 -26.53 0.0004031105    1.515    0.340
       235  -8.4568    218.8901    168.4357   8.3405843888e+01   8.0375250415e+00    0.1975806    0.1630596 -35.78 0.0006033116    1.546    0.353
       236  -8.9385    111.8794    167.6521   1.0486427686e+02   2.6399757838e+01     0.340697    0.1962834  67.38  0.001320591    2.460    0.593
       237  -8.5046     88.7749    168.7177   1.1038037180e+02   2.9709588592e+01    0.2375517    0.1438844  74.60 0.0009784036    2.030    0.508
       238  -7.9114    211.3930    168.2265   8.4653648639e+01   9.2989916861e+00    0.1556164    0.1122565 -38.15 0.0006106087    1.683    0.406
       239  -8.9662    191.9311    166.8961   8.7919925609e+01   1.2781619068e+01    0.2571021    0.1786586 -42.09 0.0007473659    1.744    0.426
       240  -8.3756     13.5100    167.9926   1.2800006621e+02   3.8464532808e+01    0.1664137   0.06066451  67.86 0.0008090337    2.443    0.591
       241  -9.0084    184.9663    166.5125   8.9166554983e+01   1.4046967732e+01    0.2131141    0.1826354 -56.09 0.0007730804    1.610    0.379
       242 -10.1351     95.0535    162.5383   1.0811013021e+02   3.0002757286e+01    0.8069991    0.4741209  85.49  0.002940672    2.498    0.600
       243  -9.0577     20.2600    165.9617   1.2635654292e+02   3.8293462755e+01    0.3029694    0.1110722  61.90  0.001313196    2.390    0.582
       244 -10.0353    136.7941    164.3764   9.8743023343e+01   2.2849851971e+01    0.5937821    0.2999058  55.21   0.00208879    2.386    0.581
       245  -7.8367    250.5478    165.4725   7.7820234328e+01   3.4099774470e+00    0.1172005   0.09135374   6.18 0.0001446084    1.037    0.036
       246  -8.1974    233.9036    164.9230   8.0288578572e+01   6.0342968159e+00    0.1957895    0.1437761 -22.44 0.0006078027    1.371    0.270
       247  -8.7630    159.5291    164.4662   9.3880662965e+01   1.8848607694e+01    0.2495793    0.2086803  89.93 0.0008710069    1.704    0.413
       248  -9.4518     33.3483    163.3363   1.2312069056e+02   3.7601919694e+01     0.508803    0.1426391  53.55  0.002123147    3.094    0.677
       249  -8.1789    240.0359    164.0575   7.9160428821e+01   5.1680759358e+00    0.1571505    0.1484202 -44.00  0.000613497    1.679    0.404
       250  -8.6175    213.0668    163.6808   8.3523046693e+01   9.5931793931e+00    0.1922815    0.1616639 -26.83  0.000554058    1.358    0.264
       251  -8.8401    246.2269    162.9861   7.8008704931e+01   4.3291622620e+00     0.245321     0.151291 -18.44 0.0008511174    1.488    0.328
       252  -8.7547    243.4778    159.4920   7.7769979229e+01   5.1374448431e+00    0.3296471    0.1459607  19.60 0.0006091443    3.368    0.703
       253  -8.7084    204.8517    163.0482   8.4850279868e+01   1.1073263092e+01    0.1745559    0.1638204  14.32 0.0004295452    1.252    0.201
       254  -9.3378      3.3821    162.3614   1.3010452313e+02   4.0407145264e+01    0.3814251     0.115737  49.52  0.001825942    2.323    0.569
       255  -8.9601    177.5925    160.7792   8.9555598746e+01   1.6198518623e+01    0.2779709    0.2326755  80.54  0.001037101    1.795    0.443
       256  -7.3654    222.2922    161.6911   8.1579105660e+01   8.2984743974e+00    0.1035561    0.1010757 -68.58 0.0002766993    1.583    0.368
       257  -8.7736    151.5197    160.9151   9.4952851020e+01   2.0860405075e+01    0.2419673    0.1960953  65.93 0.0007662426    1.481    0.325
       258  -8.7497     60.6793    160.3407   1.1622719562e+02   3.5183673001e+01    0.3253866    0.1635747  66.86  0.001157257    2.189    0.543
       259  -8.4983    227.2710    159.1210   8.0266922637e+01   7.7860712955e+00    0.2047365    0.1582856 -38.77 0.0008981167    1.651    0.394
       260  -9.6588    250.1809    157.8947   7.6454885300e+01   4.2731326827e+00    0.2520083    0.1442383 -25.31 0.0007515313    1.634    0.388
       261  -8.4888    236.9937    159.0477   7.8692052181e+01   6.2138869223e+00    0.1612699    0.1516131 -48.66 0.0006821325    1.663    0.399
       262  -9.0906    167.7812    157.4124   9.0909245528e+01   1.8498499228e+01    0.3156796    0.2399134  84.59  0.001272531    2.243    0.554
       263  -8.4991    128.1204    158.9240   9.9804723406e+01   2.5330338947e+01    0.2762507    0.1810367  71.75 0.0009282841    2.217    0.549
       264  -9.8442    105.5808    157.8126   1.0492298817e+02   2.9300980295e+01    0.4647826    0.2832314  66.63   0.00163692    2.048    0.512
       265  -8.5979    196.5213    157.8934   8.5391560720e+01   1.3231141643e+01    0.2196614    0.1995118  63.52 0.0008608678    1.488    0.328
       266  -8.4286    188.0101    157.7831   8.6970839230e+01   1.4769950392e+01     0.213018    0.1651068 -48.29  0.000626832    1.653    0.395
       267  -8.9028    217.6339    156.6165   8.1395004977e+01   9.7139900309e+00     0.214425    0.1949509  -9.11 0.0008119878    1.247    0.198
       268  -9.2171    157.5983    156.1660   9.2806835046e+01   2.0561708826e+01    0.2907351    0.2239702 -68.29  0.001515568    1.822    0.451
       269  -9.4403    119.5727    155.4338   1.0122298685e+02   2.7452044220e+01    0.3744163     0.250789  81.46  0.001402541    2.216    0.549
       270  -8.4204    204.2017    155.2898   8.3488867687e+01   1.2226891108e+01     0.202081    0.1691799 -63.05  0.001029642    1.874    0.466
       271  -8.8461    144.6896    155.1245   9.5420556292e+01   2.3088499554e+01    0.3025585    0.2276884  71.96 0.0009910199    1.762    0.432
       272  -9.5266     81.7414    154.8859   1.1037078395e+02   3.3519279010e+01    0.4545775    0.2287965  62.49  0.001398612    2.394    0.582
       273  -9.3581     49.5244    155.2490   1.1851974455e+02   3.7582850643e+01     0.372064    0.1720372  59.88  0.001646893    2.120    0.528
       274  -8.6453    242.9571    154.9916   7.6988316049e+01   5.7226526256e+00    0.1491923     0.131976 -12.18 0.0003464691    1.309    0.236
       275  -7.8835    239.7478    153.3428   7.7162749260e+01   6.4253027063e+00    0.1702123    0.1111169  47.63 0.0002346716    1.779    0.438
       276  -9.1023    133.4860    148.4936   9.6774383034e+01   2.6326401173e+01    0.2647234    0.2431463 -39.11  0.001606837    1.220    0.180
       277  -9.6827     67.9224    153.6596   1.1370501621e+02   3.5671287663e+01     0.435199    0.2283005  67.89  0.001408036    2.215    0.549
       278  -8.0863    232.9886    154.0323   7.8360149832e+01   7.4495617676e+00    0.1652054    0.1509256 -48.22 0.0005112195    1.639    0.390
       279  -8.4848    151.6090    152.3591   9.3397050540e+01   2.2309875681e+01    0.2356489    0.1689898 -56.78 0.0007148745    1.725    0.420
       280 -10.2616    149.0113    145.1068   9.2600718986e+01   2.4073682417e+01    0.5376334    0.3769888  87.97  0.001640803    2.549    0.608
       281  -8.8959    150.8280    136.2849   9.0434106093e+01   2.5317342211e+01    0.5336552    0.3234951   8.39  0.001962941    3.429    0.708
       282 -10.5007     54.5668    143.8948   1.1608982129e+02   3.9464105672e+01    0.9023624    0.3995605  74.31  0.003266538    3.258    0.693
       283  -9.0982     20.1334    152.8295   1.2569397073e+02   4.1042311896e+01    0.1856767    0.1194983  61.70 0.0005512009    1.259    0.206
       284  -8.0260    182.4912    151.4977   8.6828660219e+01   1.6714686835e+01    0.2086773    0.1254266 -49.09 0.0007582965    2.155    0.536
       285  -9.6462     29.4400    150.7833   1.2323584574e+02   4.0637370036e+01     0.441069    0.1557472  61.61  0.001899575    2.876    0.652
       286  -8.6695      2.9106    150.7266   1.2982028290e+02   4.2846652075e+01    0.2901282     0.125976 -85.75  0.001598582    1.988    0.497
       287  -9.6257    248.8629    149.5569   7.5040039619e+01   5.3926109400e+00    0.3190583    0.1630709 -25.44 0.0008594082    1.800    0.444
       288  -9.0788    247.0033    143.8785   7.4189240236e+01   6.3306341704e+00    0.2449324    0.1508083 -17.67 0.0005265137    1.468    0.319
       289  -8.2337    250.4738    140.9836   7.3096006293e+01   6.0948011908e+00    0.1760318    0.1378928  -5.25 0.0005609217    1.064    0.060
       290  -9.1428    243.1563    149.7892   7.5943192037e+01   6.2809203827e+00    0.2517764     0.155027 -27.89  0.001221571    1.570    0.363
       291 -10.2745    241.2665    137.5924   7.3769794873e+01   8.0156167710e+00    0.3584093     0.283722 -64.49  0.002055575    2.305    0.566
       292  -8.9075    189.3906    150.1783   8.5232609899e+01   1.5635252236e+01    0.2876616     0.208308 -55.20 0.0008409452    1.975    0.494
       293  -8.2781    162.8021    150.8386   9.0708827790e+01   2.0490542804e+01    0.1789704    0.1584048  67.81 0.0006981245    1.358    0.264
       294  -8.8741     98.2648    150.6669   1.0565161894e+02   3.1905858968e+01    0.2851401    0.1907731  69.80  0.000873854    1.719    0.418
       295  -9.7396    132.7556    152.8944   9.7723017562e+01   2.5635578218e+01    0.4526292    0.3212457  77.44  0.001295528    2.017    0.504
       296  -8.1111    212.8189    149.8028   8.0884342564e+01   1.1435318186e+01    0.1566888    0.1487827  31.08 0.0003786702    1.308    0.236
       297  -9.9808     39.6222    147.3751   1.2036010373e+02   4.0365897733e+01    0.5858605    0.2703091  73.00  0.002203411    2.363    0.577
       298  -8.3660    198.7994    149.0666   8.3245259146e+01   1.4064479016e+01    0.1804298    0.1768047  -5.85 0.0005226061    1.279    0.218
       299 -10.1559     89.1408    145.2345   1.0715994188e+02   3.4460247869e+01    0.8390402    0.4306598 -76.04  0.003632353    2.581    0.613
       300  -8.9071    233.7191    147.1597   7.6885836585e+01   8.1488160442e+00    0.3078165    0.1456686 -19.16  0.001148675    2.274    0.560
       301  -8.8689     78.0061    146.8770   1.1027701468e+02   3.5748139722e+01    0.3038109    0.1691527  88.05  0.001157483    2.418    0.586
       302  -9.0456     57.4679    135.4858   1.1433813055e+02   4.0994692389e+01    0.2994685    0.1276911  28.90  0.001293295    2.549    0.608
       303  -8.3898    223.1822    146.8858   7.8538927423e+01   9.9902127888e+00     0.178321    0.1627859  -0.30   0.00043986    1.203    0.169
       304  -7.9713    206.7697    146.7294   8.1330327528e+01   1.2936306940e+01    0.1591679    0.1527406  42.32 0.0006673667    1.323    0.244
       305  -9.8325    139.0620    145.1503   9.4867354326e+01   2.5928803306e+01    0.4266956    0.2997307 -81.44  0.001239978    2.243    0.554
       306  -9.3675    139.8740    137.4305   9.3183949074e+01   2.7223989619e+01    0.4314665    0.2688005  14.61  0.001762473    2.686    0.628
       307 -10.4241    106.6087    144.0253   1.0250960653e+02   3.1914336878e+01    0.7398481    0.4620737  84.20  0.002173357    2.497    0.600
       308  -9.3101     13.5275    146.4147   1.2700339194e+02   4.2966277280e+01    0.3443004    0.1215993  53.59  0.001309867    2.316    0.568
       309  -8.2532    175.4940    146.1714   8.7169616982e+01   1.8858913094e+01    0.2085729    0.1789109  58.37 0.0007459917    1.358    0.264
       310  -8.8887    165.5018    144.1831   8.8837131853e+01   2.1092462762e+01    0.2434535    0.2065195  54.37 0.0006764791    1.269    0.212
       311 -10.0252    125.0711    142.2634   9.7637165372e+01   2.9047673621e+01     0.615361     0.403069 -76.83  0.002025174    2.264    0.558
       312 -10.9023     69.0324    141.3143   1.1191486360e+02   3.8201411860e+01    0.6507683     0.427086  88.77    0.0029976    1.625    0.385
       313  -9.3981      2.5409    141.5346   1.2957122389e+02   4.4831064967e+01    0.4078752    0.1492817  71.10  0.001748453    2.397    0.583
       314  -8.2858    182.0279    141.9896   8.5010511167e+01   1.8271061940e+01    0.1959509    0.1703786  89.00 0.0005516927    1.642    0.391
       315  -9.1816    242.6692    143.3197   7.4726861581e+01   7.1068314224e+00    0.2986099      0.16859 -14.09  0.001603394    1.746    0.427
       316  -9.9555     23.4306    138.2581   1.2393201210e+02   4.3932953775e+01    0.5268233    0.1904311  61.50  0.002261584    2.761    0.638
       317  -7.9439    218.5737    138.7760   7.7642886795e+01   1.1861276411e+01     0.164848     0.116927 -34.92  0.000508872    1.511    0.338
       318  -8.6400    172.1935    138.4182   8.6259309656e+01   2.0754954099e+01    0.2573933    0.2069651 -83.43 0.0006921198    1.899    0.473
       319  -8.2739    207.6779    138.1177   7.9387580659e+01   1.3962271742e+01    0.1947564    0.1612184 -45.63 0.0007060748    1.512    0.339
       320  -8.6995    197.4981    137.5705   8.1117487108e+01   1.5969585831e+01    0.2332784    0.2142901 -49.78 0.0007828081    1.375    0.273
       321 -10.3635     83.4164    132.8727   1.0679132400e+02   3.8019980055e+01    0.5166846    0.3191941 -78.27  0.001283046    1.852    0.460
       322  -8.8871     84.8339    123.1898   1.0477543689e+02   3.9974640848e+01    0.4809397    0.3223584   8.79  0.002150057    2.481    0.597
       323  -8.4419    246.8838    130.3649   7.1429697954e+01   7.9138022762e+00     0.202933    0.1475866 -26.26 0.0005387717    1.315    0.240
       324  -8.9987    248.3448    135.3577   7.2257307791e+01   7.0867344512e+00    0.2601567    0.1727853 -23.44 0.0006914287    1.364    0.267
       325  -9.1056    250.6386    129.8843   7.0788110433e+01   7.3346601650e+00    0.4501405    0.1055114 -28.07  0.001367684    3.908    0.744
       326  -7.6227    192.2801    136.3297   8.1832885223e+01   1.7160522626e+01    0.1391355   0.09848131   8.53 0.0004941229    1.602    0.376
       327  -8.1024    187.6274    135.8083   8.2614299492e+01   1.8146812394e+01    0.1777463    0.1265965 -42.78 0.0003731266    1.584    0.369
       328  -8.5559    162.6194    136.2231   8.7820979811e+01   2.3010021369e+01    0.2032665    0.1772113 -63.62 0.0009405002    1.407    0.289
       329  -9.0615     39.0680    136.1907   1.1950737137e+02   4.2913174013e+01    0.2424454    0.1368202  53.23 0.0008705141    1.589    0.371
       330  -8.5234    237.5369    133.6226   7.3510227966e+01   9.1349546859e+00    0.2136536    0.1025328 -37.75  0.001015286    2.231    0.552
       331  -8.0270    231.3848    133.7826   7.4500374916e+01   1.0198891795e+01    0.1742447    0.1089531 -14.03 0.0003543176    1.571    0.364
       332  -8.5793    179.5770    133.8565   8.3784603308e+01   2.0042362949e+01    0.2420347    0.2062369 -71.08 0.0007206217    1.613    0.380
       333  -9.4169    112.8550    133.2896   9.9019423991e+01   3.3060386942e+01    0.3459153    0.2320142  71.42 0.0009875107    1.945    0.486
       334  -9.1619    143.0965    131.7701   9.1273706873e+01   2.7670366423e+01    0.2983759    0.2373844 -83.08 0.0008549738    1.680    0.405
       335 -10.1239    132.2691    131.4199   9.3786748080e+01   2.9841443727e+01    0.5688893    0.4159415 -84.73   0.00180355    1.959    0.490
       336 -10.9686    130.8251    118.7584   9.1435679411e+01   3.2651920445e+01    0.8447162    0.5261289 -86.15  0.002968004    3.615    0.723
       337 -10.5409    133.4581    109.8356   8.8696623757e+01   3.3916519823e+01    0.7206693     0.370251 -42.59  0.002203961    2.052    0.513
       338 -10.3660     98.1901    130.1688   1.0231060098e+02   3.6260388406e+01    0.6151703     0.346876 -63.27  0.001620156    1.933    0.483
       339  -9.1191     98.8159    120.9721   1.0041653011e+02   3.8172314033e+01    0.6298459     0.363065  13.88  0.002175171    3.889    0.743
       340  -9.6579    152.9141    128.5255   8.8320341953e+01   2.6318875180e+01    0.5840507    0.3089051 -44.64  0.002467446    2.037    0.509
       341 -10.0431     73.1875    129.3194   1.0908934765e+02   4.0317411044e+01    0.4227577    0.2521479  88.75  0.001090413    2.066    0.516
       342 -10.5763     60.1339    125.4755   1.1227969000e+02   4.2954627358e+01    0.7529882    0.3619668  70.80   0.00295277    3.023    0.669
       343  -9.9238     12.7747    129.4290   1.2626511359e+02   4.6775468983e+01    0.4535304    0.1940695  64.48  0.001993588    2.137    0.532
       344  -8.1286      2.1324    130.7338   1.2924006024e+02   4.7221274755e+01    0.2204253   0.06497251  57.58 0.0009605217    2.883    0.653
       345  -8.0025    220.6032    129.8735   7.5405198679e+01   1.2669529099e+01    0.1790281    0.1145426 -37.39 0.0009378931    1.664    0.399
       346  -7.8817    204.5364    130.5137   7.8312554434e+01   1.5639352640e+01    0.1328888    0.1227249   8.30  0.000141305    1.094    0.086
       347  -8.1962    192.5411    130.1131   8.0435480732e+01   1.8053373440e+01    0.1963738     0.131938 -32.93 0.0008461683    1.523    0.344
       348  -9.3379    168.3904    129.5202   8.5148489761e+01   2.3008655050e+01    0.2719938    0.2344177 -78.92  0.000510742    1.539    0.350
       349  -8.1540    211.6474    129.3366   7.6803239147e+01   1.4435679978e+01    0.1877394     0.160672 -66.53 0.0006890305    1.713    0.416
       350 -10.7475     44.7732    123.5126   1.1654124985e+02   4.5225881557e+01     1.101421    0.4539735  70.82  0.003967644    3.734    0.732
       351 -10.3120    118.2100    124.9335   9.5992132751e+01   3.3825807799e+01    0.6330827    0.4668162 -76.54  0.002007128    1.681    0.405
       352  -9.0860    240.3868    145.2406   7.5461559164e+01   7.2610089498e+00    0.2027113    0.1349249 -27.34  0.000523398    1.460    0.315
       353  -8.9355    179.2072    124.8034   8.1857320942e+01   2.1589158849e+01    0.2615324    0.2379043  82.46 0.0008033082    1.387    0.279
       354 -10.1392     28.7169    122.7407   1.2120293612e+02   4.7002984311e+01    0.7275102    0.2661687  68.19  0.002730787    3.572    0.720
       355  -8.7057     27.1472    113.6521   1.2081340773e+02   4.9276330664e+01    0.2142884    0.1608247  19.89  0.001305261    1.609    0.379
       356  -8.1818    188.4600    124.1957   7.9892405837e+01   1.9791092886e+01    0.1865136    0.1303853 -45.71 0.0006719847    1.641    0.390
       357  -9.0545    158.5225    121.6322   8.5521328810e+01   2.6423207529e+01     0.311987    0.2447797 -74.87 0.0007635835    1.769    0.435
       358  -8.7415    171.9723    121.5210   8.2592953497e+01   2.3636469656e+01    0.2485706    0.1955974 -54.19 0.0004507859    1.520    0.342
       359  -9.9424     71.1609    119.8749   1.0818967211e+02   4.2774074334e+01    0.3939027    0.2302492 -85.78    0.0012711    2.079    0.519
       360 -10.1511    141.6081    118.6044   8.8744991302e+01   3.0495042522e+01    0.4520404    0.3153207 -67.82  0.001210986    1.951    0.487
       361  -9.6873      3.1415    117.6115   1.2834426347e+02   5.0113962592e+01    0.4485033    0.1559069  62.59  0.001954805    2.667    0.625
       362 -10.2896    109.3094    114.4654   9.6160432523e+01   3.7719185876e+01    0.8075094    0.3773744 -58.01   0.00313328    2.414    0.586
       363 -10.9810    109.2538     99.0774   9.2593492140e+01   4.1090095087e+01     1.038725    0.6304266  74.24  0.001598137    2.936    0.659
       364  -9.0463     59.2881    115.4162   1.1106644219e+02   4.5418091316e+01    0.4339387    0.2835248   1.76  0.001996044    2.617    0.618
       365  -7.6501    219.3029    116.6623   7.2672137954e+01   1.4701079804e+01    0.1285454     0.105185 -57.75 0.0002878874    1.669    0.401
       366  -8.5350    193.0075    115.4320   7.6992823993e+01   2.0219484443e+01    0.2533626    0.1870659 -46.50 0.0005527904    1.551    0.355
       367  -7.8426    185.4766    116.2407   7.8625948156e+01   2.1673748852e+01    0.1853154    0.1339209 -44.93 0.0004140467    1.535    0.349
       368  -7.9139    194.9880    122.1936   7.8196135765e+01   1.8770516982e+01    0.1910787    0.1468145 -50.68 0.0004296658    1.603    0.376
       369 -10.0093     78.8494    112.4985   1.0459015260e+02   4.3357066421e+01    0.5461777    0.3349591  76.57   0.00185824    2.214    0.548
       370  -8.7687     78.0261    105.7040   1.0352518496e+02   4.5071678613e+01    0.3623219     0.226593 -32.19   0.00129016    2.371    0.578
       371  -8.1618    167.3827    114.2115   8.1842237382e+01   2.5869308920e+01     0.195577    0.1360764 -47.66 0.0004129609    1.592    0.372
       372 -10.2094     92.7150    112.4028   1.0044164119e+02   4.1136870331e+01    0.5992482    0.3504309 -75.55  0.001377419    2.272    0.560
       373  -9.1789     93.3154    104.6791   9.8614922236e+01   4.2790576850e+01    0.3449656    0.2468709  11.87  0.001580468    2.054    0.513
       374  -8.5693    175.0994    112.3124   7.9763310622e+01   2.4535092961e+01    0.2695364    0.2202477 -84.54 0.0009708344    1.715    0.417
       375 -10.3393    122.1950    112.1949   9.2168668547e+01   3.5722840068e+01    0.4673993    0.3126502 -55.52  0.001285945    1.607    0.378
       376  -9.0770    107.8379     92.6528   9.1363095940e+01   4.2775560502e+01    0.5643358    0.2971599  27.65  0.002025377    2.858    0.650
       377  -8.6375    159.1270    111.8247   8.3069533949e+01   2.8071967867e+01    0.2435579    0.2107225 -39.17 0.0004777597    1.205    0.170
       378 -10.2848     66.3069    109.9066   1.0798552938e+02   4.5792730625e+01    0.5730925    0.3089274 -70.83  0.001958282    1.891    0.471
       379  -9.8612     14.1339    111.1479   1.2463062482e+02   5.0891582418e+01    0.4124934    0.1842202  61.34  0.001469996    2.159    0.537
       380  -8.0594    149.7772    110.0432   8.4772065370e+01   3.0417759469e+01    0.1935318    0.1224973 -42.10 0.0004858434    1.644    0.392
       381 -11.2354    248.7353    105.3409   6.5704179578e+01   1.0564099542e+01    0.7892353    0.2899218 -26.59  0.003340849    2.426    0.588
       382  -9.2421     43.6305    109.2961   1.1509701536e+02   4.8719482110e+01    0.2929193    0.1948991   8.01  0.001505454    2.142    0.533
       383  -8.0314    189.4360    108.0099   7.5875651569e+01   2.2141520538e+01    0.2125711    0.1368013 -33.23 0.0004745036    1.548    0.354
       384  -9.5908    139.8809    104.4543   8.5760979338e+01   3.3628612573e+01    0.4249153      0.29982 -62.30 0.0008935063    1.746    0.427
       385 -10.6226     45.4812    102.3208   1.1349064966e+02   5.0201120169e+01    0.7972581    0.3698155  66.19  0.003127916    2.999    0.667
       386  -9.3260     45.6211     92.7735   1.1190701759e+02   5.2509970882e+01    0.4411847    0.2608511   5.75  0.001981307    2.701    0.630
       387 -10.6119     22.9407    102.8821   1.2107113576e+02   5.2197193371e+01    0.7520883    0.3105637  66.49   0.00278614    2.842    0.648
       388  -8.6692    166.6586    104.2549   7.9532510687e+01   2.7774130732e+01    0.2410755    0.2204895 -69.22 0.0005866443    1.266    0.210
       389  -9.7005    150.4996    103.1909   8.2883835626e+01   3.1554231142e+01    0.3965666    0.2618121 -55.86  0.001121037    1.814    0.449
       390  -8.9048      6.9167    103.2871   1.2633580586e+02   5.3215150581e+01    0.2809202    0.1566083  64.49  0.001136311    1.635    0.388
       391 -10.3005    128.7721    101.3446   8.7798257264e+01   3.6626251947e+01    0.5700663    0.3602553 -40.89  0.001563455    1.662    0.398
       392  -9.4866    217.2377    101.7661   6.9491904188e+01   1.7169145897e+01    0.2391252    0.2174576 -12.18 0.0002353338    1.056    0.053
       393  -7.9508    175.4548    102.2636   7.7183083987e+01   2.6155264908e+01     0.198449    0.1378015 -46.23 0.0005051674    1.565    0.361
       394  -8.3675    159.8465    101.1382   8.0219062996e+01   2.9852150432e+01    0.2258605     0.200043 -73.75 0.0005607364    1.332    0.249
       395  -9.4106     82.0167     99.9410   1.0106078978e+02   4.5789825899e+01    0.4079149    0.2728614  82.34  0.001037745    1.981    0.495
       396 -10.4256     64.0805     94.7624   1.0586514342e+02   4.9723316385e+01    0.9737433    0.4479001 -62.91  0.003021336    2.065    0.516
       397  -9.3663     95.0302     97.0945   9.6339529887e+01   4.4213653982e+01    0.3400229    0.2474317 -80.16 0.0005861247    1.655    0.396
       398 -10.7770    123.7552     91.3947   8.6510151934e+01   3.9748683646e+01    0.7071488    0.5898313 -21.60  0.002323771    1.379    0.275
       399  -8.5961    150.8164     95.8165   8.0872178860e+01   3.2869742622e+01    0.2678587    0.1691316   9.68 0.0009583037    2.962    0.662
       400  -7.6927    182.7542    109.6427   7.7569352342e+01   2.3323960608e+01    0.1457178    0.1080141   3.02 0.0004802387    1.597    0.374
       401  -8.0685    164.7159     94.1629   7.7304255453e+01   2.9990524941e+01     0.233108    0.1795833 -54.18 0.0004770801    1.473    0.321
       402  -8.2941    176.2251     93.2114   7.4654840159e+01   2.7501038376e+01    0.2029018    0.1743553 -64.06 0.0004897557    1.374    0.272
       403  -9.3085    138.9956     92.3145   8.2780030242e+01   3.6209908022e+01    0.3706975      0.27908 -73.23 0.0008260536    1.753    0.430
       404  -9.3156    140.8845     82.6678   7.9568424426e+01   3.7645057774e+01    0.4941971    0.2188976 -41.95  0.001232504    2.275    0.560
       405  -9.4979      5.4323     92.2616   1.2603263093e+02   5.5918332868e+01    0.3849252    0.1495055  52.02  0.001251395    2.525    0.604
       406  -8.3067    157.8064     91.6067   7.8125657694e+01   3.2042882083e+01    0.2492117    0.1768863 -42.56 0.0005610517    1.443    0.307
       407  -9.7057     34.8566     90.0271   1.1531604816e+02   5.4288978165e+01    0.5089334    0.2608028  81.39  0.001670023    2.381    0.580
       408  -9.0945     22.9055     90.4465   1.1968630424e+02   5.5212298471e+01    0.2976683    0.2476561 -28.78  0.001696451    1.488    0.328
       409  -8.4390    150.9733     89.0374   7.8973402186e+01   3.4098036572e+01    0.2363065    0.1863973 -74.72 0.0005840887    1.634    0.388
       410 -10.2104     86.4216     86.0331   9.6316090435e+01   4.8282512666e+01    0.6250994    0.3986994 -65.93   0.00135555    1.720    0.419
       411  -8.4246     91.0046     79.0000   9.2888716001e+01   4.9059658045e+01    0.3155505    0.2209353  37.33  0.001504586    1.499    0.333
       412  -7.6817    164.0447     87.5022   7.5618138195e+01   3.1315779196e+01    0.2208259    0.1482029  51.91 0.0004084923    1.485    0.327
       413  -9.8851     48.4456     83.8814   1.0924413776e+02   5.4363934897e+01    0.6099324    0.3513958 -87.41  0.002019514    2.074    0.518
       414  -9.9387    104.8675     83.2208   8.9678771788e+01   4.5432505761e+01     0.524692    0.3472162 -72.44  0.001119918    2.080    0.519
       415  -8.7056    106.4711     76.5459   8.7231584679e+01   4.6546397942e+01    0.3403658    0.1905587  37.91  0.001388809    1.932    0.482
       416  -8.2614    157.8718     84.0867   7.5997390873e+01   3.3378803920e+01    0.2274384    0.2040924 -63.75  0.000434931    1.229    0.186
       417  -9.2008    119.4501     80.1651   8.4498823433e+01   4.3007889557e+01    0.4805814    0.2616535 -56.65  0.001252717    2.244    0.554
       418  -9.6914     24.4076     80.3605   1.1778718721e+02   5.7564504509e+01    0.4701519    0.2274125  76.95  0.001501756    2.538    0.606
       419  -9.6053      9.8500     81.1135   1.2345250624e+02   5.8358605485e+01    0.3156808    0.1563088  55.47  0.001057955    2.086    0.521
       420  -8.4103    150.2963     80.6709   7.6723791196e+01   3.5798388247e+01    0.2791927    0.1805904 -50.05 0.0006794611    1.692    0.409
       421  -8.8812     74.5350     80.4152   9.8923218458e+01   5.1588401015e+01    0.3290596    0.2230476 -79.98 0.0009797523    1.808    0.447
       422  -8.2140    166.7163     79.9482   7.2901422458e+01   3.1981292538e+01    0.2126306    0.1899097 -27.37 0.0004529885    1.118    0.106
       423  -7.6386    184.4015     78.4964   6.9028283859e+01   2.7963521810e+01    0.1475743    0.1406876 -18.57 0.0001872521    1.026    0.025
       424  -7.6007    174.6900     78.3342   7.0824814394e+01   3.0324485875e+01    0.1551152    0.1178398 -67.04 0.0007043246    1.677    0.404
       425 -10.0330     63.5340     74.1830   1.0133763195e+02   5.4744115526e+01    0.6446326    0.3194281 -73.96  0.002392421    2.881    0.653
       426  -7.7162    157.2953     76.6438   7.3943507268e+01   3.4833712347e+01    0.1590306    0.1200783 -68.67 0.0007032765    1.695    0.410
       427  -8.7378    140.4439     75.5876   7.7551832219e+01   3.9089055649e+01     0.273685    0.2115352 -58.73 0.0006518572    1.460    0.315
       428  -9.4504    127.9980     74.9032   8.0541852908e+01   4.2142945074e+01    0.5306066    0.2895448 -44.56  0.001602762    1.853    0.460
       429  -9.7292     82.3772     72.8870   9.4070604897e+01   5.2012148793e+01    0.4380168    0.2949384 -75.89  0.001006109    1.938    0.484
       430  -7.7995    175.5611     72.8059   6.9046457139e+01   3.1005904385e+01    0.2083454    0.1377638 -43.29 0.0004687379    1.544    0.352
       431  -8.2083    163.3754     73.2164   7.1609179516e+01   3.3935655331e+01    0.2245642    0.1361415 -44.22 0.0009421158    1.704    0.413
       432  -7.9401    151.4949     73.4988   7.4289284644e+01   3.6802138988e+01    0.1540758    0.1494982 -76.08 -3.748081e-06    1.078    0.072
       433  -8.3346     42.3424     72.4334   1.0924714939e+02   5.7849890569e+01    0.2428481    0.1517988 -89.33 0.0009463236    1.844    0.458
       434  -9.1883    105.7729     71.6812   8.5943970840e+01   4.7726627897e+01    0.2931308    0.2365629 -67.97 0.0007046586    1.391    0.281
       435  -9.4648     51.4833     69.8138   1.0494416301e+02   5.7420321409e+01    0.4876634    0.2598135 -81.50  0.001570188    2.628    0.619
       436  -9.1566     29.6939     70.1823   1.1399452901e+02   5.9631555472e+01     0.500958    0.2377912 -25.15  0.001874383    3.968    0.748
       437  -7.6380    170.5100     71.5155   6.9646789362e+01   3.2457663601e+01    0.1504095    0.1483135 -37.90 5.019714e-05    1.036    0.035
       438  -9.0415     16.5183     70.0138   1.1946090742e+02   6.0663771894e+01    0.3036993    0.1723818  73.59  0.001007814    1.904    0.475
       439  -8.7450    147.0352     68.4768   7.3747817719e+01   3.8788931557e+01    0.2840559    0.2071113 -50.76 0.0004770191    1.471    0.320
       440  -9.2929    138.5020     66.4118   7.5128202980e+01   4.1255493214e+01    0.3605803    0.2316794 -53.05 0.0008394112    1.769    0.435
       441  -9.9794    120.0756     64.9786   7.9519303226e+01   4.5920845321e+01    0.4479949    0.3435677 -89.37  0.001711337    1.745    0.427
       442  -9.4188     95.0524     71.0307   8.9174431831e+01   5.0054745049e+01     0.420243    0.2308904 -56.00 0.0008955757    1.967    0.492
       443  -8.9511     64.4622     63.9770   9.8141958819e+01   5.7012907570e+01    0.5201022     0.320417 -16.78  0.002040176    2.995    0.666
       444  -8.6402    115.7557     73.2830   8.3452712547e+01   4.5236587639e+01    0.2568651    0.2205404 -43.24 0.0007323281    1.165    0.142
       445  -8.6910     37.3425     64.4862   1.0957825957e+02   6.0310586069e+01    0.2799749    0.1814011  67.99 0.0008093346    1.888    0.470
       446  -8.9073    110.1568     63.7360   8.1999452304e+01   4.8418384601e+01    0.2961352    0.2507505 -78.32 0.0005828374    1.378    0.274
       447  -7.2422    187.5012     63.5089   6.4148969469e+01   2.9485344084e+01    0.1481853    0.1434417 -26.43 -0.000105923    1.016    0.016
       448  -8.2008    158.2587     62.0103   6.9196850586e+01   3.7084377829e+01    0.2188641    0.1956565 -38.17 0.0003879067    1.117    0.105
       449  -9.4762     97.6210     60.5291   8.4871251130e+01   5.1775512088e+01    0.3552883    0.3331832 -57.14  0.001198339    1.069    0.064
       450  -9.7128     73.2489     59.3655   9.3240381574e+01   5.6655793106e+01    0.4809218    0.2480131 -60.39  0.001224251    2.194    0.544
       451  -8.4976     75.5708     51.5576   8.9624291132e+01   5.7965708777e+01    0.5702586     0.342565   3.79  0.001854771    4.244    0.764
       452  -8.6646     88.8419     59.5918   8.7546178392e+01   5.3748724457e+01    0.2451598    0.1718964 -51.40 0.0005781877    1.413    0.292
       453  -7.9207    147.2460     59.6102   7.0813805243e+01   4.0277924329e+01    0.1616239    0.1157761 -59.93 0.0006941781    1.665    0.399
       454 -10.0024     23.5662     56.6952   1.1405760564e+02   6.3425344769e+01    0.4917584    0.2535751  77.99  0.002121485    2.722    0.633
       455  -8.6903    130.7772     58.1152   7.4286316170e+01   4.4653492837e+01    0.2373914    0.2070351 -64.54 0.0005078359    1.252    0.202
       456  -9.5293      7.3993     57.2012   1.2163361462e+02   6.4295689609e+01    0.3056484    0.1822172  75.36  0.001039736    1.738    0.425
       457  -8.3234    139.9963     56.4879   7.1440892804e+01   4.2643673814e+01    0.2437309    0.2021923 -37.73 0.0004238974    1.206    0.171
       458  -9.4971    119.2149     55.5116   7.6477393231e+01   4.7928373716e+01    0.5195639    0.2648631 -49.95  0.001660834    2.230    0.551
       459  -9.5400     54.3686     55.7229   9.9827995256e+01   6.0388918178e+01    0.3722577    0.2333425 -72.04  0.001242631    1.843    0.458
       460  -8.9321     44.0775     55.3903   1.0428901801e+02   6.1769561243e+01    0.2979945    0.1769596 -71.15   0.00104834    1.754    0.430
       461  -8.7440    105.9388     53.4436   7.9655595273e+01   5.1397021532e+01    0.2889795    0.2063282 -58.10 0.0007274536    1.607    0.378
       462  -9.4961     92.4159     50.6209   8.3049338664e+01   5.4886753837e+01     0.437286    0.2480682 -54.83  0.001158503    2.041    0.510
       463  -8.7007    144.7515     49.3364   6.7853219664e+01   4.2617590307e+01    0.2875364    0.1752048 -42.07 0.0005643943    1.659    0.397
       464  -8.3950      9.3127     49.3076   1.1950898634e+02   6.6111711901e+01    0.1303948   0.07553034 -47.10 0.0003633352    1.623    0.384
       465  -8.9994    120.8722     47.6005   7.3103144214e+01   4.8956826213e+01    0.2844871    0.2175847 -40.63 0.0005857198    1.309    0.236
       466  -8.4117    112.1534     46.9214   7.5308917565e+01   5.1182074709e+01    0.2382131    0.2037326 -68.48 0.0006359182    1.333    0.250
       467  -9.0941     82.0812     46.3334   8.5137857798e+01   5.7839651239e+01    0.3662698    0.2219809 -48.69   0.00123766    1.635    0.389
       468  -8.3312     45.1263     44.8979   1.0055644476e+02   6.4091781267e+01    0.1983592     0.173087 -83.56 0.0004617133    1.260    0.207
       469  -9.0839     16.4651     44.7723   1.1499979452e+02   6.6798400115e+01    0.2314183    0.1753085  75.74 0.0007652678    1.451    0.311
       470  -8.4370    130.0690     49.4238   7.1368540189e+01   4.6356230186e+01    0.2573349    0.2102732 -58.48 0.0006033417    1.346    0.257
       471  -8.7369    132.9630     43.5859   6.8490119418e+01   4.6589518995e+01    0.3096352    0.2039575 -51.45 0.0008000692    1.695    0.410
       472  -8.6448     92.6682     43.3199   8.0098806939e+01   5.6263588657e+01     0.307368    0.1822522 -18.99  0.001173522    2.511    0.602
       473  -9.2761     69.5735     41.6275   8.8244258817e+01   6.1130839150e+01      0.36421    0.2480769 -64.64 0.0008154383    1.831    0.454
       474  -9.0464     58.0961     42.4454   9.3586801614e+01   6.2846107065e+01    0.3237389      0.21636 -74.27  0.001218498    2.091    0.522
       475  -9.3204      5.3019     42.2434   1.2035072648e+02   6.7990391982e+01    0.3120431    0.1785564  82.51  0.001244874    1.848    0.459
       476  -8.7126    105.9868     41.4745   7.5003304536e+01   5.3610547112e+01    0.2892119    0.2035547 -52.67 0.0006654526    1.579    0.367
       477  -7.3185    140.3080     41.3239   6.5946051201e+01   4.5036637320e+01     0.161592    0.1183109  23.08 0.0007036107    1.648    0.393
       478  -8.5388     36.8962     41.0812   1.0337328414e+02   6.5922899073e+01    0.1980319    0.1716192  88.42 0.0005147983    1.305    0.234
       479  -8.7357     95.4015     38.2024   7.7043261923e+01   5.6616136649e+01    0.2782907    0.2120227 -62.80 0.0007300068    1.604    0.377
       480  -8.0299     80.7868     36.8013   8.1700188062e+01   5.9976083087e+01    0.1964481    0.1713343 -70.30 0.0004968221    1.349    0.259
       481  -9.5986     26.1577     35.2837   1.0723317350e+02   6.8309291569e+01    0.3759395     0.215165 -68.16 0.0008943568    1.658    0.397
       482  -8.0794    133.3978     36.2201   6.5575936873e+01   4.7624975925e+01    0.2234618    0.1364098 -42.11 0.0009363085    1.673    0.402
       483  -8.0879    125.8089     35.7810   6.7217873699e+01   4.9663896620e+01    0.2014994     0.177245 -74.11 0.0003116507    1.267    0.211
       484  -8.3162    111.8161     34.7594   7.0509322640e+01   5.3351474902e+01    0.2055941    0.1786432 -73.73 0.0004619071    1.328    0.247
       485  -7.4698    163.4707     34.4993   5.8944450299e+01   3.9829029639e+01     0.150513    0.1482929 -68.83 -5.517569e-07    1.007    0.007
       486  -8.4780    119.1759     33.2884   6.7892989998e+01   5.1745252511e+01    0.2906192    0.1799287 -54.85 0.0006181446    1.991    0.498
       487  -7.8551    104.6299     34.3181   7.2431620404e+01   5.5162926013e+01    0.1575209    0.1190683 -74.69  0.000703537    1.790    0.441
       488  -7.8810     88.7702     34.5764   7.7769782902e+01   5.8724302347e+01    0.1979784    0.1434642  62.73 0.0007416735    1.630    0.386
       489  -9.0301     48.3848     33.4072   9.4637581242e+01   6.6212730432e+01    0.2835966    0.2151571 -67.54 0.0008354976    1.504    0.335
       490  -8.5275     60.7259     32.8394   8.8421674901e+01   6.4445608361e+01    0.2492387    0.1823839 -60.68 0.0006636819    1.564    0.361
       491  -8.7432     72.0206     31.2403   8.2731510021e+01   6.2745213786e+01    0.2470167    0.1950966 -65.00  0.000696676    1.571    0.363
       492  -7.6749    139.2920     31.6648   6.2506879335e+01   4.6726311410e+01    0.1607095    0.1152283 -61.26 0.0007024116    1.639    0.390
       493  -8.8265     12.9300     30.3858   1.1344396705e+02   7.0411952010e+01     0.305438    0.1626251 -77.40  0.001291833    1.859    0.462
       494  -8.5616    101.4821     29.5163   7.1292201781e+01   5.6697986518e+01    0.2520142    0.1952417 -67.16 0.0006590963    1.635    0.388
       495  -8.8505     81.5649     27.6599   7.7250644629e+01   6.1483177520e+01    0.2872694     0.241274 -77.77 0.0008209595    1.550    0.355
       496  -9.4510    211.3178    246.6452   9.6506372464e+01   8.7260472110e-01     0.238037    0.1887748 -41.96  0.001633812    2.151    0.535
       497  -8.7990     91.7615     26.3397   7.2972710246e+01   5.9472351362e+01     0.309562    0.2147882 -51.53 0.0008888118    1.654    0.395
       498  -8.1408    104.5613     22.8129   6.7321256091e+01   5.6978858463e+01    0.2042361    0.1351128 -41.90 0.0003952473    1.571    0.363
       499  -8.0561     34.4341     23.2869   9.7909347175e+01   7.0143001811e+01    0.2069048    0.1545055  53.89 0.0009535705    1.758    0.431
       500  -8.9911     63.4384     20.9059   8.1438814968e+01   6.6245508991e+01    0.3865133    0.2272348 -53.90  0.001132271    2.122    0.529
       501  -8.8635     48.4831     21.8474   8.9320637466e+01   6.8569813137e+01    0.2267421    0.2033259 -74.22 0.0006162555    1.385    0.278
       502  -7.9025    120.5980     20.8326   6.2235904583e+01   5.3164808411e+01    0.2210619    0.1304065 -40.37 0.0009011669    1.744    0.427
       503  -8.1215    191.4904    249.5165   1.0001924904e+02   3.1491948744e+00    0.1049756   0.07219709  29.56 0.0008099041    1.049    0.046
       504  -8.3657     19.4016     21.2051   1.0640231166e+02   7.2057491505e+01    0.1775647    0.1105965 -73.49 0.0009413574    1.741    0.425
       505  -8.3031     87.7197     17.5994   7.0062520521e+01   6.1749322608e+01    0.2387075    0.1638021 -48.76 0.0003891811    1.663    0.399
       506  -8.1344     38.5524     18.0686   9.2990956379e+01   7.0712232702e+01    0.2062981    0.1165685 -48.56  0.001028621    1.596    0.373
       507  -7.5985    112.8093     16.6342   6.2246612539e+01   5.5739512394e+01    0.1981936    0.1419492  75.50 0.0002803267    1.573    0.364
       508  -8.1690     30.2118     16.2055   9.7198177499e+01   7.2100124609e+01    0.1663933    0.1461926 -71.05 0.0005066395    1.347    0.257
       509  -7.3235    136.6738     27.7226   6.1514781293e+01   4.7971282505e+01    0.1593574    0.1124424  32.15 0.0002430373    1.590    0.371
       510  -8.5743     17.1465     14.1663   1.0507362704e+02   7.3773522404e+01    0.1592404    0.1405838 -82.99  0.000462347    1.335    0.251
       511  -7.4016    119.6864     11.3220   5.8204549793e+01   5.4575645379e+01    0.1551804    0.1111975 -60.82 0.0007039924    1.657    0.396
       512  -7.4760     83.4639     11.4404   6.8283939822e+01   6.3597752000e+01    0.1408601    0.1338414   7.08 0.0001394109    1.032    0.031
       513  -9.1240    175.7781    247.8732   1.0241777233e+02   5.3680572441e+00     0.246323    0.1647207  52.13  0.001284113    1.862    0.463
       514  -8.9248    156.5057    248.5439   1.0573830759e+02   7.8454311870e+00    0.2298135     0.142127  50.60  0.001158452    1.686    0.407
       515  -8.7460    132.3320    247.9535   1.0984924182e+02   1.1100588175e+01    0.2030871     0.129887  58.25 0.0006837026    1.771    0.435
       516  -8.2725    113.0009    248.7244   1.1329551955e+02   1.3499453109e+01    0.1609321    0.1175466  73.66  0.001046202    1.704    0.413
       517  -9.2741    103.7790    246.8452   1.1477210597e+02   1.4908668304e+01    0.2876199    0.1736864  84.76  0.001913173    2.515    0.602
       518  -8.9842    232.5693    247.3295   9.3318371734e+01  -1.8207524273e+00    0.1753608    0.1392921   7.71 0.0008579675    1.342    0.255
       519  -8.9041    218.5903    247.9457   9.5531300830e+01  -1.5543188689e-01    0.1475695    0.1242809 -28.96  0.001271511    1.851    0.460
       520  -7.7777     63.4989    248.4955   1.2195507484e+02   1.9469455844e+01    0.1021582   0.07002973  48.22 0.0001652542    1.027    0.027
       521 -10.1635    223.9604    244.2088   9.4230920747e+01  -5.0444890544e-01    0.3174723    0.1886155 -35.16  0.002218768    2.378    0.580
       522  -9.5474    147.2944    245.5731   1.0702183537e+02   9.4079890694e+00    0.2501346    0.2404192  45.64  0.001503193    1.398    0.285
       523  -9.3248      9.5314    244.5727   1.3101659597e+02   2.5452095811e+01    0.2299924   0.07123717  72.38  0.001343894    2.911    0.656
