#   1 NUMBER                 Running object number                                     
#   2 MAG_AUTO               Kron-like elliptical aperture magnitude                    [mag]
#   3 X_IMAGE                Object position along x                                    [pixel]
#   4 Y_IMAGE                Object position along y                                    [pixel]
#   5 X_WORLD                Barycenter position along world x axis                     [deg]
#   6 Y_WORLD                Barycenter position along world y axis                     [deg]
#   7 A_WORLD                Profile RMS along major axis (world units)                 [deg]
#   8 B_WORLD                Profile RMS along minor axis (world units)                 [deg]
#   9 THETA_WORLD            Position angle (CCW/world-x)                               [deg]
#  10 FWHM_WORLD             FWHM assuming a gaussian core                              [deg]
#  11 ELONGATION             A_IMAGE/B_IMAGE                                           
#  12 ELLIPTICITY            1 - B_IMAGE/A_IMAGE                                       
         1 -12.9830    212.3412     45.8828   1.1884997743e+01   2.7178255739e+01    0.7019711    0.6579373  33.05  0.001597716    1.436    0.304
         2 -13.2126    238.7166     23.2318   4.4730201593e+00   2.4486323758e+01    0.8049139    0.6255588 -67.96  0.004242852    1.050    0.048
         3 -12.6067      9.2673     10.0373   5.6774679855e+01   7.1973766068e+01    0.7253299    0.1998523  29.13   0.00337294    3.485    0.713
         4 -10.4620     70.8446      7.1638   2.7938014880e+01   6.3666168865e+01     0.175452    0.1541827  45.06 0.0007205913    1.225    0.184
         5 -10.6151    146.9502    243.3076   6.5569325840e+01   2.9290743597e+00     0.193448    0.1798087  89.46 0.0004354143    1.310    0.237
         6  -9.8627     75.9877    250.2136   8.1216532189e+01   1.2277170955e+01    0.3340538    0.1553543  34.18  0.001645187    2.005    0.501
         7  -8.9005     76.2957    244.4506   8.0618389271e+01   1.3358687939e+01    0.4037961    0.1110055 -53.78  0.001486656    4.432    0.774
         8 -16.3784     21.9922    171.8909   8.5983287089e+01   3.6151712703e+01     7.625217      3.53228  88.03   0.03382817    2.368    0.578
         9 -12.5576     97.8697    223.1397   7.3634929002e+01   1.4568637399e+01    0.7799828    0.4866087 -78.32  0.003237544    1.932    0.482
        10 -11.6522     81.5027    220.8359   7.7045965113e+01   1.7504592024e+01    0.5665603    0.2200348  50.16 0.0009000555    2.502    0.600
        11  -9.8431     90.0604    217.3117   7.4689332213e+01   1.7003069775e+01    0.2183073    0.2025354  19.06 0.0003252945    1.274    0.215
        12 -11.0798     90.1423    225.8823   7.5693450697e+01   1.5158716381e+01    0.3785666    0.1931553  40.15  0.001170531    1.705    0.414
        13 -11.7769     88.5956    221.7589   7.5556585278e+01   1.6263760565e+01     0.600322    0.3422468  73.15  0.002709395    2.326    0.570
        14 -10.6651     71.8451    225.4291   7.9688593139e+01   1.7886859521e+01    0.3506229    0.1934771  44.85   0.00153208    1.562    0.360
        15 -12.0260    106.5056    229.2865   7.2471359341e+01   1.1962863448e+01    0.4244182    0.3017901  75.71  0.002289721    1.645    0.392
        16  -9.3727    118.4890    221.9292   6.8822143732e+01   1.1566344069e+01    0.1851295    0.1367362 -60.59 0.0005916117    1.508    0.337
        17  -9.5430    198.4679    216.9534   5.0712533933e+01  -6.5173729851e-01    0.1852104    0.1260873 -40.76 0.0006628013    1.541    0.351
        18  -9.9698    138.9311    216.5881   6.3422548309e+01   9.2724330666e+00    0.2685831    0.1822386 -72.52  0.001304673    1.998    0.500
        19  -8.4984    133.2837    213.6825   6.4256819884e+01   1.0815195791e+01    0.1385408    0.1044915  68.14 0.0002535875    1.584    0.369
        20  -9.7337    125.0000    210.0015   6.5601412540e+01   1.2980625150e+01    0.2222933   0.08133473 -55.37 0.0008086158    2.985    0.665
        21 -10.5802    131.1884    203.5417   6.3147852854e+01   1.3300603498e+01    0.2534631    0.1961343 -58.06 0.0007045738    1.406    0.289
        22  -9.8151    136.6809    200.9599   6.1440032069e+01   1.2896233526e+01    0.1949943    0.1875412 -73.61 0.0007130607    1.120    0.107
        23  -9.8824    210.8761    198.6483   4.4975582024e+01   5.3278790335e-01    0.2171421    0.1689183 -20.72  0.000500862    1.230    0.187
        24  -9.9456    194.5939    197.1978   4.7962793224e+01   3.4869601517e+00    0.2587685    0.1308265 -47.75  0.001134088    2.134    0.531
        25 -15.2714      3.3300    249.1666   9.5007701206e+01   2.1060380126e+01    0.8563443     0.343236  38.75  0.004496079    2.121    0.529
        26 -10.9682     69.1582    194.1871   7.6775796499e+01   2.5296952544e+01    0.3721866    0.2366072  83.50  0.001200252    1.777    0.437
        27 -10.0674    128.3277    194.3283   6.2313180362e+01   1.5803099949e+01    0.1471261    0.1148196  -8.99 0.0004779565    1.705    0.413
        28  -9.8922     54.7065    193.6272   8.0219596262e+01   2.7348096554e+01    0.2696541    0.1972082  82.43  0.001201455    1.307    0.235
        29 -17.9551      5.6407    226.4093   9.3479737697e+01   2.5395940821e+01     2.880249     2.032303  88.87   0.01501514    1.191    0.161
        30  -9.1460    206.7098    190.3208   4.4231786177e+01   2.6982348870e+00    0.1254967    0.1108435 -84.80 0.0002807622    1.604    0.377
        31 -14.4373     20.7482    195.6316   8.8339463922e+01   3.0685941368e+01      1.26432    0.6289699  55.01  0.005019157    1.871    0.465
        32 -10.9446     72.8580    187.3075   7.4973203660e+01   2.6411636400e+01    0.3549181    0.2338671  79.62 0.0007767091    1.722    0.419
        33 -11.1884     64.2500    183.7839   7.6679812251e+01   2.8452897791e+01    0.6222002    0.2935221  89.70  0.002167929    3.536    0.717
        34 -15.8912     56.2902    231.6774   8.3625937110e+01   1.8639697743e+01     4.737869     3.268066 -31.71   0.02522476    2.525    0.604
        35  -9.9700     93.6726    241.1223   7.6636231156e+01   1.1533143844e+01    0.2041793     0.146965  50.22   0.00029831    1.175    0.149
        36 -10.4845    103.0473    238.7131   7.4361940981e+01   1.0608895994e+01     0.221771    0.1876499 -54.52 0.0005719616    1.391    0.281
        37 -10.0772    184.5671    237.0290   5.6835865212e+01  -1.8512818550e+00    0.1769517    0.1244587 -41.13 0.0006970926    1.581    0.367
        38  -9.6324     97.9836    181.4800   6.7731398566e+01   2.3954620015e+01    0.2251734    0.1395935  36.70 0.0008348091    1.579    0.367
        39 -10.2884    172.5364    177.5509   4.8916298712e+01   1.1281369124e+01    0.2712395    0.1405296 -57.62   0.00103858    2.522    0.603
        40  -9.1765     71.8168    176.9091   7.3804789938e+01   2.9076026286e+01    0.2145402    0.1715737  78.66 0.0002566281    1.244    0.196
        41  -9.2710     75.2984    175.8051   7.2735850837e+01   2.8845327974e+01    0.2135421    0.1735783  72.58 0.0004386359    1.219    0.180
        42  -9.9256     96.6466    175.2058   6.7054142765e+01   2.5679212543e+01    0.2402454    0.2019734  77.75 0.0005491386    1.229    0.186
        43 -10.4473    104.9949    173.0224   6.4505662838e+01   2.4803167863e+01    0.2279986    0.2195997  88.52 0.0005546799    1.033    0.032
        44  -8.7074     74.2675    172.3318   7.2492595967e+01   2.9846625129e+01    0.1397949    0.1072337 -36.54 0.0003007473    1.583    0.368
        45  -9.1259     68.5004    172.5113   7.4045309737e+01   3.0620838664e+01    0.1424071    0.1283778  80.97 0.0008104692    1.024    0.023
        46 -10.5975    180.6580    169.2477   4.5468314145e+01   1.1448313405e+01    0.4903589    0.2231095 -53.68  0.001802053    2.664    0.625
        47 -11.3167     79.9117    150.1779   6.7291837054e+01   3.4507168312e+01    0.4178607     0.286505 -81.35  0.001404446    1.682    0.405
        48 -13.5392     69.7803    144.6811   6.9236038457e+01   3.7372645328e+01     1.004727    0.8368386  67.14  0.004466212    1.261    0.207
        49 -12.4655     58.4632    133.4382   7.0611204805e+01   4.1704780847e+01     1.046882    0.5927763  78.32  0.003978506    3.014    0.668
        50 -12.6520     64.9731    128.0473   6.7586542701e+01   4.2179228022e+01     1.047095    0.6338991  49.36  0.003299434    1.855    0.461
        51 -12.3939     64.8507    154.8375   7.2363980912e+01   3.5513947732e+01    0.4621546    0.3793133 -71.58  0.001710219    1.147    0.128
        52 -11.0254     72.8890    167.7516   7.2167824678e+01   3.1175248897e+01    0.3578906    0.2611488  85.46  0.000594183    1.491    0.329
        53 -12.8636     69.9237    159.9908   7.1767158552e+01   3.3525409547e+01     1.000733    0.6648681 -20.59  0.004385725    2.381    0.580
        54 -12.5626    133.0387    230.1653   6.6730997693e+01   7.5699779801e+00    0.4659135    0.2754337  33.87  0.002331959    1.531    0.347
        55  -9.9659    110.7755    167.0927   6.1929190377e+01   2.5217822530e+01    0.2371096    0.2001219  75.59 0.0006782262    1.274    0.215
        56 -10.0112    101.5374    166.9926   6.4352438587e+01   2.6849356812e+01     0.225019    0.1455352 -58.92 0.0003355354    1.556    0.357
        57 -11.4469     88.5744    163.6701   6.7255923832e+01   2.9804182569e+01    0.5308556    0.3165838 -85.27  0.001474414    2.381    0.580
        58  -9.9542     41.1059    167.1879   8.0579638404e+01   3.5356808356e+01    0.2218547    0.1761532  57.08 0.0005292221    1.239    0.193
        59  -9.4122     78.5204    164.4349   7.0119878921e+01   3.1170649381e+01    0.2310077    0.1785223 -79.12 0.0006134293    1.311    0.237
        60 -11.2237     81.6367    163.3326   6.9089052509e+01   3.0972219598e+01    0.3412685    0.2524948  77.46  0.001057827    1.526    0.345
        61  -9.8665    176.3491    230.8152   5.7543284517e+01   4.6628557959e-01    0.1768373    0.1167658 -32.42 0.0008809762    1.673    0.402
        62 -10.9917     56.1501    141.8512   7.2763782215e+01   3.9898847437e+01    0.5496379    0.2693919 -63.03   0.00237677    1.874    0.466
        63  -9.6721     49.8212    162.7494   7.7686758224e+01   3.5452691444e+01    0.2274768    0.1710133  83.12 0.0004337344    1.326    0.246
        64 -11.7251     50.7977    156.0883   7.6495912561e+01   3.6993499428e+01    0.7886322    0.3329012 -67.03  0.002744559    2.201    0.546
        65 -10.8224     72.3497    232.6974   8.0312602602e+01   1.6285855194e+01    0.3345992    0.2165771  36.26  0.001192955    1.468    0.319
        66  -9.3389    167.4762    156.0826   4.5645437728e+01   1.6794567804e+01    0.2238541     0.147941 -46.45 0.0004361366    1.515    0.340
        67 -11.7179     57.4904    149.6591   7.3636737519e+01   3.7776066999e+01     0.708649    0.3782463  50.74  0.000485477    2.071    0.517
        68  -9.8572     86.5734    153.8936   6.6079597681e+01   3.2542455192e+01    0.4276891    0.2503847 -87.71  0.001394258    2.706    0.631
        69 -10.7508     89.4653    139.0090   6.2384392509e+01   3.5757410941e+01    0.4201553    0.2431916 -36.40  0.001212366    2.154    0.536
        70 -10.6324     88.5948    150.8197   6.4942742355e+01   3.2979698687e+01    0.3768667    0.2395089  81.24  0.001411367    2.348    0.574
        71 -12.1093     86.1986    146.1293   6.4737347322e+01   3.4529260865e+01    0.5219611    0.4399647  -4.33 0.0007061157    1.459    0.315
        72 -11.7922    133.5474    144.9528   5.1469102649e+01   2.6155393280e+01    0.9437658    0.3581129 -53.52   0.00307993    2.857    0.650
        73 -11.1586     94.6964    159.0070   6.4758476434e+01   2.9954394719e+01    0.4199868    0.2856611 -89.31  0.001842282    1.913    0.477
        74 -11.2056    148.0069    228.1965   6.3173588227e+01   5.5094977271e+00      0.22641    0.2050862 -44.90  0.001140846    1.248    0.199
        75  -9.4665     39.3531    146.6751   7.8401506673e+01   4.0626223313e+01    0.2346372    0.1260511  36.23  0.001119162    1.938    0.484
        76 -10.9081     36.4170    142.7177   7.8695000656e+01   4.1911967550e+01    0.3326066    0.2582462 -62.74  0.001194064    1.159    0.137
        77 -10.8090    146.8615    142.9787   4.7664181353e+01   2.3895076125e+01    0.3401944    0.2480197 -63.20  0.001260584    1.552    0.355
        78  -9.5857    152.8347    143.2454   4.6265825760e+01   2.2598490920e+01    0.2277524    0.2086566 -83.96  0.001174303    1.181    0.153
        79 -10.0369    150.1260    138.6899   4.5892629372e+01   2.4177062743e+01    0.2531822    0.2095436 -62.63  0.000653535    1.289    0.224
        80  -9.7012    127.2795    137.0229   5.1344095101e+01   2.9257155641e+01    0.2197924    0.2004635 -60.00 0.0004134691    1.107    0.097
        81  -9.4274    241.6147    135.7635   2.7116453333e+01   6.4916051462e+00    0.1943928    0.1092561 -48.17 0.0009444366    1.665    0.400
        82 -10.0947     45.0580    135.3395   7.5020403018e+01   4.2830652910e+01     0.247602    0.1856691 -76.66 0.0004226245    1.277    0.217
        83 -12.0615    104.0648    131.7223   5.6583999491e+01   3.4984006154e+01    0.6759775    0.5011084  -9.33  0.002229668    1.907    0.476
        84 -11.3834     88.8931    132.5299   6.1206377048e+01   3.7442944410e+01    0.2689624    0.2604928 -30.33 0.0003536516    1.074    0.069
        85 -10.5386     30.8507    132.0736   7.8823912526e+01   4.5081908666e+01    0.1904465    0.1822184  81.73 0.0003221554    1.116    0.104
        86 -10.4545     44.0268    130.4327   7.4533655277e+01   4.4160676424e+01    0.4350833     0.249894  52.55  0.002024955    2.051    0.513
        87  -9.1024    150.2187    129.4193   4.3715007389e+01   2.6210479696e+01    0.2160687    0.1465309  56.58 0.0005558188    1.606    0.377
        88 -10.3739    120.2957    129.0463   5.1396918631e+01   3.2512406650e+01    0.2183644    0.2002969 -59.76 0.0003742418    1.098    0.089
        89  -9.9612    110.9556    126.6850   5.3458340960e+01   3.4890496506e+01    0.2770593    0.2161472 -22.73 0.0008813029    1.554    0.356
        90 -11.2656     48.5841    122.0572   7.1630240487e+01   4.5714460524e+01     0.427969    0.3262343 -20.28  0.002295019    1.554    0.356
        91 -10.3295     29.8016    123.2216   7.7813569326e+01   4.7346385169e+01     0.228007    0.1894322 -87.39 0.0005186182    1.201    0.168
        92 -10.7785    108.9045    145.2854   5.8148472201e+01   3.0823658855e+01    0.3072529    0.2887316  67.50 0.0006520497    1.067    0.063
        93 -10.7299    115.3162    122.1010   5.1134576683e+01   3.5112949043e+01    0.3784288     0.206672  31.98   0.00146377    2.097    0.523
        94 -10.2899     98.1228    121.6839   5.6030122402e+01   3.8460254644e+01    0.2916541    0.2439364  15.18 0.0007552353    1.351    0.260
        95 -10.3701     54.7456    118.8913   6.9036390252e+01   4.5754971564e+01    0.2821206    0.1683571  56.44  0.001252789    2.171    0.539
        96  -9.5581    107.2203    116.1764   5.2016638430e+01   3.8058014665e+01    0.2201505    0.2039883 -17.55 0.0004823371    1.145    0.127
        97 -12.0991     30.6331    109.6198   7.5276283949e+01   5.0556829613e+01    0.7705079    0.3614014  47.69  0.002084843    2.745    0.636
        98 -11.4781     24.1787    105.0324   7.6660220479e+01   5.2192153507e+01    0.3671845    0.2802736  39.08  0.001552186    1.502    0.334
        99 -12.2915     19.2585     95.8630   7.6747896667e+01   5.4706405894e+01    0.4077824    0.3187004   0.81  0.002542051    1.449    0.310
       100  -9.6140     32.7391     96.9355   7.2126679084e+01   5.3350375715e+01    0.2216457    0.1608814  41.19  0.001048529    1.591    0.371
       101 -10.5184     31.3549     86.2302   7.0350354875e+01   5.5912735968e+01    0.3026261    0.1944881  41.13  0.000931903    1.851    0.460
       102  -9.3279     44.3071     85.9280   6.5410981364e+01   5.4673646280e+01    0.1847153    0.1566083 -43.97 0.0004863591    1.065    0.061
       103 -10.9347     52.1878     81.9663   6.1451220216e+01   5.4609375717e+01    0.3725519    0.2210144  47.38 0.0008897901    2.139    0.533
       104 -11.4024     25.1488     76.6869   7.0569549614e+01   5.8546684721e+01    0.3900714    0.2295242  37.86  0.002087032    2.024    0.506
       105  -9.7687     84.2363     73.4061   4.7497588530e+01   5.1501706872e+01    0.2008245    0.1298976  48.98  0.000788079    1.705    0.413
       106 -11.7296    189.6621     61.9073   1.8788253856e+01   3.0003670889e+01    0.3441114    0.3254128  78.17 0.0008001562    1.119    0.106
       107 -11.1808     13.5058     60.3530   7.1440838213e+01   6.2835321547e+01    0.2181202     0.167641 -44.47  0.000715758    1.086    0.080
       108 -13.2090    205.0959     51.3272   1.4036459955e+01   2.8034250504e+01    0.9331405    0.8287992  42.91  0.004085598    1.415    0.294
       109 -10.1920     69.0204    248.2661   8.2454008273e+01   1.3602061728e+01    0.2658572    0.1681363 -86.23  0.001239136    1.707    0.414
       110  -8.9186    131.4956     57.6066   2.8943765680e+01   4.4437700341e+01    0.1434613    0.1303331  52.69 0.0001296388    1.025    0.025
       111 -11.4327      1.8115     53.6544   7.4951090742e+01   6.4858454240e+01    0.4741166   0.05749331 -61.63  0.001483147    5.487    0.818
       112 -10.9171      7.6469     41.1102   6.8889454274e+01   6.6949772302e+01    0.1777105    0.1444671  10.16 0.0005199009    1.339    0.253
       113  -9.2803     44.0064     37.4929   5.0702971411e+01   6.4082793818e+01    0.1772051    0.1115759  31.20  0.001010684    1.559    0.359
       114 -10.2920     31.6155     36.7429   5.5989516049e+01   6.5681624908e+01     0.182679    0.1382194  39.62 0.0006360433    1.697    0.411
       115 -10.3057      2.0000     36.9804   7.0442526147e+01   6.8039340528e+01    0.1840947   0.05414378 -57.80  0.000807517    2.978    0.664
       116 -10.1715    125.0000    243.9422   7.0300422671e+01   6.2421144562e+00    0.1860284   0.07555276 -56.29 0.0007922132    2.896    0.655
       117 -11.2220      2.1851     22.6532   6.5710630820e+01   7.0531484982e+01      0.24021    0.1224715 -47.64  0.001335937    1.677    0.404
       118  -9.4169     60.7948     21.3344   3.7401326785e+01   6.3891515313e+01    0.1800259    0.1435232  45.92 0.0007655931    1.407    0.289
       119  -9.6225    220.0752    243.7314   5.0981432014e+01  -7.9807986317e+00    0.1831943    0.1503896 -28.38 0.0005845423    1.342    0.255
