#   1 NUMBER                 Running object number                                     
#   2 MAG_AUTO               Kron-like elliptical aperture magnitude                    [mag]
#   3 X_IMAGE                Object position along x                                    [pixel]
#   4 Y_IMAGE                Object position along y                                    [pixel]
#   5 X_WORLD                Barycenter position along world x axis                     [deg]
#   6 Y_WORLD                Barycenter position along world y axis                     [deg]
#   7 A_WORLD                Profile RMS along major axis (world units)                 [deg]
#   8 B_WORLD                Profile RMS along minor axis (world units)                 [deg]
#   9 THETA_WORLD            Position angle (CCW/world-x)                               [deg]
#  10 FWHM_WORLD             FWHM assuming a gaussian core                              [deg]
#  11 ELONGATION             A_IMAGE/B_IMAGE                                           
#  12 ELLIPTICITY            1 - B_IMAGE/A_IMAGE                                       
         1 -10.5532     24.0918     17.5303   5.0085015307e+01   6.9414650681e+01    0.3282523    0.2058221 -58.75   0.00160334    3.794    0.736
         2 -11.3130      6.1036     14.4114   5.8182708605e+01   7.1617327342e+01    0.4848268     0.271657 -61.06  0.002365072    3.979    0.749
         3 -13.3458    158.8325      3.1572   7.6320492601e+00   4.4283018129e+01     1.076948     0.390089  79.15  0.004212826    3.080    0.675
         4 -12.6095    182.9388     13.0561   7.3168584828e+00   3.7731160025e+01    0.8394755    0.3759156 -53.52  0.003941765    2.367    0.577
         5 -12.8413    184.7628      4.0500   4.9747401762e+00   3.8209562748e+01    0.7008205     0.307127  81.81  0.003302539    2.198    0.545
         6 -12.9438    174.0889      3.8166   6.0323798334e+00   4.0680853961e+01    0.6658638    0.3945666 -81.24  0.002363525    1.710    0.415
         7 -11.3779    127.5023     14.2208   1.5579103818e+01   5.0591415395e+01    0.4093608    0.1562599  52.04  0.001161676    2.185    0.542
         8 -10.9210     49.6544     13.9477   3.7002871462e+01   6.6370903185e+01    0.2758657    0.2299363  13.25 0.0009170935    1.078    0.072
         9 -10.3201     45.6681     11.9577   3.7721470104e+01   6.7219159113e+01    0.2102863    0.1526863  33.32 0.0006478681    1.269    0.212
        10 -10.2684     34.9913     13.7873   4.3194844983e+01   6.8549207974e+01    0.2157708    0.1542674 -20.15 0.0005734126    1.298    0.230
        11 -10.3839     32.4740      9.5551   4.2380219673e+01   6.9399958922e+01    0.2154876    0.1242263 -25.67 0.0009940134    1.655    0.396
        12 -12.1032    162.3295     11.6242   9.4353127822e+00   4.2679187410e+01    0.3097914    0.1976351  77.78  0.001154702    1.396    0.284
        13 -10.5257    178.7784      1.5877   4.9936916537e+00   3.9807466084e+01    0.2514965    0.1282891  68.61   0.00065786    1.640    0.390
        14  -9.8571     79.0653     11.6878   2.5932521514e+01   6.1336084182e+01    0.1792459    0.1673336 -18.99 0.0006655958    1.276    0.216
        15 -10.8245     27.3116     10.8993   4.5468922398e+01   6.9904850693e+01    0.1869235    0.1430115  26.58  0.001318388    1.356    0.262
        16 -10.9914    200.8869      9.9748   4.7697915880e+00   3.3979296469e+01    0.2894053    0.1715201  33.09  0.001386793    3.176    0.685
        17 -10.8717    104.7066      9.1600   1.8460176982e+01   5.6200478951e+01    0.3629986    0.2371746  38.51  0.002088523    1.431    0.301
        18 -10.2753     74.8835      8.9819   2.6072341412e+01   6.2408892918e+01    0.2558136    0.1727684 -15.89  0.001148188    1.603    0.376
        19 -11.4034     56.4434      8.9587   3.2180424415e+01   6.5784394449e+01    0.3342564    0.2357236  21.94  0.001175633    1.222    0.182
        20 -11.9534    119.1299      8.8273   1.5404072771e+01   5.3003844266e+01    0.4209478    0.1868483  64.44 0.0002501983    1.966    0.491
        21 -11.8066    123.8636      6.5141   1.3789671188e+01   5.2122721055e+01    0.3492326    0.2461568  85.69 0.0009698261    1.529    0.346
        22  -9.1940     69.3195      9.3498   2.7948553033e+01   6.3434551071e+01    0.1312423   0.07733801  23.46 0.0007048272    1.739    0.425
        23 -10.9908      8.0193      5.3345   5.2957658674e+01   7.2722569226e+01    0.2090818    0.1329015  13.07 0.0007818943    1.375    0.273
        24 -10.7419      3.1746      8.1709   5.7068662896e+01   7.2758325624e+01    0.2321903    0.1576538 -13.24 0.0007569961    1.128    0.114
        25 -10.7600      4.3289      4.3282   5.4592631902e+01   7.3189429827e+01    0.2336505    0.1385026 -14.11 0.0007915575    1.429    0.300
        26 -10.6180     97.9480      7.5844   1.9420800224e+01   5.7805176448e+01    0.3486353     0.195127 -63.77  0.001471256    3.719    0.731
        27 -11.0207     85.5339      7.4847   2.2465834489e+01   6.0420362087e+01    0.2333319    0.2130001 -15.36 0.0007319572    1.267    0.211
        28 -11.5213     88.5309      5.9082   2.1077960304e+01   5.9938031049e+01    0.3166172    0.2281307   1.58 0.0004400673    1.547    0.354
        29 -10.0471     20.3494      8.3223   4.7728242479e+01   7.1057525465e+01    0.1654599   0.09297326 -18.38  0.000951319    1.671    0.401
        30 -11.4738     22.5360      5.4522   4.5216889880e+01   7.1152908187e+01    0.3041331    0.1833191  32.92  0.001974602    1.637    0.389
        31 -11.7758    130.8719      4.6736   1.2026188543e+01   5.0665043527e+01    0.3728529    0.2740464   8.24  0.001487377    1.751    0.429
        32 -10.0010    236.1721      6.6473   1.2232124992e+00   2.6818834588e+01    0.1575363   0.08797245  68.76 0.0009457003    1.740    0.425
        33 -10.9827    203.3309      4.1517   3.2706375042e+00   3.4034253266e+01    0.2801559    0.1249238  65.29  0.001253169    1.991    0.498
        34 -11.5993    114.3663      1.9440   1.4022588668e+01   5.4650088692e+01    0.3835921    0.1828001  65.99   0.00102117    1.828    0.453
        35  -9.7949    125.6246      2.2883   1.2149231772e+01   5.2067096375e+01    0.1263731   0.08745573 -78.61 0.0001289812    1.725    0.420
        36  -9.8010     38.1982      2.1496   3.6241978012e+01   6.9396240881e+01    0.1411303    0.1255669   1.09  0.001062227    1.324    0.245
        37 -11.0329     16.3974      4.6959   4.8033510589e+01   7.1951891038e+01    0.1910931    0.1433463   0.62 0.0007777083    1.034    0.033
        38 -10.2184     10.8794    133.1631   8.4421753412e+01   4.6492074179e+01    0.1952736    0.1564387  86.02  0.001221037    1.209    0.173
        39 -11.6351     58.1719    130.0672   6.9606467544e+01   4.2565039395e+01    0.2539922     0.217393 -55.53            0    1.075    0.070
        40 -11.4438    249.1727    115.9850   2.1943219263e+01   8.5780512594e+00    0.2418509    0.1944799  19.86   0.00142614    1.688    0.408
        41  -9.7889    103.0046    119.9426   5.3719868792e+01   3.7906880767e+01    0.2221317    0.2191761 -23.07 0.0003045612    1.020    0.020
        42 -10.0531     13.1326    117.4360   8.1629741868e+01   5.0143302746e+01    0.2079112    0.1444031 -57.31 0.0003945229    1.203    0.169
        43  -9.2119     91.6549    116.1890   5.6184126061e+01   4.0843393402e+01    0.2100761    0.1319515 -42.97 0.0002802661    1.579    0.367
        44  -9.4914     96.2008    111.8111   5.3710677361e+01   4.1051385156e+01     0.210537    0.1660727 -29.71 0.0004583293    1.358    0.264
        45  -9.7953     19.3245    108.0426   7.8125244595e+01   5.1940958880e+01    0.1991922    0.1627944 -23.76  0.000802017    1.323    0.244
        46  -9.3573     13.1558    106.1575   7.9881803234e+01   5.2832790345e+01    0.1636003    0.1357143 -89.90 0.0002920436    1.283    0.221
        47 -10.3175      1.9024    104.7452   8.3417216123e+01   5.3849945042e+01    0.2862192    0.1186317 -53.84  0.001401625    1.863    0.463
        48 -10.1125     78.1141    102.0472   5.6886620567e+01   4.6401577833e+01    0.3955978    0.1848315 -41.99  0.001550282    2.161    0.537
        49 -11.8520    248.7525     99.4347   1.8611541922e+01   1.1405682165e+01    0.4691425    0.2922416 -11.70  0.001984046    3.369    0.703
        50  -9.3738    103.3076     96.0723   4.7363501057e+01   4.3207290169e+01     0.224076    0.1331582 -56.06 0.0009273656    1.919    0.479
        51 -10.4926     64.4512     95.9557   5.9889118316e+01   4.9865620665e+01    0.2545037    0.2308298  30.29 0.0007429389    1.178    0.151
        52  -9.6378    132.5155     92.5540   3.8287350122e+01   3.7799164658e+01    0.1496598    0.1474802  60.00 7.490441e-06    1.011    0.011
        53  -9.9517     37.6448     93.2839   6.8750146269e+01   5.3768568325e+01    0.1285069    0.1014814  65.84 0.0004056384    1.666    0.400
        54  -9.1968      2.2913     88.3380   8.0689600171e+01   5.7601623774e+01    0.1325676    0.0690106 -43.43 0.0007024479    1.643    0.391
        55 -10.4262     54.6778     86.5481   6.0862464187e+01   5.3293975306e+01     0.251253    0.1188113 -53.20  0.001080039    1.987    0.497
        56  -9.1792     96.5820     86.5064   4.6666968997e+01   4.6506631000e+01    0.1463353    0.1383898 -11.59 0.0008047315    1.027    0.026
        57  -9.9430     11.9748     85.8031   7.6640735656e+01   5.7608019827e+01    0.1877632    0.1373424 -39.27 0.0003136936    1.206    0.171
        58  -9.7263      6.4627     85.3656   7.8617867008e+01   5.8042547323e+01    0.1748706    0.1161293  11.71 0.0002712855    1.754    0.430
        59  -9.4983    188.7519     82.1787   2.3614905485e+01   2.6798280675e+01    0.1743426    0.1632279  27.43  0.000245899    1.260    0.207
        60 -11.9233     54.7665     79.2043   5.8797495071e+01   5.4858285057e+01     0.300128    0.2418556 -47.58 0.0002743361    1.200    0.167
        61 -11.4149     31.2794     78.4869   6.7575286544e+01   5.7688481824e+01    0.3843716    0.1596591 -36.60  0.001609001    2.527    0.604
        62 -10.3363      5.6925     80.0917   7.7896791782e+01   5.9258117094e+01    0.1747722    0.1301482 -54.12 0.0005044693    1.086    0.079
        63 -10.4990     48.4551     78.6710   6.1012631722e+01   5.5778359962e+01    0.2385093    0.1261852 -56.33  0.001007985    1.919    0.479
        64  -9.5349     77.9783     77.9977   5.0159970676e+01   5.1590316769e+01    0.1670822    0.1541411 -15.97 0.0009611599    1.016    0.016
        65 -10.6730      3.0781     75.1029   7.7920405955e+01   6.0490418780e+01    0.1972445     0.133189 -40.53 0.0005317656    1.242    0.195
        66  -9.2292     11.6582     72.6962   7.3978408953e+01   6.0505146086e+01    0.1332004   0.07296006 -34.22   0.00070401    1.680    0.405
        67 -12.1741     64.1024     69.5623   5.2449252725e+01   5.5485932038e+01    0.2508753    0.2178181 -28.59 0.0003121416    1.080    0.074
        68 -12.2587     35.1055     68.7597   6.3438874778e+01   5.9357454724e+01    0.3842975    0.3131134 -70.25  0.002320642    1.538    0.350
        69  -9.0444     82.9751     68.2140   4.5407202439e+01   5.2604310508e+01    0.1748457    0.1100876  39.51            0    1.572    0.364
        70 -10.2491      7.7821     68.5474   7.4611657658e+01   6.1629858824e+01    0.2169483     0.142089 -57.56 0.0005970771    1.307    0.235
        71  -9.9533     70.0128     66.0368   4.9178707710e+01   5.5231936515e+01    0.2104963    0.1839753  -7.18 0.0005099145    1.065    0.061
        72 -10.3840      4.4400     64.1382   7.4988047055e+01   6.2745941904e+01    0.2278173    0.1587748 -41.36 0.0007119175    1.143    0.125
        73 -11.4119      4.0316     58.4625   7.3801694287e+01   6.3933378313e+01     0.437146     0.171616 -49.59   0.00222763    1.876    0.467
        74  -9.8042    126.3134     64.1171   3.1531937333e+01   4.4386256599e+01    0.1840296    0.1784985 -52.58 0.0002710623    1.087    0.080
        75 -10.2632     99.0841     61.4908   3.8117704087e+01   5.0700467305e+01    0.3677831    0.2595542 -69.27  0.001683232    2.265    0.559
        76 -10.8416     43.4482     62.4120   5.8157012917e+01   5.9688023482e+01    0.2447589    0.2078656 -18.77 0.0004722039    1.021    0.020
        77  -9.4699     34.9592     60.9590   6.1193207713e+01   6.0934572146e+01    0.1498185    0.1273071 -11.09 0.0003537511    1.083    0.077
        78 -10.0392    233.0508     59.9401   1.2277400374e+01   2.0657965911e+01    0.2208171    0.1292992  41.31  0.001046794    2.693    0.629
        79  -9.0662     56.7477     59.9991   5.2116717508e+01   5.8386155542e+01    0.1601295    0.1060319 -40.81  0.000306674    1.441    0.306
        80 -12.0149     23.8570     57.0533   6.4739687017e+01   6.2783186257e+01    0.3742607    0.2896134 -23.50  0.002422314    1.113    0.101
        81 -10.0278     10.0078     57.0080   7.0802428476e+01   6.3862920320e+01    0.1505527    0.1137092 -42.21 0.0004703199    1.076    0.071
        82 -10.9376    247.1339     52.5658   9.2902876511e+00   1.8890974398e+01    0.2180431    0.1520824 -38.66 0.0008700689    1.439    0.305
        83  -9.6982     77.9258     55.5161   4.2868859588e+01   5.5754199952e+01    0.2019178    0.1276347  39.80 0.0006048681    1.537    0.349
        84 -10.0064     63.7402     52.5393   4.6900127296e+01   5.8651445935e+01    0.4563478    0.1104158 -44.99  0.001438669    4.461    0.776
        85  -9.5966     84.2463     57.4690   4.1421470676e+01   5.4272145982e+01    0.1835475    0.1294312  52.14 0.0009340166    1.593    0.372
        86  -9.7004     68.9972     51.4954   4.4598235060e+01   5.7969834160e+01    0.2040056    0.1238479  36.54 0.0009590499    1.595    0.373
        87 -11.5910     94.0150     48.5786   3.5281853502e+01   5.3794213453e+01    0.2375319    0.1915089 -26.51 0.0001695586    1.287    0.223
        88 -11.0102     52.2848     46.1531   4.9041396778e+01   6.1455411656e+01    0.4085198    0.2316096  25.40  0.001755513    1.789    0.441
        89 -10.3370     38.8098     43.8043   5.3807897877e+01   6.3637595115e+01    0.2641394    0.1955743  27.55  0.001579276    1.397    0.284
        90  -9.9827     32.8334     44.0397   5.6516558848e+01   6.4292614013e+01    0.1716198    0.1589481 -16.16 0.0006938135    1.253    0.202
        91  -9.1913     20.6922     44.6918   6.2258682439e+01   6.5391206898e+01     0.126909   0.07474482 -23.19  0.000256947    1.614    0.380
        92 -10.6240    119.0605     42.4623   2.6467202260e+01   4.9285585280e+01    0.2692571     0.201987 -29.46  0.000732612    1.453    0.312
        93  -9.3949     71.3766     41.7819   4.0208770197e+01   5.9092479787e+01    0.1811713    0.1164586 -22.41 0.0009454219    1.643    0.391
        94  -9.2655    185.5753     41.5022   1.3977441636e+01   3.3757047154e+01    0.1320623    0.1189016 -89.39 6.444094e-05    1.041    0.040
        95 -10.2428    158.9300     39.1051   1.7417518610e+01   4.0379066546e+01    0.2005581    0.1792516  79.25 0.0003393075    1.017    0.017
        96  -9.2704     96.0297     38.0300   3.0981443794e+01   5.4882404734e+01    0.1600788    0.1365695  37.61 0.0003765105    1.056    0.053
        97 -11.3114     39.9325     35.8233   5.0315291691e+01   6.4802418105e+01    0.4262302    0.1967345  35.27  0.002134856    2.182    0.542
        98  -9.6454    174.0649     34.4484   1.3812122395e+01   3.7371053605e+01    0.1938292    0.1704973 -56.95 0.0005165144    1.164    0.141
        99  -9.6887    119.3103     35.0384   2.3984938579e+01   5.0193335782e+01    0.1780765    0.1684731   1.46 0.0004391812    1.142    0.124
       100  -9.9837     25.9171     32.7171   5.5494743286e+01   6.6936982193e+01    0.3514769    0.1573787 -22.78  0.001554262    2.907    0.656
       101 -10.5386    153.3658     32.2594   1.6434787766e+01   4.2558977024e+01    0.2735985    0.1943732  37.46 0.0007810069    1.628    0.386
       102 -10.4958      7.2519     32.6530   6.4660017177e+01   6.8597446252e+01    0.2032928    0.1660908  -5.75 0.0006332997    1.183    0.155
       103 -10.6266      3.4994     31.0637   6.6025769071e+01   6.9128566731e+01     0.187132    0.1604582  14.33 0.0003440143    1.409    0.290
       104  -9.4866    139.4714     32.5759   1.9003576445e+01   4.5816667572e+01    0.1348368    0.1195734  64.82 1.507522e-05    1.011    0.011
       105  -9.5623     48.4872     32.4693   4.5346019215e+01   6.4140062918e+01    0.1271179    0.1017738   1.53 0.0008088867    1.066    0.062
       106 -10.4748     17.6055     31.3348   5.8991363071e+01   6.7979342765e+01    0.1934012    0.1645844 -28.79 0.0004849936    1.240    0.193
       107  -9.1730     92.4396     31.1749   2.9533033553e+01   5.6504537434e+01    0.1558412     0.123209 -41.97 0.0002996666    1.486    0.327
       108  -9.8559    104.3909     29.5363   2.5722960236e+01   5.4175201527e+01    0.2741665    0.1484648 -38.23  0.001332221    2.068    0.516
       109 -11.0327    161.7796     27.0508   1.3654992801e+01   4.1170196454e+01    0.4060819    0.2323438  79.58  0.001759342    1.817    0.450
       110 -10.4101    120.5614     25.9637   2.0734712579e+01   5.0977272610e+01    0.4077015    0.1735444  44.39  0.001732624    2.282    0.562
       111 -10.1820     46.9619     26.7686   4.3648056142e+01   6.5170902348e+01    0.1898757    0.1512037 -15.41 0.0003437916    1.161    0.139
       112  -9.0860     60.6249     26.1653   3.7998936264e+01   6.3103258562e+01    0.1680733    0.1066442 -14.79 0.0006322706    1.676    0.403
       113  -9.4925    133.3185     24.9745   1.7851973417e+01   4.8136253139e+01    0.2140305   0.07525866 -48.83 0.0007049207    4.340    0.770
       114  -9.8501     88.1296     24.9303   2.8450756869e+01   5.8128485998e+01    0.1989701       0.1429 -56.70  0.001072916    2.036    0.509
       115  -9.1756     83.4897     25.4293   3.0009764936e+01   5.9000020956e+01    0.1279124    0.1109602  31.45 0.0001272081    1.036    0.035
       116  -9.7159    239.3844     24.2130   4.3799216219e+00   2.4150920825e+01    0.1663037   0.08754309 -49.72 0.0006203788    1.600    0.375
       117  -9.5626    128.7772     24.0388   1.8434051493e+01   4.9296398637e+01    0.1718561    0.1609137  51.46  0.000406458    1.076    0.070
       118  -9.4589    111.5298     24.5652   2.2273977773e+01   5.3170296261e+01    0.1306889    0.1153037  51.79  3.90579e-05    1.036    0.035
       119 -11.5485     97.0042     22.1611   2.4988112416e+01   5.6594539127e+01    0.3558022    0.2278637  65.02 0.0006118149    1.707    0.414
       120 -10.5864     38.2447     22.7510   4.5708676567e+01   6.6944371426e+01    0.2119254    0.1601536   0.89 0.0003116736    1.115    0.103
       121 -10.5202    142.0351     22.4676   1.5523362060e+01   4.6360351509e+01    0.2069233     0.116249  65.60 0.0007288219    1.581    0.367
       122  -9.7363     72.8686     22.4932   3.2207594956e+01   6.1381545337e+01    0.1832953    0.1098421  44.27 0.0005712261    1.489    0.328
       123 -10.3761    159.0602     20.3139   1.2223126178e+01   4.2562000317e+01    0.1859505    0.1500374  77.96 0.0004706263    1.090    0.082
       124  -9.8355    109.5080     19.4598   2.0984829185e+01   5.4161646675e+01    0.2024093    0.1248539  -4.77 0.0007532714    2.157    0.536
       125  -9.4312     85.1285     20.3864   2.7587092761e+01   5.9240957878e+01    0.1752816    0.1134897  62.46 0.0006425156    1.758    0.431
       126  -9.0801     66.5190     20.5223   3.3551903731e+01   6.2769163397e+01    0.1251889    0.1042228  20.62 2.935031e-05    1.005    0.005
       127 -10.6771      1.4586    240.7251   9.4957025287e+01   2.2750696776e+01    0.2950032    0.1010755 -76.06 0.0008649429    2.559    0.609
       128 -10.4902     19.9344     15.9398   5.1470089574e+01   7.0092764153e+01    0.1886546    0.1366802   9.12 0.0004177786    1.186    0.157
       129 -11.0829      2.9017    234.7932   9.4400395844e+01   2.3806696294e+01    0.3078199     0.207771  72.55  0.001162799    1.130    0.115
       130 -11.0799      4.6537     19.6096   6.1145465788e+01   7.0938017977e+01    0.2640195    0.1590146  -2.64  0.001059507    1.535    0.349
       131 -10.1036     14.9964     17.7224   5.4812459796e+01   7.0339433439e+01    0.2030546    0.1486387  -3.41  0.000714803    1.108    0.097
       132 -10.2786     11.5082     17.5525   5.6586469977e+01   7.0688348257e+01    0.3029499    0.1378926 -26.09  0.001620405    2.144    0.534
       133  -9.5512     48.5385     19.5423   3.9918298415e+01   6.5880173892e+01    0.1216938   0.09809819   9.88 7.378314e-05    1.002    0.002
       134 -10.3190    147.5382     17.9808   1.3310910012e+01   4.5531249206e+01    0.1710267    0.1302395 -28.26 0.0003474807    1.523    0.343
       135 -10.5404    206.9929     15.6786   5.4532887197e+00   3.2009908776e+01    0.1720251    0.1314022  88.93 0.0003227361    1.108    0.097
       136 -10.7924     31.4146    237.7207   8.9161987426e+01   2.0246504514e+01     0.221508    0.1021671 -82.28  0.001143933    2.132    0.531
       137 -11.1570      5.5556    230.1584   9.3661493193e+01   2.4504567010e+01    0.2252079    0.1287486  63.11 0.0006475843    1.419    0.295
       138 -11.4170     93.8627    228.3011   7.5208555552e+01   1.3972110430e+01    0.4638211    0.1837944  50.19  0.001869982    2.547    0.607
       139 -10.3852      6.6028    226.3164   9.3249116904e+01   2.5204641319e+01    0.1520099   0.09019626 -74.00 0.0009407015    1.559    0.359
       140  -9.9312     85.3526     15.7253   2.5722491643e+01   5.9682345114e+01    0.3305042    0.1282926  54.07  0.001462287    2.279    0.561
       141  -9.8553     65.9311     16.1702   3.1942465235e+01   6.3362356973e+01    0.1684604    0.1492903  27.17 0.0003020638    1.149    0.130
       142 -12.2266      3.0285    218.9764   9.3525047520e+01   2.7090800240e+01    0.5656024    0.2905174  75.30  0.002501995    1.694    0.410
       143 -12.0527      3.5257    215.4845   9.3225959803e+01   2.7794657231e+01    0.5103956    0.2371656  88.56  0.002018941    1.910    0.476
       144  -8.7464     31.6759    220.3196   8.7826934314e+01   2.3900584798e+01    0.1334061   0.07358596  64.79 0.0004426606    1.675    0.403
       145  -9.6657    110.9785     14.0217   1.8790159246e+01   5.4369355300e+01    0.2932059    0.1127979  59.65  0.001267549    2.210    0.548
       146 -11.3236     22.0396    218.6286   8.9693520700e+01   2.5308149108e+01     0.276814    0.2193964 -62.21  0.001850728    1.458    0.314
       147 -11.3821     19.6608    215.1128   8.9932800322e+01   2.6322166302e+01    0.3134136    0.2179997  80.74  0.001684524    1.198    0.165
       148 -10.3407     37.4028    217.1940   8.6365552536e+01   2.3937900437e+01    0.2525006    0.1700403  80.67  0.001493618    1.341    0.255
       149 -10.2479     11.0233    216.4968   9.1789665752e+01   2.6875387270e+01    0.2195885    0.1326483 -66.71 0.0008257502    1.635    0.388
       150  -9.6966     74.3259    209.6820   7.7371635421e+01   2.0880747628e+01    0.1446265   0.09138706  65.92 0.0007045504    1.676    0.403
       151 -12.6107      7.3394    203.6450   9.1707928097e+01   3.0049991336e+01    0.6391187    0.5034714  68.70  0.004085123    1.102    0.092
       152 -12.6712      4.4230    197.6410   9.1922699883e+01   3.1656792805e+01    0.6855371    0.3814547  81.44  0.003905077    1.576    0.365
       153 -10.5124     41.1644    206.1635   8.4557829360e+01   2.5981178931e+01    0.1901355    0.1289639  71.64   0.00107724    1.364    0.267
       154 -12.7679     20.9348    198.8320   8.8422071157e+01   2.9852694925e+01    0.5555472    0.3711315  25.26  0.003272256    1.826    0.452
       155 -12.0597     32.3656    203.0274   8.6238124133e+01   2.7695177589e+01    0.3230941    0.2283094  85.08  0.001933832    1.248    0.199
       156 -10.3879     87.8516    201.1566   7.3089985281e+01   2.0838991156e+01    0.1811142    0.1663079 -30.79 0.0004248175    1.310    0.237
       157 -13.7326     28.7329    188.3809   8.5724203436e+01   3.1500004300e+01    0.8395966    0.5336364  83.15  0.004635767    1.482    0.325
       158 -10.1126    244.0000    179.9852   3.5550853336e+01  -1.4590833975e+00    0.2144135   0.06412803 -40.01 0.0008000648    2.926    0.658
       159 -12.7464     10.4107    179.0966   8.9195965810e+01   3.5430426678e+01    0.5886081     0.336704  74.24  0.003196108    1.683    0.406
       160 -11.6334      8.8098    187.4169   9.0227854173e+01   3.3619581428e+01    0.3390466    0.1944376 -46.59  0.001819331    2.203    0.546
       161 -12.5194     86.6854    185.8993   7.1171564847e+01   2.4603619768e+01    0.4182171    0.3427641  59.63   0.00227861    1.187    0.157
       162 -10.7480     31.7691    166.7512   8.2703031609e+01   3.6418347655e+01    0.2282019    0.1261987  67.19  0.001063799    2.066    0.516
       163 -11.6939     27.0888    161.9469   8.3369074351e+01   3.8063976354e+01    0.3869354    0.2631916 -18.14  0.002014092    2.192    0.544
       164 -12.1300     19.2836    160.6747   8.5265424522e+01   3.9094106199e+01    0.4478759    0.2115118  22.35  0.002119684    2.581    0.613
       165  -8.9838      3.6960    157.2816   8.8933361367e+01   4.1161627662e+01    0.1244058   0.07959839  68.45 0.0002097306    1.554    0.356
       166 -10.0329     25.0539    146.4657   8.2045173362e+01   4.2078545334e+01    0.1814263    0.1337356  21.53  0.001036594    1.623    0.384
       167  -9.7211     75.0945    144.1022   6.7218935339e+01   3.6700017861e+01    0.2066609    0.1872719 -42.06  0.001133289    1.140    0.123
       168 -11.2725      2.7907    140.5269   8.7540737070e+01   4.5258768572e+01    0.4354718    0.2083489 -48.19  0.002181303    2.075    0.518
       169 -11.4298    245.9883    137.7210   2.6839027669e+01   5.4208929704e+00    0.1813138    0.1681739 -31.62  0.001172136    1.095    0.087
       170  -9.1234     56.2906    138.6524   7.1763356383e+01   4.0661468715e+01    0.1462192    0.1050351  76.54 0.0005885939    1.663    0.399
       171  -9.2449     28.5775    138.4508   7.9955614225e+01   4.3743394360e+01    0.1340152    0.1135471 -66.16 7.109917e-05    1.041    0.040
       172 -10.6552     17.7660    132.1802   8.2274737844e+01   4.6215821619e+01    0.2598504    0.1957272  61.96  0.001041223    1.461    0.316
