#   1 NUMBER                 Running object number                                     
#   2 MAG_AUTO               Kron-like elliptical aperture magnitude                    [mag]
#   3 X_IMAGE                Object position along x                                    [pixel]
#   4 Y_IMAGE                Object position along y                                    [pixel]
#   5 X_WORLD                Barycenter position along world x axis                     [deg]
#   6 Y_WORLD                Barycenter position along world y axis                     [deg]
#   7 A_WORLD                Profile RMS along major axis (world units)                 [deg]
#   8 B_WORLD                Profile RMS along minor axis (world units)                 [deg]
#   9 THETA_WORLD            Position angle (CCW/world-x)                               [deg]
#  10 FWHM_WORLD             FWHM assuming a gaussian core                              [deg]
#  11 ELONGATION             A_IMAGE/B_IMAGE                                           
#  12 ELLIPTICITY            1 - B_IMAGE/A_IMAGE                                       
         1 -12.1000     89.1107     10.3657   8.5897436370e+01   6.2790730591e+01    0.3200637    0.2504926 -29.17 0.0007361097    1.323    0.244
         2 -10.4237    156.0120      8.4899   7.1343130133e+01   4.4853870436e+01    0.2426313    0.1395892  74.84  0.001049953    1.649    0.393
         3 -11.0218    144.8291      7.2435   7.2421335479e+01   4.8120915022e+01    0.3580192    0.2010985 -47.91  0.001411403    1.892    0.472
         4  -9.9539    153.9734      1.7558   6.9113777883e+01   4.6036813582e+01    0.1767167    0.1162349  73.65 0.0008245314    1.400    0.286
         5 -10.9197    144.6185      1.3313   7.0138200807e+01   4.8710033643e+01    0.2565778    0.1311875  79.10  0.001042096    1.911    0.477
         6 -14.4334    190.9007    192.5301   1.1324105359e+02   9.2506528215e+00    0.8996556    0.6727743 -82.51  0.004535577    3.426    0.708
         7 -17.1635    162.9584    115.7798   1.0372763040e+02   2.6674392497e+01     5.548689     2.803326  46.23    0.0139995    1.869    0.465
         8 -16.7939    179.9641     80.3056   9.0841643394e+01   2.8768721354e+01     3.121521     2.436578 -88.57   0.01502356    1.620    0.383
         9 -18.0823    226.2763    143.3118   9.7866943380e+01   9.6470617231e+00     13.60365     1.647655 -33.13   0.03462205    7.474    0.866
        10 -11.9701    175.3289    163.7826   1.1129085880e+02   1.6047025535e+01    0.2572039    0.1711748  38.33 0.0008251399    1.306    0.234
        11 -11.3781    162.6591    166.2308   1.1436203919e+02   1.7980282025e+01    0.2412154    0.1854704  55.38 0.0006053473    1.435    0.303
        12 -13.8141     34.8620    157.0359   1.4453891693e+02   3.9529061615e+01    0.9674622    0.4741071  75.62  0.004856847    2.060    0.514
        13 -14.9509     68.9147    155.4358   1.3537550204e+02   3.5823814774e+01     1.041821    0.6186191  69.90 0.0008679152    1.830    0.453
        14 -14.2949     75.4713    150.5416   1.3300445908e+02   3.5976956675e+01    0.7717209    0.4951042  65.52  0.002354562    1.603    0.376
        15 -15.7791     80.0495    146.0124   1.3113380962e+02   3.6303902590e+01     2.002404     1.155389  39.33  0.006524992    1.566    0.361
        16 -13.4488    173.0064    151.4500   1.0940228644e+02   1.8447581369e+01    0.4550121    0.3024785 -52.69  0.002274572    1.956    0.489
        17 -17.1569    192.1395     54.1927   8.1221936265e+01   2.9595649709e+01     10.96469     5.411148  65.04   0.04440315    2.103    0.525
        18 -10.4609    126.5197    196.4987   1.2678276383e+02   1.9156996701e+01    0.1288394    0.1017031  43.69 0.0002794844    1.043    0.041
        19 -12.8303    132.6323    140.2452   1.1631222929e+02   2.8360460455e+01    0.6464345    0.2545395 -56.49  0.002220265    3.528    0.717
        20 -12.2846    134.2681    147.1753   1.1725712246e+02   2.6695245746e+01    0.5173144    0.2585814 -49.91  0.002237398    2.257    0.557
        21 -12.0181    206.1437    172.0968   1.0693470063e+02   9.3972462014e+00    0.2184447    0.1552244  31.47 0.0003423443    1.202    0.168
        22 -12.5894    202.2345    172.4191   1.0770049700e+02   1.0019996386e+01    0.2444147    0.1923255  54.86  0.001254957    1.651    0.394
        23 -13.6718    249.0643    136.9269   9.3057280384e+01   6.5083767636e+00    0.5011812    0.2389541 -30.24  0.002203049    1.920    0.479
        24 -13.5131    183.6075    159.9231   1.0890613892e+02   1.5113689735e+01    0.3951683    0.3767394  40.38  0.002540339    1.233    0.189
        25 -11.0986    234.6414    133.4827   9.4489992401e+01   9.4121784806e+00    0.1990493    0.1138724  39.72 0.0006687923    1.707    0.414
        26 -12.8757    125.3743    130.3550   1.1612868779e+02   3.1774118184e+01    0.4668429    0.2568963 -53.48  0.001616401    2.024    0.506
        27 -11.2054    102.8492    129.4728   1.2201350805e+02   3.6217646926e+01    0.4384991    0.2818713  83.09  0.001857266    2.337    0.572
        28 -11.5239    122.7839    155.5437   1.2155192073e+02   2.7192339311e+01     0.272302    0.1996209  51.08 0.0009890067    1.257    0.204
        29 -12.1939    218.6160    121.5320   9.4432064907e+01   1.3992162077e+01    0.3099362    0.2358404  62.46  0.001248009    1.670    0.401
        30 -10.2993    246.3563    117.4938   8.9338510005e+01   9.3053975989e+00    0.2970692     0.105289  45.25  0.001261165    2.850    0.649
        31 -17.3496    156.2832     83.2829   9.6560130692e+01   3.4099112400e+01     6.326298     3.168674 -53.76   0.02232542    2.702    0.630
        32 -10.3106     24.0217    105.0171   1.4316149842e+02   5.2631784040e+01    0.1546727    0.1342317  82.72  0.000655247    1.017    0.017
        33 -11.6705    203.6267    100.2596   9.1899880008e+01   2.0171213248e+01     0.594119    0.3668905 -63.11   0.00242678    2.746    0.636
        34 -10.5419     85.0758     95.3228   1.2002935578e+02   4.7193031417e+01    0.1971187    0.1775503  57.99 0.0002780119    1.083    0.077
        35 -12.5423    200.3336    192.8590   1.1156895406e+02   7.6945816450e+00    0.2376444     0.146962  30.79 0.0006574826    1.317    0.241
        36 -12.1153    247.9173     78.6774   8.0312007598e+01   1.3755625777e+01    0.4836065    0.2207801  39.34  0.002108753    2.742    0.635
        37 -13.6542    235.1580    185.6142   1.0441235826e+02   3.1608940474e+00     0.416368    0.2675582 -15.58  0.001578778    1.490    0.329
        38 -10.4498     60.6984     78.9334   1.2479794266e+02   5.5002705530e+01    0.1989182    0.1708276 -70.38 0.0003725553    1.121    0.108
        39 -10.8975      7.3073     76.3066   1.4644437463e+02   6.0734340137e+01    0.1268786    0.0788792 -49.68            0    1.609    0.379
        40 -11.6046     13.1088     60.0278   1.4171186486e+02   6.4393506272e+01    0.1945868    0.1645768 -73.76 0.0005331659    1.017    0.016
        41 -10.4855     64.7867    190.8674   1.3993270303e+02   2.9099819385e+01    0.1723471    0.1105559  58.14 0.0003840686    1.315    0.240
        42 -13.2962     18.0311    151.4224   1.4858855620e+02   4.2331318957e+01    0.7896659    0.3575044  83.23  0.004026091    2.067    0.516
        43 -14.9572     32.1629    178.3134   1.4661190978e+02   3.5319001505e+01     1.171105    0.5010757  57.15  0.006131331    1.949    0.487
        44 -12.9618     96.4602     42.5686   9.8781939645e+01   5.6152528708e+01     0.358263    0.3110234 -46.85  0.001874154    1.194    0.163
        45 -11.7542     17.3773     38.8515   1.3499944169e+02   6.9193290002e+01    0.1866798    0.1707699  42.43 0.0004513999    1.258    0.205
        46 -14.5879     23.5492    166.3972   1.4801156677e+02   3.8620331467e+01     1.023129    0.4602616  79.63  0.005266075    2.142    0.533
        47 -10.7254     78.4906     22.8168   9.6190055723e+01   6.3527161001e+01    0.2100077    0.1389409 -32.96  0.001007074    1.515    0.340
        48 -15.4677     49.0448    168.7372   1.4183950680e+02   3.5469396042e+01     1.274889    0.8000435  88.42  0.004530337    1.580    0.367
        49 -10.5167    180.3811     12.3192   6.9756238007e+01   3.7721090003e+01    0.1402263    0.1262151 -87.10 0.0003196713    1.043    0.041
        50 -15.7531      8.6120    198.4333   1.5268387474e+02   3.3602191502e+01    0.8968054    0.6009761 -31.39  0.005591244    2.925    0.658
        51 -13.0331    184.7162    169.3332   1.1044245924e+02   1.3511093184e+01    0.5271089    0.3133766 -66.55  0.001744336    6.148    0.837
        52 -12.4028    179.8540    165.1106   1.1062663654e+02   1.5015706767e+01    0.2737549    0.2105887  71.79   0.00137938    2.027    0.507
        53 -12.4758    208.2086    205.2303   1.1214623578e+02   5.0031043647e+00    0.3053909    0.1567942  38.98 0.0009941111    1.637    0.389
