#   1 NUMBER                 Running object number                                     
#   2 MAG_AUTO               Kron-like elliptical aperture magnitude                    [mag]
#   3 X_IMAGE                Object position along x                                    [pixel]
#   4 Y_IMAGE                Object position along y                                    [pixel]
#   5 X_WORLD                Barycenter position along world x axis                     [deg]
#   6 Y_WORLD                Barycenter position along world y axis                     [deg]
#   7 A_WORLD                Profile RMS along major axis (world units)                 [deg]
#   8 B_WORLD                Profile RMS along minor axis (world units)                 [deg]
#   9 THETA_WORLD            Position angle (CCW/world-x)                               [deg]
#  10 FWHM_WORLD             FWHM assuming a gaussian core                              [deg]
#  11 ELONGATION             A_IMAGE/B_IMAGE                                           
#  12 ELLIPTICITY            1 - B_IMAGE/A_IMAGE                                       
         1 -11.8686    223.2097     21.0237   3.8520768481e+01   2.7576978943e+01    0.6608433    0.5690197 -57.33  0.003021018    1.108    0.097
         2 -12.4281    207.0520     36.6387   4.3435468001e+01   2.9172748574e+01    0.9887753    0.8701236 -25.31  0.006023591    1.311    0.237
         3 -11.3558      1.9867     36.7052   1.0783080585e+02   6.9966658498e+01     1.527979    0.2111476 -63.64  0.003584697    9.198    0.891
         4 -10.6008      2.0127     21.0297   1.0204961755e+02   7.3083206688e+01    0.6874753    0.1943923 -56.18  0.002784021    3.336    0.700
         5 -10.1149      2.0000      8.5855   9.6153642734e+01   7.5303134944e+01    0.8158299    0.1339871 -51.13   0.00261834    5.781    0.827
         6 -10.1368    245.9748      2.1280   3.3318938452e+01   2.5111837048e+01    0.5176868    0.1833581  81.13  0.002678833    2.850    0.649
         7  -8.5925     48.8100    225.1658   1.1939317976e+02   2.0620186735e+01    0.1540865    0.1394503   6.41            0    1.307    0.235
         8 -11.5628     86.3930    225.6890   1.1065889339e+02   1.5953857364e+01    0.9025227    0.6428764 -70.53  0.002085828    1.659    0.397
         9 -12.2099     19.3320    220.4840   1.2574375543e+02   2.4583558738e+01     1.060134    0.6859275  15.94  0.006287891    1.823    0.451
        10 -12.2048      3.4927    183.4602   1.2736355331e+02   3.4144498976e+01     1.686375    0.4278763 -82.66  0.005963561    3.917    0.745
        11 -14.2067      5.9373    142.5495   1.2381086127e+02   4.4005336317e+01     7.188725     2.226983 -87.84   0.02362886    3.977    0.749
        12 -13.3797     44.3099    194.9003   1.1785322608e+02   2.7789310198e+01     2.401993     1.212486  59.49  0.009751988    2.194    0.544
        13 -13.8750      7.2636    240.1900   1.2922892540e+02   2.1677052008e+01     1.896102     1.372549 -85.63   0.01356199    1.391    0.281
        14 -10.5227     44.2374    217.4362   1.1983804404e+02   2.2752358699e+01     0.477462    0.2586218 -87.77  0.002417991    2.102    0.524
        15  -7.7063    109.8027    201.0310   1.0171720039e+02   1.7789990121e+01    0.1720143     0.112841 -55.65            0    1.693    0.409
        16  -8.2603     98.7710    181.2624   1.0151255526e+02   2.3857487772e+01    0.2302727    0.1032849 -45.98 0.0008800691    2.395    0.582
        17 -10.4450     61.9676    177.7498   1.1118263045e+02   2.9837831138e+01     0.500902    0.3061513 -31.93   0.00196978    2.177    0.541
        18 -10.2289     67.2761    172.3983   1.0895320174e+02   3.0473030958e+01    0.3729702    0.2828346 -24.38 0.0008123917    1.590    0.371
        19  -9.1591     49.3626    217.4053   1.1862593958e+02   2.2197153916e+01    0.3116671    0.2043991   1.20  0.001609522    2.167    0.538
        20  -8.8168     53.4604    230.6545   1.1877261666e+02   1.8973832348e+01    0.2127301    0.1924883 -60.57 0.0007624364    1.298    0.230
        21  -9.1226     59.9841    232.0067   1.1740530839e+02   1.7952674183e+01    0.2351026    0.1746991  89.19 0.0004781667    1.486    0.327
        22 -10.8530     85.0087    163.9918   1.0250599341e+02   3.0064564455e+01    0.9200928    0.3731165  51.22  0.002882372    3.610    0.723
        23 -10.7959     58.5125    134.5535   1.0560421245e+02   4.1226896656e+01     0.616308    0.3016002 -73.88  0.002279647    2.580    0.612
        24 -10.8658     74.8292    154.2270   1.0386736789e+02   3.3981336932e+01    0.6850587    0.3885086 -50.20    0.0029666    1.749    0.428
        25 -10.3195     76.7727    162.8114   1.0472696489e+02   3.1555145252e+01    0.4062568    0.2697903 -52.30 0.0004666088    1.510    0.338
        26 -11.0825     83.7034    156.3854   1.0156123094e+02   3.2139863901e+01    0.7973893    0.5145305 -24.98 0.0009822584    2.046    0.511
        27 -11.7859     64.2167    158.7321   1.0783409339e+02   3.4285460764e+01    0.5705775    0.3361894 -41.03  0.001311722    1.898    0.473
        28  -8.8434     33.4707    156.0081   1.1679353593e+02   3.8434344465e+01    0.2143083    0.1271262 -71.81  0.001029827    1.586    0.369
        29 -13.3125     61.5428    246.3673   1.1823576617e+02   1.4981972662e+01     3.289699    0.9465657  24.37  0.005342715    4.218    0.763
        30  -9.2992     32.6512    144.3405   1.1562673517e+02   4.1512367266e+01    0.4205306    0.1642661 -76.10  0.001551521    2.731    0.634
        31  -9.2504     99.3299    140.9420   9.3783979334e+01   3.3427368377e+01    0.6211404    0.3409427 -21.37  0.001986379    3.446    0.710
        32 -10.6283     86.3622    140.8288   9.7759960047e+01   3.5611418271e+01    0.3473785    0.2840864 -32.29 0.0007918141    1.271    0.213
        33 -12.0097     32.3344    248.6791   1.2455107787e+02   1.7703958987e+01     1.375275    0.5531503  33.24  0.007253539    1.977    0.494
        34  -8.8171    109.0465    131.4779   8.8719125116e+01   3.3960696937e+01    0.3888927    0.2817907  32.17   0.00136896    1.372    0.271
        35  -9.4980     96.6845    127.2668   9.1518582501e+01   3.7220177831e+01    0.3349766    0.2603735 -13.12 0.0009015093    1.493    0.330
        36 -11.9147     68.2929    144.4939   1.0419609845e+02   3.7370592739e+01    0.9403962    0.6576568  76.87  0.003165715    1.885    0.470
        37 -13.0930      9.0693    207.5812   1.2735121026e+02   2.8247079037e+01     1.197882    0.9927673   4.77   0.00649862    1.530    0.346
        38  -8.5019    105.7499    130.7659   8.9541949586e+01   3.4739771113e+01    0.4074861    0.1944231 -57.97  0.001429803    2.502    0.600
        39  -8.1300    106.5452    119.4888   8.6541908418e+01   3.7256683261e+01    0.1578761    0.1507845  -5.33 7.808014e-05    1.006    0.006
        40  -7.2551     80.6520    116.6771   9.4259806224e+01   4.2556005139e+01     0.165668    0.1170645 -17.21 0.0007049342    1.743    0.426
        41  -8.0539    205.5654    110.4708   6.1093149657e+01   1.8643718412e+01    0.1383103    0.1232807 -29.95 0.0001802423    1.015    0.015
        42  -8.1590     41.4256     92.2093   1.0316647856e+02   5.4067667504e+01    0.1920065    0.1366772 -70.29 0.0003697473    1.551    0.355
        43  -8.2489    250.0386     88.4512   5.0177081940e+01   1.3950746120e+01    0.1519242    0.0977903  28.42 0.0008077162    2.471    0.595
        44 -10.3426      1.8125     63.7586   1.1489513415e+02   6.3951040650e+01    0.5195661    0.1019619 -63.92  0.001808218    3.442    0.709
        45  -8.0208     47.6801     62.0385   9.1648064451e+01   6.0266858313e+01    0.1944069    0.1653442 -25.36 0.0003576118    1.070    0.066
        46  -9.7815     13.5227     60.1230   1.0804298742e+02   6.4172499214e+01    0.2162778    0.1749411  -5.42 0.0004334318    1.227    0.185
        47 -11.4405     34.5793    204.7718   1.2114517773e+02   2.6544093933e+01    0.4461987    0.3643314 -37.06   0.00104859    1.519    0.342
        48 -10.6714    113.7075    237.0829   1.0567237190e+02   1.0109977737e+01    0.4053758    0.3290551 -54.15   0.00235345    1.483    0.326
        49 -11.4947    198.5672     42.4921   4.5748924584e+01   3.0301808506e+01    0.4450977     0.342351  54.23  0.001436268    1.427    0.299
        50 -11.2532    141.8554    229.4075   9.8290787523e+01   7.5651992923e+00    0.5954738    0.3436846  12.24  0.002871074    1.944    0.486
        51 -12.1377    129.1427    231.7773   1.0148867961e+02   8.9375534590e+00     1.092628    0.7151811  17.71  0.005945974    1.441    0.306
        52 -12.5947    111.0153    229.3293   1.0532513323e+02   1.1917567989e+01     2.183707    0.4284987  33.41  0.006923757    3.896    0.743
        53 -10.2087    164.6161    225.5226   9.2690533982e+01   5.0025623792e+00    0.3747981     0.186425 -27.86  0.001701595    2.422    0.587
        54 -10.8205    215.8472     28.5023   4.0750604924e+01   2.8261253866e+01    0.4139179    0.3401834  39.16   0.00113902    1.623    0.384
        55  -8.0565    138.9896     37.0199   5.2973395679e+01   4.5093504888e+01    0.2122498    0.1584107 -71.82 0.0004633638    1.569    0.362
