#   1 NUMBER                 Running object number                                     
#   2 MAG_AUTO               Kron-like elliptical aperture magnitude                    [mag]
#   3 X_IMAGE                Object position along x                                    [pixel]
#   4 Y_IMAGE                Object position along y                                    [pixel]
#   5 X_WORLD                Barycenter position along world x axis                     [deg]
#   6 Y_WORLD                Barycenter position along world y axis                     [deg]
#   7 A_WORLD                Profile RMS along major axis (world units)                 [deg]
#   8 B_WORLD                Profile RMS along minor axis (world units)                 [deg]
#   9 THETA_WORLD            Position angle (CCW/world-x)                               [deg]
#  10 FWHM_WORLD             FWHM assuming a gaussian core                              [deg]
#  11 ELONGATION             A_IMAGE/B_IMAGE                                           
#  12 ELLIPTICITY            1 - B_IMAGE/A_IMAGE                                       
         1 -11.3029    212.0302     34.7214   4.0203727395e+01   2.8295383030e+01    0.8508248    0.5752771 -62.92  0.004719961    1.441    0.306
         2 -11.1046    219.9398     28.5410   3.7921788129e+01   2.7290058225e+01    0.5767878    0.4048414  37.49  0.001685589    2.003    0.501
         3 -10.4967      2.0326     36.4296   1.0119570414e+02   6.8115453314e+01    0.6601871    0.1509932 -59.49  0.002378695    4.324    0.769
         4 -11.5812    231.9990     17.1763   3.4310144678e+01   2.6007347933e+01    0.6671439    0.5140483 -57.36  0.002663073    1.120    0.107
         5 -10.0171      2.0000     19.4797   9.5151769925e+01   7.1176169134e+01     0.332147    0.1015613 -46.46  0.001607574    2.403    0.584
         6  -9.9050      2.0000      7.0285   8.9676281735e+01   7.3172121824e+01    0.2768397    0.1320888 -47.58  0.001588065    2.128    0.530
         7  -8.9299     32.7678      9.7508   7.4354777873e+01   6.9587136937e+01    0.1732719   0.08492373 -40.70 0.0008898503    2.431    0.589
         8  -8.0083    250.1891      1.3922   2.9812040575e+01   2.3993338261e+01     0.158372   0.08805334 -84.11 0.0009458978    1.661    0.398
         9  -9.1380     59.8190    232.3608   1.1500239145e+02   1.8101177854e+01    0.2009842    0.1777775 -81.73 0.0004499803    1.228    0.186
        10 -12.1961     85.9821    227.7116   1.0918831088e+02   1.5547319185e+01      1.84094    0.7912528 -63.60  0.008586888    2.516    0.603
        11 -12.4097      4.0096    178.6022   1.2237394099e+02   3.5558323292e+01     3.052554    0.7031813 -81.47   0.01012967    4.636    0.784
        12 -14.0927      4.6157    137.5255   1.1870909053e+02   4.5167005010e+01     8.166483     1.884747 -79.68   0.02369928    5.442    0.816
        13 -10.7722    143.3098    228.1618   9.7107859995e+01   6.7598366785e+00    0.4124644    0.2899096  60.63  0.002217594    1.771    0.435
        14  -8.1803     49.4575    225.1008   1.1645585500e+02   2.0834355114e+01    0.1670546    0.1071558 -75.30  0.000389304    1.518    0.341
        15  -8.9003    120.4416    221.2617   1.0101735499e+02   1.1677802244e+01    0.1705322    0.1287761 -76.21 0.0009469641    1.611    0.379
        16  -9.7524     44.1201    220.0035   1.1711042708e+02   2.2515161278e+01    0.2992699     0.155849 -74.65 0.0009653207    1.844    0.458
        17  -9.8193     42.3810    214.6652   1.1702067535e+02   2.3839555020e+01     0.407335    0.1522324  53.82  0.001811302    2.609    0.617
        18 -12.4425     10.2416    206.7923   1.2295959589e+02   2.8810188050e+01      0.84169    0.5821928  21.75  0.003908574    1.930    0.482
        19 -11.4249    125.9730    230.3151   1.0107029648e+02   9.0932635051e+00    0.3847764    0.3045974  49.56  0.002335548    1.183    0.155
        20 -11.5722     15.8680    215.3726   1.2239522751e+02   2.6474629551e+01    0.5003159    0.4099567  87.89   0.00184826    1.136    0.120
        21 -10.1188     63.5152    173.2526   1.0767600356e+02   3.0699848813e+01     0.330927      0.26208 -36.39 0.0009559879    1.529    0.346
        22 -10.1401     57.9419    178.9265   1.0980556186e+02   3.0052783533e+01    0.4240885    0.2799768 -33.70  0.002097629    2.136    0.532
        23  -8.4210     96.3383    170.1533   9.8825716058e+01   2.6681254923e+01    0.3067144    0.1160607 -50.67  0.001109791    2.600    0.615
        24 -10.0808     73.7645    163.7524   1.0363430367e+02   3.1620268548e+01    0.3352238    0.2843331 -49.46  0.000524894    1.218    0.179
        25  -9.5533     83.4987    163.5304   1.0103588174e+02   3.0262961418e+01    0.4374417     0.130623 -58.05  0.001446198    3.116    0.679
        26 -10.8635     81.3310    157.1763   1.0052664514e+02   3.2137400271e+01    0.6781866    0.4909144 -19.62  0.002040189    1.926    0.481
        27 -10.6372     73.4903    155.3975   1.0234360826e+02   3.3709276252e+01    0.6143163    0.3843423 -73.36    0.0027346    1.688    0.407
        28 -11.6399     60.4644    159.9086   1.0655870262e+02   3.4338484353e+01     0.529981    0.3061466 -43.24  0.001247965    1.977    0.494
        29 -10.0702     32.4748    157.2016   1.1355278035e+02   3.8137409648e+01    0.5918723    0.1756441 -73.58  0.002057663    3.411    0.707
        30  -8.0363    124.1074    152.6588   8.8262726208e+01   2.5994299970e+01    0.2377169    0.1871978  61.27  0.000892152    1.455    0.313
        31 -11.6524     68.2701    144.6127   1.0192821960e+02   3.7104821134e+01    0.7982814    0.5658368  80.63  0.002767788    1.721    0.419
        32  -8.2573    134.2190    148.0061   8.4653021240e+01   2.5137110262e+01      0.21152    0.1246425 -47.93  0.000339559    1.679    0.404
        33 -13.0670     63.6434    247.0899   1.1550513294e+02   1.4785632052e+01     2.701128    0.6577802  32.38  0.009478692    4.690    0.787
        34  -9.2804     96.8547    142.6135   9.3475584906e+01   3.3251741855e+01    0.4915715     0.320738 -15.28  0.001950945    2.511    0.602
        35 -10.6439     84.1582    141.5382   9.6835357983e+01   3.5561950835e+01    0.3401057     0.272006 -46.77 0.0005363713    1.219    0.180
        36  -8.6858     33.0000    137.9657   1.1091003728e+02   4.2819175773e+01    0.2288302   0.06611326 -67.48  0.000804344    2.956    0.662
        37 -10.4808     59.3569    134.2908   1.0265284477e+02   4.0843617138e+01    0.5982434    0.2076962 -68.43  0.001891435    3.600    0.722
        38 -10.5765     57.0973    128.4173   1.0224211567e+02   4.2587514002e+01    0.4694118    0.3032818 -51.95  0.002335024    1.394    0.283
        39  -9.1322     73.5322    134.9702   9.8604860924e+01   3.8769714385e+01     0.230061    0.1358165 -60.14  0.001028209    1.589    0.371
        40  -9.0853    107.3281    131.4940   8.8087709025e+01   3.4105427274e+01    0.3809358    0.2926899  28.74  0.001253744    1.398    0.285
        41  -9.0046     95.2046    127.9438   9.0742341562e+01   3.7096599396e+01    0.2517109    0.2237314  11.71 0.0004140107    1.230    0.187
        42  -7.7173    163.5020    121.4850   7.1121377676e+01   2.4879722410e+01    0.1552336    0.1502179 -33.01 0.0008103301    1.029    0.028
        43  -7.7804    105.8365    120.1313   8.5784140602e+01   3.7072028933e+01    0.2053496    0.1750154 -18.10 0.0002925463    1.273    0.214
        44 -12.0691     35.2941    248.7894   1.2087348301e+02   1.7836303415e+01     2.051423    0.3460217  37.10  0.008161774    4.017    0.751
        45 -13.5671      6.7378    240.4742   1.2544829414e+02   2.2345180234e+01     2.470348     1.188189 -79.75   0.01543718    1.856    0.461
        46  -9.1570     34.1968    111.3850   1.0625610867e+02   4.9263453545e+01    0.3518883    0.2121375  64.65  0.001631292    2.379    0.580
        47 -13.4485     38.6710    195.9743   1.1615558354e+02   2.8352344007e+01     2.520957     1.159603  64.33   0.01142136    2.485    0.598
        48  -8.2704     32.8008     61.8927   9.5073180076e+01   6.0718488246e+01    0.1638136    0.1484795 -61.03 0.0008010635    1.332    0.249
        49 -10.1897     12.9329     60.4342   1.0305922581e+02   6.2631642726e+01    0.2960903    0.1702512 -57.34  0.001314133    1.474    0.322
        50  -8.6695     33.4755     55.1048   9.2665598118e+01   6.2029267360e+01    0.2169266    0.1800176  24.47  0.001117459    1.391    0.281
        51 -11.3696    204.9889     40.3095   4.2388225361e+01   2.9185599899e+01    0.5760772    0.5100672  63.93  0.002360259    1.189    0.159
        52  -9.5653    114.2149    244.7592   1.0531180093e+02   8.2529506300e+00     0.243524    0.1769584  88.58  0.001440752    1.780    0.438
        53 -11.2379    114.4574    238.3934   1.0450504423e+02   9.3611657803e+00    0.5670583    0.2392184  28.16  0.002326621    2.861    0.650
        54  -8.5050      8.6629     45.6664   1.0084302612e+02   6.5931590017e+01    0.1336242   0.06643893 -32.33 0.0007051979    1.743    0.426
        55  -8.4431    132.0618     39.2835   5.4156738077e+01   4.6788764436e+01    0.1944986    0.1740421  59.15 0.0004520311    1.094    0.086
        56  -9.7888     51.0368    236.3703   1.1706144497e+02   1.8387819578e+01    0.4853716    0.2010519  73.38    0.0019674    3.708    0.730
        57  -8.0439    132.1837     31.7482   5.1619326448e+01   4.7705601835e+01    0.1943213     0.177594 -84.76 0.0006086509    1.216    0.178
        58 -11.5568     28.7693    206.2526   1.1915846904e+02   2.7130964056e+01    0.5110171    0.4243952 -47.52   0.00100916    1.570    0.363
        59 -10.2898    134.1534    233.1284   9.9734756662e+01   7.3080692540e+00    0.2433997    0.1760835  14.81  0.001356933    1.596    0.373
        60 -10.9379    101.7476    230.5143   1.0620085438e+02   1.2727005109e+01    0.3545133    0.2393998 -48.41  0.002012484    1.746    0.427
        61 -12.2261    113.3564    229.7924   1.0366671829e+02   1.1129240853e+01    0.8518667    0.3871556  39.48   0.00399014    1.895    0.472
