#   1 NUMBER                 Running object number                                     
#   2 MAG_AUTO               Kron-like elliptical aperture magnitude                    [mag]
#   3 X_IMAGE                Object position along x                                    [pixel]
#   4 Y_IMAGE                Object position along y                                    [pixel]
#   5 X_WORLD                Barycenter position along world x axis                     [deg]
#   6 Y_WORLD                Barycenter position along world y axis                     [deg]
#   7 A_WORLD                Profile RMS along major axis (world units)                 [deg]
#   8 B_WORLD                Profile RMS along minor axis (world units)                 [deg]
#   9 THETA_WORLD            Position angle (CCW/world-x)                               [deg]
#  10 FWHM_WORLD             FWHM assuming a gaussian core                              [deg]
#  11 ELONGATION             A_IMAGE/B_IMAGE                                           
#  12 ELLIPTICITY            1 - B_IMAGE/A_IMAGE                                       
         1 -12.9635    217.0725     33.4227   3.9935538093e+01   2.7844683781e+01     1.324311    0.7785256  55.81  0.006880419    1.815    0.449
         2 -12.9471    223.1167     26.8161   3.7773451124e+01   2.7292448645e+01     1.187065    0.7186784  40.32  0.002272168    2.435    0.589
         3 -12.6109    239.8093     11.0382   3.2904521352e+01   2.5480733774e+01    0.7071447    0.5160053 -66.15   0.00254979    1.130    0.115
         4 -10.1964      2.2769      4.5408   9.0757174791e+01   7.4270481605e+01    0.3807422   0.08787991 -46.65  0.001627792    3.578    0.720
         5  -9.5629     12.4803      7.5040   8.5980372703e+01   7.2998389477e+01    0.1146152   0.08477299 -14.11 4.641546e-06    1.016    0.016
         6  -8.4729     53.3528    240.2837   1.1764555694e+02   1.7984038798e+01    0.1001005   0.09168328 -13.23 0.0006523777    1.660    0.398
         7 -13.0909     95.0385    247.4510   1.1013503592e+02   1.1174022658e+01     1.749157    0.5149279  31.85  0.006282147    3.991    0.749
         8 -12.3163     77.2005    245.8845   1.1348957835e+02   1.3896880162e+01     1.275249    0.5126009  25.00  0.004660398    4.636    0.784
         9 -11.9503     61.4051    249.0388   1.1677697634e+02   1.5347175435e+01     1.072667    0.3685193  32.05  0.004720336    3.108    0.678
        10 -10.8494     68.8407    247.4243   1.1523639387e+02   1.4704297321e+01    0.4812608     0.402139 -16.05  0.003210942    1.939    0.484
        11 -10.1649     36.3491    248.3186   1.2135067929e+02   1.8438213086e+01    0.1839384      0.17517 -24.20  0.001382082    1.648    0.393
        12  -9.8403     26.7483    250.4033   1.2317576352e+02   1.9096668674e+01    0.2991042    0.1629397  31.85  0.001853373    2.013    0.503
        13 -11.1618     30.7338    247.4387   1.2230722917e+02   1.9218240494e+01     0.416421    0.3070323  66.51  0.002845529    1.014    0.014
        14 -13.2420     86.2709    228.8126   1.1000823426e+02   1.5927391400e+01     3.174228     1.100222  56.16  0.002172869    4.170    0.760
        15 -13.4253    116.7127    230.1857   1.0376302442e+02   1.1179960701e+01      2.57852    0.5301926  37.12  0.008212332    4.116    0.757
        16 -13.8678      9.7470    208.0596   1.2399516982e+02   2.9172148517e+01     2.027133     1.028558 -79.65  0.005653546    1.681    0.405
        17  -8.1039     73.6870    229.6795   1.1270281206e+02   1.7477464007e+01    0.1106876   0.09684192 -21.89 0.0007038313    1.652    0.395
        18 -14.1853     35.2950    197.9616   1.1797459667e+02   2.8872951169e+01     2.620986     1.407046  72.88   0.01257804    1.875    0.467
        19 -11.9600     24.2727    208.6951   1.2112050546e+02   2.7661777016e+01    0.3674709    0.2742661 -58.44 0.0008922482    1.581    0.367
        20  -9.4981    123.2627    218.0107   1.0074091012e+02   1.2498036218e+01    0.3723377    0.2261629  88.81  0.001572482    3.042    0.671
        21 -14.7433      5.8016    238.0696   1.2623587625e+02   2.3499257136e+01     14.06609    0.8657996 -77.52   0.03496189   11.935    0.916
        22  -9.3337     57.0253    238.8069   1.1682398929e+02   1.7820674865e+01    0.1898611     0.148628  87.10 0.0004906225    1.211    0.174
        23  -9.0596    192.5076    194.0250   8.1729470838e+01   5.2738754499e+00    0.1879326    0.1242355 -65.01 0.0008101396    2.700    0.630
        24  -9.9088     33.8409    237.5243   1.2114772044e+02   2.0765491857e+01    0.2710797    0.1207537  78.91  0.001379443    2.415    0.586
        25 -10.8623     54.3167    180.9107   1.1189946746e+02   3.0637975935e+01    0.3647431    0.2696512 -31.77  0.001226035    1.886    0.470
        26 -10.8546     60.5247    174.8899   1.0963921468e+02   3.1303639260e+01    0.3273539    0.2537805 -41.17 0.0008077575    1.552    0.355
        27  -9.5732    105.7775    172.6052   9.7814653994e+01   2.5196567309e+01    0.2146817    0.1282764  46.60 0.0009577765    1.662    0.398
        28 -10.4987     71.4831    164.9369   1.0544858035e+02   3.2270512568e+01    0.2888114    0.2391951 -67.63 0.0004688682    1.141    0.123
        29 -12.5088     57.8278    161.3151   1.0852385196e+02   3.4932869862e+01    0.5274444    0.3083839 -44.38  0.001496495    1.972    0.493
        30 -11.8217     57.3870    130.5974   1.0378704024e+02   4.2629953027e+01     1.893727    0.6662374 -75.72  0.004096746    8.376    0.881
        31 -11.8575     79.1147    157.9834   1.0231606473e+02   3.2896032909e+01    0.7484914     0.643042  62.04  0.001682337    1.169    0.145
        32 -12.4802     68.2353    144.1505   1.0299058265e+02   3.7850969919e+01     1.061965    0.6341687 -87.26  0.002239864    2.212    0.548
        33 -10.2615     33.1886    157.2970   1.1448637765e+02   3.8622459943e+01     0.292185    0.1881196 -85.89 0.0009003757    1.432    0.302
        34  -9.3193    124.2845    153.1140   8.9318434177e+01   2.6495448907e+01    0.4393286    0.2866508 -85.81  0.001676682    2.619    0.618
        35  -9.3030    134.1475    147.1854   8.5490409360e+01   2.5977109012e+01    0.3979058    0.1101093 -51.27  0.001101321    3.853    0.740
        36  -9.8430     24.0219    147.8561   1.1583624508e+02   4.1758556807e+01    0.2238636    0.1578975  28.30    0.0013137    1.659    0.397
        37  -9.9766     94.4447    143.8726   9.5495107616e+01   3.3994618420e+01    0.3754882    0.2777856 -44.87  0.001046621    1.367    0.268
        38 -11.3262     82.3318    142.4139   9.8643453236e+01   3.6267874886e+01    0.3240705    0.2674311 -51.81 0.0006065345    1.172    0.147
        39  -9.7371    106.8268    131.7366   8.9383712023e+01   3.4806340413e+01    0.3612939    0.3377115   3.29  0.001086074    1.150    0.131
        40  -8.2906    156.7477    132.0087   7.6306401334e+01   2.4727208961e+01    0.2066455    0.1322355 -43.71  0.000560972    1.537    0.349
        41 -10.7705     14.2244    129.4370   1.1643744534e+02   4.7011157435e+01    0.2929564    0.2049365 -55.80  0.001761723    1.299    0.230
        42  -9.2934     94.2401    128.3386   9.2256173740e+01   3.7832391487e+01    0.3019198    0.2292677 -21.22 0.0008349337    1.624    0.384
        43 -10.3275     66.4760    128.1431   1.0056611845e+02   4.2082960472e+01    0.3158404    0.2107501  69.85  0.001442112    1.986    0.496
        44  -9.3471    114.6916    125.3698   8.5654628981e+01   3.4854800182e+01    0.3160867       0.2233 -12.09 0.0008303331    2.053    0.513
        45  -8.6034    105.0858    120.1653   8.7142013124e+01   3.7888095775e+01    0.2171295    0.1969694 -11.75 0.0002402926    1.183    0.155
        46  -8.6770    168.0434    113.0627   6.8882003815e+01   2.6227289135e+01    0.2518584    0.1931187 -74.24  0.001013574    1.712    0.416
        47 -10.6572     22.8270    156.9539   1.1711969991e+02   3.9653870356e+01    0.3352799    0.1812503 -87.99   0.00163564    1.755    0.430
        48  -8.9063    204.9214    110.3929   6.0740308497e+01   1.8542346193e+01    0.2597299    0.1865585  43.16  0.001266163    1.505    0.336
        49  -8.7007     44.4822     90.4359   9.9774589619e+01   5.3884932838e+01    0.2367336    0.1267875 -70.94 0.0005741359    2.257    0.557
        50  -8.4519     24.7000     82.9264   1.0544031180e+02   5.7426212364e+01    0.1829108    0.1370338 -55.37 0.0003806138    1.108    0.098
        51  -8.5670     57.3340     76.6618   9.1322511474e+01   5.5490031893e+01    0.1337333    0.1102031  79.97 0.0007051774    1.747    0.427
        52  -8.4753     62.5260     70.0265   8.7323956251e+01   5.6196387950e+01    0.1799506    0.1235743 -73.53  0.000807639    2.380    0.580
        53 -10.9071      2.3486     62.5146   1.0999476462e+02   6.3336693224e+01    0.5352901   0.07295292 -64.61  0.001693705    4.785    0.791
        54  -9.5175     13.2351     60.0527   1.0474802269e+02   6.3297098875e+01    0.2119496    0.1397976 -58.57 0.0006307188    1.311    0.237
        55 -11.3047      2.4273     36.8617   1.0339384598e+02   6.8629502385e+01    0.7034951   0.06075967 -59.08  0.002022327    6.538    0.847
        56 -11.0146    200.2576     47.5109   4.5473293452e+01   2.9900029218e+01    0.5432435    0.3099047 -60.51  0.002468443    1.984    0.496
        57 -12.3814     82.6599    249.4532   1.1274719091e+02   1.2513845686e+01     1.595522    0.3166043  34.12  0.005038066    5.264    0.810
        58 -11.1458    114.4976    242.6376   1.0571872063e+02   9.2295556146e+00     0.276692    0.2096345 -45.30  0.001205665    1.627    0.385
        59  -9.5856      1.6160     18.7436   9.7506455137e+01   7.2006806371e+01      0.14798   0.09401374 -54.54 0.0008602256    1.631    0.387
        60  -9.9553     60.9822    234.3928   1.1569065403e+02   1.8188802233e+01    0.3255806    0.1778219  64.31   0.00112639    1.773    0.436
        61  -9.2380    129.6796     37.2653   5.4803730258e+01   4.8453918425e+01    0.2724004    0.2132195 -69.83 0.0005795491    1.614    0.381
        62  -8.4713     40.4438    234.1472   1.1967785696e+02   2.0690483233e+01    0.1549792   0.09987091 -80.92 0.0002466122    1.481    0.325
