#   1 NUMBER                 Running object number                                     
#   2 MAG_AUTO               Kron-like elliptical aperture magnitude                    [mag]
#   3 X_IMAGE                Object position along x                                    [pixel]
#   4 Y_IMAGE                Object position along y                                    [pixel]
#   5 X_WORLD                Barycenter position along world x axis                     [deg]
#   6 Y_WORLD                Barycenter position along world y axis                     [deg]
#   7 A_WORLD                Profile RMS along major axis (world units)                 [deg]
#   8 B_WORLD                Profile RMS along minor axis (world units)                 [deg]
#   9 THETA_WORLD            Position angle (CCW/world-x)                               [deg]
#  10 FWHM_WORLD             FWHM assuming a gaussian core                              [deg]
#  11 ELONGATION             A_IMAGE/B_IMAGE                                           
#  12 ELLIPTICITY            1 - B_IMAGE/A_IMAGE                                       
         1 -16.1026    230.6808    116.4132   4.1704454679e+01   1.4031326816e+01     5.149895     2.481707 -55.03   0.02444756    2.260    0.557
         2 -15.5387    234.4736     49.3568   2.8250703128e+01   2.3336351931e+01     1.279963    0.8425428 -27.16  0.005982076    1.979    0.495
         3 -16.7615    223.8544     76.6934   3.4638844526e+01   2.1438316317e+01     5.609489     0.995142 -40.95   0.01888628    4.205    0.762
         4 -16.4720    236.3783     69.4064   3.1911749321e+01   2.0281961532e+01     2.259115    0.8875472 -46.91   0.01136702    2.003    0.501
         5 -13.0152    136.8601     39.8208   3.7816697933e+01   4.5158891782e+01     2.243286     1.721493 -64.29   0.01289506    1.354    0.262
         6 -12.8226    132.5782     12.2324   3.0436248241e+01   4.9200007784e+01     2.979428     2.226458  74.18   0.01864173    1.126    0.112
         7 -17.0522    248.0055     66.5267   3.0306023743e+01   1.8722936750e+01     5.595582    0.3609047 -41.97   0.01710323    5.874    0.830
         8  -8.0982    184.7870     40.6279   3.1249114377e+01   3.4229020215e+01     0.166479    0.1443076  89.73 0.0008845307    1.104    0.094
         9  -9.1203    249.7503    200.6196   5.4321148667e+01  -2.0861542602e+00    0.2344259    0.1324572 -43.01  0.001046165    1.647    0.393
        10  -9.7336    237.4201    195.6251   5.5384607315e+01   5.3761892598e-02    0.3585999    0.1570606 -41.70  0.001745681    1.935    0.483
        11  -9.0873    237.6664    188.8368   5.4166997537e+01   1.1005181185e+00    0.2514204    0.1619744 -53.00  0.001441764    1.988    0.497
        12 -10.6120    244.3676    193.0993   5.3865254352e+01  -3.4782673226e-01    0.4502636    0.1854636 -43.74  0.002262595    2.149    0.535
        13  -8.0674      1.8266    191.3040   1.1150547762e+02   3.2327029568e+01    0.1942706    0.1626244 -84.47 0.0002994758    1.109    0.098
        14 -10.1804    249.7489    185.7859   5.1800489059e+01   1.7185090077e-01    0.3654355    0.2034325 -35.53  0.002206705    1.387    0.279
        15  -9.4273    230.8207    185.9564   5.4750717768e+01   2.4000176600e+00      0.34027    0.1795028 -53.48  0.001635118    2.593    0.614
        16  -7.7175    171.7728    245.1596   7.5740851285e+01  -1.5224033050e-01    0.1765801    0.1220735  -1.07  0.000631065    1.337    0.252
        17 -14.5599    246.4112    111.2763   3.8779990825e+01   1.2397599060e+01      1.00827    0.6868892 -27.44  0.005743408    1.601    0.375
        18  -9.0997    195.2122    175.5163   5.9077402221e+01   9.1322512769e+00    0.3681735    0.2574314  64.53  0.001700145    2.539    0.606
        19  -7.7842    211.5598    175.7365   5.6130331082e+01   6.7016080450e+00     0.177273    0.1108155 -47.79 0.0009395748    1.592    0.372
        20  -8.0038    192.4987    168.4984   5.8237986579e+01   1.0870983847e+01    0.2150638    0.1290713  49.45 0.0008020407    2.141    0.533
        21  -9.0024    195.2460    167.0099   5.7424908073e+01   1.0722713171e+01    0.2186913    0.1689656 -18.02 0.0005564585    1.287    0.223
        22  -7.1474    110.7699    168.0055   7.7287540633e+01   2.4802374555e+01    0.1973647    0.1270714 -53.46 0.0007928755    1.570    0.363
        23  -9.0749    206.8716    166.1312   5.5132050503e+01   9.1055610361e+00    0.2440992    0.2304583  -5.73  0.001084015    1.162    0.139
        24  -8.1267    133.6611    149.7034   6.7402594667e+01   2.5067304667e+01    0.2932212    0.2204775  83.69 0.0007159375    1.980    0.495
        25 -10.6932      9.0718    141.8085   1.0530505304e+02   4.4678208575e+01     1.043715    0.4532968 -71.10  0.004408536    2.007    0.502
        26 -10.1200      3.4689    142.6613   1.0726233427e+02   4.4812776763e+01    0.7575304    0.3483053 -76.87  0.003301712    1.956    0.489
        27  -7.6458    178.0702    147.0700   5.6706958642e+01   1.7463671547e+01    0.2061279    0.1694888 -76.74 0.0004073531    1.571    0.363
        28  -7.2595    115.4004    239.2374   8.7397950496e+01   8.1894339440e+00    0.1644716    0.1328211 -71.40 0.0009494497    1.585    0.369
        29  -9.3498    205.3936    138.8823   4.9978170992e+01   1.4303011780e+01    0.2184406     0.202991 -32.00 0.0001801921    1.081    0.075
        30 -11.3805     47.5772    134.6409   9.0853524991e+01   4.2991098136e+01    0.9626635      0.76514  30.28  0.004913677    1.296    0.228
        31  -8.2906    201.5497    236.1222   6.8438610666e+01  -2.2106883842e+00    0.3415178    0.2030033  30.72  0.001993018    1.729    0.422
        32 -10.9493     53.7005    134.2113   8.8616739549e+01   4.2337150006e+01    0.7865898    0.4846675 -52.57  0.003213825    1.537    0.349
        33  -8.9767    160.4855    130.6096   5.6756228694e+01   2.4093155074e+01    0.3243844    0.2830138   7.86  0.001740688    1.303    0.233
        34  -8.4220    137.9434    227.0438   8.0430855852e+01   7.5173325714e+00    0.1981787     0.171905   6.60 -0.001877172    1.017    0.017
        35 -10.6746     67.2761    125.5744   8.2081219069e+01   4.2689266679e+01    0.5831733    0.5299283  55.53 0.0008435962    1.180    0.152
        36 -16.2724    248.7966     84.4920   3.3544034449e+01   1.6058712642e+01     1.693532    0.8020179 -34.01  0.008297215    2.142    0.533
        37  -8.8833     72.6748    123.1227   7.9651613412e+01   4.2476661436e+01    0.2975618    0.2154346 -27.10 0.0005559501    1.582    0.368
        38  -7.5765     79.5327    122.4467   7.7149002089e+01   4.1523246081e+01    0.1533638     0.150014 -14.52 5.641715e-05    1.004    0.004
        39  -8.7220    136.9590    120.5323   5.9821158256e+01   3.0943567367e+01    0.2326622    0.1500802  43.88 0.0008480639    1.584    0.369
        40 -10.1759    134.0975    110.6698   5.8068768655e+01   3.3637468053e+01    0.4544894    0.2802142 -64.00  0.001840343    2.152    0.535
        41 -11.2443    149.0251    108.6656   5.4048781981e+01   3.0899809723e+01     0.871112    0.5032747  63.82  0.003531028    2.294    0.564
        42 -10.9204    158.4026    105.6463   5.1289770230e+01   2.9518830102e+01    0.6319904    0.5209321 -51.49   0.00339054    1.166    0.142
        43  -8.6516    174.4844    101.1786   4.7101260747e+01   2.7010906616e+01    0.2624887    0.2283401   0.78  0.001464881    1.459    0.315
        44  -8.1036    182.3378     98.8594   4.5185253322e+01   2.5826543186e+01    0.2300622     0.184228  74.07 0.0006936235    1.370    0.270
        45  -8.0587     74.7962    112.1555   7.6287915689e+01   4.4863052230e+01    0.3894407    0.1158393  31.23  0.001107892    3.743    0.733
        46  -9.2332    158.2981     95.6175   4.8830535970e+01   3.1437016625e+01    0.2571245    0.2121785 -70.06  0.000520238    1.271    0.213
        47  -8.9032    173.6310     89.6499   4.4510624439e+01   2.9239469120e+01     0.244787    0.2328542  29.73 0.0005810398    1.238    0.192
        48  -8.2907    127.6164     89.8124   5.4144620443e+01   3.9249608493e+01    0.3274323      0.17743 -63.41  0.001153338    2.962    0.662
        49  -9.0539    157.3832     86.2137   4.6637621336e+01   3.3336623067e+01    0.2764596    0.1991082 -71.38 0.0008954015    1.620    0.383
        50  -8.2788      3.9584     82.8611   9.8954969235e+01   6.0198297597e+01    0.2158719    0.1342794  42.98   0.00109197    1.967    0.492
        51  -9.0620    135.4456     80.2183   4.9630209050e+01   3.9287540675e+01     0.206405    0.1330601 -53.05 0.0005281392    1.649    0.394
        52  -8.0943    183.8290     77.9536   4.0088610664e+01   2.9052094532e+01    0.2388878    0.1822796 -83.77  0.001343834    1.386    0.278
        53 -10.3259    139.0127     76.4428   4.7799226172e+01   3.9145928746e+01    0.3971097    0.3095367 -84.82  0.001879704    1.484    0.326
        54  -8.5851    103.9909     71.7465   5.5138521341e+01   4.7835508681e+01    0.3296084    0.2181943 -40.00   0.00124492    1.590    0.371
        55 -10.0766    126.9204     67.3952   4.7915797245e+01   4.3433830433e+01    0.3872508    0.2561885  78.65  0.001756708    1.941    0.485
        56  -9.9796    187.8161     64.9557   3.6501943469e+01   3.0227283834e+01    0.1987432    0.1737973 -85.76 0.0002972888    1.079    0.073
        57  -8.4249    197.5111    220.4902   6.6678851005e+01   8.0065996376e-01     0.209958    0.1710394 -11.36 0.0005538226    1.026    0.025
        58 -10.4638    151.3508     34.9911   3.4145055750e+01   4.2390481913e+01    0.6768509    0.4698728  76.69  0.002013086    1.318    0.241
        59  -9.0931    249.1198    214.4411   5.6705653743e+01  -4.0622273858e+00     0.217036    0.1331392 -46.86  0.001333538    1.932    0.482
        60  -7.1425    197.1875     43.9815   3.0647608611e+01   3.1194729636e+01    0.1340467    0.1226297 -49.06 0.0009209113    1.268    0.211
        61  -8.5739    199.9632     38.7797   2.9229706958e+01   3.1288803375e+01    0.1562938    0.1311872 -84.20            0    1.099    0.090
        62  -8.5675    194.8671     36.9156   2.9330342013e+01   3.2569705791e+01    0.1615399    0.1360795 -74.87            0    1.048    0.045
        63  -8.7357    202.4849     34.1156   2.7988099569e+01   3.1351440457e+01    0.1725263    0.1432646  72.45 0.0003527095    1.315    0.239
        64  -7.0890    188.5377     34.7745   2.9500514711e+01   3.4159642193e+01    0.1180812   0.08204238  50.49            0    1.786    0.440
        65  -5.7358    207.7220     32.2835   2.7133683046e+01   3.0522248921e+01    0.1368102   0.09685701 -34.75 0.0002972578    1.566    0.361
        66  -7.9705    189.7915     29.4981   2.8185552499e+01   3.4525845852e+01    0.1652421   0.07433236 -45.63 0.0006060759    1.964    0.491
        67  -7.4269    207.1740     27.9731   2.6285872395e+01   3.1141060125e+01    0.1265737   0.07570287 -42.46 0.0002407069    1.536    0.349
        68  -8.1615    204.9150     23.5180   2.5546982554e+01   3.2103987235e+01    0.1476887   0.09912249  81.86 0.0003593802    1.367    0.269
        69  -8.4783    105.2511     60.4200   5.1187106900e+01   4.9501710736e+01    0.2537236    0.2292336 -66.73 0.0005815281    1.217    0.178
        70  -9.1168    111.4442     59.0049   4.9102729179e+01   4.8331706871e+01    0.2339321    0.1780359  55.63 0.0005901503    1.229    0.186
        71  -9.2110    248.0155    205.9941   5.5483587210e+01  -2.7055479671e+00    0.3341844    0.1507783  14.43  0.001536155    3.573    0.720
