#   1 NUMBER                 Running object number                                     
#   2 MAG_AUTO               Kron-like elliptical aperture magnitude                    [mag]
#   3 X_IMAGE                Object position along x                                    [pixel]
#   4 Y_IMAGE                Object position along y                                    [pixel]
#   5 X_WORLD                Barycenter position along world x axis                     [deg]
#   6 Y_WORLD                Barycenter position along world y axis                     [deg]
#   7 A_WORLD                Profile RMS along major axis (world units)                 [deg]
#   8 B_WORLD                Profile RMS along minor axis (world units)                 [deg]
#   9 THETA_WORLD            Position angle (CCW/world-x)                               [deg]
#  10 FWHM_WORLD             FWHM assuming a gaussian core                              [deg]
#  11 ELONGATION             A_IMAGE/B_IMAGE                                           
#  12 ELLIPTICITY            1 - B_IMAGE/A_IMAGE                                       
         1 -12.1856    178.4200     40.6621   6.6776190645e+01   3.5924143549e+01     1.087988    0.8947908  34.92  0.004767656    1.532    0.347
         2 -11.2294    182.4833     33.7588   6.4490350134e+01   3.5852567205e+01    0.5692096    0.4551457  39.15  0.001841015    1.562    0.360
         3 -11.4678    195.4455     10.4474   5.7520100140e+01   3.5527919607e+01    0.7214798     0.424217 -59.74  0.003611156    1.680    0.405
         4 -11.8777    198.9608      7.0206   5.6418104708e+01   3.5092689993e+01    0.8611534    0.6183793 -79.18  0.005234873    1.203    0.168
         5  -8.8836    120.0413      9.1468   6.7940301014e+01   5.2808931984e+01     0.281398    0.2386289  43.46  0.001307379    1.108    0.098
         6  -9.8294    184.4561    211.5865   1.0497594800e+02   1.6335653156e+00    0.4929285    0.3525727 -54.96  0.002512216    1.612    0.380
         7 -11.9387    235.8739    247.7616   1.0121723242e+02  -1.2494435104e+01    0.2407839    0.2092226  -5.62 0.0004640167    1.173    0.148
         8 -13.4458     12.2571    245.8440   1.4529988845e+02   2.1010718997e+01    0.4957912     0.413134 -40.09   0.00351101    2.036    0.509
         9 -18.0436     40.6820    241.6636   1.3981353822e+02   1.8588584839e+01     4.321887     3.937224  82.08   0.01431114    1.298    0.229
        10  -9.9191    119.6031    201.0181   1.1771314543e+02   1.5729338577e+01    0.4124987    0.3529877 -61.67 0.0008093528    1.195    0.163
        11  -7.9270    149.8654    210.1251   1.1228317252e+02   8.2039108363e+00    0.1903669    0.1683251   1.15 0.0003109956    1.280    0.219
        12  -7.8265    125.6022    186.7195   1.1377480017e+02   1.7976417864e+01    0.2040545    0.1436149 -68.75 0.0004328615    1.566    0.362
        13  -8.0993    222.5998    179.7708   9.1063315172e+01   9.8952627643e-01    0.1900666    0.1249827 -48.92 0.0004174067    1.542    0.351
        14  -8.7126    161.9289    178.0225   1.0343912191e+02   1.2930104675e+01    0.4867738    0.3013393 -72.39  0.001842452    2.574    0.612
        15  -8.3896    204.9859    177.2952   9.3987104971e+01   4.6757988650e+00    0.2896262    0.2099713 -50.25 0.0009927921    1.407    0.289
        16  -7.9643      1.7608    178.2475   1.4251784658e+02   3.6913749075e+01    0.1530512    0.1146348 -61.89 0.0003710919    1.333    0.250
        17  -7.8053    104.7797    175.1739   1.1684412791e+02   2.4551551673e+01      0.20503    0.1774484 -33.19 0.0005388507    1.339    0.253
        18  -8.4364    134.0278    173.4914   1.0917254008e+02   1.9507225057e+01    0.2319368    0.1502756  43.64 0.0004934373    1.533    0.348
        19  -7.8089    174.2836    201.8300   1.0534645485e+02   5.4283250802e+00    0.2198177    0.1817032 -69.59 0.0006950081    1.462    0.316
        20  -9.2771    241.6020    170.4829   8.5756452485e+01  -5.4525104078e-01    0.2733911    0.2322844  52.97 0.0008549903    1.423    0.297
        21  -7.1648    161.6497    201.2868   1.0804224194e+02   7.8987600707e+00    0.1487809    0.1142769  71.16 0.0007022552    1.661    0.398
        22  -9.4881    193.4089    195.7521   1.0008274701e+02   3.1313478553e+00    0.8135293    0.3948761 -64.22  0.002142194    6.353    0.843
        23  -9.2681    242.3303    165.7547   8.4678700739e+01   1.9823783806e-01    0.2386685    0.2014034 -23.66 0.0002612821    1.126    0.112
        24  -8.4499    192.8539    165.5657   9.4005304709e+01   9.4363870752e+00    0.2742495    0.2072552 -41.95 0.0006884851    1.272    0.214
        25  -9.7330     35.5847    164.1796   1.3295602513e+02   3.7181010108e+01    0.4141658    0.1799912 -62.91   0.00186071    1.907    0.476
        26  -8.1076      2.4764    165.0346   1.4116753107e+02   3.9958514969e+01    0.1669529    0.1364205 -82.21  0.001133802    1.062    0.058
        27 -10.6256     16.7994    142.8900   1.3508149145e+02   4.4138250528e+01    0.4616493    0.2148276 -50.15  0.001964881    1.982    0.496
        28  -9.9343     14.3962    160.6402   1.3784714580e+02   4.0058502911e+01    0.5270343    0.2503723 -64.78   0.00183676    1.676    0.403
        29 -10.4355     10.1903    153.1100   1.3805289982e+02   4.2206176582e+01    0.4366596    0.3025111  65.04  0.002627443    1.532    0.347
        30 -11.8558      9.0373    143.1004   1.3717812084e+02   4.4684816119e+01     1.181828    0.5202377 -58.18  0.005301628    1.809    0.447
        31 -12.0470      4.5964    125.0486   1.3608597182e+02   4.9245841613e+01      1.15707    0.5876846 -71.17  0.006159478    1.602    0.376
        32  -9.1573    109.6392    161.6489   1.1299850777e+02   2.7017409861e+01    0.3503908     0.231697  70.14  0.001449561    2.016    0.504
        33  -8.8042    242.5028    160.9263   8.3670962190e+01   1.0575141960e+00    0.2314315     0.203585  39.19 0.0005095312    1.294    0.227
        34 -10.1120    210.5739    158.5956   8.8947400277e+01   7.3728098518e+00    0.2608503    0.2510148 -63.79 0.0004259834    1.098    0.089
        35  -9.1581     98.5665    158.7434   1.1535472066e+02   2.9715333707e+01    0.2708689    0.2586489 -50.91 0.0004220164    1.095    0.087
        36  -9.1726    115.9018    151.2672   1.0918642164e+02   2.8398053390e+01    0.5748599    0.2728319  42.73  0.001682783    2.134    0.531
        37  -8.9610    106.3886    145.2200   1.1043637259e+02   3.1664751873e+01    0.4019522    0.2331293 -47.74  0.001075519    1.689    0.408
        38 -10.3163    102.1653    153.5130   1.1333699162e+02   3.0382813024e+01    0.7147022    0.3927602 -38.07   0.00180798    2.255    0.557
        39  -9.2873    108.6091    149.6669   1.1079271494e+02   3.0162514732e+01    0.4432749    0.2803383  43.19  0.001146516    1.616    0.381
        40 -10.2974     26.9779    151.5275   1.3351111498e+02   4.1151807339e+01    0.4884441    0.2587511  38.97  0.002474038    2.074    0.518
        41 -10.2399     22.8799    157.5153   1.3534891252e+02   4.0070496402e+01    0.4417547    0.2902935  85.65  0.001167831    1.515    0.340
        42 -10.7251     29.2109    157.3821   1.3370280719e+02   3.9503616792e+01    0.5745912    0.2657335  36.31  0.002729912    2.331    0.571
        43 -10.1704     56.9138    156.6335   1.2624109748e+02   3.6561530206e+01    0.5698451    0.2090436  40.24  0.002193899    2.796    0.642
        44 -14.4645     31.3073    223.1402   1.4011807674e+02   2.3711056401e+01    0.8075044    0.5058237  23.49  0.004457247    2.300    0.565
        45  -8.8613    156.6371    155.3216   9.9828106422e+01   1.9172451703e+01    0.3797004    0.2627225 -87.21  0.001501616    2.253    0.556
        46 -10.4342      3.1833    137.3435   1.3803893761e+02   4.6454219837e+01    0.5974883    0.2570286 -55.91   0.00301545    1.866    0.464
        47  -9.4196    133.9514    147.3005   1.0360644032e+02   2.5773918584e+01    0.9350647    0.2816266 -54.91  0.002488748    4.100    0.756
        48  -7.5000    130.5326    149.0073   1.0486624028e+02   2.6063300831e+01    0.2168898    0.1388587 -77.08 0.0008057093    2.338    0.572
        49  -9.2728     96.1606    149.9350   1.1423647291e+02   3.2325064240e+01    0.3472648    0.2553822  79.47 0.0004967437    1.699    0.411
        50  -9.4037     17.1906    151.8346   1.3611250851e+02   4.1947731993e+01    0.2251491     0.185055  10.11  0.000721281    1.596    0.374
        51  -9.2603    140.4582    144.4971   1.0131984646e+02   2.5086935334e+01    0.5731892     0.340818  79.90   0.00169886    4.088    0.755
        52 -10.0562     36.7453    142.4162   1.2952594364e+02   4.2426531027e+01    0.2868213    0.2614114  38.03 0.0009848076    1.271    0.213
        53 -10.8981     26.6172    144.7414   1.3267267265e+02   4.2842355506e+01    0.5449752     0.301698  55.00  0.002677135    2.169    0.539
        54  -8.9917    116.4347    139.3234   1.0638680062e+02   3.1194316133e+01    0.3914747    0.2559051  49.65  0.001700883    1.607    0.378
        55  -9.4314    109.6836    141.4166   1.0869597742e+02   3.1980808222e+01    0.6448586    0.3713586  55.96  0.002333755    2.111    0.526
        56  -9.7645    112.4048    137.2328   1.0700155439e+02   3.2476549675e+01    0.4233671    0.3521123 -89.09   0.00203487    1.380    0.275
        57  -8.7163    229.9646    141.0354   8.1659612880e+01   7.0854274261e+00    0.2054361    0.1850546 -50.49 0.0003186173    1.038    0.036
        58  -7.9456    158.0049    139.9406   9.5985463549e+01   2.2386780222e+01    0.2363358    0.1928399  -2.86 0.0002981704    1.599    0.374
        59  -7.3709    215.2916    139.7032   8.3960142238e+01   1.0227577044e+01    0.1439085    0.1112652 -74.23 0.0003773624    1.559    0.358
        60 -10.2775    101.0999    137.9586   1.1029675596e+02   3.4404231960e+01    0.2780759    0.2766112  37.16 0.0003718777    1.063    0.059
        61  -9.9192     25.2391    137.1621   1.3195619794e+02   4.4807541454e+01     0.319615    0.1735359 -36.98  0.001222811    2.194    0.544
        62 -10.3796     31.0919    142.8351   1.3116557961e+02   4.2886730748e+01    0.4005539    0.2741734  88.78  0.001240948    1.545    0.353
        63  -7.1659    162.6267    135.2588   9.3800414973e+01   2.2426135613e+01    0.1603251    0.1229282  81.75 0.0004402228    1.654    0.395
        64  -9.1800     82.4566    130.8416   1.1406239596e+02   3.9309917558e+01    0.2981191    0.2163317  65.64 0.0008698082    1.722    0.419
        65  -9.0707    117.9393    129.5353   1.0367556019e+02   3.3227659724e+01     0.299912    0.2178788 -31.59  0.001342856    1.575    0.365
        66  -8.6977    105.9768    125.5519   1.0603424178e+02   3.6482766111e+01    0.2842613    0.2035034 -34.49 0.0006442881    1.528    0.346
        67  -9.1276     22.9754    125.2900   1.3077530560e+02   4.7850305484e+01    0.1697685    0.1526216 -55.87 0.0002070053    1.101    0.092
        68 -11.1087     41.5521    120.4511   1.2428510742e+02   4.7252753125e+01    0.5834334    0.3314074 -67.46   0.00194626    1.694    0.410
        69 -10.9064     35.7652    118.8175   1.2576637884e+02   4.8229740471e+01    0.4436637    0.3181028 -54.24  0.001641072    1.181    0.153
        70 -11.0127      4.6842    112.3558   1.3424480395e+02   5.2169482600e+01    0.5105789    0.3037567  49.37  0.002872144    2.163    0.538
        71  -7.9177     80.0044    120.5156   1.1245097582e+02   4.2177453515e+01    0.2081643    0.1459059  36.06 0.0006214365    1.518    0.341
        72 -10.1467     55.2431    118.6276   1.1965766512e+02   4.6114580660e+01    0.3129892     0.270028  76.65 0.0008093431    1.351    0.260
        73  -9.7382     46.4283    118.0516   1.2229299837e+02   4.7291639709e+01    0.4776908     0.108613 -58.27  0.001521442    3.561    0.719
        74  -7.5272    112.2728    118.9985   1.0264222024e+02   3.6795296587e+01    0.1889089    0.1327485 -48.88 0.0002743724    1.390    0.280
        75  -9.8254    134.3338    193.8782   1.1298444452e+02   1.4678231289e+01    0.4900936    0.3129444 -82.43  0.001667268    2.414    0.586
        76  -8.3802    163.8966    162.5461   9.9719344058e+01   1.6012926527e+01    0.2668962    0.2066253 -31.51 0.0004421624    1.411    0.291
        77 -10.3939    124.0006    206.0028   1.1750822390e+02   1.3805768981e+01     0.207825    0.1926476  63.08            0    1.010    0.010
        78  -9.3429     60.5795    109.6579   1.1596975141e+02   4.7530584312e+01    0.2696061    0.1771817  34.39  0.001359142    1.656    0.396
        79  -8.7186     13.2602    106.4438   1.3061143968e+02   5.2967161987e+01    0.1979898    0.1225066   4.20  0.001112701    2.044    0.511
        80  -8.4163      1.1602    194.1342   1.4391871361e+02   3.3298209369e+01    0.1456784   0.06793238 -75.04 0.0002742093    1.690    0.408
        81  -8.6480    171.3121     94.0048   8.1651328625e+01   2.9017987806e+01    0.2213544    0.2012179  42.32 0.0002635469    1.192    0.161
        82  -7.7731    134.1142     93.1773   8.9910777678e+01   3.7734998254e+01    0.1951948    0.1729282 -88.59 0.0002490875    1.257    0.205
        83  -9.6518    227.4333     85.9934   7.0162870144e+01   1.7751581665e+01    0.2286949    0.1901699  74.13 0.0001556854    1.229    0.187
        84  -8.1449    232.4929     81.8376   6.8577704670e+01   1.7386248681e+01    0.2445784    0.1688522  45.50  0.001046979    1.861    0.463
        85  -7.5531    150.2995     81.6876   8.2890430449e+01   3.6217487448e+01    0.1503473    0.1151179 -80.38 0.0002574339    1.605    0.377
        86  -6.9868     22.3080     78.3138   1.2167975442e+02   5.8415342597e+01    0.1306508   0.07516699 -32.28 0.0007027322    1.626    0.385
        87  -8.4415    114.1500     75.5388   9.0096807744e+01   4.5372030868e+01    0.2338935    0.1950892 -36.17  0.000281113    1.230    0.187
        88  -9.4650    170.5596     66.5444   7.4702992119e+01   3.4015821998e+01    0.3784134    0.2444956 -76.61 0.0006950183    2.059    0.514
        89 -11.1833    163.8548     55.4185   7.3006337224e+01   3.7322916325e+01    0.5515404    0.5160954 -74.49  0.001768869    1.085    0.078
        90  -7.8967    144.7218     57.0123   7.7210154549e+01   4.1595616790e+01     0.255417     0.131358  30.75 0.0008938886    3.418    0.707
        91 -10.1484    127.2535     53.3828   8.0046011025e+01   4.6124306092e+01    0.2382608     0.219163  33.25 0.0002980019    1.075    0.070
        92  -8.8596    247.4756    248.9738   9.9319901834e+01  -1.4182995247e+01    0.1738114    0.1026867 -32.91   0.00103662    1.606    0.377
        93  -7.2252    166.3038    234.6534   1.1281663428e+02   4.0949962192e-01    0.1336861    0.1050679  71.65  0.000508862    1.692    0.409
        94  -8.9968    222.9052     37.3141   6.0347607572e+01   2.6195122010e+01    0.2774861    0.1671592 -45.50 0.0007137061    1.585    0.369
        95  -8.4760    196.1705     30.1245   6.1846939890e+01   3.3125353303e+01    0.1826407    0.1614531  71.89 0.0003663705    1.193    0.162
        96  -7.5742    168.8508     21.1192   6.3269280499e+01   4.0514341037e+01    0.1592965    0.1352113  53.22 0.0004165988    1.247    0.198
        97  -8.8888    156.2500    191.8549   1.0748789065e+02   1.0966687888e+01    0.4775849    0.2873991 -79.11  0.001643413    3.413    0.707
        98  -8.9275    155.9345    230.2827   1.1432018061e+02   3.0222132310e+00    0.2019897    0.1712519  37.61 0.0007465616    1.073    0.068
