#   1 NUMBER                 Running object number                                     
#   2 MAG_AUTO               Kron-like elliptical aperture magnitude                    [mag]
#   3 X_IMAGE                Object position along x                                    [pixel]
#   4 Y_IMAGE                Object position along y                                    [pixel]
#   5 X_WORLD                Barycenter position along world x axis                     [deg]
#   6 Y_WORLD                Barycenter position along world y axis                     [deg]
#   7 A_WORLD                Profile RMS along major axis (world units)                 [deg]
#   8 B_WORLD                Profile RMS along minor axis (world units)                 [deg]
#   9 THETA_WORLD            Position angle (CCW/world-x)                               [deg]
#  10 FWHM_WORLD             FWHM assuming a gaussian core                              [deg]
#  11 ELONGATION             A_IMAGE/B_IMAGE                                           
#  12 ELLIPTICITY            1 - B_IMAGE/A_IMAGE                                       
         1 -12.5671    161.3965     54.5078   7.0856795695e+01   3.7945893234e+01     1.652662     1.223381  33.53  0.005036241    1.500    0.333
         2 -12.8565    175.1952     39.9638   6.3456943648e+01   3.6535279470e+01     1.138971     1.060244  24.43  0.003787863    1.115    0.103
         3 -13.1978    192.9156      8.1981   5.0554743364e+01   3.5580177986e+01     1.369354     1.138329  45.42   0.00529087    1.259    0.206
         4 -10.4923    224.7105      2.8272   4.5870066598e+01   2.7848231047e+01     0.361581    0.1871739  67.81  0.001660196    1.899    0.473
         5  -8.6670    249.1606    240.7455   9.5854939961e+01  -5.9390809261e+00    0.1443312      0.11081  28.58  0.001163977    1.220    0.181
         6 -11.1696    231.1346    250.6055   9.9861155682e+01  -4.2808608383e+00    0.1776187   0.08098683  39.99 0.0002583955    1.625    0.385
         7  -9.6664    121.0164    249.5234   1.1689529583e+02   1.1738161302e+01    0.2401153    0.1209603  59.52  0.001491859    1.904    0.475
         8 -10.5212    118.7001    245.9893   1.1695417995e+02   1.2530789136e+01     0.355411    0.1397672  54.83  0.001669559    2.308    0.567
         9 -18.5855     47.7389    238.6540   1.2770681127e+02   2.2692516159e+01     4.016438     2.989146  57.23    0.0178056    1.214    0.176
        10 -13.9341     11.9036    245.6815   1.3337299775e+02   2.5369828942e+01    0.3748237    0.3550816  73.18  0.003766431    1.818    0.450
        11  -9.4154    172.5056    189.9321   1.0081586431e+02   1.1992345997e+01    0.1688066    0.1254837 -41.88  0.001030259    1.582    0.368
        12  -8.7573    175.8819    187.1256   9.9749368537e+01   1.1810243629e+01    0.1897077    0.1584069  60.66 0.0005730492    1.291    0.225
        13 -11.3352    192.9802    195.9473   9.8109065866e+01   7.5678921229e+00     1.113214    0.6067161 -59.51  0.004861406    3.935    0.746
        14 -11.3995    204.4343    199.7729   9.6748710797e+01   5.1177186303e+00    0.5208628    0.3320546   0.65  0.002872007    2.165    0.538
        15  -8.7587    170.0443    183.1131   1.0017758550e+02   1.3461195661e+01    0.4238306     0.144854  54.34  0.001395002    4.279    0.766
        16  -9.6263    249.4186    179.5796   8.5880439636e+01  -4.8284573747e-02    0.2413739    0.2318005  64.61 0.0009743945    1.591    0.372
        17  -9.3276    110.6507    212.6374   1.1511277308e+02   1.8590122054e+01    0.2455509    0.1499145  86.41  0.001353723    2.113    0.527
        18  -8.9473    163.3924    203.4483   1.0448582149e+02   1.1583666158e+01    0.2353732    0.1591012  71.59 0.0007044797    2.084    0.520
        19  -8.9347      3.8418    176.7907   1.3199855646e+02   3.7838666742e+01    0.1351866    0.1057744  82.33 0.0003753605    1.188    0.159
        20 -10.3491    144.8565    174.8600   1.0369159872e+02   1.9334840424e+01    0.3309323    0.2027468 -73.41  0.001573261    2.515    0.602
        21  -9.5099    237.7272    174.6333   8.6810627601e+01   2.4897388547e+00    0.2327034    0.1880675  35.82  0.000977475    1.216    0.178
        22 -10.5238    201.1808    169.6372   9.2093898364e+01   9.7371116955e+00    0.6103059    0.3638259 -50.57  0.003035894    2.269    0.559
        23 -10.1022    204.4984    165.9819   9.0808934277e+01   9.6381636455e+00    0.4409318    0.2614405 -51.45  0.001753954    2.366    0.577
        24 -10.3454    206.8015    162.6466   8.9754166563e+01   9.6803132994e+00    0.2480438    0.2171232  21.28 0.0005688472    1.019    0.019
        25  -9.7845    189.7841    156.0241   9.1563646979e+01   1.3972204845e+01     0.385776    0.3420281 -48.19  0.001691279    1.292    0.226
        26 -10.6630    194.1674    168.3062   9.3114590817e+01   1.1248761257e+01    0.3918797    0.3091552 -39.54 0.0008109553    1.425    0.298
        27  -9.8257    190.6874    162.1847   9.2597308427e+01   1.2837537219e+01    0.4176077    0.2529357 -45.99  0.001980834    1.915    0.478
        28 -10.2642    137.6675    172.8300   1.0480456983e+02   2.0965417797e+01    0.2575526    0.1908249  62.39  0.000808001    1.330    0.248
        29  -9.7869    167.9173    232.1546   1.0745725911e+02   7.0151283931e+00    0.1726136    0.1658776  40.41 0.0004837187    1.265    0.209
        30  -8.7055    157.5317    200.2771   1.0509565588e+02   1.3036774199e+01    0.1874596     0.120801 -56.29  0.001094571    1.954    0.488
        31  -9.4932    238.4597    169.9685   8.5806560844e+01   2.9247842737e+00    0.2200435    0.1448252  26.55 8.913483e-05    1.388    0.279
        32  -8.6827      9.2547    170.5679   1.3066402319e+02   3.8576888317e+01    0.1892231    0.1430019 -48.70 0.0009270143    2.017    0.504
        33 -11.3096     30.8804    143.7520   1.2421315363e+02   4.2075947120e+01    0.5727271       0.4131 -10.99   0.00340938    2.715    0.632
        34 -12.1142     22.7702    157.9054   1.2715150333e+02   3.9893118366e+01    0.8093073    0.6928607  42.97  0.003572698    1.468    0.319
        35 -10.0996     26.4726    166.0934   1.2698804142e+02   3.7879806194e+01    0.4043376     0.173655  28.74  0.001835374    3.064    0.674
        36  -8.1336      1.8837    167.4227   1.3191645901e+02   3.9803951444e+01    0.1130478    0.1007361  11.56  0.000928078    1.839    0.456
        37  -9.1067    159.7720    165.6684   9.9189215840e+01   1.8183115721e+01    0.2125481    0.1834646 -46.42 0.0002972827    1.289    0.224
        38  -9.3041    238.5242    164.9895   8.4830778695e+01   3.5232746453e+00    0.1890715    0.1492345  28.99 7.189919e-05    1.134    0.119
        39  -9.1728    119.8065    164.3777   1.0715756055e+02   2.5627774160e+01    0.2312768    0.1747125  76.61 0.0005312457    1.394    0.283
        40  -8.2487    140.6091    164.3070   1.0281969996e+02   2.1971431845e+01     0.140647   0.09640611  72.75 0.0007011857    1.818    0.450
        41 -10.3342     36.5320    162.3495   1.2462998692e+02   3.7616209101e+01    0.3185053    0.2307854  35.81  0.001584002    1.650    0.394
        42 -10.0561    100.4025    158.9381   1.1048994797e+02   2.9892624647e+01    0.2352054    0.2052172  74.14 0.0003981178    1.013    0.013
        43  -9.4043    120.4408    157.0553   1.0585478167e+02   2.6934095373e+01    0.2450351    0.1724952  54.35 0.0004843269    1.315    0.239
        44 -10.9369     35.7298    154.7939   1.2414641365e+02   3.9257751058e+01    0.4360901    0.2258204  86.05   0.00236613    1.805    0.446
        45 -11.5988    104.6982    152.5361   1.0857252668e+02   3.0496802515e+01     0.697104    0.5209379  29.23   0.00321139    1.665    0.399
        46 -12.1457     90.2608    152.8604   1.1184224623e+02   3.2708421274e+01    0.3614248     0.322635   3.78 0.0008598555    1.628    0.386
        47 -10.8224     11.6670    132.8816   1.2767718930e+02   4.6102724404e+01     0.331549    0.2609859  -4.26  0.002247074    2.097    0.523
        48 -11.4452      4.2453    138.2365   1.2975322851e+02   4.5535918924e+01    0.6487715    0.3168501 -83.00  0.003965052    1.578    0.366
        49 -10.0578    132.7606    141.5179   1.0038701996e+02   2.7762358394e+01      0.77439    0.2567983 -58.32  0.002290136    4.828    0.793
        50  -8.9585    141.0974    199.2150   1.0796475044e+02   1.5948237903e+01    0.2016612    0.1713008 -81.59 0.0005969783    1.356    0.263
        51  -8.6152    226.1866    145.1763   8.2817620650e+01   8.4173389051e+00    0.1918376     0.158766  11.38 0.0003071031    1.125    0.111
        52  -8.2199    154.4874    143.4483   9.6069785560e+01   2.3166291805e+01    0.1391292    0.1297294  56.63 7.948603e-05    1.022    0.021
        53 -11.5279      3.6344    122.4825   1.2876070647e+02   4.8933983815e+01    0.8953385    0.1534733 -71.13  0.003539399    3.680    0.728
        54 -10.9962    112.6547    138.3495   1.0435107666e+02   3.2074121538e+01    0.5315793    0.4152301 -53.15  0.002992718    1.330    0.248
        55  -8.0515    159.0000    138.9668   9.4199761744e+01   2.3086442987e+01    0.2157322   0.08096558 -43.87 0.0004223587    2.808    0.644
        56 -10.8404    102.7630    137.9814   1.0659301008e+02   3.3842840872e+01    0.2581207    0.2343655  78.90 0.0003392428    1.026    0.025
        57 -10.4767     36.5605    135.8540   1.2210713358e+02   4.3212433766e+01    0.2827628    0.1970581  37.30  0.001822328    1.643    0.391
        58  -9.4775     86.2044    134.1970   1.0989650934e+02   3.7294644975e+01    0.1881832    0.1404409  81.68 0.0005110463    1.352    0.260
        59 -10.1511    135.8433    128.7231   9.7097278382e+01   2.9723152133e+01    0.6244748    0.1305046 -50.04  0.001642051    5.339    0.813
        60  -9.9063    134.7745    122.6818   9.6027691371e+01   3.1157417207e+01    0.3681962    0.2076034 -47.01  0.001637324    1.799    0.444
        61  -9.6313    118.2877    129.5644   1.0134676922e+02   3.2898984018e+01    0.2709151    0.2291508 -27.35 0.0006370389    1.484    0.326
        62  -9.6387    120.4551    125.2613   9.9950766589e+01   3.3398670637e+01    0.2813512    0.2234546  15.27  0.001354594    1.736    0.424
        63  -9.3402    159.8825    127.5408   9.1529879822e+01   2.5030362842e+01    0.2917209    0.1891875 -60.49 0.0008902954    1.924    0.480
        64 -11.0713      8.4757    145.6526   1.2932281345e+02   4.3661280773e+01    0.5668644    0.2436035  88.67  0.003090566    1.974    0.493
        65  -9.9606    134.5213    149.5000   1.0150133679e+02   2.5870170572e+01    0.4218147    0.3075191 -50.15  0.002292316    1.461    0.316
        66  -9.8535    106.9108    125.3225   1.0323263463e+02   3.5839010009e+01    0.2595805    0.2428028 -28.07 0.0006924924    1.293    0.226
        67 -10.2668     35.3328    119.5458   1.2052691183e+02   4.6942698816e+01    0.2281832    0.1646417 -84.99 0.0009007749    1.138    0.121
        68  -8.7234     22.5039    120.4563   1.2390956117e+02   4.7919845428e+01    0.1183939   0.09161946 -88.09  9.83332e-05    1.004    0.004
        69  -8.9350    112.7879    118.8928   1.0046159516e+02   3.6168750094e+01    0.1979078    0.1926429 -33.02   0.00046772    1.175    0.149
        70 -10.6442     66.7183    116.6714   1.1187382393e+02   4.3971525930e+01    0.3230209    0.1763302  52.96  0.001597384    1.955    0.488
        71  -8.9604    168.4398    114.0123   8.6525790203e+01   2.5694502064e+01    0.3257946     0.244306 -79.03   0.00126787    1.855    0.461
        72 -11.0990     70.0134    112.3365   1.1022863157e+02   4.4507391596e+01    0.4898833    0.2736548 -79.90  0.002261648    2.102    0.524
        73  -8.9790      8.2341    153.6126   1.2988579830e+02   4.2043126530e+01    0.2443212      0.14828 -61.61 0.0009963121    1.793    0.442
        74 -11.2698     54.7250    110.0567   1.1398566821e+02   4.6986046572e+01    0.3863465    0.2939498  55.88  0.001703068    1.368    0.269
        75 -10.7611     60.9640    108.5412   1.1201075748e+02   4.6564290981e+01    0.3452857    0.2459756 -31.44  0.001526137    1.987    0.497
        76  -8.4819    129.8443    110.1528   9.4298143610e+01   3.4723387799e+01    0.2019697    0.1767389 -18.41  0.001071085    1.356    0.263
        77  -9.6447    116.9651    109.2893   9.7267275097e+01   3.7442520129e+01    0.2068142     0.189844  60.75 0.0007381849    1.095    0.087
        78  -9.8190     88.3892    109.1374   1.0466096224e+02   4.2500990364e+01    0.2486081    0.1976649  58.11 0.0007860835    1.295    0.228
        79  -8.8022    153.9057    194.0248   1.0486742336e+02   1.4606026900e+01    0.1875193    0.1459047  11.84  0.001131449    1.710    0.415
        80 -10.3004     66.5127    104.9788   1.0981270118e+02   4.6653533422e+01    0.2641675    0.2430969  27.05  0.001682683    1.342    0.255
        81  -8.5629    168.1709     97.2309   8.2257101461e+01   2.8842819706e+01    0.2145884    0.1986241  18.64 0.0004365232    1.130    0.115
        82  -8.1365    131.1523     96.1718   9.0435996910e+01   3.7335561345e+01    0.1987233    0.1701968 -76.11 0.0002475037    1.272    0.214
        83  -8.2948    113.3098     95.2984   9.4756254278e+01   4.1134579718e+01    0.1414141    0.1167755  -8.12 0.0002684577    1.598    0.374
        84  -9.3895    224.4640     90.1726   7.0067343231e+01   1.6797365784e+01    0.2228091    0.1961555  44.82  0.000371174    1.184    0.155
        85  -7.6924    177.3203     90.6518   7.8577091139e+01   2.7862276018e+01    0.1594373    0.1192702 -70.10 0.0007048884    1.737    0.424
        86  -8.4805    148.6044     81.1867   8.2033732455e+01   3.6403685515e+01    0.2127087    0.1458948 -27.47 0.0006642716    1.592    0.372
        87  -8.2847    111.7059     78.0795   9.0407041680e+01   4.5071548219e+01    0.1993323    0.1758493 -47.63 0.0002610011    1.074    0.069
        88  -8.1948    108.4808     75.4720   9.0520194728e+01   4.6249545178e+01    0.1463945     0.137694 -54.50 0.0008096215    1.021    0.020
        89 -10.5377    188.0279    245.7325   1.0584873772e+02   2.4047955970e+00    0.2937243    0.1612109 -40.77  0.001298078    2.458    0.593
        90  -9.5486    130.6795    214.4823   1.1174748116e+02   1.5255325853e+01     0.217969    0.1615749  79.31 0.0005158125    1.528    0.346
        91 -11.7699    179.1822     32.4601   6.0315520053e+01   3.6483604631e+01    0.5528498    0.4616003  12.39  0.001344553    1.334    0.250
        92 -10.4780    124.9963     56.3764   7.9841434370e+01   4.6449445874e+01    0.2618448     0.221211 -30.80 0.0002842821    1.151    0.131
        93  -8.9252    220.5908     41.7887   5.7349285835e+01   2.4507403163e+01    0.3320625    0.1715689 -24.63  0.001385371    1.895    0.472
        94  -8.4385      3.3489    192.4839   1.3277759573e+02   3.4966874694e+01    0.1031546   0.08872121  54.84 0.0008964043    1.474    0.321
