#   1 NUMBER                 Running object number                                     
#   2 MAG_AUTO               Kron-like elliptical aperture magnitude                    [mag]
#   3 X_IMAGE                Object position along x                                    [pixel]
#   4 Y_IMAGE                Object position along y                                    [pixel]
#   5 X_WORLD                Barycenter position along world x axis                     [deg]
#   6 Y_WORLD                Barycenter position along world y axis                     [deg]
#   7 A_WORLD                Profile RMS along major axis (world units)                 [deg]
#   8 B_WORLD                Profile RMS along minor axis (world units)                 [deg]
#   9 THETA_WORLD            Position angle (CCW/world-x)                               [deg]
#  10 FWHM_WORLD             FWHM assuming a gaussian core                              [deg]
#  11 ELONGATION             A_IMAGE/B_IMAGE                                           
#  12 ELLIPTICITY            1 - B_IMAGE/A_IMAGE                                       
         1 -14.2824      3.0335     51.3834   1.2494733687e+02   6.4816468788e+01     2.659485    0.6962543 -60.54   0.01025282    4.157    0.759
         2 -14.7169      2.5685    112.3198   1.3731478980e+02   5.2181302904e+01     4.433913    0.2525232 -66.63   0.01180563    6.604    0.849
         3 -14.8225      6.1802    145.1865   1.4057002274e+02   4.4380325241e+01     4.185884       1.4288 -80.55   0.01663047    3.078    0.675
         4 -13.5422    217.1772     11.6977   5.8258653022e+01   3.0249983574e+01     0.923345      0.81162  62.21   0.00631734    1.370    0.270
         5 -13.5678    200.6545     29.5758   6.4056836428e+01   3.1962756484e+01     1.327183     1.165223  54.61  0.007035391    1.318    0.241
         6 -10.9167    199.0057    247.6769   1.1241531159e+02  -6.8913420746e+00    0.2117036    0.1889627 -89.94  0.001360685    1.643    0.391
         7 -10.6341    248.6782    249.5245   1.0358191162e+02  -1.4488996192e+01    0.3048204    0.2065669  14.39  0.001976032    1.292    0.226
         8 -10.5923    216.2651    249.7215   1.0948565631e+02  -9.8801424642e+00     0.262695    0.1285308  21.15   0.00118355    2.571    0.611
         9 -12.8258    124.5861    249.8284   1.2730400696e+02   5.1328892587e+00    0.7125558    0.4369878  37.46  0.003859169    1.538    0.350
        10 -10.3538     88.8358    249.5598   1.3418206278e+02   1.0888467699e+01    0.1958747    0.1404928 -85.00 0.0008135397    1.403    0.287
        11 -12.9764     45.6900    247.9835   1.4196981275e+02   1.7282214225e+01     1.095832    0.5325673  62.53  0.006041844    1.792    0.442
        12 -11.9219     29.5050    248.4741   1.4481733738e+02   1.9187344572e+01    0.5392588     0.371646  47.81  0.003725249    1.453    0.312
        13 -12.6099     36.2394    243.9729   1.4333290368e+02   1.9265829137e+01    0.5358816    0.3807609  64.81  0.003499655    1.121    0.108
        14 -13.0150      5.8915    226.5959   1.4745872182e+02   2.6190877596e+01    0.9191411    0.6049702  68.52  0.006420904    1.193    0.162
        15 -11.8645    140.4464    249.7595   1.2417786551e+02   2.5004134793e+00    0.6280138    0.1684109  39.43  0.002218339    3.332    0.700
        16 -12.5170     89.1882    226.5503   1.3153584472e+02   1.5484641566e+01     1.265495    0.2089815  48.98  0.003130255    6.892    0.855
        17 -12.3803    117.7519    231.7354   1.2632019662e+02   9.7419487349e+00    0.6001342    0.2456476  36.14  0.002422218    2.555    0.609
        18 -11.9012    105.1930    230.2884   1.2871410307e+02   1.2132794890e+01    0.5498441    0.1639651  47.28  0.001824382    3.004    0.667
        19 -12.8793     43.3578    212.5185   1.3934116580e+02   2.5028437663e+01     1.011589    0.6757632 -78.85  0.004611747    1.295    0.228
        20 -12.8838     27.8368    229.6396   1.4376669750e+02   2.3196345741e+01    0.3300043    0.2801077  88.52 0.0007250892    1.260    0.206
        21 -14.0234     33.0172    222.9339   1.4228041541e+02   2.4009265491e+01    0.9034075    0.6046914  68.58  0.002468546    1.229    0.186
        22 -11.9848    243.0000    247.5510   1.0425061641e+02  -1.3457861340e+01    0.3324434     0.289443 -21.27  0.002389183    1.324    0.245
        23 -11.3354      6.6586    215.1617   1.4658392963e+02   2.8511834518e+01    0.2590129    0.1525726  41.21 0.0009956833    1.817    0.450
        24 -12.1536    160.9950    248.9392   1.2001207010e+02  -8.1948135226e-01    0.5710266     0.204761  40.55    0.0023711    2.387    0.581
        25  -8.5412    152.5451    213.0041   1.1610995726e+02   7.3363007693e+00    0.1896245    0.1404125 -52.51 0.0003317576    1.453    0.312
        26 -10.5391     53.9288    203.2923   1.3620529240e+02   2.5757460281e+01    0.4352809    0.2316406  74.81  0.001957219    2.123    0.529
        27 -11.6723     56.2699    196.6167   1.3493743292e+02   2.6989069011e+01    0.2909862     0.236388 -62.41  0.000485449    1.317    0.241
        28  -9.4351    192.2901    193.5679   1.0409314883e+02   3.6918229254e+00    0.3311645    0.1905069 -73.65 0.0009060035    6.097    0.836
        29 -11.8898     63.0259    188.4324   1.3241159916e+02   2.7998786833e+01    0.2812479    0.2380576 -68.78 0.0004215226    1.187    0.157
        30 -11.3901      4.4811    184.0906   1.4469735481e+02   3.5545263005e+01    0.6526999    0.2524909  74.30  0.002719159    3.310    0.698
        31 -13.1754     60.3716    173.6756   1.3101797057e+02   3.1909469755e+01    0.5532649    0.2823506 -46.98  0.002107569    2.291    0.564
        32 -10.6514     74.0488    175.7664   1.2802761776e+02   2.9468904836e+01     0.241951    0.2147157 -80.09 0.0003248604    1.056    0.053
        33  -9.5568     92.2982    169.7390   1.2256014944e+02   2.8072374631e+01    0.2703331     0.198984  74.86 0.0007490394    1.486    0.327
        34 -11.7716     81.8389    166.8951   1.2468002298e+02   3.0453542021e+01     0.649141    0.5754577 -51.19  0.003677001    1.222    0.182
        35 -12.5750      9.9937    206.9890   1.4538952005e+02   2.9947146805e+01    0.6283586    0.4431253  31.00  0.002946268    1.885    0.470
        36  -9.9905     95.3481    151.4247   1.1835685176e+02   3.2050361303e+01    0.2942801    0.2697476 -54.12 0.0007767371    1.109    0.098
        37 -11.9825     83.8153    150.3522   1.2118949148e+02   3.4217946578e+01    0.3242679    0.2493816 -49.28 0.0006201772    1.292    0.226
        38  -9.0458     98.7265    147.2522   1.1661797103e+02   3.2487412148e+01    0.1970135       0.1687 -35.41 0.0003942212    1.302    0.232
        39 -11.7644     68.6392    143.4717   1.2396155724e+02   3.8190261697e+01    0.6009632    0.3989484 -83.49  0.001683461    1.730    0.422
        40 -11.2604     65.3095    141.6617   1.2453222918e+02   3.9097873704e+01    0.3886976    0.2676464 -53.47  0.001026904    1.328    0.247
        41  -9.6832    108.2237    136.7397   1.1180252260e+02   3.3315998205e+01    0.3899252    0.2602033 -15.25   0.00127082    2.655    0.623
        42 -10.4343     94.9678    133.8973   1.1476622981e+02   3.6391975746e+01    0.2368416    0.2022174 -50.90 0.0003250185    1.118    0.105
        43  -8.9695    105.8321    123.4868   1.0933777005e+02   3.6911339209e+01    0.1988063    0.1522214  40.92 0.0002890938    1.373    0.272
        44  -9.4626    167.4834    112.4544   9.1051609129e+01   2.6091876541e+01    0.2997388    0.2395772 -78.87 0.0007486551    1.451    0.311
        45 -10.9465    242.6716     95.1672   7.3519651272e+01   1.2371079119e+01    0.3033215   0.09997978 -45.85  0.001102111    2.651    0.623
        46  -9.5105     63.1030     79.0961   1.1054737727e+02   5.3664201423e+01    0.1877045    0.1798822 -39.76 0.0004327862    1.162    0.139
        47  -9.2266    159.4919     77.5230   8.3416395312e+01   3.4761391357e+01    0.1487985    0.1434017  78.15 8.949981e-05    1.013    0.013
        48  -9.1690     52.0110     72.3732   1.1239173442e+02   5.6447155904e+01    0.1689207     0.151007  11.38   0.00055297    1.191    0.161
        49 -13.6437      6.7110    246.3169   1.4847427185e+02   2.2154068362e+01      1.33788     1.069379  56.06   0.01052936    1.411    0.291
        50 -13.3727     59.1032    212.8130   1.3616354806e+02   2.2910207941e+01     4.047947     1.201783  60.58  0.006966583   16.352    0.939
        51 -10.8955     63.6654    246.6440   1.3860930542e+02   1.5138039762e+01    0.3016172    0.1753686  74.95 0.0007225569    1.645    0.392
        52 -10.9308     81.6314    248.8838   1.3547462930e+02   1.2105334887e+01     0.242707    0.1606015  69.78 0.0009097913    1.364    0.267
