#   1 NUMBER                 Running object number                                     
#   2 MAG_AUTO               Kron-like elliptical aperture magnitude                    [mag]
#   3 X_IMAGE                Object position along x                                    [pixel]
#   4 Y_IMAGE                Object position along y                                    [pixel]
#   5 X_WORLD                Barycenter position along world x axis                     [deg]
#   6 Y_WORLD                Barycenter position along world y axis                     [deg]
#   7 A_WORLD                Profile RMS along major axis (world units)                 [deg]
#   8 B_WORLD                Profile RMS along minor axis (world units)                 [deg]
#   9 THETA_WORLD            Position angle (CCW/world-x)                               [deg]
#  10 FWHM_WORLD             FWHM assuming a gaussian core                              [deg]
#  11 ELONGATION             A_IMAGE/B_IMAGE                                           
#  12 ELLIPTICITY            1 - B_IMAGE/A_IMAGE                                       
         1 -16.9954    150.5542    159.4774   1.0942089973e+02   1.9501018007e+01     11.18416     4.010003  54.18   0.03170602    3.964    0.748
         2 -14.6378     72.2128     59.0633   1.0424901688e+02   5.5802416644e+01     1.888003      1.19501 -40.04   0.01010362    1.497    0.332
         3 -14.1410     85.3609     50.2614   9.7008572770e+01   5.5064262891e+01     2.659333    0.8307337 -47.01  0.008140319    5.067    0.803
         4 -14.7850     68.5188     31.8526   9.5700286086e+01   6.0547635977e+01     1.221119     0.901431  45.52  0.005700704    1.560    0.359
         5 -14.5646     78.3186     30.2426   9.1900316478e+01   5.9116919321e+01    0.8484538    0.6556475  -1.41  0.003369788    1.207    0.171
         6 -12.6813     14.3119     24.3755   1.1392786495e+02   6.8188329566e+01    0.4512362    0.4015311  10.35  0.002848533    1.477    0.323
         7 -15.3823    102.3342      5.4109   7.5976325703e+01   5.7059342876e+01     2.657651    0.6835261  58.94   0.00983505    3.486    0.713
         8 -13.1459     63.9312      1.9667   8.4985813355e+01   6.4564472696e+01    0.8847541    0.1470078  49.78  0.003027913    5.024    0.801
         9 -12.0829      7.6364    227.9147   1.4910052058e+02   2.6248828499e+01    0.1762234    0.1612879   7.26  0.001381107    1.995    0.499
        10  99.0000     70.7378    160.4498   1.2905467231e+02   3.3710431244e+01     9.669546     4.238849 -78.69   0.03143508    3.937    0.746
        11 -10.2387     58.3518    226.0688   1.3997362704e+02   2.0645646643e+01     0.163177    0.0950967 -88.48 0.0004401287    1.641    0.391
        12 -12.7130    144.7099    221.2086   1.2212329385e+02   7.6503134942e+00     0.668394    0.3252697  55.81  0.002792264    2.326    0.570
        13 -10.0514     80.6400    220.2686   1.3505337063e+02   1.8659593124e+01    0.1367767   0.08177998  67.01 0.0005219537    1.644    0.392
        14 -14.6063    122.5658    120.9584   1.0733852648e+02   3.4104989334e+01     2.549869      1.35213  38.22   0.01008457    2.056    0.514
        15 -15.4254    148.7847    125.2708   1.0184330747e+02   2.7523276407e+01     1.758639     1.564144 -88.29  0.005802135    1.221    0.181
        16 -16.5652    161.3118    198.5743   1.1480597832e+02   8.9695570975e+00     9.750148     1.830398  44.90   0.02519517    5.057    0.802
        17 -15.4464    149.7914    180.6208   1.1394199761e+02   1.4997368951e+01     2.352763    0.7431128  43.96  0.007594915    3.048    0.672
        18 -11.5562    230.2168    249.5921   1.1018356234e+02  -1.1528459226e+01    0.1761569   0.09443998  28.28  0.000953984    1.679    0.404
        19 -12.3069     95.6337    214.2332   1.3127346120e+02   1.7585705148e+01    0.4144566    0.2671876  36.29  0.001316998    1.702    0.413
        20 -15.9218    125.4078    153.4736   1.1414809510e+02   2.6017571052e+01     2.063553     1.890024  70.60  0.009476735    1.085    0.078
        21 -10.1944     54.8243    210.1385   1.3907054591e+02   2.4477322981e+01    0.1465415    0.1322148  86.45 0.0003569693    1.242    0.195
        22 -12.0868     11.4603    207.0243   1.4704312201e+02   3.0131125891e+01    0.2766376    0.1816643 -79.49  0.001061535    1.242    0.195
        23 -16.3153    180.1553    178.5759   1.0687173032e+02   9.2398051078e+00     3.378272     2.289037 -81.78   0.01360996    2.618    0.618
        24 -13.6807    248.0591    181.3441   9.4261960098e+01  -4.2672937837e+00    0.7904074    0.4209142 -36.61  0.003770108    1.730    0.422
        25 -11.8343    125.1183    182.3197   1.1987253408e+02   1.9434042261e+01    0.5864478    0.3741797  71.29  0.002519669    2.063    0.515
        26 -12.0715     87.2466    177.8098   1.2788775380e+02   2.7093658331e+01    0.3839023    0.3386205 -26.12  0.002184488    1.515    0.340
        27 -10.6402     90.4829    173.0352   1.2635544967e+02   2.7695209627e+01    0.2093057    0.1307889 -59.24 0.0005675315    1.518    0.341
        28 -11.5668    102.7342    170.4908   1.2299833761e+02   2.6231944316e+01     0.648042    0.4802655 -48.43  0.002863524    1.425    0.298
        29 -14.9971    243.1733    156.8917   8.9979045507e+01   7.8431469296e-01     1.367288     1.037119 -82.47  0.006791207    2.101    0.524
        30 -14.6633    105.7258    138.5711   1.1591834291e+02   3.3275473799e+01     1.719149    0.9626889  55.15  0.007032303    2.113    0.527
        31 -10.8973     65.5079    213.9456   1.3735430360e+02   2.2203617004e+01    0.2346122    0.1421226  60.22 0.0005920174    1.496    0.331
        32 -12.2782      1.7121    153.2052   1.4444662928e+02   4.2768579798e+01    0.7170303    0.1740604 -77.58  0.002502103    4.176    0.761
        33 -12.9435    190.0414    153.2181   9.9274088858e+01   1.2338510966e+01    0.7409148    0.5034041 -59.06  0.003274922    1.723    0.420
        34 -12.0640    102.8733    154.9011   1.2004679371e+02   2.9903075029e+01    0.6074052    0.3886128  42.77  0.002826464    1.613    0.380
        35 -12.6644    179.0119    151.8259   1.0130468387e+02   1.5032251206e+01    0.6100725    0.4541026 -82.30  0.002318433    1.875    0.467
        36 -14.2291    174.2380    145.9327   1.0098811368e+02   1.7335363138e+01     1.541827    0.7849487  43.71   0.00588454    2.005    0.501
        37 -12.8849    201.7404    146.7838   9.5410442127e+01   1.1103593567e+01    0.8682507    0.5760541 -32.61  0.003919246    1.565    0.361
        38 -15.0394    227.8006    141.8834   8.9364366055e+01   6.5322457946e+00     1.216174    0.7204713 -34.34  0.005494667    1.639    0.390
        39 -12.7637    181.3722    136.3381   9.7167149937e+01   1.7766534323e+01    0.4538747    0.4305374  -0.27  0.001531951    1.133    0.117
        40 -10.8703     62.8045    216.7374   1.3818581847e+02   2.1985258900e+01     0.223753    0.1474838  81.98   0.00129616    1.391    0.281
        41 -10.7665      2.1893    140.1602   1.4297692429e+02   4.5669285507e+01    0.1818625    0.1268155 -63.04  0.001007793    1.213    0.175
        42 -12.2049    177.0469    119.5332   9.3954912775e+01   2.2260973680e+01    0.5643219     0.217479 -48.10  0.001832662    2.723    0.633
        43 -19.3520     32.0939    138.4122   1.3534437706e+02   4.3600405482e+01     19.23207     1.895648 -65.57   0.04332247    8.281    0.879
        44 -14.3790    102.4830    105.8245   1.0888574326e+02   4.1396827828e+01     1.582626     1.231258  17.23  0.006003781    1.547    0.354
        45 -11.6156     86.0381    107.1071   1.1394049444e+02   4.3978535035e+01     1.247813    0.5064925 -54.56  0.004648587    2.467    0.595
        46  99.0000      6.4876     88.6601   1.3439975862e+02   5.6786035517e+01      1.21055    0.4668162 -60.37  0.006184733    1.884    0.469
        47 -13.6863      4.3096    110.4113   1.3863863575e+02   5.2195106290e+01    0.5371636    0.3523312  19.29  0.002911598    1.994    0.498
        48 -14.4853      3.4690    104.7753   1.3802864462e+02   5.3486610005e+01    0.9127818    0.4582061 -72.85  0.005059144    1.698    0.411
        49 -14.4627    207.6572    107.3910   8.4862444798e+01   1.7492667167e+01    0.8805375     0.567068  42.16  0.003927403    1.755    0.430
        50 -11.3731     91.3256     91.1914   1.0811427772e+02   4.6529558789e+01     0.351951    0.3011975  80.80  0.001896833    1.505    0.335
        51 -10.3434    102.3651     83.1537   1.0253425504e+02   4.6146422624e+01    0.2121985    0.1308407 -51.33 0.0009510627    1.740    0.425
        52 -11.0326      9.1302     77.4401   1.3131080834e+02   5.8968765605e+01    0.2440889    0.1558146 -53.50   0.00136047    1.185    0.156
        53 -12.6540     87.8485     72.7744   1.0368816977e+02   5.0772582384e+01    0.4748943    0.4549886  -4.02  0.001636968    1.087    0.080
        54 -11.7325     86.9592    239.5022   1.3596008291e+02   1.3828624439e+01     0.217197    0.1638989 -84.23 0.0003229464    1.286    0.222
        55 -12.2389    238.3245    238.1084   1.0677938155e+02  -1.1235016275e+01    0.2238761    0.1472905  22.50  0.001290652    1.360    0.264
        56 -11.6527    135.4341    236.2119   1.2619206065e+02   6.4904593808e+00    0.1727497    0.1234834 -75.87 0.0009527197    1.698    0.411
        57 -12.0144     67.2448    233.2576   1.3900562911e+02   1.7957117766e+01    0.3031761    0.1877993  45.35 0.0007969637    1.524    0.344
        58 -11.5079      5.0119     62.7421   1.2944053685e+02   6.2149464252e+01    0.3111822    0.2119762 -53.55  0.001875124    1.172    0.146
        59 -11.7134      4.5086     58.9911   1.2871303624e+02   6.2900420733e+01    0.3305196    0.1626156 -49.17  0.001759832    1.473    0.321
        60 -12.2527      2.0809     47.3703   1.2660838178e+02   6.5198178736e+01    0.7314719    0.1399921 -56.00  0.002901238    3.758    0.734
        61 -15.7054     60.5066    182.3630   1.3464784026e+02   2.9953131413e+01     2.614278    0.8492199  53.39  0.009080469    3.888    0.743
        62 -11.8871    167.5833     45.3118   7.5655351322e+01   3.7692422375e+01     0.263238    0.2164703  72.92 0.0007933716    1.161    0.139
        63 -13.2946    155.9030    225.3225   1.2048277461e+02   4.8466098972e+00      0.60123    0.3605565  38.46    0.0030102    1.537    0.350
        64 -12.1865    100.9073    232.2900   1.3247422868e+02   1.3046306205e+01    0.2118745    0.1757864 -75.35 0.0002939868    1.261    0.207
        65 -13.3039    180.9828     31.0181   6.9552206244e+01   3.6242868016e+01    0.5158727    0.3657542  39.59  0.002712327    1.644    0.392
        66 -12.8183    185.1431     24.3241   6.7204755137e+01   3.6017805334e+01    0.4270881    0.3786994   8.67  0.001099017    1.445    0.308
        67 -14.2198     55.0771    128.2521   1.2749726761e+02   4.3482678938e+01     1.819044      1.27251 -37.98  0.009800266    1.571    0.364
