#   1 NUMBER                 Running object number                                     
#   2 MAG_AUTO               Kron-like elliptical aperture magnitude                    [mag]
#   3 X_IMAGE                Object position along x                                    [pixel]
#   4 Y_IMAGE                Object position along y                                    [pixel]
#   5 X_WORLD                Barycenter position along world x axis                     [deg]
#   6 Y_WORLD                Barycenter position along world y axis                     [deg]
#   7 A_WORLD                Profile RMS along major axis (world units)                 [deg]
#   8 B_WORLD                Profile RMS along minor axis (world units)                 [deg]
#   9 THETA_WORLD            Position angle (CCW/world-x)                               [deg]
#  10 FWHM_WORLD             FWHM assuming a gaussian core                              [deg]
#  11 ELONGATION             A_IMAGE/B_IMAGE                                           
#  12 ELLIPTICITY            1 - B_IMAGE/A_IMAGE                                       
         1 -10.1969     63.3619     48.4864   5.7432675842e+01   6.1355906591e+01    0.4357477    0.2766752 -21.31  0.001869823    2.084    0.520
         2 -10.0085     22.3605     47.3783   7.9493845508e+01   6.7691355449e+01    0.4134988    0.1867972 -19.50  0.001389918    3.787    0.736
         3 -10.8726     40.9133     13.9417   5.1235349092e+01   7.1753924508e+01    0.2371529    0.1877766  28.63 0.0002982267    1.157    0.135
         4  -9.5075     72.6769    228.3371   8.9007798223e+01   1.9775385858e+01    0.1267148   0.07263359  49.72 0.0007050841    1.715    0.417
         5 -10.6444     85.1810    227.1958   8.6031365923e+01   1.8595386171e+01    0.1732483     0.120046  44.90  0.001081869    1.360    0.264
         6 -10.8662    162.2348    225.0878   6.9080768980e+01   9.6896553313e+00    0.3584956    0.2046958   9.08  0.002038032    1.735    0.424
         7 -10.3252     99.2365    225.0875   8.2608044938e+01   1.7336406833e+01    0.2530255    0.1505619  26.56 0.0006986876    1.344    0.256
         8 -10.2593    114.8146    222.1675   7.8762269756e+01   1.5954801688e+01    0.2261934    0.1031766 -63.57  0.001029422    3.497    0.714
         9 -11.0101    126.3272    220.6073   7.6016170460e+01   1.4788567253e+01    0.2343036     0.188471  33.17 0.0007191316    1.220    0.180
        10  -9.5941     74.9775    219.4799   8.7706670855e+01   2.1115872539e+01    0.1962065   0.09909023  28.67  0.000918589    1.582    0.368
        11  -9.8958    143.6305    216.7822   7.1769483217e+01   1.3216352381e+01    0.1834853    0.1621495 -45.15  0.001272639    1.496    0.332
        12  -9.5721    170.7300    215.8239   6.6087005492e+01   9.9503070390e+00    0.1917029    0.1286248  -9.08  0.001197178    1.433    0.302
        13  -9.5337    131.5105    213.9838   7.4019329256e+01   1.5206013280e+01    0.1684945   0.09236866 -23.05 0.0008096978    2.473    0.596
        14 -10.4440     76.7456    211.8756   8.6572977712e+01   2.2330415658e+01    0.2415905    0.1496641 -59.59  0.001375454    1.905    0.475
        15  -9.3078    177.3159    210.6359   6.4029777977e+01   9.8571102387e+00    0.1049557   0.09267899  47.45 0.0004402365    1.767    0.434
        16 -10.0149    116.6781    210.3488   7.6893470079e+01   1.7720384124e+01    0.1957151    0.1334271  50.84 0.0008074191    1.759    0.432
        17  -9.0900    148.3123    209.6596   6.9773857353e+01   1.3721741321e+01    0.1152399   0.09199902  49.88 0.0005576088    1.697    0.411
        18  -9.2297    214.6625    207.6668   5.6830925126e+01   5.7424874060e+00    0.1207799   0.06834632  -1.36  0.000705195    1.743    0.426
        19  -9.5532     22.4052    217.1958   1.0008094645e+02   2.6707926991e+01    0.1481468   0.09597374  70.24 0.0004227957    1.537    0.350
        20  -9.6465     99.1907    205.7969   8.0460699671e+01   2.0763205809e+01    0.2131811    0.1143394  57.17 0.0009426199    2.796    0.642
        21  -9.1636     56.4878    204.9959   9.0978524232e+01   2.5905995110e+01    0.1740459   0.09025527  67.28 0.0008101591    2.524    0.604
        22 -10.7587    186.1249    204.2469   6.1359154105e+01   9.6364605618e+00    0.2104443    0.1524234  35.93  0.001354015    1.585    0.369
        23 -11.5483    165.6021    202.8788   6.5157882789e+01   1.2490069316e+01    0.3116564    0.2826624  75.29  0.002058683    1.897    0.473
        24 -13.0783    163.4438    194.1521   6.4215588368e+01   1.4118493703e+01    0.8329505    0.3513171  45.72  0.003364909    3.454    0.711
        25 -10.8420    149.3314    198.1756   6.7841628707e+01   1.5416917708e+01    0.2806814    0.2302974 -76.01  0.001667656    2.083    0.520
        26 -11.4613    125.3374    197.2712   7.3105955933e+01   1.8864548756e+01    0.3503082    0.2202451  27.16  0.001917544    1.355    0.262
        27 -10.3292    112.7492    194.0455   7.5647239614e+01   2.1170370190e+01    0.2104209    0.1879046 -29.51 0.0003946568    1.238    0.192
        28  -9.5986     88.4151    198.1835   8.2217328467e+01   2.3565808619e+01    0.1683889    0.1259424 -89.14 0.0009520438    1.791    0.442
        29 -11.3612    186.5655    193.7555   5.9574403969e+01   1.1052415057e+01    0.1982703    0.1947781 -54.36  0.001416401    1.667    0.400
        30  -9.4448     66.4730    193.9854   8.7404205123e+01   2.7049495013e+01    0.1823482    0.1001106  71.62 0.0008098767    2.658    0.624
        31  -9.6133     43.6688    192.8613   9.3320683377e+01   2.9724387964e+01    0.2737663    0.1229958  68.22  0.001144851    3.000    0.667
        32 -10.6198    206.3857    191.2150   5.5558085951e+01   8.8359032801e+00    0.2632773    0.1336247 -47.12  0.001297094    3.033    0.670
        33 -11.2286    204.4844    184.4996   5.4740933541e+01   9.9822028961e+00    0.1807752    0.1748797  48.49  0.001299583    1.730    0.422
        34 -11.7833    172.7692    195.8489   6.2596906854e+01   1.2588637002e+01    0.2678664    0.2351134 -36.04   0.00138179    1.461    0.316
        35 -10.9999    172.8811    190.6505   6.1717815414e+01   1.3357732932e+01    0.2243333    0.1795363 -34.62    0.0012174    1.410    0.291
        36 -11.1308    139.2107    189.1799   6.8679044812e+01   1.8345759049e+01    0.3208084     0.244179 -66.33  0.001761087    1.975    0.494
        37 -10.3708    129.7976    188.3475   7.0725250600e+01   1.9837101631e+01    0.2238497    0.1840182  80.23  0.001041683    1.891    0.471
        38 -10.0020    192.9731    187.9856   5.7406554129e+01   1.1020632207e+01    0.1622781    0.1555997  56.44  0.001131327    1.728    0.421
        39 -10.6075    165.6832    186.6745   6.2513998276e+01   1.4981524917e+01    0.2287788    0.1879856  64.23  0.001335185    2.060    0.515
        40 -10.9816    156.0446    186.5413   6.4523643847e+01   1.6379136589e+01    0.2211526    0.1892863 -56.87  0.001347253    1.637    0.389
        41 -12.9960    177.9999    196.4710   6.1666450189e+01   1.1796213261e+01    0.6553182    0.3816954 -10.74   0.00337122    1.967    0.492
        42 -11.4354     95.0066    183.8575   7.8709133924e+01   2.5566403465e+01    0.6050792    0.4167854  87.45  0.003029923    2.210    0.548
        43 -10.5571    109.2614    185.4939   7.5288817311e+01   2.3280090167e+01     0.310899     0.224399  68.18  0.001609316    2.025    0.506
        44  -9.5084     54.6662    186.3251   8.9810560015e+01   2.9987315941e+01    0.1421224   0.08290124  53.00 0.0007051147    1.712    0.416
        45 -10.7226    120.4215    184.2171   7.2332230346e+01   2.1941625332e+01    0.2956413    0.1366332 -55.52  0.001287848    2.645    0.622
        46 -11.9519    182.9609    182.7697   5.8390666375e+01   1.3145499367e+01    0.4860228    0.1465992 -42.34  0.001914661    3.545    0.718
        47 -11.2711    174.7777    183.6590   6.0149856782e+01   1.4162651945e+01    0.2855949    0.2199675  42.85  0.001214177    1.608    0.378
        48 -12.0217      3.8051    181.6953   1.0333142003e+02   3.5468341581e+01    0.4583995     0.344799 -67.28  0.002945794    1.469    0.319
        49 -11.3887    197.5105    182.4896   5.5628810220e+01   1.1186845124e+01    0.2210192     0.194279  88.77  0.001246089    2.362    0.577
        50  -9.6979     20.1150    180.1992   9.8839958632e+01   3.4607248203e+01    0.2039559    0.1618999 -66.59  0.001070511    1.385    0.278
        51 -12.0095    147.8864    179.7464   6.5163933978e+01   1.8719270632e+01    0.3415768    0.2524767  46.64  0.001918535    1.607    0.378
        52 -10.8798    138.2635    178.8146   6.7201068233e+01   2.0319309624e+01    0.2336625    0.2105212  70.71  0.001128197    1.541    0.351
        53  -9.4042     44.2350    182.0047   9.2288357786e+01   3.2023289128e+01    0.1603408    0.1076507 -76.13 0.0008790935    1.622    0.383
        54 -10.1058     13.0085    176.3598   1.0060351776e+02   3.6014491477e+01    0.4140533     0.137469  61.84  0.001608271    3.255    0.693
        55 -10.6431    183.9336    175.6798   5.6945253777e+01   1.4072966494e+01    0.1793997    0.1450585  15.88  0.000809771    1.124    0.110
        56 -10.9286     77.8186    175.2479   8.2191398145e+01   2.9650142548e+01    0.3764266    0.2201831  65.69  0.001662216    2.433    0.589
        57 -10.6645    159.4277    175.2870   6.1854091074e+01   1.7751497968e+01     0.216931    0.1564967  48.02  0.001055842    1.739    0.425
        58  -9.8434    105.8325    174.7386   7.4550656058e+01   2.5906352814e+01    0.2475761    0.1798015  74.34 0.0008725923    2.061    0.515
        59 -11.8656    177.8921    170.2929   5.7138784653e+01   1.5789322731e+01    0.3197467    0.3036648  -9.45   0.00191754    1.311    0.237
        60 -11.2410    134.8370    170.6944   6.6609954057e+01   2.2329378117e+01    0.3768088    0.2026035 -56.43  0.001665306    2.472    0.595
        61 -10.5701    206.9493    169.6946   5.1672977058e+01   1.1688160060e+01    0.1724517    0.1390841   7.34  0.000789476    1.103    0.093
        62 -11.3084    151.7435    160.8358   6.0870924629e+01   2.1451627946e+01     0.257159    0.2230631  56.14  0.001499133    1.498    0.333
        63 -11.6925    149.8880    169.1219   6.2837196312e+01   2.0274298953e+01    0.3669985    0.2474995 -56.11  0.001832897    1.998    0.500
        64 -11.4779    147.9950    163.6731   6.2257676449e+01   2.1545538281e+01     0.288693    0.2471081  40.60  0.001692746    1.293    0.227
        65 -11.5512    144.4311    159.6560   6.2317613826e+01   2.2852855210e+01    0.2598364    0.2438277  18.04 0.0003277284    1.142    0.124
        66 -11.7590    122.0694    167.7769   6.9233734900e+01   2.4865761565e+01    0.5530474    0.3793889 -60.18  0.002816279    1.835    0.455
        67 -11.0583    168.2685    168.5112   5.8755398980e+01   1.7532194382e+01     0.271901    0.2315928 -58.63  0.001459464    1.678    0.404
        68  -9.6029     54.8476    168.9819   8.7999091318e+01   3.3832516697e+01    0.2315107     0.137579  65.95  0.001084971    2.006    0.501
        69  -9.2578     88.4976    168.0111   7.8210843152e+01   2.9790995359e+01    0.1903529    0.1207744  81.34 0.0008105294    2.603    0.616
        70 -12.3209    139.5515    164.0612   6.4291824147e+01   2.2824390155e+01    0.5494273    0.3343793 -59.22   0.00254192    2.335    0.572
        71 -10.1096    192.7817    165.8114   5.3464149971e+01   1.4267267055e+01    0.1574681    0.1504869   0.77 0.0009297821    1.362    0.266
        72 -10.9720     24.2159    162.9377   9.6560610742e+01   3.8245416019e+01    0.3641575    0.2163689  -3.91  0.001181231    2.195    0.544
        73 -10.7085     13.5005    165.4878   9.9901297550e+01   3.8475092622e+01    0.2497034    0.2040222  66.01 0.0008076075    1.118    0.105
        74 -10.0710     98.8036    165.3771   7.4953905194e+01   2.8880967548e+01    0.1916978     0.175881  47.24 0.0009776651    1.143    0.125
        75 -10.2699     79.8380    163.2741   7.9975162630e+01   3.2028613879e+01    0.5046967    0.2723548  76.66  0.001736345    4.040    0.752
        76 -10.8096    214.0011    164.0142   4.9439989054e+01   1.1495852036e+01    0.1662349     0.150324 -52.26 0.0008933297    1.712    0.416
        77 -10.5175    159.8419    163.7616   5.9644779516e+01   1.9643050989e+01    0.2339432    0.1838819 -70.33  0.001240154    2.111    0.526
        78 -11.5787    205.9501    161.5256   5.0321814835e+01   1.2976347103e+01    0.3194725    0.1858126 -51.11  0.001566397    2.764    0.638
        79  -9.1702     47.3225    163.6561   8.9661534398e+01   3.5891550296e+01    0.1485208   0.08891739  56.11 0.0007050288    1.731    0.422
        80 -11.3333    177.9225    160.3176   5.5245758842e+01   1.7366718548e+01    0.2874169    0.2615522  86.68  0.001393348    1.746    0.427
        81 -11.2463    178.2072    155.1702   5.4181533351e+01   1.8148425465e+01    0.3024085    0.1916569 -23.45 0.0007292758    1.577    0.366
        82 -11.2089     17.1546    164.6395   9.8777425798e+01   3.8403464991e+01    0.4165676    0.2305292  11.94  0.001278759    1.964    0.491
        83 -10.2631     92.5411    159.1144   7.5687551698e+01   3.1157996223e+01    0.3775353    0.2483148 -66.98  0.001806345    1.829    0.453
        84  -9.4099     94.5607    154.4556   7.4332700210e+01   3.1885276513e+01    0.2038598    0.1315065  19.98 2.676221e-05    1.615    0.381
        85 -10.1262    128.3670    158.2829   6.5937290968e+01   2.5734472644e+01    0.2402058    0.1888027 -57.48  0.001074551    1.532    0.347
        86 -11.9980    197.1242    157.0120   5.0996909486e+01   1.4928335489e+01    0.3184196     0.234376 -36.72  0.001939316    1.411    0.291
        87 -11.4287    188.8554    156.7806   5.2458764675e+01   1.6223725802e+01    0.3236012    0.2106441 -35.93  0.001559566    1.496    0.332
        88 -12.8113    189.3428    148.9059   5.0803280471e+01   1.7361313216e+01    0.5964247    0.3310548 -47.38  0.002865348    2.206    0.547
        89 -12.0141    167.8676    156.3300   5.6504028482e+01   1.9620084395e+01    0.4783132    0.2561675 -45.92   0.00226506    2.084    0.520
        90 -10.1500    105.3165    156.9473   7.1747340409e+01   2.9692557335e+01    0.3557848    0.2325086 -71.71  0.001511894    2.155    0.536
        91 -11.4500    157.7597    155.4536   5.8487673961e+01   2.1422729156e+01    0.2913924    0.2182709 -42.67  0.001310362    1.440    0.306
        92 -10.6863    119.4557    154.8035   6.7564041154e+01   2.7883987679e+01    0.3312663    0.2350851  89.57  0.001463654    2.554    0.608
        93 -11.7800    204.7700    153.8271   4.9044499658e+01   1.4248919071e+01    0.3444572    0.1464695 -35.50  0.001466216    2.149    0.535
        94 -10.7069    144.9983    154.5253   6.1188948033e+01   2.3707877520e+01    0.2469434    0.2057559 -62.73  0.001082999    1.587    0.370
        95  -9.9795     49.3691    154.1658   8.7978293058e+01   3.7926753372e+01    0.3788797    0.1990438  68.72  0.001555212    2.557    0.609
        96 -11.7097    133.2792    151.7727   6.3460807184e+01   2.6196769535e+01     0.487736    0.3199809 -60.73   0.00229271    2.065    0.516
        97 -10.2067     81.5561    153.6366   7.8002387506e+01   3.3976005190e+01    0.3355078    0.1911787 -75.89  0.001269225    2.430    0.589
        98 -10.6841    182.2225    150.5148   5.2469170631e+01   1.8250223601e+01      0.24842    0.1715607 -33.37  0.000965005    1.384    0.277
        99 -10.6886    162.6404    150.2045   5.6377767295e+01   2.1527526595e+01    0.3028498    0.2061828 -60.06  0.001212049    2.251    0.556
       100 -10.9026    142.8741    148.4931   6.0478959807e+01   2.5195687048e+01    0.3705653    0.1848694 -53.95  0.001502415    2.630    0.620
       101  -9.5098    121.6516    150.2951   6.6127296439e+01   2.8443038213e+01     0.142369    0.1105282  62.20 0.0003752252    1.675    0.403
       102  -9.4847     98.4289    150.2056   7.2477239999e+01   3.2230251433e+01    0.1948895     0.143142 -73.15 0.0009504207    1.728    0.421
       103 -12.2179    200.1541    147.7943   4.8645724166e+01   1.5830179996e+01    0.3238694    0.2247287 -34.92  0.001870378    1.384    0.277
       104 -10.7777     39.2409    145.6403   9.0256885765e+01   4.1073059103e+01    0.6678098    0.3064395 -86.24  0.002636564    2.729    0.634
       105 -12.8207    149.1056    142.8613   5.7854969758e+01   2.5167211804e+01    0.8357729    0.3908313 -49.01  0.003431285    2.452    0.592
       106 -11.3910    107.2417    144.1588   6.8836465100e+01   3.2135359523e+01    0.7056335    0.4635544 -78.66  0.002985543    2.512    0.602
       107 -10.7114     55.7829    144.6986   8.4712856609e+01   3.9487375728e+01    0.5476947    0.3048296  73.73  0.002213306    2.598    0.615
       108 -11.0371    175.8471    145.5443   5.2698250764e+01   2.0101849222e+01    0.2627099    0.1746798 -51.83  0.001333758    1.946    0.486
       109 -10.4156     67.8549    153.2663   8.2101834244e+01   3.5922969110e+01    0.4015713    0.2303085  59.65  0.001438127    2.187    0.543
       110 -11.8291    165.9128    142.8034   5.4151032899e+01   2.2250180498e+01    0.4689367    0.2117576 -45.19  0.001978757    2.382    0.580
       111 -10.5488    138.1289    143.6829   6.0626311883e+01   2.6936600330e+01     0.244108    0.1990965 -51.06  0.001321135    1.391    0.281
       112 -11.4161    124.7998    141.3133   6.3494294447e+01   2.9741156427e+01     0.647242    0.3402699 -60.91  0.002493546    2.842    0.648
       113 -10.4448     87.9371    142.7907   7.4229558810e+01   3.5527425551e+01    0.4560004    0.2176307 -63.01  0.001784301    2.499    0.600
       114 -11.2049    182.3004    140.3979   5.0368869351e+01   1.9856172037e+01    0.3605591    0.2026098 -41.73  0.001783426    1.805    0.446
       115 -10.7945      2.5229    140.3514   1.0197310044e+02   4.5229416726e+01    0.5148273    0.1299355  83.30  0.001504649    5.230    0.809
       116 -11.4875    172.3725    137.2457   5.1639307236e+01   2.2075213223e+01    0.4324915     0.236893 -48.78  0.001968242    2.183    0.542
       117 -10.8001     22.7839    135.4337   9.4772667862e+01   4.5108552819e+01     0.769372    0.3094421 -86.39  0.002959292    2.819    0.645
       118 -12.3276    198.0388    136.5060   4.6700053691e+01   1.7849940753e+01    0.4200738    0.2103738 -31.03  0.002049393    1.851    0.460
       119 -10.6835    138.7151    137.3719   5.9140168231e+01   2.8054923560e+01    0.2580289     0.177352 -53.71  0.001075732    1.708    0.415
       120 -12.2549    189.1993    135.6243   4.8076371099e+01   1.9450821385e+01    0.4045095    0.3049464 -71.99  0.002067646    2.432    0.589
       121 -11.3002    162.5404    135.3440   5.3259978981e+01   2.4139080138e+01     0.343209    0.2237215 -42.99  0.001730001    1.582    0.368
       122 -11.5169    179.5628    132.5716   4.9214549164e+01   2.1592155649e+01    0.4160068    0.2229339 -39.79  0.001988779    1.812    0.448
       123 -11.5353    131.9903    129.4738   5.9063424075e+01   3.0839546175e+01    0.6697974    0.3158874 -50.32  0.002643393    2.374    0.579
       124 -10.2737    112.8449    132.7473   6.4913176640e+01   3.3641405773e+01    0.2746124    0.2036876 -87.52  0.001238769    2.104    0.525
       125 -11.5631    143.2560    130.1146   5.6436200784e+01   2.8619921405e+01      0.54247    0.2473672 -45.07  0.002187931    2.264    0.558
       126 -10.9969     83.2169    130.5683   7.3390640224e+01   3.9111503170e+01    0.5757762    0.3165243 -71.23  0.002257819    2.508    0.601
       127  -9.9272    204.6826    130.3360   4.4288963861e+01   1.7679078543e+01    0.1199668   0.09778631 -58.53 0.0007048457    1.699    0.411
       128 -11.6858    192.9783    128.9923   4.5979234358e+01   1.9837290125e+01    0.3443625    0.1855291 -34.59  0.001450633    1.702    0.412
       129 -12.0797    168.6919    128.0648   5.0361481625e+01   2.4287483931e+01    0.4966144    0.2560023 -37.43  0.002255619    1.873    0.466
       130 -11.5706    152.9955    127.4693   5.3581602561e+01   2.7296692812e+01    0.6068907    0.2647663 -45.37  0.002408813    2.407    0.585
       131 -11.6553     12.6037    125.7864   9.7542293150e+01   4.8297863460e+01    0.9211594    0.2796017 -78.18  0.003310683    3.137    0.681
       132 -11.3302     99.1554    126.9050   6.7641781859e+01   3.7328533331e+01    0.7113075    0.3955231 -64.50  0.002824044    2.394    0.582
       133 -10.8081     99.4972    120.4921   6.6104737421e+01   3.8715964473e+01    0.3560117    0.2738965  11.98  0.001723715    1.468    0.319
       134  -9.9885     72.8887    128.5674   7.6398530399e+01   4.1157571898e+01    0.2989273    0.2018881 -87.48   0.00132171    2.004    0.501
       135 -10.0761    186.4986    128.0721   4.6934618044e+01   2.1100861162e+01    0.2053698    0.1203912 -34.39  0.001031006    1.584    0.369
       136 -11.2138    117.7953    123.5749   6.1475565230e+01   3.4697006355e+01    0.6427898    0.3725735 -53.33  0.002764673    1.926    0.481
       137 -10.7865     58.9909    122.9126   8.0178175593e+01   4.4491804564e+01    0.6618683    0.3477442  84.25  0.002187921    3.747    0.733
       138 -11.8816    180.5225    122.4995   4.6793576003e+01   2.3057262684e+01    0.6045001    0.2390774 -30.93  0.002339093    2.706    0.630
       139 -11.3625     43.1825    120.9173   8.5631082230e+01   4.6908214638e+01    0.9006692    0.4113415  86.92  0.002890426    3.950    0.747
       140 -11.3720     28.3291    121.7758   9.1317970739e+01   4.8145463174e+01    0.8701882    0.3227088  66.22  0.002406989    5.418    0.815
       141 -11.4853    188.8316    122.6899   4.5324139151e+01   2.1535512918e+01    0.3932964    0.1641141 -42.07  0.001526911    2.381    0.580
       142 -11.2414    194.9022    121.1072   4.3919814613e+01   2.0709926289e+01    0.3306728    0.1610596 -42.94  0.001523383    2.081    0.520
       143 -12.0452    158.6563    119.9514   5.0587925362e+01   2.7579704174e+01    0.5183887    0.2496534 -41.38  0.002197895    2.051    0.512
       144 -11.3277    202.8670    121.1280   4.2608119365e+01   1.9331973508e+01    0.1955211    0.1691202 -40.49  0.001243203    1.255    0.203
       145 -11.3041    172.6050    120.1328   4.7766916028e+01   2.4905556920e+01    0.3473689    0.2209377 -44.92  0.001630742    1.645    0.392
       146 -11.7427    141.8165    118.7527   5.4123520626e+01   3.1063032788e+01    0.5725394    0.3054218 -54.00   0.00229738    2.409    0.585
       147 -11.3061    130.7968    117.0968   5.6455633357e+01   3.3540781740e+01    0.5649462    0.3071798 -54.15   0.00228963    2.248    0.555
       148 -10.4138     70.7627    118.2380   7.5096375880e+01   4.3994805922e+01    0.3682719    0.1880699 -66.46   0.00143934    2.293    0.564
       149 -10.9206    209.3768    117.7803   4.0859217685e+01   1.8715195107e+01    0.1852183     0.105907 -23.78  0.000856204    1.683    0.406
       150 -10.9968      2.0000    111.9845   1.0048551525e+02   5.2435627751e+01    0.4369771    0.1426806 -73.03  0.001696393    2.648    0.622
       151 -11.5532    186.0842    114.5037   4.3953228811e+01   2.3313822442e+01    0.3959845     0.184393 -35.56   0.00160638    1.985    0.496
       152 -11.4454    108.9050    112.1228   6.1261904863e+01   3.8828782007e+01    0.8679138    0.3418979 -53.27  0.002931983    2.976    0.664
       153 -11.6138    193.0549    113.8470   4.2600865006e+01   2.2142910209e+01    0.3345174    0.1815179 -36.09  0.001195757    1.679    0.404
       154 -10.9850     78.6157    111.2171   7.0812760117e+01   4.4466028975e+01    0.6707441    0.3707396 -75.89  0.002374174    3.062    0.673
       155 -10.3889      2.9863    116.9725   1.0044758197e+02   5.1104549698e+01    0.5128885    0.1705004  68.70  0.001727894    3.795    0.737
       156 -10.8376     92.3929    111.6248   6.6262844834e+01   4.2003714399e+01    0.5774416    0.3163683 -62.59  0.002257976    2.309    0.567
       157 -10.4313     92.5001    105.0063   6.4582362248e+01   4.3498486349e+01    0.3972858     0.259145 -24.00  0.001653983    2.062    0.515
       158 -11.1625    174.8021    110.2387   4.5011063881e+01   2.6126315725e+01    0.4050474    0.1766838 -38.30  0.001690256    2.161    0.537
       159 -11.0600    159.3203    110.3564   4.8129092397e+01   2.9143317021e+01    0.4009227    0.1843563 -39.16  0.001647382    2.112    0.526
       160 -11.1670    122.3044    110.0830   5.6947903576e+01   3.6637370783e+01    0.5390027    0.2569207 -38.08  0.002071642    2.259    0.557
       161 -11.1937     14.1234    108.7115   9.5379813106e+01   5.2620884091e+01     0.555654    0.2982959 -79.41  0.002550638    1.792    0.442
       162 -11.7859    201.2097    108.9862   4.0172836510e+01   2.1402198663e+01    0.3978865      0.19521 -13.99  0.001459536    3.672    0.728
       163 -10.3208    133.2067    108.5506   5.3700621300e+01   3.4748566129e+01    0.2901372    0.2083549 -42.49   0.00140843    1.409    0.290
       164 -11.7344    189.3783    106.4106   4.1499510651e+01   2.3955299478e+01    0.4151185    0.1461819 -35.37  0.001619766    2.590    0.614
       165 -11.6708    139.8595    102.5029   5.0491917204e+01   3.4537492984e+01    0.5799536    0.2403592 -40.86  0.002167822    2.403    0.584
       166 -12.1995     21.9906     99.5100   9.0957098122e+01   5.4475930394e+01     1.147128      0.50578  88.12  0.004177442    3.037    0.671
       167 -10.7490     66.1113    108.3491   7.4677625060e+01   4.7127347579e+01    0.5706286    0.2570976 -62.83  0.002125922    2.442    0.590
       168 -11.6681    150.1003    100.2976   4.7559184367e+01   3.2803377377e+01    0.7742395    0.2105322 -39.36  0.002396067    3.592    0.722
       169 -10.8043     44.1849     92.6288   8.0043631459e+01   5.4069339795e+01    0.4422008    0.2231091 -40.53  0.001624766    2.215    0.549
       170 -10.6156    166.8037    101.5883   4.4421621839e+01   2.9138690775e+01    0.4599608    0.1803772 -28.93  0.001593188    3.154    0.683
       171 -10.5483      6.5949    101.9493   9.7819439365e+01   5.4819896221e+01    0.3088069    0.1535126  84.33   0.00134781    2.124    0.529
       172 -11.1628    183.0142    108.0329   4.2982193258e+01   2.4906404045e+01    0.2935328    0.1764193 -33.93  0.001462987    1.544    0.352
       173 -11.1511    128.4639     99.7940   5.2603390249e+01   3.7438834595e+01    0.4961608     0.271584 -32.75  0.002022643    2.039    0.510
       174 -11.0940    175.8883    100.1889   4.2358849191e+01   2.7540352458e+01    0.3147261    0.1886491 -29.18  0.001284602    1.641    0.391
       175 -10.6041    159.5748     99.2058   4.5260044792e+01   3.1022308790e+01    0.3585788    0.1357614 -35.47  0.001307204    2.633    0.620
       176 -10.2341     81.6182     98.9135   6.6733588720e+01   4.6871322566e+01    0.4278079    0.2224397 -66.55  0.001518267    2.825    0.646
       177 -10.1566     82.3250     94.3446   6.5259793391e+01   4.7806457734e+01    0.2550872    0.1896499 -28.62  0.001188642    1.527    0.345
       178 -11.0291    108.1695     97.6444   5.7676707802e+01   4.2076709514e+01    0.4887211    0.3722468  75.67  0.002234386    1.818    0.450
       179 -10.6366    107.7510     92.9982   5.6495492858e+01   4.3138662110e+01    0.4415607    0.3122851 -15.42  0.001933029    1.888    0.470
       180 -10.4135    230.3166     98.3480   3.3785483754e+01   1.7866122885e+01    0.1220972   0.08491761   1.38  0.000704795    1.727    0.421
       181 -10.5877     95.2372     94.0069   6.0725787507e+01   4.5444056410e+01    0.7369485    0.2954285 -41.60  0.002534216    2.705    0.630
       182 -11.1259     63.2605     94.6645   7.2566072278e+01   5.0932989439e+01    0.6506371    0.3664201 -78.77  0.002255142    2.913    0.657
       183 -10.9025     63.8216     87.7785   7.0548888967e+01   5.2520553869e+01    0.3814383    0.2505688 -16.98  0.001586713    2.153    0.535
       184 -12.2613    224.9056     92.1019   3.3093783254e+01   1.9577537304e+01    0.3129248    0.1740138  31.09   0.00157895    2.515    0.602
       185 -11.6343    177.0775     91.8547   4.0056196007e+01   2.8615831448e+01    0.3181718    0.1895161 -28.59   0.00152378    1.659    0.397
       186 -10.8765    138.8681     89.8464   4.7279081479e+01   3.7085744741e+01    0.5206675    0.2110378 -37.02  0.001895305    2.511    0.602
       187 -10.2354     57.9858     92.0037   7.4041820301e+01   5.2379609718e+01    0.2155209    0.2120148  22.00            0    1.021    0.021
       188 -10.9311      5.0095     91.5117   9.7497846521e+01   5.7623667089e+01    0.3295408    0.1583571  57.26  0.001408962    2.353    0.575
       189 -11.3252      7.5258     84.4733   9.5538666513e+01   5.9342183376e+01    0.2585146    0.2011366 -47.48  0.001080157    1.231    0.188
       190 -10.8061    124.5031     85.9858   4.9733104190e+01   4.0953973580e+01    0.6555594    0.4010471   1.96  0.002173568    3.689    0.729
       191 -10.9726     34.9820     86.1326   8.2776271434e+01   5.6777980287e+01    0.9752864     0.268664 -58.83  0.003265152    3.026    0.670
       192 -10.6801    164.8433     92.5186   4.2472709963e+01   3.1043627631e+01    0.2957164    0.1863214 -17.47  0.001334468    1.957    0.489
       193 -11.4636     44.9603    101.1831   8.1489629096e+01   5.1784586006e+01    0.8065346    0.4082966  71.55  0.002602534    3.904    0.744
       194 -10.7817     86.3780     86.0974   6.1461767017e+01   4.8916839214e+01    0.4317993    0.2989997 -70.10  0.001551716    1.960    0.490
       195 -10.7841     87.0257     80.3910   5.9492278925e+01   5.0041762499e+01    0.3948979    0.2730967  18.30  0.001680974    1.808    0.447
       196 -10.2158    188.4760     86.5213   3.6831000958e+01   2.7114390686e+01    0.1328652    0.1212036 -19.50  0.000256604    1.044    0.042
       197 -11.9198    242.5350     92.0089   3.1038007125e+01   1.6695363768e+01    0.2186542     0.151391 -87.52  0.001290764    2.442    0.591
       198 -10.6408     48.1995     83.8046   7.6193654922e+01   5.5787952858e+01    0.4015823    0.2604486  69.78  0.001496263    2.243    0.554
       199 -10.5000     48.7206     77.7741   7.4364076128e+01   5.7208882174e+01    0.5723562    0.2974986 -25.32  0.001984713    3.195    0.687
       200 -11.4079    239.5130     83.9955   2.9677099472e+01   1.8152939828e+01    0.1889208   0.09543453 -30.85  0.001038461    1.607    0.378
       201  -9.3013    116.8163     83.2319   5.0985696593e+01   4.3172368194e+01    0.2084357    0.1763975   2.27  0.000466895    1.347    0.258
       202 -10.1845    170.5164     81.9982   3.8644923044e+01   3.1517023388e+01    0.2179402    0.1309559 -32.67   0.00103229    1.594    0.373
       203 -10.5448    158.5061     81.4563   4.0720691914e+01   3.4208603364e+01    0.3025754    0.1369152 -34.19  0.001209622    2.167    0.539
       204 -10.9915    140.9672     81.0745   4.4282925002e+01   3.8177279483e+01    0.3877406    0.2206717 -30.89  0.001661586    1.865    0.464
       205 -11.0016     24.1496     79.7766   8.6667902331e+01   5.9450762949e+01     0.508347    0.2499026 -87.36  0.001951244    2.740    0.635
       206 -11.6088     27.3593     71.5735   8.3279932157e+01   6.1263125831e+01    0.8062977    0.3124105 -27.50   0.00221486    5.375    0.814
       207 -11.0358    124.3940     90.2249   5.0996265799e+01   4.0166100621e+01    0.3778485    0.2601319 -52.06  0.001281824    1.600    0.375
       208 -10.3952    150.1759     78.2456   4.1480610799e+01   3.6584981883e+01    0.3441629    0.2041744 -27.60   0.00152406    1.818    0.450
       209 -11.2541    104.4055     80.5660   5.3796893771e+01   4.6399857843e+01     0.763764    0.2996307 -43.63  0.002667621    2.606    0.616
       210 -10.0795    202.3561     78.3115   3.2804910040e+01   2.5526799860e+01    0.1301295   0.09575585  14.72 0.0007043768    1.734    0.423
       211 -10.3454    229.6747     77.6578   2.9358602431e+01   2.0582067336e+01    0.1193852    0.0868392   6.03  0.000357828    1.734    0.423
       212 -10.7205    211.4141     75.7934   3.1042041898e+01   2.4124339863e+01    0.1821994    0.1106856 -20.12  0.000952323    1.710    0.415
       213 -10.4523    189.4789     75.0142   3.3782610272e+01   2.8558775333e+01    0.2111517    0.1211069 -31.66  0.001037137    1.606    0.377
       214  -9.9531    157.5049     74.9916   3.9100357139e+01   3.5463092916e+01    0.2218593     0.136518 -33.38  0.001032338    1.590    0.371
       215 -10.7514    128.2063     72.0019   4.4530952613e+01   4.2668582260e+01    0.6591806    0.3110107 -28.45   0.00241519    2.604    0.616
       216 -11.1896     63.0000     66.9752   6.4577043016e+01   5.7513057367e+01    0.5970983    0.1271078 -46.57  0.001584047    4.635    0.784
       217 -10.4140      9.9473     74.5430   9.2962887342e+01   6.1800455935e+01    0.2272867    0.1691573 -55.91  0.001245967    1.224    0.183
       218  -9.6809    184.3177     76.6589   3.4973941172e+01   2.9394761866e+01    0.1401441   0.09783477 -61.03 0.0003875699    1.712    0.416
       219 -10.6181     81.9020     71.5806   5.8496324871e+01   5.2952892318e+01    0.4216976    0.2256086 -56.64  0.001625952    2.314    0.568
       220 -10.9082     82.5702     65.9802   5.6316078275e+01   5.3984687054e+01    0.4368819    0.2721207 -14.70  0.001641368    2.703    0.630
       221 -10.1191    119.2576     78.3104   4.8806250117e+01   4.3568521481e+01    0.3467581    0.2135225 -34.84  0.001514349    1.698    0.411
       222  -9.9524    195.3221     71.6646   3.2115665636e+01   2.7824935650e+01    0.1368501   0.09221099 -59.07 0.0007050405    1.709    0.415
       223 -10.8829     94.9500     67.5586   5.2534130534e+01   5.1038744094e+01    0.8141029    0.2444313 -40.41  0.002472674    3.508    0.715
       224 -10.1553      5.7571     69.7874   9.4465006183e+01   6.3240668260e+01    0.3523727    0.1309146 -66.56  0.001433772    2.255    0.557
       225  -9.9184    163.1565     70.0036   3.6651415101e+01   3.4961793354e+01    0.2345254    0.1624313   2.25    0.0010816    2.044    0.511
       226 -10.9885     51.1185     66.8878   6.9993312077e+01   5.9473755077e+01    0.8321963    0.2443624 -57.66   0.00249632    3.850    0.740
       227 -10.3731     16.4838     68.7689   8.8466770850e+01   6.2879517258e+01    0.4078534    0.1270012 -69.53  0.001433505    2.984    0.665
       228 -10.4852     17.9330     62.7025   8.6364822947e+01   6.4314392381e+01    0.3947238    0.1469825 -46.26   0.00152168    2.483    0.597
       229 -10.2579    167.4774     76.0165   3.7563795410e+01   3.3092773448e+01    0.2187449    0.1321912 -32.39  0.001032876    1.597    0.374
       230  -9.8145    219.3284     68.3299   2.8381013754e+01   2.3589227454e+01    0.1210009   0.09066997  10.94 0.0007051338    1.711    0.415
       231  -9.8616    147.5011     64.0107   3.7807347238e+01   3.9471010209e+01    0.2972659    0.1425331 -18.10 0.0009947859    3.459    0.711
       232 -10.5993    203.5859     65.2362   2.9458794851e+01   2.7007507837e+01    0.1814661    0.1147995 -19.96 0.0009530609    1.660    0.398
       233 -10.4280    138.7551     63.7503   3.9517953887e+01   4.1572180574e+01    0.3593161    0.1845074 -26.88  0.001436841    2.227    0.551
       234 -10.0978    121.6518     63.5090   4.3407418559e+01   4.5664522259e+01    0.4772768    0.1885611 -30.62  0.001604981    3.019    0.669
       235  -9.9200     74.5902     79.8214   6.3942035907e+01   5.2542989861e+01    0.2161062    0.1470725 -63.42 0.0009513748    1.749    0.428
       236  -9.8404    170.5102     69.9703   3.5386746831e+01   3.3328839306e+01    0.1953914    0.1210609  -3.44  0.000810143    2.560    0.609
       237 -10.7558    110.2060     60.6075   4.5451407516e+01   4.8861515643e+01    0.5309331    0.2811909 -21.90   0.00193164    2.775    0.640
       238 -11.0105     73.4593     55.6852   5.6027270782e+01   5.7927335314e+01    0.9492847    0.2976083 -38.98   0.00289896    3.658    0.727
       239 -10.1426    100.0909     56.6599   4.6989638597e+01   5.1914377328e+01    0.5512437     0.211077 -35.24  0.001892228    2.840    0.648
       240 -10.7860      8.3838     50.4172   8.9348973145e+01   6.8017196389e+01    0.4195322    0.1184914 -54.15  0.001573475    2.689    0.628
       241 -11.7152     45.2411     49.6337   6.6838452544e+01   6.4281998842e+01    0.5263456    0.2562889 -41.71 0.0005332171    2.100    0.524
       242  -9.9269     30.8396     51.0149   7.5496312016e+01   6.5928068517e+01    0.2254157     0.163272  80.51  0.001076527    2.016    0.504
       243 -10.4103     25.2213     56.7579   8.0616126687e+01   6.5157715398e+01    0.4063559    0.1559196 -43.58  0.001530879    2.584    0.613
       244 -10.1622     92.1335     49.2382   4.6664723985e+01   5.5050885725e+01    0.4025353    0.1493116 -45.43  0.001345775    3.069    0.674
       245  -9.3953     16.9951    244.0501   1.0228252993e+02   2.2255817971e+01    0.1331333   0.09884289  40.91 0.0004292495    1.005    0.005
       246 -10.2668     53.8399     46.9938   6.1314986586e+01   6.3417928192e+01    0.3143585    0.1664965 -28.23  0.001198726    2.608    0.617
       247 -10.2728     17.2323     40.5111   8.0613164664e+01   6.9779178998e+01    0.4649448   0.03236512 -52.44   0.00127174    5.029    0.801
       248 -10.0643    113.8621     41.6517   3.7564767148e+01   5.1007254585e+01    0.3122168    0.2238666   7.71 0.0009867718    1.882    0.469
       249  -9.8510    123.2927     41.0743   3.5189318410e+01   4.8736064957e+01    0.3359795    0.1988415  22.08  0.001300315    2.741    0.635
       250 -10.5618      4.8644     40.2916   8.9309161437e+01   7.0681241685e+01    0.4686405    0.1759819 -79.61  0.001722888    3.339    0.701
       251  -9.8419    106.2245     37.5600   3.7885994879e+01   5.3493017811e+01    0.2159509     0.125394  47.21 0.0008407435    1.664    0.399
       252  -8.6483    160.3334    232.2802   7.0423382194e+01   8.9212304487e+00    0.1191234   0.07276551   2.94   0.00059817    1.610    0.379
       253  -9.1843     26.3096     37.3308   7.3211820525e+01   6.9571540820e+01    0.1468342   0.09558434 -23.90 0.0007041497    1.668    0.400
       254 -10.3079     95.7472     34.7405   3.9585045021e+01   5.6482726485e+01    0.3420367    0.2126943   1.35  0.001371302    2.576    0.612
       255 -10.2276     83.5366     40.6357   4.6006639247e+01   5.8479683093e+01    0.3778171    0.2378456   9.48  0.001466833    2.698    0.629
       256  -9.6096    112.3155     31.3315   3.3933609350e+01   5.2806628522e+01    0.1516335    0.1059322  30.05 0.0004951032    1.683    0.406
       257 -10.3196     27.6350     28.8346   6.8477230934e+01   7.1217443460e+01    0.3517967    0.1347554 -40.65  0.001351902    2.699    0.630
       258  -8.9037     44.4715     25.4930   5.6012697934e+01   6.9197942068e+01    0.1408726    0.1252123   8.75  0.000168464    1.039    0.038
       259  -9.1523    110.5036     24.5074   3.1595526420e+01   5.4109638133e+01    0.1430464    0.1329267  61.18 0.0008105925    1.015    0.015
       260  -9.0177     40.8424     21.3692   5.5811101634e+01   7.0565220169e+01    0.1919425    0.1182613  28.57 0.0004032473    1.646    0.392
       261  -9.8593     12.9645     21.0105   7.5974654268e+01   7.4519289153e+01    0.1951895    0.1552979  53.00 0.0005838117    1.652    0.395
