#   1 NUMBER                 Running object number                                     
#   2 MAG_AUTO               Kron-like elliptical aperture magnitude                    [mag]
#   3 X_IMAGE                Object position along x                                    [pixel]
#   4 Y_IMAGE                Object position along y                                    [pixel]
#   5 X_WORLD                Barycenter position along world x axis                     [deg]
#   6 Y_WORLD                Barycenter position along world y axis                     [deg]
#   7 A_WORLD                Profile RMS along major axis (world units)                 [deg]
#   8 B_WORLD                Profile RMS along minor axis (world units)                 [deg]
#   9 THETA_WORLD            Position angle (CCW/world-x)                               [deg]
#  10 FWHM_WORLD             FWHM assuming a gaussian core                              [deg]
#  11 ELONGATION             A_IMAGE/B_IMAGE                                           
#  12 ELLIPTICITY            1 - B_IMAGE/A_IMAGE                                       
         1 -13.8872    216.7675      8.1943   3.8520279519e+01   2.9770723530e+01     2.501569     1.537583  32.20   0.01164249    2.313    0.568
         2 -13.4702    191.2446     39.8122   5.0113426542e+01   3.2304160673e+01     1.122888    0.9773398  -9.78  0.004068894    1.228    0.186
         3 -12.8553    196.3111     33.9002   4.7730939903e+01   3.1813969108e+01    0.7496344     0.698943 -62.35  0.001805739    1.068    0.064
         4 -10.4609    189.5416     14.7944   4.2608738823e+01   3.5632548055e+01    0.2712486    0.2396203 -51.02 0.0008751155    1.020    0.019
         5 -13.0983    176.5031     52.9381   5.6237629854e+01   3.4116819187e+01     1.731642     1.182538  18.44   0.00438105    2.034    0.508
         6  -9.2404    167.7893    231.6862   9.6490828737e+01   6.9645365588e+00    0.1877308    0.1346893   9.87  0.000938182    1.414    0.293
         7 -12.5812    247.6065    244.2336   8.5428013449e+01  -4.1364246097e+00    0.7823597      0.37663 -24.07  0.005484782    2.047    0.512
         8  -9.3577     61.5644    219.8279   1.1535391088e+02   2.2601248635e+01    0.1369309     0.118368 -53.02 0.0007015471    1.562    0.360
         9  -9.8319     56.0457    217.4611   1.1628053002e+02   2.3651849508e+01    0.2885672     0.125246  69.73  0.001420106    2.810    0.644
        10  -9.7391     37.6304    211.9387   1.1960852064e+02   2.6662714587e+01    0.1259104   0.09228379  64.42 0.0001590288    1.083    0.077
        11  -9.2038     56.8902    210.6209   1.1563358170e+02   2.4789899075e+01    0.2091275    0.1301868 -60.50  0.001322881    1.909    0.476
        12 -10.4100    152.2606    208.6939   9.6313484713e+01   1.2278766198e+01     0.234399    0.1738392 -51.51   0.00153134    1.667    0.400
        13  -9.5609     43.9402    210.2146   1.1823699181e+02   2.6311004718e+01    0.1942525    0.1038236  56.38 0.0003080764    1.522    0.343
        14  99.0000     42.8451    206.1137   1.1820512490e+02   2.7196344109e+01    0.2645752    0.1903618 -34.31  0.001330549    2.346    0.574
        15 -10.7816     33.4508    206.9116   1.2017410907e+02   2.8032596578e+01    0.3101232    0.1346573  64.33  0.001676613    2.109    0.526
        16 -10.3737     66.8539    204.2840   1.1308298622e+02   2.4782465909e+01    0.2894953    0.1847524 -42.23  0.000911459    2.365    0.577
        17  -8.4803     70.7281    200.3195   1.1192195264e+02   2.5050184508e+01     0.197313    0.1383354  64.68 0.0005449297    1.302    0.232
        18 -10.9326    193.2842    195.3977   8.6775731658e+01   8.1063946876e+00    0.8193291    0.4658276 -61.32  0.002994255    6.287    0.841
        19  -9.4344    193.3350    205.3220   8.8337414512e+01   6.7946180472e+00    0.1211668    0.0773733   7.64 0.0003644206    1.707    0.414
        20  -8.6070     93.3555    205.3098   1.0765557824e+02   2.1195661131e+01    0.1856126    0.1350318  23.80  0.001156044    1.531    0.347
        21 -10.0857     96.5899    202.2051   1.0665335310e+02   2.1313154519e+01     0.337496    0.2753011  -9.90  0.001738512    1.739    0.425
        22 -12.4779     57.7741    196.8650   1.1439823793e+02   2.7286617190e+01    0.6476361    0.2240058 -56.85  0.002925444    3.334    0.700
        23 -10.8857     59.6853    193.7017   1.1372193346e+02   2.7679280517e+01    0.2526299    0.2063324 -68.23  0.001384278    1.385    0.278
        24 -11.0300     50.3754    224.7290   1.1785074473e+02   2.3011692554e+01    0.1953961    0.1189714  66.12 0.0007967241    1.451    0.311
        25 -10.5732    203.1637    198.6369   8.5590126769e+01   6.2438499683e+00     0.229919    0.1637554  54.45  0.001387543    2.109    0.526
        26  -8.8731     44.1931    198.2806   1.1741066991e+02   2.8553873355e+01   0.09317351   0.08033679 -68.19 0.0002067975    1.408    0.290
        27  -9.3884     36.1705    197.9043   1.1908892953e+02   2.9484294162e+01    0.1530689    0.1090678  56.83 0.0003933351    1.103    0.093
        28  -9.8127     82.0627    195.0061   1.0897855005e+02   2.4602849224e+01    0.1974296    0.1535006  45.67 0.0004154303    1.113    0.102
        29 -11.7085    149.2031    188.0053   9.3906345991e+01   1.5980477939e+01    0.4147437    0.3014262 -54.38  0.001818167    1.647    0.393
        30 -11.4872     98.9201    181.8789   1.0374378955e+02   2.4796149062e+01     0.638246    0.4613845 -81.26  0.001837354    1.589    0.371
        31  -8.0084    156.3130    189.3209   9.2697158596e+01   1.4652877586e+01    0.1250301   0.09082676   3.87 0.0002884415    1.653    0.395
        32  -9.2234    210.6511    188.3227   8.2604714254e+01   6.4750849538e+00    0.1033446   0.09647717  73.13 0.0007049029    1.745    0.427
        33 -10.4960     95.5640    188.8128   1.0534755653e+02   2.3938110914e+01    0.3951941    0.2677067  77.98  0.001704703    1.767    0.434
        34 -10.0386    133.5009    185.9883   9.6818302977e+01   1.8783469553e+01    0.1661458    0.1116598 -85.95  0.000810387    2.552    0.608
        35 -10.9892    150.4240    178.9183   9.2212136616e+01   1.7305743837e+01    0.4015504    0.2602169 -67.79  0.001286971    2.439    0.590
        36 -10.4601    189.2071    177.2154   8.4412790634e+01   1.1286671802e+01    0.4105618    0.3291864 -57.64  0.002503392    1.786    0.440
        37  -9.0503     59.2932    176.7782   1.1227242008e+02   3.1182323910e+01    0.1481918    0.1352105 -58.94 0.0004514758    1.334    0.251
        38 -10.3357    238.9845    175.5034   7.5797358152e+01   3.9682944724e+00     0.170196    0.1031603  34.19   0.00104075    1.613    0.380
        39  -9.5952     84.1440    173.8501   1.0611290930e+02   2.8530706854e+01    0.1924273    0.1530742  67.28 0.0003709809    1.186    0.157
        40  99.0000     49.2685    218.6715   1.1769682685e+02   2.4194480274e+01    0.2841522    0.1548984  75.30   0.00173609    1.857    0.462
        41 -10.0791     36.9260    224.3549   1.2040410802e+02   2.4508416891e+01    0.1317459    0.1190757 -14.43 0.0004087763    1.734    0.423
        42  -9.3998     64.9336    223.8541   1.1498019138e+02   2.1513776715e+01    0.1314339   0.09331485  82.35 0.0006088244    1.443    0.307
        43  -8.5576    194.4964    172.5175   8.2606593727e+01   1.1124533776e+01    0.1261867     0.107893   7.70 2.327139e-05    1.008    0.008
        44  -9.9320    240.2277    169.4119   7.4485873295e+01   4.5206147086e+00    0.1408224    0.1078441  40.19 0.0003056304    1.566    0.361
        45  -9.4692    230.3079    166.6519   7.5488655421e+01   6.3226511168e+00    0.1078897   0.09422498 -49.94 0.0007043646    1.705    0.414
        46 -11.7254     95.8551    151.4527   1.0007460188e+02   3.1574939130e+01    0.5794452    0.4761088 -14.42  0.003197223    1.655    0.396
        47  -9.9893    187.6719    152.1896   7.9931928367e+01   1.5380319916e+01    0.2610644    0.2166935  76.81  0.001469887    1.812    0.448
        48 -10.8547    133.9100    145.8696   8.9856091834e+01   2.6271609558e+01     1.193546    0.3102753 -54.59  0.003047497    6.216    0.839
        49  -9.2343    113.0832    150.8238   9.5715615808e+01   2.8899769024e+01    0.2184287    0.1790308  71.64 0.0006632481    1.319    0.242
        50  -9.5795    174.7063    149.1131   8.1789054405e+01   1.8209831435e+01    0.2216903    0.1858656  49.62 0.0005742042    1.309    0.236
        51  -9.3863    108.8134    147.0761   9.6093246584e+01   3.0415844927e+01    0.2054807    0.1773627  76.02 0.0003977527    1.202    0.168
        52 -10.0923    143.9826    145.5148   8.7501192141e+01   2.4503841122e+01    0.2714805    0.2014392 -64.34  0.001387393    1.641    0.391
        53  -9.9840     88.2285    144.5772   1.0090595983e+02   3.4295016910e+01    0.4893415    0.2126689  62.12  0.001470115    4.743    0.789
        54 -11.2637    107.6554    138.1936   9.4736988379e+01   3.2545862838e+01    0.6139426    0.4142809 -45.02  0.003037604    1.579    0.367
        55 -10.8709    105.5665    130.9737   9.3856136420e+01   3.4513179122e+01    0.4402919    0.4062559   7.09  0.002501749    1.258    0.205
        56 -11.6788     95.5645    137.4141   9.7733376912e+01   3.4753340789e+01    0.2770012    0.2715489 -66.98 0.0002268874    1.107    0.097
        57 -10.7201    136.1611    129.7691   8.5960956022e+01   2.9112110781e+01    0.9013244    0.1801141 -50.26  0.002119529    6.401    0.844
        58 -10.4229    114.8521    128.8505   9.1005462056e+01   3.3321939177e+01    0.3250208    0.3013077 -15.76 0.0007635378    1.216    0.178
        59  -9.3578    160.8509    128.2906   8.0099305428e+01   2.4556740878e+01    0.2566175    0.1950764 -50.53   0.00131773    1.398    0.285
        60 -10.6102    102.2628    124.7744   9.3458391281e+01   3.6495313030e+01    0.2984706    0.2487084 -22.60 0.0006251045    1.487    0.328
        61 -10.5451    119.8924    123.3394   8.8510811209e+01   3.3586651109e+01    0.4286354    0.2887069 -23.62  0.001869214    2.120    0.528
        62  -9.3219    109.9836    118.1169   8.9915525014e+01   3.6605147438e+01    0.2123215    0.2038077 -83.78 0.0003394609    1.011    0.011
        63 -10.0447    231.2209    113.6925   6.4240506645e+01   1.3307191128e+01    0.2494419    0.2252962  -4.17 0.0008229444    1.103    0.093
        64 -10.1236    134.6753    106.1501   8.0622625856e+01   3.4290912178e+01    0.5530189     0.146833 -45.60  0.001594381    3.700    0.730
        65  -9.2485    167.4215    112.1331   7.4840203484e+01   2.6204121311e+01    0.2945878    0.2234409 -78.18 0.0009845316    1.912    0.477
        66 -11.2803    118.3551    110.6001   8.5897898240e+01   3.6669356081e+01    0.6534051     0.408724  58.93  0.002822149    1.902    0.474
        67  -9.6054    205.4739    110.1474   6.7354816338e+01   1.8716167230e+01    0.2818355    0.1972392  36.63 0.0008942959    1.542    0.351
        68  -9.7665     55.5113    223.0548   1.1675485520e+02   2.2730750137e+01    0.1392707    0.1060731  61.53 0.0003001923    1.081    0.075
        69  -8.3612    128.3229     95.6774   7.9369938261e+01   3.7819990451e+01    0.1565131    0.1208717 -82.53 0.0007046596    1.679    0.405
        70  -9.2350     41.5364    232.3950   1.1994322445e+02   2.2654268054e+01    0.1033281   0.07966845  52.10 8.225593e-05    1.094    0.086
        71 -10.3538     58.9357    229.7742   1.1652937839e+02   2.1201373839e+01    0.1541432     0.122055  65.57 0.0004260893    1.133    0.117
        72  -8.7932    154.8314     82.1505   6.9253657073e+01   3.4516963521e+01    0.2064295    0.1790805  10.44 0.0004261864    1.310    0.237
        73 -19.5431     19.5464    145.7137   1.1950240032e+02   4.2388097189e+01     18.87458     4.759549 -80.94    0.0664843    3.873    0.742
        74 -10.7749     71.9080    245.4390   1.1514495274e+02   1.7223428874e+01      0.26695    0.1519357 -75.21  0.001826848    2.130    0.531
        75  -8.9755     75.6664    247.5052   1.1460648488e+02   1.6479816799e+01    0.1005072   0.07738017  51.54 0.0002050557    1.061    0.057
        76  -8.2627     84.2277    245.6435   1.1293834514e+02   1.5757613585e+01    0.1018841   0.06325447  61.74 9.879105e-05    1.568    0.362
        77  -9.1823    157.2932    234.3233   9.8658966268e+01   8.0270303471e+00    0.1069428   0.07432789   8.48 0.0005394315    1.615    0.381
