#   1 NUMBER                 Running object number                                     
#   2 MAG_AUTO               Kron-like elliptical aperture magnitude                    [mag]
#   3 X_IMAGE                Object position along x                                    [pixel]
#   4 Y_IMAGE                Object position along y                                    [pixel]
#   5 X_WORLD                Barycenter position along world x axis                     [deg]
#   6 Y_WORLD                Barycenter position along world y axis                     [deg]
#   7 A_WORLD                Profile RMS along major axis (world units)                 [deg]
#   8 B_WORLD                Profile RMS along minor axis (world units)                 [deg]
#   9 THETA_WORLD            Position angle (CCW/world-x)                               [deg]
#  10 FWHM_WORLD             FWHM assuming a gaussian core                              [deg]
#  11 ELONGATION             A_IMAGE/B_IMAGE                                           
#  12 ELLIPTICITY            1 - B_IMAGE/A_IMAGE                                       
         1  -9.8179     70.0363     25.1267   4.2875228711e+01   6.1194746828e+01     0.962925    0.3131216  57.86  0.003637592    3.024    0.669
         2  -9.9368     27.1296     20.3138   5.8778899873e+01   6.9770695306e+01     0.669864    0.3806191 -22.34  0.003613767    2.110    0.526
         3  -9.8711     32.1849     10.7815   5.1639767189e+01   7.0106202876e+01    0.3932313    0.1865252  44.98 0.0004780942    1.754    0.430
         4  -8.2877     31.7278      6.0049   4.9516772396e+01   7.0696414000e+01    0.1932199    0.1409473  -1.18 0.0007576083    1.510    0.338
         5  -9.1281     46.4105     20.7261   4.9705786710e+01   6.6409047795e+01    0.3974864    0.2182491 -29.26  0.002129723    2.170    0.539
         6 -10.0961     78.0306     12.7978   3.6017614160e+01   6.0765614549e+01    0.7382665    0.1849211  53.73  0.002904051    2.828    0.646
         7  -9.1902     64.0576     13.7587   4.0351650673e+01   6.3657076518e+01    0.4333295    0.1753545  45.22  0.001131889    2.068    0.516
         8  -8.6851    106.4345     11.9276   2.9676064029e+01   5.4537061186e+01    0.2819428    0.2054976  18.64  0.001707314    1.983    0.496
         9  -8.4401     88.5468     12.7496   3.3488066833e+01   5.8457957466e+01    0.2853932    0.1309402  45.16  0.001388843    2.114    0.527
        10  -8.3262     97.1646     11.5299   3.1278591328e+01   5.6650184533e+01    0.2260096    0.1599468  43.88 0.0008233876    1.452    0.311
        11 -10.6137     13.5505      4.8438   5.9083983757e+01   7.3732437132e+01    0.4753498    0.3539147 -17.96  0.003299847    1.424    0.298
        12  -9.7396     20.6867      8.2775   5.6542523798e+01   7.2270775804e+01    0.2623192    0.1844928  37.67 0.0002977195    1.286    0.222
        13  -8.6203    142.9120      9.3355   2.3784209986e+01   4.6694297952e+01    0.1696739    0.1576772  87.75 0.0002257555    1.257    0.205
        14  -9.0673      3.6883      6.5890   6.6797755819e+01   7.4791215672e+01    0.4750532     0.249713  -8.77   0.00244955    2.442    0.591
        15  -8.1438    125.4915      9.5274   2.6014997037e+01   5.0498124826e+01    0.1205342   0.09569915  80.17 1.163711e-05    1.004    0.004
        16  -8.9225     41.1988      5.5668   4.5047689202e+01   6.9009668949e+01    0.3126241    0.2160649  11.53  0.001711802    1.641    0.391
        17 -10.1907     84.9385      5.0752   3.1629685007e+01   5.9928503177e+01    0.2332983    0.2068356  51.04 0.0003566996    1.173    0.148
        18  -8.5803    132.5517      4.5923   2.3800834179e+01   4.9381501373e+01    0.2923314    0.2083785  41.08   0.00163217    1.820    0.451
        19  -7.5921    179.5638      5.2022   1.9438150053e+01   3.9478004046e+01    0.1166143    0.1037964 -37.91 0.0002862867    1.531    0.347
        20  -9.6618     76.7899      6.4154   3.3983788573e+01   6.1605472886e+01    0.2607799    0.1720016  59.19 0.0002783881    1.189    0.159
        21 -10.2287     49.2117      3.9871   4.1210255333e+01   6.7597060501e+01    0.2899885    0.1663311  45.92  0.000222266    1.349    0.259
        22  -8.7942    110.8953      3.5002   2.6422336670e+01   5.4272486634e+01    0.2459245     0.158819 -41.08 0.0004935752    1.783    0.439
        23  -8.8034     58.1671      3.3636   3.7927635501e+01   6.5829473069e+01    0.4239619    0.1233751  45.41  0.001761634    2.813    0.645
        24  -7.3846    153.5033      3.4254   2.1275653256e+01   4.4974256969e+01    0.1139527   0.08756866  88.87 3.581942e-05    1.029    0.028
        25  -8.1460    125.5131      3.1285   2.4285293017e+01   5.1055774201e+01    0.1779091    0.1267055  76.88 0.0005426042    1.108    0.097
        26  -7.6963    104.9893      1.8247   2.6840039064e+01   5.5726852726e+01    0.1982318   0.09732206  50.35  0.001057889    1.925    0.480
        27  -7.4432    109.5300    105.9964   5.5916314982e+01   3.9437007157e+01    0.2080821    0.1286398 -24.07 0.0006628652    2.460    0.594
        28  -9.1078    205.9741    249.9850   6.1562492472e+01  -4.0628063371e+00    0.1516252    0.1453303  17.99  0.001136862    1.688    0.408
        29  -9.1220     91.3083    250.6322   8.6872008298e+01   8.2987987633e+00    0.2367395    0.1128901  24.48 0.0002672093    1.813    0.448
        30  -8.0245     60.9132    106.1743   7.2121027920e+01   4.8251985762e+01    0.3355893   0.09111319  36.58  0.001003067    3.358    0.702
        31  -8.5930     15.0010    104.7019   9.0997650524e+01   5.4023935816e+01     0.477546    0.1681305 -29.43  0.001439117    4.112    0.757
        32  -7.7497     94.6697    102.6878   5.9464929352e+01   4.3076579122e+01    0.1534205    0.1186966  -2.19 0.0002631362    1.673    0.402
        33  -7.4852     38.6770    110.2069   8.1951029981e+01   5.0311586221e+01    0.2176771    0.1224423 -50.26 0.0005614437    1.687    0.407
        34  -7.8359    130.3201     96.9312   4.8291740948e+01   3.7015862214e+01    0.1952836    0.1872327 -53.55 0.0005501659    1.075    0.070
        35  -9.3285     10.7472     95.0345   9.1135927372e+01   5.6766793698e+01    0.5389861    0.2207822 -23.58   0.00145185    3.109    0.678
        36  -9.3272     21.3897     91.2338   8.5396797860e+01   5.6830491454e+01     0.491023    0.2397944 -26.96  0.001955958    2.402    0.584
        37  -8.5223     44.6971     91.3845   7.4943989655e+01   5.4107525362e+01     0.472245    0.2291476   6.91  0.001551096    3.492    0.714
        38  -8.3627     96.6801     89.8314   5.5408866796e+01   4.5356329200e+01    0.4498766    0.2718308  12.26  0.001549387    3.544    0.718
        39  -7.8646    196.1301     89.4758   3.4782202913e+01   2.5363230056e+01    0.1576095    0.1179932  65.41 0.0003521848    1.441    0.306
        40  -8.5307     64.6537    101.1608   6.9428387366e+01   4.8834483769e+01    0.2151171    0.1836849  37.67 0.0007979886    1.165    0.141
        41 -10.0896     37.7261     80.8832   7.5216935618e+01   5.7412297234e+01    0.7779813    0.4149575  -8.87  0.002853591    3.060    0.673
        42  -7.7835     66.0163     84.0389   6.4220958049e+01   5.2379659234e+01     0.237569    0.1734318  -4.96 0.0008422402    1.713    0.416
        43  -7.6377     20.3863     84.2817   8.4280003378e+01   5.8575802992e+01    0.1537121   0.09268368 -22.76  0.000700533    1.736    0.424
        44  -7.7259    126.8132     83.2102   4.5637754635e+01   4.0296527098e+01    0.1888103    0.1670096  17.81 0.0008983976    1.380    0.276
        45  -8.8772     88.1795     78.4365   5.4818550596e+01   4.9292539432e+01    0.3452819    0.2552109  29.91  0.001325471    1.408    0.290
        46  -9.6589      7.6378     77.4354   8.9052646149e+01   6.1205591603e+01    0.4689657    0.2283073 -32.58 0.0009743136    1.986    0.497
        47  -8.7975     13.6431     73.9619   8.5149931933e+01   6.1542580553e+01    0.4360555    0.2229402 -22.98  0.001025684    2.145    0.534
        48  -7.7702    184.2491     77.7483   3.4014736891e+01   2.9418027260e+01    0.1487132    0.1471826 -40.63 0.0004941828    1.311    0.237
        49  -8.7496     49.7797     76.6787   6.8641137550e+01   5.6598677566e+01    0.6029963     0.295226  10.38  0.001873833    4.190    0.761
        50  -7.5067    105.3338     76.2980   4.9148941517e+01   4.6119740796e+01     0.142093    0.1105261  18.13 0.0007031116    1.648    0.393
        51  -7.4155    119.7195     75.6480   4.5306681924e+01   4.3145830004e+01    0.1354149    0.1111231  10.22 0.0007013525    1.651    0.394
        52  -7.9329     74.8000     74.1814   5.8044495073e+01   5.2734568807e+01    0.1973305    0.1620928   9.13 0.0004610864    1.344    0.256
        53  -9.4101     29.3486     68.3207   7.5612500767e+01   6.1167663579e+01    0.4633644    0.2444309 -18.55  0.001873621    2.626    0.619
        54  -8.8161     23.6832     73.6439   7.9957735218e+01   6.0665110827e+01    0.4583112    0.2482901 -18.24  0.001923773    2.247    0.555
        55  -7.9900     23.4997     69.4328   7.8881474487e+01   6.1599094823e+01    0.2905261    0.2347601  41.21 0.0009428989    1.444    0.308
        56  -8.2085     94.5942     72.4900   5.1100621913e+01   4.9064386417e+01    0.2336974    0.2203749 -67.32 0.0006941144    1.155    0.135
        57  -6.8408    163.2745     68.3080   3.5034139205e+01   3.5043429746e+01    0.1135452    0.1024643  18.88 0.0001860078    1.549    0.354
        58  -8.2180    105.7418     67.0586   4.6404776830e+01   4.7622984662e+01    0.2736634    0.2125538  -3.52  0.001405188    1.827    0.453
        59  -8.6961     84.0596     63.3777   5.1569867096e+01   5.2832279472e+01    0.3219962    0.2265353  26.17 0.0008737879    1.623    0.384
        60  -8.0929     15.9729     63.5470   8.1153826162e+01   6.3611058845e+01    0.3075402     0.176542  -6.14  0.001463899    1.871    0.466
        61  -7.7040     19.6718     60.6911   7.8323533661e+01   6.3838194229e+01    0.2216629    0.1454949   7.66 0.0005328474    1.437    0.304
        62 -10.4430     61.8691     61.0328   5.8678373493e+01   5.7572530506e+01    0.5877681    0.2886133  36.98 0.0004413418    1.868    0.465
        63  -9.7745     36.2139     59.0970   6.9311890656e+01   6.2117854198e+01    0.6998661    0.3308996  17.29  0.002781252    2.624    0.619
        64  -8.1893    249.3582     60.3300   2.4043320746e+01   2.0795920029e+01   0.08732013   0.08016513 -18.73 0.0003001151    1.791    0.442
        65  -7.1319    123.3238     60.3424   4.0344139417e+01   4.4839458871e+01    0.1340427     0.103879  25.82 0.0007050758    1.731    0.422
        66  -7.9382     26.3271     60.2996   7.4685170315e+01   6.3171934728e+01    0.1420795   0.09277992 -13.92 0.0001941516    1.637    0.389
        67  -8.7671     49.3584     57.9669   6.2836539355e+01   6.0306012318e+01    0.2737319    0.1841085  27.81  0.001013729    1.360    0.265
        68  -7.7174    111.4835     57.4909   4.2212562138e+01   4.7884330594e+01    0.1361418    0.1220824  63.78 -1.800344e-05    1.011    0.010
        69  -9.2956     99.6648     54.8104   4.4373438545e+01   5.0883297376e+01    0.2957401    0.2709332 -43.70 0.0006433961    1.222    0.182
        70  -7.6148    118.6717     50.9688   3.8742530956e+01   4.7244120620e+01    0.1788835    0.1598478  72.99 0.0004358589    1.016    0.016
        71  -9.2783     75.2459     49.8216   5.0022326041e+01   5.6819007309e+01    0.2970206    0.2099169  35.45 0.0003815858    1.343    0.255
        72  -8.5337     45.4896     48.5339   6.1226169311e+01   6.2587411717e+01     0.275729    0.1976921  -4.95  0.001478515    1.614    0.380
        73  -8.9396    106.8102     48.1435   4.0578830383e+01   5.0277520391e+01    0.2770669    0.1935302  43.44 0.0004399484    1.442    0.307
        74  -9.4819      3.6797     40.0361   8.1076266768e+01   6.9375804881e+01    0.6467024     0.209423 -50.59  0.002810004    2.766    0.639
        75  -8.8201     10.2986     47.0285   7.9319767389e+01   6.7474234843e+01    0.2782762    0.2150562 -26.76  0.001007297    1.168    0.144
        76  -9.2357     14.4383     44.2720   7.5921120394e+01   6.7588328297e+01    0.4269489    0.2497149 -14.60  0.001217265    1.837    0.455
        77  -9.1934     57.0475     42.0073   5.3876949492e+01   6.1570115605e+01    0.6301598    0.3534599   3.73  0.002171971    4.596    0.782
        78  -8.6887     94.0174     41.9878   4.1853117578e+01   5.3943151923e+01    0.3442436     0.175968  40.64  0.001564044    2.087    0.521
        79  -7.5544    113.7535     41.4248   3.7052372344e+01   4.9632733319e+01     0.187843    0.1050871  51.02 0.0007426233    1.643    0.392
        80  -8.1649     99.0315     41.4919   4.0422762846e+01   5.2904300156e+01    0.2095077    0.1155156  57.38  0.001027776    1.576    0.365
        81  -9.6846     84.2701     39.2239   4.3616984801e+01   5.6429045989e+01     0.591729    0.2480606  39.31  0.002351863    2.750    0.636
        82  -8.0119    124.0673     39.1667   3.4379516883e+01   4.7612928181e+01    0.1830039    0.1529894  55.80 0.0002554703    1.195    0.163
        83  -9.8572     68.2966     36.8784   4.7811461638e+01   6.0090984491e+01     0.530654    0.2711546  39.75  0.001833832    1.806    0.446
        84  -9.1120     56.0053     35.0544   5.1647055399e+01   6.2763337303e+01    0.2679303    0.1907049  12.77 0.0007943097    1.643    0.391
        85  -9.5227     37.0221     36.1399   6.0472711161e+01   6.5951414640e+01    0.4503656    0.2701293   8.96  0.002173956    2.173    0.540
        86  -8.4378    105.6196     36.5269   3.7348999475e+01   5.2072870573e+01    0.3171147    0.1665586  46.68 0.0008979811    1.852    0.460
        87  -9.8628     21.3935     32.6504   6.7401195905e+01   6.8780056854e+01    0.4535927    0.3051684 -16.96 0.0005624309    1.536    0.349
        88  -8.7688      3.0929     24.8880   7.5800908828e+01   7.2106735036e+01    0.2237946    0.1505086 -28.52  0.001395853    1.373    0.272
        89  -9.8670      5.7889     33.6535   7.7437261609e+01   7.0357114228e+01    0.6861246    0.2873815  19.33  0.002006489    2.129    0.530
        90  -8.8644      1.2357     28.9823   7.8714227251e+01   7.1576181560e+01    0.2509844    0.1635831 -59.06  0.001117014    2.006    0.501
        91  -9.3268     95.9989     32.5050   3.8309074694e+01   5.4706499758e+01    0.3410339    0.2246225  70.14   0.00143991    1.478    0.323
        92  -8.8240     70.9838     29.9446   4.4369578230e+01   6.0426206807e+01    0.2108655    0.1762828  25.56            0    1.239    0.193
        93  -9.1495     61.8090     26.7473   4.6240050881e+01   6.2696740530e+01    0.2584739    0.1936455  24.54 0.0004575734    1.383    0.277
        94  -8.8176    182.1951    249.0363   6.5983208293e+01  -1.6284659312e+00     0.166419    0.1511973 -82.60  0.001094631    1.970    0.493
        95 -10.7165     80.2120     23.2190   3.9199675294e+01   5.9235504562e+01     0.368385    0.2175594  45.83 0.0008175417    1.487    0.327
        96  -8.8578     84.5392     21.5035   3.7459178224e+01   5.8475343101e+01    0.2038066    0.1887784 -88.66 0.0004668428    1.208    0.172
        97  -8.5809     41.9292     27.8721   5.4725974044e+01   6.6315508359e+01    0.1986713    0.1465591  21.38 0.0004760132    1.248    0.199
        98  -9.5572    193.6898    248.1139   6.3592714206e+01  -2.6135487381e+00    0.2842672    0.1335212  35.38   0.00144827    2.584    0.613
        99  -8.7873    170.8338    247.0007   6.8006263115e+01  -1.0675514430e-01    0.2204024    0.1150394 -22.54  0.001088373    2.009    0.502
       100  -6.9090     98.3101    247.2981   8.4751602585e+01   8.1662299678e+00    0.1377349   0.09530704 -13.74  0.000428606    1.598    0.374
       101  -9.0603    109.6329     24.8935   3.3002346208e+01   5.2521588825e+01    0.2243601    0.1756742  70.52 0.0002586883    1.072    0.067
       102  -9.0739    223.3983    244.9467   5.7736344739e+01  -4.8326082190e+00    0.1791841    0.1443201  20.26 0.0007209173    1.563    0.360
       103 -10.2130    128.9492     21.8982   2.8852021760e+01   4.8513885290e+01     0.215677    0.1777432  73.29  0.001446142    1.073    0.068
       104  -8.7150     92.0077     20.7503   3.5400315065e+01   5.6904626668e+01    0.3275095    0.1900922  32.95  0.001112415    2.231    0.552
       105  -7.8341    167.0292     20.9784   2.3883487494e+01   4.0405664586e+01    0.1555669    0.1242075  55.83 -0.002661949    1.522    0.343
       106  -9.0373      8.9935     19.3504   6.9349759112e+01   7.2367900394e+01    0.2886032    0.2085353  -5.79 0.0009558462    1.219    0.180
       107  -9.1230     13.1504     17.6385   6.5816206876e+01   7.2115724551e+01    0.5060876    0.1740573  25.52  0.002102413    2.913    0.657
       108  -7.3188    172.1994     18.9833   2.2938929459e+01   3.9559178180e+01    0.1317121   0.08211269 -42.51 0.0008305581    1.640    0.390
       109  -7.8645     37.6897     17.3262   5.2068647929e+01   6.8394688557e+01    0.1115386   0.09513018  68.46 0.0002119502    1.659    0.397
       110  -8.3084    127.6616     16.1884   2.7507716732e+01   4.9383008519e+01    0.1970746    0.1356888  81.46 0.0004765237    1.240    0.194
       111  -9.2581    160.8162    244.3971   6.9749989461e+01   1.4390462932e+00    0.1857388    0.1061866   9.91 0.0006208622    1.709    0.415
       112  -8.9549    116.0461    241.1615   7.9612034128e+01   7.3013556555e+00    0.2014176    0.1802298 -13.82 0.0002945591    1.107    0.097
       113  -7.5644    147.2309     14.3707   2.4514280079e+01   4.5274730135e+01    0.1704559   0.09230528  83.52 0.0009453404    1.659    0.397
       114  -7.3291     65.6784    237.3110   9.1928242445e+01   1.4154541579e+01    0.1452222   0.09359255  51.75 0.0003844387    1.650    0.394
       115  -7.5461    147.2907    236.6820   7.1608214705e+01   4.4243885331e+00    0.1199225    0.1034082  51.40 0.0003750089    1.599    0.375
       116  -7.2463    150.7426     12.6564   2.3710270704e+01   4.4690550356e+01    0.1038195   0.08330407  47.83 0.0002959395    1.589    0.371
       117  -7.7526    101.7745    236.5763   8.2552410637e+01   1.0006338942e+01    0.2045227    0.1124857  34.72 0.0009478905    1.671    0.401
       118  -9.2573    188.2666    233.8210   6.2490225442e+01   3.2115495540e-01    0.2485724    0.1915612 -60.59  0.001034636    1.962    0.490
       119  -6.9076     82.6755    226.6638   8.6246107319e+01   1.4570455306e+01    0.1500286    0.1024687 -20.92 0.0007051188    1.717    0.417
       120  -7.1326     49.2681    212.3563   9.3752655108e+01   2.1965061495e+01     0.146841    0.1027593 -34.48 0.0003821922    1.635    0.388
       121  -7.9133     12.4296    207.2005   1.0362343123e+02   2.6840716659e+01    0.1949812    0.1219436  82.39 0.0005864087    1.656    0.396
       122 -10.3110    123.9936    205.9961   7.2440554489e+01   1.3826624726e+01    0.2055414     0.186866  -3.06            0    1.010    0.010
       123  -9.4756    129.9665    190.1992   6.8255636945e+01   1.6530866263e+01    0.2433686    0.2124563 -39.69 0.0002465915    1.133    0.117
       124  -7.8567    217.5016    167.4778   4.6221624286e+01   8.6084296288e+00    0.1225763   0.09995751 -39.72 3.567903e-05    1.063    0.059
       125  -8.7645     66.9706    144.4061   7.8279552727e+01   3.7656237766e+01    0.5262603    0.3125868  64.57  0.001925321    2.629    0.620
       126  -7.1937    125.6494    135.6735   5.8563955411e+01   2.9799008802e+01    0.1573363    0.1180535  -9.38 0.0007048417    1.760    0.432
       127  -7.6693     40.6606    129.1727   8.4934443888e+01   4.5152186108e+01    0.3443053     0.169579  -8.04  0.001094181    3.468    0.712
       128  -7.8727    132.5325    124.5187   5.4320022431e+01   3.0950516925e+01    0.1449133    0.1418587 -42.83 0.0002541367    1.016    0.016
       129  -7.4006     46.3030    117.7049   8.0469422770e+01   4.7463401252e+01    0.1503554    0.1153875  59.09 0.0002884952    1.577    0.366
       130  -8.1210     22.4782    114.4620   8.9540133743e+01   5.0889455746e+01    0.3172721    0.1967609  58.10   0.00128051    2.128    0.530
       131  -9.9766    248.7982    108.3019   3.1984023252e+01   1.4129888033e+01    0.3645063    0.1437481 -43.68  0.001975258    1.941    0.485
       132  -7.8634    133.4879    106.9006   4.9974193161e+01   3.4414212815e+01    0.2216683     0.139703 -45.27  0.001028515    1.582    0.368
