#   1 NUMBER                 Running object number                                     
#   2 MAG_AUTO               Kron-like elliptical aperture magnitude                    [mag]
#   3 X_IMAGE                Object position along x                                    [pixel]
#   4 Y_IMAGE                Object position along y                                    [pixel]
#   5 X_WORLD                Barycenter position along world x axis                     [deg]
#   6 Y_WORLD                Barycenter position along world y axis                     [deg]
#   7 A_WORLD                Profile RMS along major axis (world units)                 [deg]
#   8 B_WORLD                Profile RMS along minor axis (world units)                 [deg]
#   9 THETA_WORLD            Position angle (CCW/world-x)                               [deg]
#  10 FWHM_WORLD             FWHM assuming a gaussian core                              [deg]
#  11 ELONGATION             A_IMAGE/B_IMAGE                                           
#  12 ELLIPTICITY            1 - B_IMAGE/A_IMAGE                                       
         1 -16.1247    205.8134    108.8895   5.0035406988e+01   1.8391144930e+01     8.526286     4.773263 -56.18    0.0315511    2.137    0.532
         2 -15.2139    180.1215     77.1987   4.6467523654e+01   2.9464787758e+01     4.450408     1.236483 -41.90   0.00581812    3.238    0.691
         3 -14.8332    220.4008     65.1805   3.7643705625e+01   2.2439816650e+01      1.28014     1.106123 -26.41  0.005680396    1.280    0.219
         4 -16.1863    237.7053     83.3334   3.9712847898e+01   1.6252160412e+01     8.954551     1.416433 -41.66   0.02691126    4.500    0.778
         5 -12.9896    246.9880      3.1043   2.1641379729e+01   2.4801034277e+01    0.6749231    0.3888292 -79.99  0.004186762    1.586    0.369
         6 -15.4224    232.9467     59.0744   3.4828646098e+01   2.0736576998e+01     1.847017     1.399125 -85.33  0.007775359    1.393    0.282
         7 -16.4162    236.2599     38.2151   2.9847982663e+01   2.2868547729e+01     9.096468    0.7977229  61.25   0.02668486    6.917    0.855
         8 -14.3137    249.3558     23.2053   2.5631775039e+01   2.2105879792e+01     1.197706    0.4578235 -31.25  0.005685735    2.485    0.598
         9 -13.5713    231.8299     13.0423   2.4643235516e+01   2.6784583308e+01    0.7056217    0.3100059 -21.77  0.002075784    3.176    0.685
        10 -12.1069    234.4072      1.6791   2.2031297069e+01   2.7466865922e+01    0.2578229    0.1782191 -84.93  0.001108182    1.298    0.230
        11 -11.8686    214.0310     11.5798   2.5580545099e+01   3.0748709288e+01    0.2147036    0.1612036 -51.41  0.000431054    1.158    0.136
        12  -9.9971    145.7672      9.9991   3.2080718471e+01   4.7126866169e+01    0.1662797    0.1113276 -27.40 0.0008795415    1.634    0.388
        13 -10.2382    159.0521      8.0635   2.9804628801e+01   4.4033251540e+01    0.2440737     0.172993 -28.44 0.0008504984    1.543    0.352
        14 -10.1142    223.8788      8.6785   2.4211679567e+01   2.8930363287e+01    0.1658937    0.1330966 -77.93 0.0008860703    1.101    0.092
        15 -10.9530    135.1570      4.6101   3.1774953988e+01   5.0260082875e+01    0.2475694    0.1915946 -11.85 0.0007034734    1.542    0.352
        16  -9.4412    208.7806      3.9653   2.4169730146e+01   3.2709962333e+01     0.134509   0.09229135 -36.62 0.0003242847    1.433    0.302
        17 -11.1740    134.9225    110.7555   6.5016267332e+01   3.3214837261e+01    0.7707165    0.3783362 -35.10   0.00278216    2.467    0.595
        18 -10.4703    134.4166    104.2791   6.3450146095e+01   3.4713048427e+01    0.4417679    0.1758595 -43.22  0.001521395    2.492    0.599
        19 -11.8621    247.6075    210.2838   6.3341840313e+01  -4.2272421210e+00    0.4178624    0.2378843  46.71  0.002165665    2.679    0.627
        20 -11.0482    124.3565    110.0900   6.7565904780e+01   3.5603921850e+01    0.3731823     0.306989  28.77  0.001405892    1.357    0.263
        21 -11.1080    126.8870    104.5653   6.5452600011e+01   3.6280497380e+01    0.5670648    0.3084793 -57.39  0.002180099    2.142    0.533
        22  -9.6939    143.3415    105.0913   6.1487239911e+01   3.2584065996e+01    0.2375855    0.1912187 -22.51 0.0007290734    1.443    0.307
        23 -11.3285    150.1155    101.3720   5.8930416827e+01   3.1841586116e+01    0.3545566    0.2968526  19.27 0.0007647795    1.443    0.307
        24 -11.5380    160.7920    128.6938   6.3347975700e+01   2.3946638656e+01    0.4129193    0.3406847 -61.38   0.00182771    1.301    0.231
        25 -12.7902    161.2754     95.6489   5.4976781056e+01   3.0452449402e+01    0.8134109    0.4139383  35.31  0.002930525    2.830    0.647
        26 -10.8578    135.6295     97.5859   6.1341529011e+01   3.5852776351e+01    0.3463169    0.2662649  74.99  0.001616582    1.557    0.358
        27 -12.3213    214.5688     94.0657   4.5216310822e+01   1.9124330598e+01    0.4154174    0.3276621 -40.78  0.002359609    1.126    0.112
        28 -11.6996    247.4804    203.2111   6.2166878389e+01  -3.2905935450e+00    0.2867289    0.2337935  27.21  0.001421119    1.409    0.290
        29 -11.3552    144.0266     91.6791   5.7696088712e+01   3.5158987004e+01    0.3285115    0.3012908  88.67 0.0006554767    1.128    0.114
        30 -12.1106    239.3151    199.2652   6.2785343586e+01  -1.7104993607e+00    0.3259378    0.3018956  24.88  0.001324387    1.444    0.308
        31 -12.8128    160.1023     85.9292   5.2592875692e+01   3.2557537370e+01    0.3746628    0.2856802 -31.28 0.0007509701    1.385    0.278
        32 -11.8305    191.7052    193.4667   7.0159731301e+01   6.0687328852e+00    0.9313365    0.4860153 -62.72   0.00287285    6.464    0.845
        33 -11.6687    211.0906    189.1302   6.5785737616e+01   3.7737183489e+00    0.3539994    0.2760189 -79.97  0.001881977    2.573    0.611
        34 -10.9691    133.3746    144.1271   7.3250302129e+01   2.6154934984e+01     1.151911    0.2627129 -54.80   0.00237808    7.782    0.871
        35 -10.5883    153.0938     79.7305   5.2316455064e+01   3.5338395799e+01    0.5356896    0.2039391  42.08   0.00169062    3.455    0.711
        36 -13.0742      2.2180    181.8412   1.1261799619e+02   3.5380399798e+01    0.7582982    0.2252818 -79.51  0.002511471    2.894    0.654
        37 -11.9229    173.6756    124.1607   5.9548087098e+01   2.2183096727e+01    0.3365239    0.2997696  22.98  0.001827483    1.221    0.181
        38 -10.2439    160.2178     78.1885   5.0419516157e+01   3.3940889016e+01    0.2078012    0.1676578 -68.83 0.0003831641    1.321    0.243
        39 -10.4028    198.4385     66.1376   4.0733270121e+01   2.7077357903e+01     0.297464    0.1919173 -66.48 0.0008409141    1.741    0.426
        40 -10.0967    157.6665    137.9489   6.6163053720e+01   2.2674086433e+01    0.2053395    0.1905358 -45.35 0.0006240836    1.063    0.059
        41 -12.2669    237.1246    172.9642   5.8380623118e+01   2.3758391258e+00    0.3117765    0.2229912 -62.67  0.001682883    2.452    0.592
        42 -12.1941    191.9005    152.9833   6.2323798078e+01   1.3136186767e+01    0.4270195    0.2161656 -47.93  0.001579753    2.071    0.517
        43 -13.5722    200.6929     75.0368   4.2650073841e+01   2.5171950148e+01     1.167922    0.4224855  42.65  0.003581591    4.826    0.793
        44  -9.7942     98.1740     40.5815   5.2913052175e+01   5.4860445366e+01    0.2680622    0.1007659 -37.49 0.0009940296    2.685    0.628
        45 -10.1049    195.1833     38.5715   3.4067055296e+01   3.1788687827e+01    0.1820603    0.1763221 -10.31 0.0002671953    1.272    0.214
        46 -11.5842    124.4023     37.9189   4.5316115333e+01   4.9110283083e+01    0.2944556    0.2015147  52.43 0.0007079836    1.396    0.284
        47  -9.8491    189.9816     36.2388   3.4074035520e+01   3.3310785253e+01     0.184229     0.159319 -65.74 0.0006477053    1.026    0.026
        48  -9.5009    175.7637     27.3488   3.3388377703e+01   3.7829238112e+01    0.1857661    0.1135494  61.86  0.000927995    1.593    0.372
        49 -12.7944     67.8013    144.9215   9.1286003225e+01   3.7256360705e+01    0.7765679    0.5175964  71.97  0.002745815    1.739    0.425
        50 -11.0394    172.5123    150.5022   6.5688326460e+01   1.7227837550e+01    0.2164349    0.1334009 -33.44 5.465151e-05    1.708    0.415
        51 -15.0947     32.5198    163.1891   1.0360867042e+02   3.7024087926e+01     2.185045     1.544149  -5.77  0.001467076    2.159    0.537
        52 -14.6115     43.4364    157.3658   9.9994428661e+01   3.7266661819e+01     1.469965     1.094782 -11.20  0.002383824    1.970    0.492
        53 -11.9955    175.4630    146.0033   6.4112548864e+01   1.7541583650e+01    0.3134021    0.2452666  15.39  0.001436134    1.486    0.327
        54  -9.2233    235.5658     19.7809   2.5855528229e+01   2.5252688863e+01    0.1100279    0.0838509  53.30  0.000683534    1.710    0.415
        55 -10.0231    159.7772     17.8742   3.2667551402e+01   4.2839391191e+01    0.1838306    0.1745372  73.04 0.0004004462    1.131    0.116
        56 -11.0237    134.5216     16.5135   3.5931483235e+01   4.9251696160e+01    0.2511704    0.2235785  76.64  0.001227497    1.023    0.022
        57  -9.9970    189.9081     15.0026   2.8485932971e+01   3.5869767455e+01    0.2033201    0.1685279 -72.66 0.0008778048    1.035    0.034
        58  -9.4964     64.4958    228.5535   1.0200086483e+02   1.8652333267e+01    0.1231998   0.09955386  55.33 0.0001070945    1.007    0.007
        59 -10.6507    247.9387    221.4779   6.5127617874e+01  -5.6742045796e+00    0.2271256   0.09623991  39.61   0.00120563    2.701    0.630
        60 -11.5776    162.4832    120.4501   6.1017620540e+01   2.5273124112e+01    0.2921241    0.2689733 -59.79 0.0001788875    1.094    0.086
        61 -10.5604    134.9927    121.2053   6.7613074969e+01   3.0920201875e+01    0.4985456    0.1674314 -46.82  0.001589372    2.937    0.659
        62 -11.6807    166.8119    115.0475   5.8776760351e+01   2.5431888046e+01    0.5209939    0.3748653  10.51  0.002287898    2.087    0.521
        63 -10.4289    136.0000    130.0047   6.9453411958e+01   2.8771325871e+01     0.414535   0.08578612 -47.50  0.001034778    4.785    0.791
