#   1 NUMBER                 Running object number                                     
#   2 MAG_AUTO               Kron-like elliptical aperture magnitude                    [mag]
#   3 X_IMAGE                Object position along x                                    [pixel]
#   4 Y_IMAGE                Object position along y                                    [pixel]
#   5 X_WORLD                Barycenter position along world x axis                     [deg]
#   6 Y_WORLD                Barycenter position along world y axis                     [deg]
#   7 A_WORLD                Profile RMS along major axis (world units)                 [deg]
#   8 B_WORLD                Profile RMS along minor axis (world units)                 [deg]
#   9 THETA_WORLD            Position angle (CCW/world-x)                               [deg]
#  10 FWHM_WORLD             FWHM assuming a gaussian core                              [deg]
#  11 ELONGATION             A_IMAGE/B_IMAGE                                           
#  12 ELLIPTICITY            1 - B_IMAGE/A_IMAGE                                       
         1 -11.8826     71.2851    122.9662   1.0612097030e+02   4.1839757259e+01     2.498646     1.712578  51.45   0.01310322    1.529    0.346
         2  -9.6832     75.1040     17.7739   7.0663960279e+01   6.3296566433e+01    0.3039941    0.2517965 -33.39 0.0005374711    1.265    0.210
         3  -8.8401     80.1328     12.2666   6.6196489674e+01   6.3005189447e+01    0.2557699    0.1812673 -31.03 0.0007365675    1.406    0.289
         4  -8.0910    142.1753     11.8682   5.1397744980e+01   4.8320658486e+01    0.2017336     0.159087  33.29 0.0004089491    1.300    0.231
         5  -7.3675    169.6143      9.5281   4.6533058500e+01   4.1321842098e+01    0.1384008    0.1337818 -72.98  0.000138059    1.027    0.026
         6  -8.9757    136.6296      8.0393   5.0851729846e+01   5.0131679927e+01    0.2414101    0.1915172 -87.19 0.0003031957    1.407    0.289
         7  -8.8659    106.8318      1.8523   5.3958347587e+01   5.8122689812e+01    0.2722559    0.1405397  53.41  0.001253236    1.735    0.424
         8  -7.9535     17.0193      2.5135   8.9114416064e+01   7.4210749548e+01    0.1525138    0.1060431  15.42 0.0004657759    1.520    0.342
         9 -11.0509    177.0830    234.4841   1.0054667645e+02   3.2090467177e+00    0.6254505    0.3572389 -42.47  0.001369094    2.193    0.544
        10 -11.6716    142.0218    237.7640   1.0712713920e+02   8.1116411516e+00      1.52494     1.162619 -74.95   0.01059864    1.766    0.434
        11 -12.3521    154.7954    228.2807   1.0369129908e+02   7.5052549365e+00     1.399059     1.245043 -46.05   0.01033083    1.397    0.284
        12 -12.1292    198.4900    207.4498   9.2737002319e+01   3.3792256918e+00     3.168321     1.445864  56.81   0.01105993    5.048    0.802
        13 -10.3186    167.2982    234.9944   1.0232697902e+02   4.6428100454e+00    0.7276971    0.3330135  28.84  0.001140235    2.507    0.601
        14 -12.7512    187.0314    211.8921   9.5509653051e+01   4.6478244720e+00      1.85472      1.56002 -35.03   0.01263326    1.402    0.287
        15  -7.9175    118.8134    236.1312   1.1107408768e+02   1.1802332528e+01    0.1804244    0.1273834  57.48  0.001224824    1.237    0.192
        16  -8.0826    108.5308    235.9704   1.1288958336e+02   1.3314898611e+01    0.1876569    0.1157305  45.47 0.0007525111    1.274    0.215
        17  -7.8742    127.0190    234.9110   1.0947934735e+02   1.0776372895e+01    0.1625523    0.1206465  56.28  0.001117124    1.189    0.159
        18  -8.6370     50.3114    235.3578   1.2301108948e+02   2.1045241672e+01    0.1332316    0.1299537 -33.40  0.001115928    1.723    0.420
        19  -8.7015    115.3602    231.3849   1.1120311246e+02   1.3043714868e+01    0.2954604     0.149042  36.21  0.001500596    1.843    0.457
        20  -7.5066     99.6367    232.6990   1.1416669129e+02   1.5097382227e+01    0.1031308   0.08537129  17.00 0.0007035463    1.726    0.421
        21  -8.5416     82.3712    230.2298   1.1704166535e+02   1.7878996953e+01    0.3035654    0.1328751 -84.59  0.001408084    3.604    0.723
        22  -8.9291    111.1546    227.1206   1.1152481552e+02   1.4343127852e+01    0.3357717    0.1751336  24.06  0.001151232    3.503    0.715
        23  -8.0964    102.6783    227.3335   1.1309925615e+02   1.5540075395e+01    0.1217042   0.07237434  64.68 0.0003884713    1.703    0.413
        24  -9.2085     90.1603    237.9181   1.1631170036e+02   1.5568433675e+01    0.1994996    0.1374107 -72.10 0.0008438771    1.662    0.398
        25  -8.7602    121.7198    221.2896   1.0892700060e+02   1.3708929712e+01    0.2948641    0.1977091  62.21  0.001815614    1.487    0.328
        26  -8.1878    104.3206    222.3310   1.1228992710e+02   1.6135617207e+01    0.1052046   0.09079387   7.31 0.0003667363    1.694    0.410
        27  -8.6085    105.5248    218.5145   1.1166268552e+02   1.6606521610e+01    0.1183168   0.09706391  54.74 0.0001432107    1.040    0.039
        28  -7.9944    110.9411    215.2115   1.1027097652e+02   1.6364388494e+01    0.1828044    0.1351938  16.76  0.001078743    1.974    0.493
        29 -11.5131    203.5632    249.1460   9.8028254793e+01  -2.4304824334e+00      2.12326    0.3915481  42.59  0.007693688    4.593    0.782
        30  -8.5535     12.5782    212.8009   1.2829377075e+02   2.9086639713e+01    0.1543266   0.07294054  81.62 0.0009604663    1.748    0.428
        31  -7.9067    111.5207    210.9341   1.0966809471e+02   1.7018659628e+01    0.1549033    0.1178957 -66.31  0.000609717    1.483    0.326
        32  -7.7387    102.6531    211.7245   1.1147395854e+02   1.8214872502e+01    0.1089631   0.09223195  15.63 0.0003314321    1.630    0.386
        33 -11.0436    166.1636    248.7839   1.0422994123e+02   3.0464876635e+00     1.257412    0.3142568  41.38  0.005365075    3.033    0.670
        34  -9.4724    157.6496    204.1313   9.9807452970e+01   1.0700558645e+01    0.2330391    0.1752245  38.77 0.0002561165    1.144    0.126
        35  -8.4898    163.8408    209.9413   9.9495381605e+01   8.7592290217e+00    0.1893306    0.1603581  30.10 0.0003452653    1.075    0.070
        36 -11.5664    167.8494    203.4482   9.7753158813e+01   9.0836984816e+00    0.9457743    0.4922879  32.39  0.003437026    1.902    0.474
        37 -10.7014    160.8016    195.0511   9.7787740626e+01   1.1634260266e+01    0.5928143    0.5398266  40.23  0.003889077    1.052    0.049
        38  -7.2013     41.6964    206.7288   1.2269275771e+02   2.7187151807e+01    0.0907822   0.08549237 -68.28 0.0002829079    1.535    0.348
        39  -8.2409    218.3995    208.4139   8.9409686109e+01   5.2661416021e-02    0.3412525    0.1517589  27.66  0.001589382    2.409    0.585
        40  -9.1764    128.4403    203.9976   1.0548755698e+02   1.5567062164e+01    0.2325298    0.1612188  43.87 0.0004054032    1.240    0.194
        41  -8.3680    136.5159    203.4963   1.0382813367e+02   1.4333795238e+01    0.1263696    0.1079255  48.83 1.976106e-05    1.007    0.007
        42  -7.3332     93.3092    204.3458   1.1249157469e+02   2.0932456604e+01    0.1086535   0.09651549 -14.14 0.0004404049    1.703    0.413
        43  -8.5260    138.3638    199.8157   1.0294306668e+02   1.4659542148e+01    0.1675264    0.1178734 -40.07 0.0009538006    1.737    0.424
        44  -7.6435    233.4620    196.9626   8.4868242697e+01  -9.0583275878e-01    0.1413705      0.10388 -52.42 0.0003963767    2.294    0.564
        45  -7.9522    103.0001    195.4962   1.0950854198e+02   2.1149038069e+01    0.1561738    0.1098637  15.14 1.785489e-05    2.301    0.565
        46 -11.6521    178.6657    242.9094   1.0137670843e+02   1.9159546499e+00     1.316732    0.4008938  38.57   0.00599991    2.613    0.617
        47 -12.0884    187.4767    235.3817   9.8867701168e+01   1.5122091540e+00     1.654467    0.6462765  29.72  0.007356443    2.935    0.659
        48  -9.7664    184.0156    183.4535   9.1292031907e+01   9.3964205054e+00    0.3060472     0.243433 -19.08   0.00141812    1.358    0.264
        49 -10.4285    190.0372    179.9951   8.9504853768e+01   8.8543437758e+00    0.8642592    0.4178867  47.78  0.003825569    2.079    0.519
        50 -11.3054    172.5339    186.1459   9.3998513958e+01   1.1026969081e+01    0.6920719    0.4901767  14.21  0.003696246    1.705    0.414
        51  -9.2489    124.5899    210.4611   1.0707794792e+02   1.5069288659e+01    0.3535275    0.1151633  51.26  0.001338475    3.337    0.700
        52  -8.6085    249.2767    187.3435   8.0513905852e+01  -2.2033975416e+00    0.2061999    0.1214754  10.80  0.001120096    1.802    0.445
        53  -7.6621    223.5248    182.7724   8.3937622753e+01   2.5507202257e+00    0.1577307    0.1169167 -38.72 0.0006808342    1.570    0.363
        54  -8.3078     23.4540    176.7330   1.2420106739e+02   3.5157086440e+01    0.3345604    0.1381917  58.21   0.00174302    2.151    0.535
        55  -9.8275    178.5128    175.2596   9.0852860664e+01   1.1741247933e+01    0.4549082    0.1629943  37.67  0.001679547    2.851    0.649
        56  -8.9303    248.7926    173.4025   7.7904364320e+01  -4.0583748438e-01    0.1801166    0.1017944  29.62 0.0009587059    1.712    0.416
        57 -10.0626    178.7227    182.9790   9.2229685014e+01   1.0428887413e+01     0.491087    0.2251111  35.70 0.0009870989    2.149    0.535
        58 -10.3291    174.8040    170.1024   9.0612119009e+01   1.3314516083e+01    0.4323469     0.340703 -24.93  0.002412451    1.379    0.275
        59  -8.1056     78.4112    170.5616   1.1164753175e+02   2.9892832611e+01    0.2053806    0.1727322  77.48  0.001292071    1.024    0.023
        60  -9.0628    159.1735    169.8136   9.3755021456e+01   1.6318551902e+01    0.2096867    0.1839862  61.69   0.00100334    1.211    0.174
        61  -9.4577      6.8175    166.1707   1.2698095646e+02   3.8902775782e+01    0.3311946    0.1814564  73.86 0.0005045458    1.483    0.326
        62  -9.6933      7.8533    160.3480   1.2640058678e+02   4.0069613790e+01    0.4335529    0.3222727 -15.35  0.002822032    2.414    0.586
        63 -10.1275     74.6257    148.8522   1.0954385214e+02   3.5272618086e+01    0.4551261    0.2381107  58.10 0.0001091915    2.104    0.525
        64 -10.0440     35.7855    121.1525   1.1573419367e+02   4.6561816161e+01    0.7126203    0.4188811  12.56    0.0035584    2.684    0.627
        65 -10.5384     17.2908    158.8948   1.2423113086e+02   3.9577867025e+01     1.030885    0.7574253  54.47  0.007138387    1.317    0.240
        66 -10.4848     24.5082    156.7722   1.2243969810e+02   3.9382395006e+01     1.038977    0.4052424 -81.07  0.004452435    2.276    0.561
        67  -9.9040     18.2459    142.1530   1.2264258348e+02   4.3252869408e+01     1.352706    0.5702637  84.97  0.006222325    2.467    0.595
        68 -11.9373     47.1851    144.2846   1.1574039389e+02   3.9861170733e+01     1.652558    0.6909606 -56.84  0.007566874    2.279    0.561
        69 -11.9570     56.9773    128.7330   1.1102866544e+02   4.2364430158e+01     1.764059     1.196942  83.01   0.00942483    1.534    0.348
        70 -11.8894     33.4783    145.3515   1.1924662863e+02   4.1092366036e+01     1.281823    0.7506432  80.66  0.001320224    1.619    0.382
        71 -11.2305     40.7635    133.2737   1.1599861826e+02   4.3158042965e+01     1.145108    0.7587144 -80.90  0.006576463    1.295    0.228
        72 -10.6691     29.6482    128.2727   1.1831458110e+02   4.5459962299e+01     0.734288     0.564453  42.21  0.003264052    1.463    0.317
        73 -10.5726     83.5652    129.8604   1.0406542447e+02   3.8374266097e+01    0.4831896    0.3669529  58.19  0.001424595    1.347    0.258
        74  -8.5057    100.9555    243.4577   1.1491088340e+02   1.3223890613e+01    0.1992466    0.1399813  88.76 0.0009529262    1.615    0.381
        75  -7.4552    111.2967    160.3152   1.0259830049e+02   2.6929741049e+01    0.1299668    0.1104555 -15.45 0.0007014044    1.605    0.377
        76  -7.6128    107.9837    160.5326   1.0340100858e+02   2.7446891113e+01    0.1982005    0.1281226  43.90 0.0004403404    1.486    0.327
        77  -8.9705     56.6182    155.9016   1.1486296108e+02   3.6062228890e+01    0.1922013     0.178946  45.62 0.0008107421    1.309    0.236
        78  -9.5671    249.5964    151.4306   7.3263387286e+01   2.3501441100e+00    0.2965904    0.1111695 -31.92  0.001249407    2.404    0.584
        79  -7.4026    130.3111    150.2981   9.6366403986e+01   2.5631897584e+01    0.1385344      0.11481  -2.57 0.0004638175    1.600    0.375
        80  -8.5481    245.3224    147.3329   7.3057204206e+01   3.6628460723e+00     0.139916   0.09167944   6.10 0.0003673294    1.703    0.413
        81  -9.9425     87.8103    145.7791   1.0578815004e+02   3.4010836315e+01    0.3798222    0.3000916 -22.65  0.001087623    1.853    0.460
        82  -9.7281    178.8749    163.9315   8.8585632976e+01   1.3606855316e+01    0.3971971    0.1961763 -44.77  0.001722006    2.187    0.543
        83 -10.4405     44.6208    121.9606   1.1338781383e+02   4.5440884365e+01    0.5276408    0.3972366 -75.72  0.001217834    1.117    0.105
        84  -9.3180    183.2835    161.9977   8.7315927000e+01   1.3088414504e+01    0.3831242    0.1859791 -51.96  0.001517043    2.784    0.641
        85  -9.5927     79.3230    117.1552   1.0273937321e+02   4.2046224487e+01    0.8215559    0.4604802 -38.48  0.003488071    2.312    0.568
        86  -7.6616      5.1046    139.7800   1.2560847093e+02   4.4842252262e+01    0.1511933    0.1128927 -67.98 0.0004283358    1.324    0.245
        87  -7.7072    112.6844    134.6895   9.7476936591e+01   3.2318020568e+01    0.1419122    0.1169014 -13.97 0.0005674948    1.635    0.389
        88  -9.3368     98.0281    131.7588   1.0062516689e+02   3.5577314469e+01    0.4300564    0.2055069  41.24  0.001788886    2.140    0.533
        89  -8.7656    101.3985    128.0138   9.8984093773e+01   3.5862121414e+01    0.3009461     0.266295  49.96  0.001673887    1.166    0.143
        90  -7.8049    113.3196    126.6698   9.5604745895e+01   3.4011439584e+01    0.1535112    0.1138129  84.42 0.0007048136    1.690    0.408
        91  -9.1810     46.5322    163.6696   1.1807487508e+02   3.5528692896e+01    0.3122284    0.1818581  35.26  0.001603889    1.871    0.466
        92  -7.8216    109.1227    113.8639   9.3759826077e+01   3.7719387161e+01    0.3443029     0.246833 -44.98  0.001225024    1.382    0.277
        93  -8.2133     99.0556    114.6995   9.6695465261e+01   3.9368234833e+01     0.246866    0.1967882 -56.29 0.0006113487    1.181    0.153
        94  -7.8509    211.6493    162.8276   8.2093975230e+01   7.5449643372e+00    0.1790112    0.1600514 -11.26 0.0006097563    1.094    0.086
        95  -7.2015    156.2416    112.6447   8.1708611630e+01   2.8136792343e+01    0.1543069     0.118811 -68.13 0.0002443385    1.586    0.369
        96  -9.0530    212.4236    108.0147   6.9270806255e+01   1.6272447880e+01    0.2537077    0.2146719  41.33 0.0001440558    1.243    0.195
        97  -7.1244    184.3695     78.3162   6.6179624938e+01   2.7916682272e+01    0.1648568    0.1192428  19.32 0.0007036035    1.783    0.439
        98  -8.3201    115.6190     68.5055   7.8835342709e+01   4.6268946345e+01     0.269688      0.21922 -31.78 0.0008247695    1.197    0.165
        99  -8.4707    211.7163     60.4456   5.6509266626e+01   2.3999357312e+01    0.2971496    0.1911753 -31.12  0.001373518    1.442    0.307
       100  -8.1054     94.6394     52.3799   7.9274995134e+01   5.3792434716e+01     0.200231    0.1692255 -74.96 0.0002873299    1.522    0.343
       101  -8.0828     77.4887     29.4850   7.5440313263e+01   6.1111732098e+01       0.1405    0.1224925  -8.00  0.000275522    1.033    0.032
       102  -8.9871     84.8967     20.9806   6.8954267455e+01   6.0907530155e+01    0.3878441    0.1795029 -34.66  0.001437371    2.063    0.515
       103  -7.6358     30.1724     22.1737   9.2212099711e+01   6.9475664727e+01    0.1516692    0.1348452 -43.77 0.0002682598    1.285    0.222
       104  -9.3123    105.1844    248.0273   1.1458592320e+02   1.1952764296e+01    0.2668739    0.1929668  74.93  0.001398135    1.434    0.302
       105  -9.8631     37.4400    247.4585   1.2579311911e+02   2.0516498280e+01    0.2262873    0.1428917  47.97  0.001734777    1.314    0.239
       106 -11.9380    217.4034    238.0905   9.4217714473e+01  -3.2257550172e+00     2.073282     1.642803 -55.78   0.01433105    2.283    0.562
       107  -9.4353    124.4542    241.0517   1.1058262619e+02   1.0242650414e+01    0.1948869    0.1600706  48.74 0.0003491019    1.072    0.067
       108  -9.4830    109.2028    246.9080   1.1379811065e+02   1.1559722393e+01    0.2630045    0.1842816  54.15  0.001303948    1.119    0.106
       109  -7.4991     71.8046    240.9754   1.1972589989e+02   1.7487991101e+01    0.1228045   0.07716206 -77.06 0.0004615133    1.728    0.421
