#   1 NUMBER                 Running object number                                     
#   2 MAG_AUTO               Kron-like elliptical aperture magnitude                    [mag]
#   3 X_IMAGE                Object position along x                                    [pixel]
#   4 Y_IMAGE                Object position along y                                    [pixel]
#   5 X_WORLD                Barycenter position along world x axis                     [deg]
#   6 Y_WORLD                Barycenter position along world y axis                     [deg]
#   7 A_WORLD                Profile RMS along major axis (world units)                 [deg]
#   8 B_WORLD                Profile RMS along minor axis (world units)                 [deg]
#   9 THETA_WORLD            Position angle (CCW/world-x)                               [deg]
#  10 FWHM_WORLD             FWHM assuming a gaussian core                              [deg]
#  11 ELONGATION             A_IMAGE/B_IMAGE                                           
#  12 ELLIPTICITY            1 - B_IMAGE/A_IMAGE                                       
         1 -12.9278    168.6705     58.5893   6.1465042011e+01   3.5469420916e+01       3.3018     1.831392 -64.21   0.01160851    2.948    0.661
         2 -12.5578     80.6640     47.9139   8.1172794701e+01   5.7049888408e+01     1.571999    0.9959983   5.75   0.00707306    2.238    0.553
         3 -11.8866     18.2961     34.7782   1.0189542454e+02   6.7268887848e+01     1.002726    0.5678663 -54.94   0.00587937    1.578    0.366
         4 -10.8492      8.9107     25.4706   1.0319038617e+02   6.9656225489e+01    0.5463129    0.3191712 -11.52  0.002631492    1.811    0.448
         5  -9.8771    209.2087     21.9657   4.4684019216e+01   3.0158383819e+01     1.198673    0.4239018 -62.75  0.002858137    7.483    0.866
         6 -10.9196     54.6308     26.6359   8.2402318738e+01   6.4735522284e+01    0.8362696    0.6573718  71.18  0.004571052    2.534    0.605
         7 -11.4942     67.7996     30.0456   7.8674720205e+01   6.2180743710e+01     1.021556    0.8043354 -71.38  0.005456429    2.307    0.567
         8 -10.7083     62.9375     23.2321   7.7554658175e+01   6.3985423764e+01    0.7734309    0.4753277 -13.91   0.00407155    1.714    0.417
         9 -11.2283     45.9027      7.6734   7.7147818384e+01   6.8683328951e+01    0.9009259    0.8168799  20.27  0.006189909    1.391    0.281
        10 -10.3181     53.4358     11.0911   7.5647838177e+01   6.7130503948e+01    0.7773544    0.5845418 -26.69  0.003887957    1.308    0.235
        11 -11.6197      3.1562     16.9830   1.0304438556e+02   7.1534055103e+01     1.029169    0.3444357 -57.62  0.003551418    2.895    0.655
        12 -10.4571    129.5084     15.5056   5.4854351377e+01   5.1091427031e+01    0.2624626    0.2480202 -88.79 0.0005681174    1.175    0.149
        13 -11.6878    130.0116     11.0182   5.3087213506e+01   5.1420664097e+01    0.3303602    0.2588643 -19.71 0.0006882189    1.376    0.273
        14  -9.2549     80.9734     12.8377   6.6363796205e+01   6.2123580312e+01    0.3664509    0.2153377 -38.26  0.001071601    1.950    0.487
        15  -9.9346    142.1100     12.4236   5.1313557668e+01   4.8287410652e+01    0.2611239    0.2225905  -9.41 0.0005505328    1.284    0.221
        16  -8.8622      9.5704      1.6033   9.2588255457e+01   7.3619401946e+01     0.189495    0.1407043  15.16  0.001196973    1.467    0.319
        17 -10.0454     16.0814      8.5978   9.2394116666e+01   7.2003078864e+01    0.4479398    0.3609746  61.83  0.002857579    2.724    0.633
        18  -9.5164     13.9871      3.1482   9.0850719723e+01   7.3015022463e+01     0.267765    0.1677772 -27.58 0.0004896158    1.225    0.184
        19  -9.6129     89.8846      7.9354   6.1425134686e+01   6.0856932406e+01    0.5868301    0.2965072  43.72  0.002871448    1.745    0.427
        20  -9.3198    143.5399      3.0012   4.7788990159e+01   4.8798365218e+01    0.2958312    0.2163485  -2.23  0.001060742    1.589    0.371
        21  -9.2983    219.1010      1.9717   3.8618590306e+01   2.9916761306e+01    0.2031654       0.1649 -88.92 0.0003926455    1.090    0.083
        22  -8.0967    138.9588    199.0275   1.0174555818e+02   1.3878248210e+01    0.1865595    0.1659769  46.60  0.001130345    1.027    0.026
        23 -12.2500    112.1932    245.5575   1.1294518908e+02   1.0014455575e+01    0.8964199    0.6187655  47.35  0.003381796    1.145    0.127
        24 -11.0240    113.9134    238.3004   1.1186789222e+02   1.0952626761e+01    0.4613279    0.2903993  49.89  0.002495272    1.276    0.216
        25 -10.8867     90.3342    249.5164   1.1724665308e+02   1.2541298421e+01    0.4767509    0.2311458  32.66  0.002483727    2.421    0.587
        26  -8.0594     13.8855    199.3552   1.2747879225e+02   3.1198176194e+01    0.1481088    0.1149881  71.89 0.0005924879    1.114    0.102
        27  -9.8265    249.0093    195.0595   7.9597917317e+01  -4.8062471454e+00    0.3917383    0.2765273   4.20  0.002361382    1.313    0.238
        28 -11.0646    203.0621    188.6526   8.6769329877e+01   3.9780431659e+00     0.498225    0.3040095 -52.20  0.002369278    2.216    0.549
        29  -8.7009    222.9939    188.0177   8.2865311085e+01   5.1252339956e-01     0.188825    0.1604983   9.81  0.001153283    1.014    0.014
        30 -11.1751    192.3040    170.9609   8.5419809118e+01   9.0339056855e+00    0.9671552    0.7488563  89.50  0.004670834    2.104    0.525
        31  -7.3677    236.3038    145.6850   7.1629030052e+01   4.7628757832e+00    0.1319627    0.1097215 -63.29 0.0006942732    1.620    0.383
        32  -8.9753     69.2658    145.2596   1.0959261550e+02   3.7014487026e+01    0.2186419   0.09391657  47.05 0.0009007345    2.425    0.588
        33  -7.5718    234.2884    132.3181   6.8957139600e+01   7.3560640930e+00    0.1435215    0.1053894   1.70 0.0006097825    1.595    0.373
        34  -7.4406    249.4425    128.4604   6.5595486514e+01   5.0224255716e+00    0.1381125       0.1211 -24.20   7.6308e-05    1.028    0.028
        35  -7.6771    203.4698    111.5354   6.9485374983e+01   1.7619882471e+01    0.1523787    0.1437293  -9.27   4.7808e-05    1.058    0.054
        36 -11.0507    166.7279     95.7483   7.2834529691e+01   2.9299704558e+01    0.5736565    0.3306554  41.40  0.002297121    1.850    0.460
        37  -8.4897    128.0196     90.9686   8.0967646856e+01   3.9238608436e+01    0.2215033    0.2170357 -10.84  0.001182762    1.019    0.019
        38 -12.0600    160.4328     82.4912   7.0434225068e+01   3.3366251927e+01    0.7657664     0.506547 -23.66  0.003239747    1.757    0.431
        39 -12.0640    144.3101     79.6427   7.3370379345e+01   3.7793612616e+01    0.6633949    0.5571033  47.50   0.00329517    1.195    0.163
        40 -10.0605    123.6160     82.4546   7.9620219045e+01   4.1956209151e+01    0.3661285    0.2727877  23.37  0.001683769    1.586    0.369
        41 -10.2955    132.8348     81.9341   7.6985134213e+01   4.0010819598e+01    0.3484992    0.2870102 -60.31 0.0009130632    1.349    0.259
        42 -10.3497     10.0011     75.3540   1.1553732944e+02   5.9283994290e+01    0.6640491    0.2571557 -69.34  0.003142249    2.156    0.536
        43 -10.1905      6.5206     68.2212   1.1546219912e+02   6.1052675721e+01    0.4591377    0.2247358  87.47   0.00201464    3.372    0.703
        44 -10.8718    138.8818     40.2582   6.1739004594e+01   4.5741004359e+01    0.6798697    0.5280913  59.93  0.003070861    1.277    0.217
        45 -11.3003    183.5703     77.6253   6.4186739569e+01   2.8516600145e+01    0.7113881    0.4876227  68.22  0.002706384    1.634    0.388
        46  -9.9055    190.2892    246.9423   9.8801959986e+01  -2.3908596444e+00    0.2862787    0.1405779 -38.14  0.001562654    2.506    0.601
        47 -10.6582    238.3515     70.8139   5.3556472796e+01   1.6491655117e+01     0.855545    0.1066324 -42.02  0.002046146    6.082    0.836
        48  -8.8718     93.3479     68.3062   8.4111720305e+01   5.0927810704e+01    0.1508047    0.1110337  -3.00 0.0004455712    1.701    0.412
        49 -11.6828     65.4676     63.1184   9.1943514971e+01   5.6550252636e+01    0.6462545    0.5476206 -51.80  0.003815927    1.214    0.177
        50  -8.6349    132.9923    199.0247   1.0300913565e+02   1.4926423613e+01    0.1895428    0.1658534  54.68 -0.003769674    1.025    0.025
        51 -11.1468    101.1791     71.4512   8.2680127725e+01   4.8814453745e+01    0.5530896    0.3732454 -12.58  0.002413927    2.022    0.506
        52 -10.6644    134.8159     68.3374   7.2191566165e+01   4.2149541670e+01    0.5223104    0.2598808 -27.00 0.0004810381    2.476    0.596
        53 -10.2554    135.8832     61.7859   6.9778390802e+01   4.3064837495e+01    0.3612281    0.3225293  13.96  0.001232206    1.172    0.146
        54 -10.7949     99.3760     38.2585   7.1343863607e+01   5.5059275120e+01     1.634543    0.2265734  43.83  0.003606846    7.689    0.870
        55  -9.9842    110.0574     70.3257   7.9639712318e+01   4.7255105505e+01    0.3425294    0.2339568  -9.04  0.001467559    2.034    0.508
        56 -10.7073     94.9760     53.0263   7.8296660214e+01   5.3507315125e+01     0.405004    0.2705576 -50.08  0.001293933    1.706    0.414
        57  -9.8555    248.5205    245.6179   8.8468530346e+01  -1.0778546995e+01    0.2197379    0.2056321 -33.20   0.00170158    1.817    0.449
        58 -10.6786     68.3055    249.2646   1.2106578766e+02   1.5567273137e+01    0.5335109    0.2148765  48.21  0.002982872    1.855    0.461
        59 -10.6075    128.1599     47.9270   6.6981589117e+01   4.7182939495e+01    0.3928986    0.2914284  -5.30  0.001564671    1.583    0.368
        60  -9.2828    172.0049     49.9884   5.8189125674e+01   3.5944995105e+01    0.2157196    0.2090899 -89.48  0.001192054    1.016    0.016
        61 -10.7575     29.8760    237.5133   1.2683065978e+02   2.2249978165e+01     0.466171     0.132723  45.76 0.0009688892    2.482    0.597
        62  -9.9107    216.5239     30.4885   4.6080873869e+01   2.7318418603e+01     0.281452    0.2441839 -17.65    0.0013174    1.337    0.252
        63  -8.0080    190.1592     36.8175   5.1258513930e+01   3.3124621691e+01    0.1901054    0.1685552  30.08 0.0006225093    1.284    0.221
        64 -10.6801    124.1834     67.4360   7.4692643181e+01   4.4755581157e+01    0.4356148    0.3410534 -40.75 0.0007959705    1.275    0.216
        65 -11.1784    188.1579    233.0673   9.7179458254e+01  -1.8597480426e-01    0.5105973    0.3187756 -10.72  0.002677783    2.380    0.580
        66 -11.2756     36.7231    242.4232   1.2596430000e+02   2.0612109108e+01    0.5594369    0.2111678  44.13  0.003218524    2.058    0.514
        67  -9.6295     91.9894    233.4784   1.1547898649e+02   1.5053931729e+01     0.185121   0.09679644  43.64  0.001029544    1.584    0.369
        68 -10.4593    182.0466    230.2171   9.7897284367e+01   1.2198398203e+00    0.3886457    0.2905855  86.34  0.002129065    2.484    0.597
        69  -7.5787    173.9986     33.9758   5.2920481311e+01   3.7658221031e+01     0.167651    0.1574281  75.74            0    1.010    0.010
        70  -8.8370    139.9623     29.0230   5.7571221482e+01   4.6969768391e+01    0.2095062    0.1961402  38.55 0.0003158835    1.023    0.022
        71  -9.1644     77.0453     24.9165   7.3094340924e+01   6.1334454011e+01     0.354239    0.1688553  35.16  0.001256529    2.149    0.535
        72  -7.9654    222.1465     22.1371   4.3337151935e+01   2.6974033466e+01    0.1846992    0.1365671 -64.31            0    1.267    0.210
        73 -11.2155    103.2812    234.3321   1.1344517129e+02   1.3240635039e+01     0.346275    0.2805109 -80.56  0.002391235    1.350    0.259
        74  -7.9818     84.9882     21.3014   6.8845938430e+01   6.0319951420e+01     0.177471    0.1556811  21.00 0.0003783549    1.067    0.063
        75  -8.3340     56.0087    220.0178   1.2103101098e+02   2.2439633297e+01    0.1754135    0.1267056  68.84            0    1.089    0.082
        76 -10.0915     75.0576     17.2956   7.0385288176e+01   6.2705424023e+01    0.2294161    0.1960009   7.42 0.0002794684    1.019    0.019
        77  -8.0353     15.1032     17.9034   9.7093743762e+01   7.0564589570e+01    0.1530798   0.09884768 -27.51            0    1.238    0.192
        78  -9.1277    119.4375    216.7193   1.0827165821e+02   1.3875971677e+01    0.2168257    0.1252894 -65.40 0.0009134216    2.050    0.512
        79  -9.2450    125.3338    214.1638   1.0674803366e+02   1.3379482476e+01    0.2425367    0.1114066 -47.80   0.00110643    2.639    0.621
        80 -10.7173    220.0221     35.0044   4.6841008836e+01   2.5888976381e+01    0.5563884    0.2318881 -51.36  0.002168986    2.539    0.606
        81  -7.9574    100.9356    215.0937   1.1179648362e+02   1.7105557306e+01    0.1476041    0.1324354  47.55 0.0009804082    1.204    0.170
        82  -8.0917     55.9980    214.8331   1.2061034228e+02   2.3449977302e+01    0.1505051    0.1153953  63.04            0    1.075    0.070
        83  -8.0489      6.3338    208.3105   1.2933762805e+02   3.0117513740e+01   0.09427132   0.07460909 -62.27 0.0007043531    1.677    0.404
        84  -8.6154     11.8489    206.8199   1.2827603248e+02   2.9897545661e+01    0.1618167   0.09360666  68.18 0.0007229674    1.341    0.254
        85  -7.5285     16.3432    204.9761   1.2735482272e+02   2.9832394089e+01    0.1718256   0.05010224 -57.95 0.0007049576    4.387    0.772
        86  -8.5143    121.9894    204.2387   1.0608767209e+02   1.5804633458e+01    0.1833234   0.09916002  42.09            0    1.636    0.389
        87  -9.9247    195.5135    200.5030   9.0431234468e+01   3.4347155137e+00    0.3271467    0.2557532  44.61  0.001159426    1.282    0.220
