#   1 NUMBER                 Running object number                                     
#   2 MAG_AUTO               Kron-like elliptical aperture magnitude                    [mag]
#   3 X_IMAGE                Object position along x                                    [pixel]
#   4 Y_IMAGE                Object position along y                                    [pixel]
#   5 X_WORLD                Barycenter position along world x axis                     [deg]
#   6 Y_WORLD                Barycenter position along world y axis                     [deg]
#   7 A_WORLD                Profile RMS along major axis (world units)                 [deg]
#   8 B_WORLD                Profile RMS along minor axis (world units)                 [deg]
#   9 THETA_WORLD            Position angle (CCW/world-x)                               [deg]
#  10 FWHM_WORLD             FWHM assuming a gaussian core                              [deg]
#  11 ELONGATION             A_IMAGE/B_IMAGE                                           
#  12 ELLIPTICITY            1 - B_IMAGE/A_IMAGE                                       
         1 -14.6053    161.7701     40.9228   8.1741760512e+01   3.9453632208e+01     1.320668    0.9834362 -11.72  0.003936304    1.472    0.320
         2 -14.1862    174.8855      7.7941   6.8964467704e+01   3.9829001384e+01      0.96983    0.9078852  53.38  0.003888985    1.049    0.047
         3  -9.9643    159.8450    248.1937   1.2822474181e+02   4.5139129487e+00    0.1427906    0.1173305  23.38 0.0006613376    1.322    0.244
         4 -19.8185     75.5681    188.3729   1.3658300875e+02   2.7352342639e+01     14.57611     5.665885 -66.10   0.06797514    2.590    0.614
         5 -10.3631    135.6584    196.3204   1.2567470155e+02   1.6441004732e+01    0.2154513    0.1726027  74.50 0.0007229798    1.342    0.255
         6 -13.8753    167.2458    191.3389   1.1869272612e+02   1.1650393945e+01    0.6086469    0.4835228  81.87  0.003454517    1.690    0.408
         7 -13.9082    174.8683    193.7035   1.1762925129e+02   9.8684506075e+00    0.6243117    0.4578267 -59.26  0.002835274    1.773    0.436
         8 -12.9010    180.2649    192.8110   1.1644660499e+02   9.0191692069e+00    0.3845726    0.3344328  83.13  0.001252318    1.495    0.331
         9 -13.6446    176.7091    188.2277   1.1632088720e+02   1.0408054870e+01    0.7879056    0.4108717 -60.12  0.003130754    3.523    0.716
        10 -13.5630    162.6390    201.4149   1.2123691221e+02   1.0842420807e+01    0.7536048    0.3711987 -59.53  0.003222818    3.266    0.694
        11 -14.1081    207.0132    179.5795   1.0898373330e+02   6.0628554065e+00    0.7917173    0.6599792  24.73  0.004124907    1.067    0.063
        12 -13.3695    196.7465    172.4888   1.0951145420e+02   9.1220584264e+00    0.7136449     0.388426 -43.87    0.0026449    2.063    0.515
        13 -10.1888    137.4145    243.1112   1.3143146120e+02   8.6972669967e+00     0.185367    0.1151103 -53.65 0.0006094677    2.029    0.507
        14 -11.3468    139.4615    249.7837   1.3182739987e+02   7.4516254734e+00    0.2234298    0.1709321  52.66  0.001096671    1.073    0.068
        15 -10.9212     28.4795    179.4555   1.4498089985e+02   3.4753387659e+01    0.2065597    0.1972419  85.13  0.001167042    1.407    0.289
        16  -9.9589     25.6069    185.1508   1.4598093915e+02   3.3908232523e+01    0.1489844    0.1084333 -89.45 0.0002874717    1.101    0.092
        17 -10.1988     25.2916    181.7477   1.4577693806e+02   3.4613775784e+01    0.1531231    0.1152818 -85.25 0.0001750324    1.134    0.118
        18 -10.6103    123.7543    185.0479   1.2635914522e+02   2.0543351861e+01    0.2354221    0.1620588  65.05 0.0007955545    1.544    0.352
        19 -12.0337      5.1723    177.9934   1.4928929826e+02   3.7197322324e+01    0.2870665    0.2118263  66.51  0.001243189    1.195    0.163
        20 -10.9141     36.2571    177.0787   1.4325187714e+02   3.4426910175e+01    0.3048143    0.1695143  22.26  0.001641747    2.951    0.661
        21 -11.0612    168.6985    175.4313   1.1556414477e+02   1.4072722858e+01    0.2007806    0.1210443  35.33 0.0005434496    1.648    0.393
        22 -13.1323    138.9421    172.5321   1.2115140047e+02   2.0223668378e+01    0.5359801    0.3768734 -81.45  0.001707184    1.957    0.489
        23 -10.0030     13.8704    239.9520   1.5119818611e+02   2.5202114890e+01    0.2420485   0.05443931 -79.56  0.001116479    4.405    0.773
        24 -12.7802    148.0271    173.0254   1.1934119661e+02   1.8442336738e+01    0.3597235    0.2676739  57.29   0.00125641    1.352    0.261
        25 -13.4561    144.1377    168.4426   1.1932319102e+02   2.0034933109e+01    0.5174263     0.368192  50.00  0.002084384    1.329    0.247
        26 -13.2792    178.1958    171.5919   1.1293810705e+02   1.2891093841e+01    0.5064099    0.3737886 -41.81   0.00273693    1.468    0.319
        27 -10.0342     10.8469    241.0194   1.5169114551e+02   2.5325281896e+01    0.1021969   0.05266836 -86.28 0.0004704163    1.640    0.390
        28  -9.9227     11.6619    174.0272   1.4779909088e+02   3.7428306667e+01    0.1419966   0.07477929 -68.22 0.0001681482    1.672    0.402
        29 -11.8444    123.4290    166.4610   1.2340474563e+02   2.4214112980e+01    0.3117809    0.2189841  67.78  0.001186412    1.608    0.378
        30  -9.8443    126.5533    237.8219   1.3270410927e+02   1.1143010146e+01    0.1335485    0.1118632 -64.08 0.0006644689    1.451    0.311
        31 -11.1693    223.8533    163.7735   1.0273656460e+02   5.2187016934e+00    0.2390932    0.1897865 -33.70 0.0004623246    1.331    0.249
        32 -11.3762    201.9927    165.7011   1.0714367477e+02   9.1781099811e+00    0.2406472    0.2006837 -64.66  0.001232132    1.627    0.386
        33 -10.2783    237.6590    159.3079   9.9397101899e+01   3.2512470255e+00    0.1233615    0.1091969 -72.64 0.0004392117    1.688    0.408
        34 -10.6585     13.4650    233.2656   1.5094723701e+02   2.6345338978e+01    0.1161417   0.07300988  87.33 0.0004304432    1.271    0.213
        35 -11.5010    164.5099    158.5047   1.1311415420e+02   1.7931088997e+01    0.2641839    0.1266536  35.68  0.001036769    2.318    0.569
        36 -10.5509     22.9661    156.1245   1.4404260995e+02   4.0098900281e+01     0.171756    0.1361417 -86.35 0.0005407115    1.057    0.054
        37 -13.9832    134.0902    145.7142   1.1711154754e+02   2.6446531197e+01     1.267159    0.3660004 -54.17  0.003609366    4.655    0.785
        38  -9.7868    182.6927    149.3283   1.0743409434e+02   1.5865593406e+01    0.1414077    0.1165409 -84.95 0.0003511158    1.657    0.396
        39 -11.6018    174.6858    148.9463   1.0898514157e+02   1.7604005639e+01     0.273283    0.2472715  43.81 0.0007632462    1.079    0.073
        40 -12.5142    151.8809    144.9918   1.1298548440e+02   2.3061038527e+01    0.3566584    0.2630368  -9.32  0.001666929    1.920    0.479
        41 -12.3272    133.7988    247.5237   1.3253043811e+02   8.6273439030e+00    0.1766203    0.1505904  58.36 0.0003074494    1.127    0.113
        42 -14.2147    143.5207    143.5133   1.1452289394e+02   2.5040594329e+01    0.9794942    0.5099593 -60.74  0.003762979    2.664    0.625
        43 -13.9168    136.0992    127.4518   1.1265248183e+02   2.9811425651e+01       1.9596    0.3079989 -48.31  0.004197204    7.324    0.863
        44  -9.9122      1.7399    140.0100   1.4718565389e+02   4.5242516171e+01    0.1518835    0.1093462 -83.97 0.0003354569    1.037    0.036
        45 -11.4098      8.2680    138.0557   1.4556014212e+02   4.5179460167e+01     0.254753     0.209906 -22.42  0.001194339    1.811    0.448
        46 -11.5036     29.0944    227.4031   1.4820529050e+02   2.5741521956e+01    0.1562455    0.1081617  84.72 0.0003757702    1.172    0.147
        47 -10.6987     25.2129    225.1161   1.4869329424e+02   2.6543862697e+01    0.2179263    0.1038537 -67.73   0.00127075    2.119    0.528
        48 -10.0110    219.4689    224.4661   1.1471759132e+02  -2.1117111780e+00    0.1191823   0.09524741  26.34 5.629929e-05    1.044    0.042
        49 -12.2728    160.6667    128.2898   1.0725785589e+02   2.4484094598e+01    0.3644074    0.3292436 -49.19  0.001961736    1.140    0.123
        50 -10.0869    218.2727    218.6620   1.1397752256e+02  -1.2233743913e+00    0.1032799   0.09506394  69.44 0.0003167644    1.605    0.377
        51 -12.4549    114.5165    118.1306   1.1573513241e+02   3.5994874170e+01    0.3569795    0.2357788  47.92 0.0005074382    1.571    0.363
        52 -11.4534    125.1524    244.4980   1.3366423271e+02   1.0369237417e+01    0.3205996    0.1394714 -56.45  0.001593259    2.868    0.651
        53 -11.5351    153.1580    194.2120   1.2191435203e+02   1.3727286548e+01    0.2270591    0.1877266  59.51 0.0003976094    1.200    0.166
        54 -12.2345    168.8702    202.6723   1.2025714568e+02   9.5340054864e+00    0.2598965    0.1997992  49.66 0.0002341778    1.205    0.170
        55 -10.5459    205.5218    110.1965   9.3645600760e+01   1.7677322739e+01    0.2708842    0.2100345  46.88 0.0006664046    1.311    0.237
        56 -13.7654    154.9373    189.2172   1.2074632454e+02   1.4261363811e+01     0.554693    0.4369322 -62.47  0.003245392    1.498    0.332
        57 -10.5375    157.4989    106.1506   1.0236504476e+02   2.9485566843e+01    0.3136804    0.2082744  69.60  0.001301159    2.056    0.514
        58 -12.3219    156.5868    199.2694   1.2205533461e+02   1.2267829069e+01    0.3192745     0.208821 -62.61  0.001229365    2.019    0.505
        59 -12.8832     11.8167    205.9014   1.4979460015e+02   3.1295440547e+01    0.3771679    0.2803755  27.59  0.002668074    2.003    0.501
        60 -10.4965    150.8873    245.9527   1.2946977787e+02   6.2097860318e+00    0.1599425    0.1299821  47.13 0.0003886041    1.051    0.049
        61 -10.3191     22.1228    245.5559   1.5024224938e+02   2.3462133155e+01   0.09184108   0.04533253  83.66 0.0006242601    1.729    0.422
        62 -11.6336    139.6668    199.4400   1.2535559571e+02   1.5205478093e+01    0.4157985    0.2000651  48.98    0.0019878    1.874    0.466
        63 -14.1363    150.7222     55.5554   8.8777347808e+01   4.0089794977e+01     1.064374     0.830743   2.73  0.001049768    1.470    0.320
        64 -12.1841    168.2659    246.0119   1.2653641812e+02   3.4732121099e+00    0.2707339    0.2009475 -60.64  0.001629792    1.893    0.472
        65 -12.6320    165.5052     32.5530   7.8330128271e+01   3.9579890395e+01    0.4219752    0.3472385  18.17 0.0008973599    1.319    0.242
        66 -10.8474     13.5193     59.9480   1.3239982923e+02   6.1732077903e+01    0.1758428     0.157594  66.99  0.000495075    1.435    0.303
