#   1 NUMBER                 Running object number                                     
#   2 MAG_AUTO               Kron-like elliptical aperture magnitude                    [mag]
#   3 X_IMAGE                Object position along x                                    [pixel]
#   4 Y_IMAGE                Object position along y                                    [pixel]
#   5 X_WORLD                Barycenter position along world x axis                     [deg]
#   6 Y_WORLD                Barycenter position along world y axis                     [deg]
#   7 A_WORLD                Profile RMS along major axis (world units)                 [deg]
#   8 B_WORLD                Profile RMS along minor axis (world units)                 [deg]
#   9 THETA_WORLD            Position angle (CCW/world-x)                               [deg]
#  10 FWHM_WORLD             FWHM assuming a gaussian core                              [deg]
#  11 ELONGATION             A_IMAGE/B_IMAGE                                           
#  12 ELLIPTICITY            1 - B_IMAGE/A_IMAGE                                       
         1 -13.3524    205.5241     34.5437   5.5049861833e+01   2.8934027550e+01     1.247974     1.172545  56.08  0.006155629    1.085    0.079
         2 -13.4922      5.1071     11.1840   1.0681200155e+02   7.2576012466e+01     1.674639    0.4272872 -53.33  0.007623182    2.640    0.621
         3 -13.8045    223.1550     15.9881   4.7753975890e+01   2.6559820124e+01     1.127284    0.9097745  33.14  0.001889066    1.435    0.303
         4 -11.9385    179.5168    243.6872   1.0500292385e+02   3.6689771509e+00    0.2750932    0.2113948  38.97  0.001800855    1.070    0.065
         5 -11.9701    176.1885    249.9215   1.0628866511e+02   3.4676259581e+00    0.6540601     0.164423  37.31  0.002645385    3.616    0.723
         6 -11.5887    169.1104    249.0406   1.0734355586e+02   4.6185143072e+00    0.4186222    0.2209149  21.38    0.0021739    2.977    0.664
         7 -11.3497    142.9653    249.1033   1.1165437017e+02   8.4738039454e+00    0.3623591    0.1667017  53.44  0.002065876    2.030    0.507
         8  -9.4339    123.4506    229.4951   1.1295994120e+02   1.4010240776e+01    0.1540879    0.1254407  53.35 0.0001538083    1.073    0.068
         9 -12.5171    124.8542    240.3803   1.1381431225e+02   1.2263121334e+01    0.5673111    0.3609994  24.68  0.003515288    2.143    0.533
        10 -12.2896    119.1416    237.3636   1.1449362120e+02   1.3512301758e+01     0.577992    0.4433116  -5.72  0.003420203    2.470    0.595
        11 -10.9996    116.0800    250.2334   1.1618864541e+02   1.2174342528e+01    0.4882659    0.1951417  41.83  0.002383664    1.873    0.466
        12 -13.1599    123.7665    248.7177   1.1478796377e+02   1.1293843027e+01     1.329215    0.2743955  43.07  0.005559796    3.389    0.705
        13 -11.1225     98.9958    247.0299   1.1872385388e+02   1.4959069723e+01    0.4012272    0.1523788  46.06  0.002300991    1.880    0.468
        14  -9.8001     81.6247    248.2183   1.2164231297e+02   1.7068404252e+01    0.2194374   0.09549155 -69.69  0.001303738    2.775    0.640
        15 -10.3418     84.0601    230.1926   1.1988398647e+02   1.9457512429e+01    0.3412417    0.1663439 -74.57  0.002053991    2.456    0.593
        16 -11.5351     87.5565    248.3629   1.2069302739e+02   1.6283865104e+01    0.4369396    0.2572517  51.66  0.001629075    1.214    0.176
        17 -11.6224     82.6021    239.9167   1.2088253539e+02   1.8162095799e+01    0.4228676    0.1736294  53.81 0.0009588723    1.920    0.479
        18 -10.9231     91.0039    241.7064   1.1962264762e+02   1.6794088321e+01    0.3004783    0.1734898  38.32  0.001323048    1.607    0.378
        19 -11.7717     88.2246    237.9086   1.1978902217e+02   1.7725749248e+01    0.4124709    0.2190614  56.82  0.002027911    1.508    0.337
        20 -11.5766     68.3326    245.6050   1.2360826732e+02   1.9111207536e+01    0.4658907    0.2285793  37.57  0.001700269    1.944    0.485
        21 -11.2269     48.5953    216.2570   1.2502328711e+02   2.6134549457e+01    0.6009274    0.2232313  63.39   0.00262355    2.693    0.629
        22 -14.0175      9.0213    210.5112   1.3148568212e+02   3.1192799290e+01     2.132637    0.8331575 -89.56   0.01309203    2.256    0.557
        23 -12.2030    103.3197    230.3556   1.1656309996e+02   1.6800041428e+01    0.5814818     0.322472  32.70  0.002529945    2.020    0.505
        24 -11.8381    135.8252    241.0261   1.1202119335e+02   1.0567142626e+01    0.3297988    0.2371504 -20.09  0.002151537    2.500    0.600
        25 -11.6807    133.7595    232.7034   1.1150004597e+02   1.2010015376e+01    0.2373518    0.2104257 -47.06  0.001856971    1.511    0.338
        26 -10.7581    110.1099    247.7910   1.1695837543e+02   1.3335185270e+01    0.2787398    0.1828833  47.13  0.001811929    1.130    0.115
        27  -8.9155     53.6816    241.0208   1.2568268422e+02   2.1546718280e+01    0.1349728    0.1007238  73.29 0.0005594695    1.163    0.140
        28  -9.7701    100.3463    250.3100   1.1876437612e+02   1.4319146365e+01    0.2056966    0.1013397  35.29  0.001234357    2.047    0.512
        29 -10.5862     74.0467    236.4062   1.2205171471e+02   1.9789510101e+01    0.2766794    0.1396615 -63.07 0.0005761439    2.369    0.578
        30 -14.8374     25.7931    219.3430   1.2908627145e+02   2.8074988739e+01     1.180281     1.063159   3.45   0.00995832    2.032    0.508
        31 -10.7626     97.3398    239.3547   1.1837281684e+02   1.6287030152e+01    0.2554076    0.1479417  55.14 0.0009285256    1.340    0.254
        32 -10.7148    244.6063    241.1991   9.4282496954e+01  -5.6236686154e+00    0.1393473   0.08493406  -4.85 0.0009583351    1.729    0.422
        33  -9.4967     55.1196    235.5482   1.2512683772e+02   2.2226513685e+01     0.221687   0.09298109  56.60  0.001218006    1.832    0.454
        34 -11.0544    113.5600    230.8186   1.1482284503e+02   1.5267575313e+01    0.2156162    0.1851307 -73.60  0.001214289    1.426    0.299
        35 -11.9486    150.2163    247.5047   1.1028899331e+02   7.6064107720e+00    0.2971445    0.2851094  24.53    0.0022874    1.336    0.252
        36 -10.1513    153.8762    229.9625   1.0769178494e+02   9.2999841323e+00    0.1694718    0.1341005  44.26 0.0003890895    1.038    0.037
        37  -9.4515     56.5868    228.4993   1.2444352843e+02   2.3173864086e+01     0.208319    0.0897881 -81.70  0.001212776    2.589    0.614
        38 -10.9872     79.2139    225.5584   1.2035232199e+02   2.0828013364e+01    0.2756721    0.2025685 -87.33  0.001466606    1.405    0.288
        39 -11.4440     89.6402    225.1750   1.1849481371e+02   1.9498329304e+01    0.4190841    0.2567754  48.48  0.002830398    1.263    0.208
        40  -9.5662     90.8980    220.0876   1.1782177678e+02   2.0140958451e+01    0.1806688    0.1279601  76.35   0.00042256    1.363    0.267
        41  -9.9205    136.1169    224.3613   1.1016148768e+02   1.2834524824e+01    0.1928454    0.1311605 -35.65 0.0006850201    2.167    0.539
        42 -12.6249    103.4451    238.5062   1.1726986905e+02   1.5572391615e+01    0.5544158    0.4393157  61.41   0.00219823    1.108    0.098
        43  -9.3831     64.9408    224.2526   1.2273045905e+02   2.2853356217e+01    0.2138485    0.1108962 -50.30  0.001221841    3.172    0.685
        44  -8.9595     45.8044    225.2076   1.2605443375e+02   2.4956059133e+01    0.1205868    0.1008762  71.32 0.0004523399    1.255    0.203
        45  -9.8727     99.0040    223.9782   1.1673268258e+02   1.8391295080e+01    0.1716442    0.1341995  54.27 0.0006805999    1.060    0.057
        46 -10.1750    245.6839    220.5349   9.1009855436e+01  -3.8941764432e+00    0.1800141   0.09443659 -25.58   0.00110153    2.083    0.520
        47  -9.2281     77.0638    220.6909   1.2033838254e+02   2.1898427646e+01    0.1530594    0.1085367  53.26  0.000343566    1.112    0.101
        48 -10.3640     70.9728    219.0833   1.2128906902e+02   2.2949122561e+01    0.3702952     0.198239  67.94  0.002287505    1.778    0.438
        49  -8.8296     60.2325    220.5638   1.2328550236e+02   2.4037164774e+01    0.1277815   0.08886022  40.55 0.0003004546    1.470    0.320
        50  -9.9828    107.7604    217.0992   1.1448354158e+02   1.8222169293e+01    0.4039411    0.1516756  56.21  0.001670405    2.978    0.664
        51  -9.9715    116.7024    215.9961   1.1273217688e+02   1.7066356333e+01    0.2743242    0.1811547  26.47  0.001165612    1.943    0.485
        52  -9.5169     87.0007    211.7580   1.1776619563e+02   2.2054390077e+01    0.2809021    0.1635315  67.28  0.001478902    1.685    0.406
        53 -10.6848     63.6739    208.3940   1.2176352224e+02   2.5689908364e+01    0.3841959    0.3112874   4.17  0.002607954    2.289    0.563
        54  -9.1073     58.5289    212.5072   1.2300840114e+02   2.5607077562e+01    0.1670582    0.1225544  61.92  3.34949e-05    1.034    0.033
        55 -10.3115     55.9877    209.1008   1.2321644210e+02   2.6503180104e+01    0.3615678    0.1688202 -76.92  0.002141354    2.193    0.544
        56  -9.6226     99.2301    209.7457   1.1530118589e+02   2.0667037670e+01    0.2445235    0.1334012  66.68 0.0009309404    2.040    0.510
        57  -9.9674    141.6391    219.6286   1.0861612803e+02   1.2657804417e+01    0.2554282    0.1816401 -46.50  0.001694561    1.803    0.445
        58  -8.8801    110.7069    211.3410   1.1333127577e+02   1.8713417460e+01    0.1195733   0.07566925  67.37  0.000426033    1.654    0.395
        59  -9.5209    106.8573    203.4517   1.1318450388e+02   2.0602939452e+01    0.1809742    0.1425521  87.52 0.0005650794    1.332    0.249
        60 -10.0650     44.1193    200.0914   1.2474281491e+02   2.9482154636e+01    0.2766296    0.2408238  63.13  0.001636331    1.281    0.219
        61  -9.0703     74.2786    199.9478   1.1905923395e+02   2.5827529824e+01    0.1499105    0.1233273  82.01 0.0003090209    1.146    0.127
        62  -9.1539     96.9331    199.2577   1.1462976084e+02   2.2798747699e+01    0.1604639    0.1260168  53.25 0.0002085014    1.081    0.075
        63  -9.3245     52.9749    198.0661   1.2294266402e+02   2.8831896540e+01    0.1510193    0.1365396 -34.96  0.001139912    1.778    0.438
        64  -9.8737    249.7674    193.9958   8.5939077713e+01  -1.8337320742e+00    0.2254566    0.1234752  27.15  0.001286616    1.604    0.377
        65 -11.7490     51.7842    192.9362   1.2276756450e+02   2.9917151881e+01    0.3543745    0.2271343  42.54 0.0005534251    1.485    0.326
        66  -9.1915     51.3237    188.7141   1.2251701344e+02   3.0762484887e+01    0.1367538    0.1001788  38.76 0.0002707987    1.495    0.331
        67  -9.9637     30.5746    193.2267   1.2679955083e+02   3.2195041383e+01    0.1470268    0.1107548  49.35 0.0005311845    1.315    0.240
        68  -9.2991     25.8239    192.6886   1.2764780254e+02   3.2774786280e+01    0.1896568    0.1251709  64.80  0.001391616    1.154    0.134
        69  -9.0676     21.9427    193.0677   1.2838438792e+02   3.3085891903e+01    0.1474913     0.116259  80.71 0.0004038817    1.152    0.132
        70  -9.7876     19.1434    188.6692   1.2865435686e+02   3.4169524576e+01    0.2787448    0.1164229 -88.45 0.0009657478    2.168    0.539
        71  -9.3718    191.7026    191.6979   9.5433475004e+01   8.2171873285e+00    0.1552049    0.1364967  53.75 0.0005869278    1.302    0.232
        72 -10.0265    250.5517    187.7753   8.4703558586e+01  -1.2892514060e+00    0.2196776    0.1060958 -20.68  0.001142549    2.175    0.540
        73 -10.4081      9.9367    187.0626   1.3027060914e+02   3.5309829073e+01    0.2465699    0.1147466  86.02  0.001544575    1.802    0.445
        74 -10.5963     70.9563    187.0593   1.1848198157e+02   2.8639250074e+01     0.236136    0.1420141  44.14 0.0003327788    1.491    0.329
        75 -11.8584     58.8848    185.1172   1.2071455821e+02   3.0540610068e+01     0.218378     0.192079  80.59 0.0004102882    1.192    0.161
        76  -8.6798    107.4608    185.5298   1.1091578636e+02   2.3666200753e+01     0.124333    0.1044723  60.34 9.220652e-05    1.001    0.001
        77  -9.3194     29.4680    184.0762   1.2641854178e+02   3.4027109537e+01    0.2043932    0.1556915 -37.76  0.001218161    2.249    0.555
        78  -9.7596     37.0172    180.2201   1.2466852302e+02   3.3986639038e+01     0.196193    0.1385095 -79.25  0.000766744    1.319    0.242
        79  -9.1015     27.0785    179.4083   1.2657190955e+02   3.5162285903e+01    0.1736823    0.1216614 -77.40 0.0006471135    1.354    0.261
        80  -9.6217     80.9157    178.7026   1.1556109782e+02   2.8889126715e+01     0.178396    0.1612704 -52.35 0.0003079057    1.433    0.302
        81 -14.8544     15.0873    242.3523   1.3174696460e+02   2.5443282872e+01     2.749964    0.8678882  41.55   0.01731205    2.331    0.571
        82  -8.8307    111.5325    177.5607   1.0901390954e+02   2.4490043148e+01     0.127115    0.1085796  59.92 0.0001606006    1.006    0.006
        83 -11.5634    248.7390    172.2564   8.2097070474e+01   7.5429041792e-01    0.4273815    0.2945654   5.10  0.002582968    1.366    0.268
        84 -10.8085     70.5444    173.1805   1.1712446811e+02   3.1382169535e+01    0.2101631    0.1836378  68.81 0.0004017093    1.113    0.101
        85 -10.4195     55.1573    172.3454   1.2028730890e+02   3.3488937766e+01    0.2376479    0.1694885  67.81 0.0006407545    1.186    0.157
        86  -9.2876     51.6390    171.2644   1.2092392989e+02   3.4122001365e+01     0.194481    0.1250885  65.24 0.0004601558    1.358    0.264
        87 -11.1163     12.3662    171.8297   1.2899116684e+02   3.8002559523e+01     1.113843    0.1745741  55.48  0.003667467    6.508    0.846
        88 -11.5016     12.1974    167.1939   1.2875054081e+02   3.8928405642e+01    0.4026468    0.1959948  30.76  0.002455338    2.357    0.576
        89 -11.3653      9.5094    164.5046   1.2913286220e+02   3.9688912919e+01    0.4213433    0.1817999 -50.89  0.002137234    3.541    0.718
        90 -11.1274      2.3956    171.4471   1.3091780955e+02   3.8908446246e+01    0.4488115    0.1605021  84.51  0.002189874    2.570    0.611
        91 -11.8836     38.9879    167.9366   1.2328639758e+02   3.6206111938e+01    0.2557785    0.2090026 -67.66 0.0004240398    1.383    0.277
        92  -9.6131     91.6290    168.5086   1.1202937575e+02   2.9336476374e+01    0.2181655    0.1542147  47.92 0.0006146416    1.287    0.223
        93 -11.9336     78.6558    165.1142   1.1443004211e+02   3.1896900130e+01    0.4811495    0.3763275  47.72  0.002725622    1.238    0.192
        94  -9.8496     68.1139    166.1325   1.1686036941e+02   3.3117054440e+01    0.1821294    0.1473133  76.50 0.0004673636    1.047    0.045
        95 -11.7334    245.5844    162.2319   8.0638912465e+01   2.4906545470e+00    0.3128208    0.2235171  12.49   0.00186347    1.295    0.228
        96 -11.2758    249.5670    161.2769   7.9812872386e+01   1.9139508641e+00    0.3255435    0.2039574 -30.64  0.001843288    1.620    0.383
        97  -9.7860     27.0413    171.9455   1.2606430333e+02   3.6625413589e+01     0.175899    0.1365354 -83.55   0.00035511    1.213    0.176
        98  -9.7231     17.9479    172.1932   1.2790724107e+02   3.7434757270e+01    0.1755206    0.1101853  67.10  0.001153316    1.273    0.215
        99 -10.3387     24.0714    162.0527   1.2595804391e+02   3.8892736416e+01    0.1544376    0.1305015 -81.89 0.0004946256    1.249    0.199
       100  -9.1086     66.9282    161.1114   1.1654146055e+02   3.4299624455e+01    0.1648653    0.1439836 -36.46 0.0003566188    1.599    0.375
       101 -10.7742     82.1627    157.4982   1.1265674193e+02   3.2958473015e+01    0.3270716    0.2398239  62.14  0.001468032    1.256    0.204
       102 -11.4642     12.2880    153.4819   1.2785400160e+02   4.1683143776e+01    0.2747123    0.1645777 -85.91  0.001172038    1.338    0.252
       103  -8.8000     91.6902    156.2935   1.1031974377e+02   3.1794134367e+01    0.1327714   0.08927657  70.95 0.0001524059    1.588    0.370
       104  -8.6110    228.4185    155.4695   8.2109260044e+01   6.4654538869e+00    0.1307651    0.1143818  10.72 0.0001465036    1.040    0.039
       105 -10.6567     25.7066    155.0471   1.2506333256e+02   4.0175303759e+01    0.1954186    0.1612978  44.21 0.0007436824    1.382    0.277
       106  -9.0724     47.2767    154.3021   1.2019628449e+02   3.8105983435e+01    0.1067094   0.08611759 -51.62            0    1.542    0.351
       107 -10.3486     32.3101    153.6193   1.2348654870e+02   3.9834164645e+01    0.2046406    0.1639363  87.74 0.0003358652    1.059    0.056
       108 -11.5444    249.4799    150.9986   7.7733380060e+01   3.1877485581e+00    0.4417339    0.2637776 -30.89  0.002390811    1.650    0.394
       109 -13.1323    248.5136    101.6531   6.6849323189e+01   9.8292097167e+00     1.227137     0.706184 -17.24  0.005786115    1.795    0.443
       110 -12.4188    247.6537    112.8913   6.9621106314e+01   8.4918406639e+00     1.303741    0.6971354  16.90  0.005134767    3.015    0.668
       111 -13.1904    248.1789    134.4485   7.4409725587e+01   5.5336733424e+00      1.41323    0.5164154 -25.83  0.005554893    2.808    0.644
       112 -10.6453     93.1263    149.9993   1.0904357312e+02   3.2877102025e+01    0.2725354    0.2516869  39.58 0.0008525358    1.233    0.189
       113 -10.7805     23.4677    149.7482   1.2512526352e+02   4.1485465373e+01    0.2864496    0.1664834  51.00  0.001684869    1.591    0.371
       114  -8.6081     47.6588    150.3179   1.1968620016e+02   3.8904285832e+01    0.1293187   0.07494963  68.43 0.0007049163    1.713    0.416
       115 -10.1154     81.0867    148.3880   1.1162692051e+02   3.5020999949e+01    0.2312648    0.1925081  70.52 0.0008827121    1.087    0.080
       116 -11.8459     68.2829    143.8939   1.1403913539e+02   3.7755749001e+01    0.6235014    0.3604356  74.02  0.002574801    2.059    0.514
       117  -9.0906     96.5392    146.0247   1.0761083630e+02   3.3172069013e+01    0.1869984    0.1253666 -60.91 0.0003835933    1.498    0.332
       118 -12.8568      7.8607    143.7217   1.2815237964e+02   4.4054364295e+01    0.6128685    0.4088834  43.98   0.00434765    1.549    0.354
       119 -10.0222    133.0887    141.0338   9.8171348460e+01   2.7769859991e+01    0.3056591    0.2016428 -59.00  0.001014309    1.684    0.406
       120  -9.2501     54.2581    151.6217   1.1831146379e+02   3.7863838625e+01    0.2457176    0.1488471 -42.34 0.0008051423    2.425    0.588
       121  -9.8664    106.8412    135.5995   1.0331887713e+02   3.3661847701e+01    0.3562634    0.2459413 -15.21  0.001562671    2.749    0.636
       122 -11.8597      3.3163    133.2396   1.2845219669e+02   4.6588879563e+01    0.3574584    0.1891361 -88.83  0.001351105    1.515    0.340
       123 -12.5510      2.0337    121.7938   1.2790745763e+02   4.9116018344e+01    0.8296221    0.2253989 -83.54  0.003377779    3.476    0.712
       124  -9.0636     93.5351    133.2292   1.0616106812e+02   3.6377742010e+01    0.1698481    0.1232941 -49.07 0.0003506877    1.468    0.319
       125  -9.9710     44.2731    130.0024   1.1812882663e+02   4.3684555619e+01    0.1733837    0.1352076 -83.67 0.0005259059    1.088    0.081
       126  -9.2262     58.8116    127.8185   1.1410813129e+02   4.2492104290e+01    0.1735109    0.1305428  78.95 0.0004160018    1.287    0.223
       127  -9.3343    235.8662    146.1097   7.8902364251e+01   6.3187878168e+00     0.183824    0.1388441  12.29 0.0005179061    1.264    0.209
       128 -12.2713     16.0072    120.6324   1.2428653750e+02   4.8369713686e+01    0.4476806    0.2050841  86.03  0.001813862    2.230    0.552
       129  -9.1797     41.3144    123.0487   1.1799583126e+02   4.5542270322e+01    0.1684957    0.1366104 -83.48 0.0006222341    1.033    0.032
       130  -9.6135     30.3170    119.3267   1.2041928957e+02   4.7447668436e+01    0.1182976   0.08043111 -47.87 0.0007045211    1.675    0.403
       131 -10.8765    232.0925    116.6150   7.2912437360e+01   1.1152692484e+01    0.2608981    0.2291363 -35.41 0.0008863229    1.215    0.177
       132 -12.4411      8.9223    113.8625   1.2546773017e+02   5.0374634836e+01    0.3963037    0.2003644 -80.71  0.002296214    1.593    0.372
       133 -13.0014      2.6613    107.3171   1.2651808609e+02   5.2217150050e+01     1.043475    0.1917522 -74.17  0.003901253    3.885    0.743
       134 -13.2418     12.2610    102.7429   1.2340377296e+02   5.2599111275e+01    0.8053353    0.3897494 -52.78  0.004466277    1.998    0.500
       135  -9.7185     29.6269    108.2113   1.1919218283e+02   4.9999441077e+01    0.1742447   0.08872303 -61.58 0.0004407412    1.652    0.395
       136  -9.2441    167.9886    113.0162   8.4053280254e+01   2.5871878235e+01    0.2471496    0.1895803 -84.28  0.001137414    1.850    0.459
       137  -8.4690     71.7165    100.3073   1.0565763460e+02   4.6984761110e+01    0.1333959   0.09918052  82.85 0.0003585929    1.564    0.360
       138 -12.1261    248.2580    142.5250   7.6143079528e+01   4.4773709346e+00    0.5889093    0.4060623  17.15  0.003293562    1.441    0.306
       139 -10.5341    249.7229    117.9202   7.0472188886e+01   7.4110751287e+00     0.404297    0.2613069  -3.96  0.001481837    1.710    0.415
       140  -8.6286     29.3350     83.2560   1.1541611948e+02   5.5663539664e+01    0.1181509    0.0818917 -39.91 0.0005029847    1.569    0.363
       141 -12.2852      2.8242     77.4801   1.2317464863e+02   5.8788842470e+01    0.5915491    0.1266296 -68.23  0.002431538    3.027    0.670
       142  -9.4183    161.3176     79.6826   7.6456670126e+01   3.3468677217e+01    0.1567431     0.121943 -73.62 0.0006802045    1.655    0.396
       143 -11.4594      2.3247     63.0354   1.2124751706e+02   6.1993786488e+01    0.4346249   0.09870302 -74.44  0.001528911    4.234    0.764
       144 -10.6062     74.1339    244.3729   1.2259016630e+02   1.8576704503e+01    0.2443332    0.2204427  77.52    0.0021567    1.394    0.283
       145 -11.1969    198.2550    245.7614   1.0220148747e+02   6.3565249886e-01    0.2369027    0.1146653  34.39  0.001123814    1.605    0.377
