#   1 NUMBER                 Running object number                                     
#   2 MAG_AUTO               Kron-like elliptical aperture magnitude                    [mag]
#   3 X_IMAGE                Object position along x                                    [pixel]
#   4 Y_IMAGE                Object position along y                                    [pixel]
#   5 X_WORLD                Barycenter position along world x axis                     [deg]
#   6 Y_WORLD                Barycenter position along world y axis                     [deg]
#   7 A_WORLD                Profile RMS along major axis (world units)                 [deg]
#   8 B_WORLD                Profile RMS along minor axis (world units)                 [deg]
#   9 THETA_WORLD            Position angle (CCW/world-x)                               [deg]
#  10 FWHM_WORLD             FWHM assuming a gaussian core                              [deg]
#  11 ELONGATION             A_IMAGE/B_IMAGE                                           
#  12 ELLIPTICITY            1 - B_IMAGE/A_IMAGE                                       
         1 -14.8072    152.8837     50.8381   8.6080386538e+01   4.1046062094e+01     1.224728     1.171426 -43.24  0.003456501    1.072    0.067
         2 -14.9774    162.3516     20.9865   7.4280644261e+01   4.2584591121e+01     1.147258     1.012879  77.14  0.004275704    1.095    0.086
         3 -13.3847    189.6139     13.5250   6.8017868982e+01   3.6177263659e+01    0.5414104    0.4056605 -43.28  0.001974895    1.353    0.261
         4 -12.6767      8.7713     24.3705   1.2613128637e+02   7.0078951014e+01     0.348196    0.1922504  -5.95 0.0008577819    2.183    0.542
         5 -11.4830    189.9100    250.0701   1.2234792438e+02  -1.1344539229e+00    0.3435807    0.1313627  43.38 0.0007330363    2.000    0.500
         6 -20.6266     90.3924    184.3963   1.3277423189e+02   2.6167686768e+01      13.6984     6.520339 -65.49   0.06597291    2.164    0.538
         7 -13.8192    237.1282    174.5754   1.0150264125e+02   6.7573897964e-01    0.4554747    0.3917089  71.03  0.002723517    1.689    0.408
         8 -12.6334    196.0922    174.4923   1.0901890366e+02   8.5305431948e+00    0.5031953    0.4057508 -72.14  0.002238397    1.745    0.427
         9 -13.4158    193.1191    165.5167   1.0781597960e+02   1.0634217686e+01     0.459468    0.3733115 -31.74  0.001030195    1.312    0.238
        10 -13.8459    190.2962    161.0289   1.0745792670e+02   1.1991169085e+01     1.093324    0.5393624 -39.89  0.002831645    2.161    0.537
        11 -13.5478    229.9063    168.2553   1.0148968816e+02   2.9237905419e+00    0.5383239    0.3204097 -33.18  0.002726171    1.705    0.413
        12 -10.5365     39.4960    250.7306   1.4773182772e+02   2.0706034040e+01    0.1012426    0.0639402  58.67 0.0007608113    1.128    0.114
        13 -10.9551     27.6099    228.7875   1.4848060573e+02   2.5758970157e+01    0.1372334   0.08775097  82.88  0.001015958    1.235    0.190
        14 -10.9290    176.9227    154.9558   1.0892573120e+02   1.5889820957e+01    0.2148602    0.2015229  58.13 0.0005086706    1.082    0.076
        15 -12.8666    173.6369    148.5772   1.0825788066e+02   1.7790357703e+01    0.4748865    0.3942071  70.38   0.00159571    1.356    0.262
        16 -12.6718     27.7747    145.5982   1.4233665858e+02   4.2491943752e+01    0.4317299    0.2373448 -76.63  0.002490971    1.493    0.330
        17 -10.8744    249.0000    228.0110   1.0915311557e+02  -7.8476054314e+00    0.1634032   0.06109013 -30.80 0.0008004183    2.928    0.659
        18 -12.2861    173.5118    139.5685   1.0628966769e+02   1.9544534638e+01    0.2661562    0.2610032  55.15 0.0006169139    1.029    0.028
        19 -10.0892     13.4834    137.4207   1.4492330934e+02   4.5541364736e+01    0.1152962   0.08939628 -85.61 7.777497e-05    1.038    0.036
        20 -10.3566     32.6321    250.4772   1.4878154263e+02   2.1528977556e+01    0.1012646   0.06727606  68.78 0.0001866871    1.036    0.035
        21 -10.3343    207.6189    226.2796   1.1588501048e+02  -1.0926497282e+00    0.1471734    0.1090595 -13.88 0.0005730154    1.562    0.360
        22 -13.6710    160.6312    128.1497   1.0647365311e+02   2.4666506842e+01    0.6369201    0.5060535  34.90  0.002395862    1.322    0.244
        23 -10.6528     17.3830    131.0235   1.4335566888e+02   4.6649997671e+01    0.1832468    0.1524493 -42.91 0.0008659431    1.534    0.348
        24 -11.3594    207.6079    221.3667   1.1511943576e+02  -4.6481495266e-01    0.1969047    0.1793541  -5.81 0.0009051426    1.244    0.196
        25 -11.2695     11.9912    125.7581   1.4416718341e+02   4.8240591205e+01    0.3227039    0.1593079 -44.49  0.001516973    2.592    0.614
        26 -12.1343    187.0340    241.7928   1.2174069210e+02   3.4198787598e-01    0.4323062    0.1535057  44.47  0.002030435    2.227    0.551
        27 -12.7665     39.8307    123.5417   1.3665148652e+02   4.6305199648e+01    0.4718092    0.2326754  22.97  0.002280067    2.811    0.644
        28  -9.1039     13.6628    239.2695   1.5119672501e+02   2.5412719972e+01    0.1065136    0.0472498  62.79 0.0001645174    1.598    0.374
        29 -11.5361      5.3781    130.9809   1.4628636625e+02   4.7560657653e+01    0.2005325     0.164251  39.81 0.0007509476    1.496    0.332
        30 -10.8145    217.7033    217.5149   1.1272067799e+02  -1.6708234977e+00    0.3190403    0.1562711 -43.78   0.00160495    2.688    0.628
        31 -11.0142     14.9698    218.4866   1.5005143272e+02   2.8920283295e+01    0.1621169   0.08868033 -86.45 0.0008098757    1.514    0.340
        32 -11.0485    167.6823    112.7535   1.0107714045e+02   2.6126467481e+01    0.3873854    0.2515168 -75.94  0.001442061    2.618    0.618
        33  -9.9034     29.2167    218.6738   1.4765076384e+02   2.7402456760e+01    0.1072156   0.05694366  72.70            0    1.501    0.334
        34 -11.0285    205.3784    110.1220   9.2723627344e+01   1.7683312274e+01    0.3256339    0.2227494  45.97  0.000948871    1.475    0.322
        35 -10.4461     18.0394    213.4872   1.4928025727e+02   2.9528847564e+01    0.1523787    0.0992396  85.20 0.0005849157    1.195    0.163
        36 -11.2180      9.7157    212.1480   1.5062813991e+02   3.0593398723e+01    0.1448353   0.09331641  81.83 0.0003427814    1.144    0.126
        37 -11.3516    211.8117    237.2551   1.1681528710e+02  -3.1080417754e+00     0.229237    0.1319468 -20.45  0.001309312    2.286    0.563
        38 -10.0359     17.1728    208.8345   1.4918292836e+02   3.0483057621e+01    0.1740183    0.1704439 -85.09  0.001496153    1.682    0.406
        39 -13.0928     11.4681    206.1320   1.5003292216e+02   3.1547819516e+01    0.4417895    0.2807784  33.52  0.002768848    1.983    0.496
        40 -10.2702    186.7513    236.2356   1.2102624684e+02   1.0989140074e+00    0.1567758    0.1157513  25.43 0.0003110953    1.288    0.223
        41 -11.8516     16.6977    192.5650   1.4834435152e+02   3.3662109102e+01    0.1778049    0.1378271 -85.55  0.000349149    1.253    0.202
        42 -12.7396     18.2634    182.9344   1.4744021306e+02   3.5438707031e+01    0.3672267    0.1755791 -58.79   0.00209553    2.381    0.580
        43 -12.5538    140.2742     83.3002   9.9341780724e+01   3.8415657635e+01    0.4526453    0.2780273 -29.93   0.00161331    1.840    0.456
        44 -11.4339    109.9542     83.0477   1.0737841695e+02   4.5074573002e+01    0.2199956     0.211686 -43.05 0.0003044792    1.004    0.004
        45 -14.9106    143.5470     65.1957   9.2905670180e+01   4.1001216985e+01     1.221993     1.187826  54.09   0.00129206    1.025    0.025
        46 -11.4946    157.0924    246.2922   1.2754637614e+02   4.6135074763e+00    0.3980856    0.1899639 -36.82  0.002012746    3.409    0.707
        47 -13.7246    156.6600     41.4766   8.2181926308e+01   4.1464031619e+01    0.5700888    0.5404462 -47.40 0.0007294512    1.092    0.084
        48 -11.6304     13.4015     59.8406   1.3389425224e+02   6.2729960347e+01    0.1973631    0.1743062 -58.98 0.0004792586    1.133    0.117
        49 -10.5762      2.8136    246.7853   1.5311088873e+02   2.5237972558e+01    0.1720266    0.1195509  20.59  0.001229181    3.029    0.670
        50  -9.8265     45.2681    246.3135   1.4658052839e+02   2.0751812258e+01   0.08353865   0.07519471  86.70 0.0006172889    1.548    0.354
        51 -11.9092    146.9045     15.0106   7.4881341453e+01   4.7262548198e+01    0.2422541    0.1954845  62.99 0.0003600057    1.152    0.132
