#   1 NUMBER                 Running object number                                     
#   2 MAG_AUTO               Kron-like elliptical aperture magnitude                    [mag]
#   3 X_IMAGE                Object position along x                                    [pixel]
#   4 Y_IMAGE                Object position along y                                    [pixel]
#   5 X_WORLD                Barycenter position along world x axis                     [deg]
#   6 Y_WORLD                Barycenter position along world y axis                     [deg]
#   7 A_WORLD                Profile RMS along major axis (world units)                 [deg]
#   8 B_WORLD                Profile RMS along minor axis (world units)                 [deg]
#   9 THETA_WORLD            Position angle (CCW/world-x)                               [deg]
#  10 FWHM_WORLD             FWHM assuming a gaussian core                              [deg]
#  11 ELONGATION             A_IMAGE/B_IMAGE                                           
#  12 ELLIPTICITY            1 - B_IMAGE/A_IMAGE                                       
         1 -12.5159    180.5653     53.5102   5.0280416108e+01   3.3216527228e+01     1.762317     1.030792  21.32  0.006231543    3.712    0.731
         2 -12.3880    195.8328     40.4438   4.4522164107e+01   3.1317919330e+01     1.105492    0.7334515 -12.94  0.004943786    2.163    0.538
         3 -12.0115    201.2611     34.9396   4.2427260927e+01   3.0733889274e+01    0.8233615    0.7432932  43.43  0.001764104    1.331    0.249
         4 -11.6556    226.5545     11.3130   3.4347281607e+01   2.7709170133e+01    0.8424576    0.4444845 -29.90  0.004448434    2.096    0.523
         5 -11.7580    220.6542     10.6842   3.4697440162e+01   2.9092829957e+01    0.8748431    0.4490834 -24.62  0.004361253    2.445    0.591
         6 -11.7916     40.1657     10.3121   7.3390651603e+01   6.9191523866e+01    0.4385906     0.246939 -25.57  0.002537104    1.676    0.403
         7  -9.3142     59.8078      2.7744   6.1340919888e+01   6.6853057521e+01    0.1515478    0.1462019   3.39  0.001085671    1.374    0.272
         8  -8.0495    150.9754    193.3407   9.0445540107e+01   1.2152792276e+01    0.2393248    0.1158942  20.24 0.0007048357    4.352    0.770
         9 -10.8680    139.9899    249.0572   1.0119680224e+02   3.7404792611e+00    0.3617917    0.2231598  49.58  0.002032173    1.529    0.346
        10  -8.7835     82.4774    194.9736   1.0683848654e+02   2.3358269255e+01    0.2034804    0.1298747 -66.25  0.001031948    1.591    0.371
        11  -8.8005    147.3669    186.8408   9.0107066649e+01   1.4150272867e+01    0.2068324    0.1329207 -37.28 0.0009441879    1.759    0.432
        12 -10.7199    115.2588    247.8514   1.0604227919e+02   7.7295663117e+00    0.4978109    0.3244475 -70.18  0.002894768    1.934    0.483
        13  -8.7333     91.6953    183.9507   1.0307987416e+02   2.4478686870e+01    0.1986192    0.1760834 -77.50  0.001049791    1.123    0.110
        14  -9.5992     99.2304    180.9404   1.0074923477e+02   2.3967562193e+01    0.2949007    0.2125328  26.66 0.0008828882    1.554    0.357
        15  -8.2473     42.5019    179.4937   1.1460418435e+02   3.2210529460e+01    0.1306249    0.1111825  83.92 3.305994e-05    1.012    0.012
        16  -9.6953    186.9352    175.2551   7.9007869530e+01   9.0166632018e+00    0.3204451    0.3109587 -73.08  0.001069165    1.228    0.186
        17  -8.5608    148.3080    174.7060   8.7599366213e+01   1.6542232283e+01    0.2429677    0.1642998  77.64 0.0007913709    2.504    0.601
        18 -10.7663     47.8129    172.7641   1.1255776925e+02   3.3199879104e+01    0.4576305    0.2561188 -42.15  0.001475322    2.407    0.584
        19 -10.8370     52.3578    172.0825   1.1133419718e+02   3.2820630418e+01    0.5271134    0.2886503 -67.61  0.001589993    1.678    0.404
        20 -10.5109    113.7044    173.2072   9.5817982824e+01   2.3296571975e+01    0.3681543    0.2505184 -66.18  0.001727711    1.610    0.379
        21  -8.8993     84.1319    173.8310   1.0346665140e+02   2.8035118744e+01    0.1864307    0.1675997 -34.49 0.0002910789    1.320    0.242
        22  -8.8715    240.3506    169.2868   6.7498736937e+01   5.5843798058e-01    0.1362769   0.09388458   1.06  0.000321142    1.662    0.398
        23 -10.0818    120.1429    246.3116   1.0487826557e+02   7.2566742214e+00     0.422401    0.2117927 -60.52  0.002145519    2.478    0.596
        24 -11.2248    106.6993    248.0298   1.0778449975e+02   8.9791403342e+00    0.4945839     0.360683 -78.99  0.003089054    1.643    0.391
        25 -11.4174     72.6859    162.9224   1.0479418547e+02   3.2367276682e+01    0.5332198    0.3741097  74.75  0.002655513    1.580    0.367
        26 -10.2888     64.1241    155.4990   1.0597192001e+02   3.5377368846e+01     0.231678    0.1879931 -47.05 0.0008392367    1.328    0.247
        27  -8.7694    142.6637    208.3285   9.4847121942e+01   1.0639858182e+01    0.1427189    0.1040687  66.64 0.0007051933    1.727    0.421
        28 -10.6659     93.4005    150.8570   9.7095846570e+01   3.2137767648e+01    0.6708171    0.4260183 -35.30   0.00290129    1.996    0.499
        29  -8.9048    112.5138    150.5422   9.1816417747e+01   2.8861308345e+01    0.1522275    0.1458402  75.58  3.67732e-05    1.032    0.031
        30  -8.0510    174.6932    149.2912   7.6115622390e+01   1.6636724033e+01    0.1477486    0.1230414  88.38 0.0002499084    1.577    0.366
        31 -10.0558    133.7661    143.7670   8.4739961313e+01   2.6337768991e+01    0.5575712    0.1906267 -54.52  0.001635618    3.530    0.717
        32  -9.8598    106.0767    137.3145   9.0798621384e+01   3.3228769662e+01    0.4931023    0.3096244 -23.18  0.001875413    2.562    0.610
        33  -9.7485    105.9968    130.9447   8.9403605875e+01   3.4780295986e+01    0.3867984    0.3211341 -73.37  0.001576589    1.303    0.233
        34 -10.6158     93.5794    137.0126   9.4298644167e+01   3.5507687084e+01    0.3031915    0.2721994 -23.02  0.000479056    1.247    0.198
        35 -10.3593    113.9582    129.7043   8.6860230300e+01   3.3568536106e+01    0.5346177    0.3497043 -67.55  0.001426304    1.872    0.466
        36  -9.3951    101.0185    124.6706   8.9401811638e+01   3.7203958352e+01    0.2819317    0.2441671 -18.09 0.0005424786    1.307    0.235
        37  -9.2551    119.6073    123.2535   8.3730872353e+01   3.3969119004e+01    0.2250096     0.144984 -39.48 0.0007002099    1.628    0.386
        38  -8.4612    109.2842    118.0504   8.5384434430e+01   3.7225957132e+01    0.2154242    0.1963471 -55.70 0.0003949452    1.091    0.083
        39  -8.8637    231.1921    113.9522   5.7126534422e+01   1.1654277532e+01     0.222519    0.2104044  56.39 0.0008647455    1.179    0.152
        40 -11.1133    117.2815    109.4152   8.0853480694e+01   3.7621259514e+01    0.6216795    0.4900781  71.24  0.002892345    1.568    0.362
        41 -10.2052    107.6129    203.8392   1.0215061214e+02   1.7484938355e+01    0.2702339    0.1903126 -89.41 0.0009235461    1.743    0.426
        42  -8.3520    205.5130    110.4611   6.0649726572e+01   1.7655876412e+01     0.147061    0.1385871 -46.05 0.0008092201    1.013    0.013
        43 -10.7161    110.6914    202.6951   1.0127451180e+02   1.7226005039e+01    0.2720443    0.2246018  34.97 0.0004941921    1.191    0.161
        44  -9.7483    135.4902    210.0480   9.6720085313e+01   1.1535160787e+01    0.1954452    0.1391299 -54.20  0.001027737    1.576    0.365
        45 -10.9041    121.4742    197.1314   9.7919733925e+01   1.6602063992e+01     0.484199    0.2956899 -77.80  0.001313752    2.405    0.584
        46 -19.3882      8.6270    146.9116   1.1986691390e+02   4.3146263051e+01     19.32632     3.101396 -76.42   0.05191543    6.307    0.841
        47  -8.6625    164.5175    210.4856   9.0405364490e+01   6.4419907259e+00    0.1379262    0.1227178  29.83 0.0002796463    1.033    0.032
        48  -9.7803     83.3420    244.3453   1.1209110613e+02   1.3025180542e+01    0.2554503    0.1437953 -70.07  0.001428743    2.008    0.502
        49  -9.6500    191.7748    192.6799   8.1422498022e+01   4.8956805310e+00    0.4151935    0.2307619 -65.88   0.00125816    5.645    0.823
        50 -10.9308    102.7608    238.3922   1.0753935408e+02   1.1317937658e+01    0.4662966    0.1800844 -48.57  0.001974902    3.420    0.708
        51  -8.4131     65.9973    241.7351   1.1529508005e+02   1.5877106879e+01    0.1572246     0.125193  60.62 0.0003081101    1.017    0.016
        52 -10.8827    143.5052    222.5561   9.6847452593e+01   7.7915657479e+00    0.4105811     0.182781  50.58  0.001669665    2.530    0.605
        53  -8.9232     89.5782    211.3037   1.0724346418e+02   1.8712237584e+01    0.2269449    0.1695722  63.52 0.0004122509    1.261    0.207
