#   1 NUMBER                 Running object number                                     
#   2 MAG_AUTO               Kron-like elliptical aperture magnitude                    [mag]
#   3 X_IMAGE                Object position along x                                    [pixel]
#   4 Y_IMAGE                Object position along y                                    [pixel]
#   5 X_WORLD                Barycenter position along world x axis                     [deg]
#   6 Y_WORLD                Barycenter position along world y axis                     [deg]
#   7 A_WORLD                Profile RMS along major axis (world units)                 [deg]
#   8 B_WORLD                Profile RMS along minor axis (world units)                 [deg]
#   9 THETA_WORLD            Position angle (CCW/world-x)                               [deg]
#  10 FWHM_WORLD             FWHM assuming a gaussian core                              [deg]
#  11 ELONGATION             A_IMAGE/B_IMAGE                                           
#  12 ELLIPTICITY            1 - B_IMAGE/A_IMAGE                                       
         1 -11.3004    192.8267     23.6226   4.9387468160e-02   3.3488916890e+01    0.7420361    0.3453319  59.13  0.003556524    2.239    0.553
         2 -11.9420    191.1498     17.1035   3.5861663911e+02   3.4620037966e+01     0.759755    0.5373017  54.59  0.004464741    1.683    0.406
         3  -9.0675    104.0382      3.1635   5.4832071663e+00   5.7672810409e+01    0.2649636     0.124347  61.07  0.001221625    1.715    0.417
         4  -8.1675    221.3594      1.7952   3.5305823447e+02   2.9677504507e+01    0.1393852    0.1033093 -29.04 0.0004211491    1.621    0.383
         5  -8.4956      2.7913      2.3565   5.2868407802e+01   7.7631367568e+01    0.1635009    0.0935241   6.74 0.0006992543    1.644    0.392
         6 -18.4720     53.5671    223.1040   7.4337017050e+01   2.0203441774e+01     4.528593     3.776275  39.84     0.015609    1.091    0.084
         7 -13.0638    185.4716    203.7344   4.0997265565e+01   4.9484227082e+00     1.663676     1.064721  -1.43  0.008728498    1.804    0.446
         8 -12.3846    244.9861    245.1525   3.6871319212e+01  -7.9100990718e+00     1.095763     0.734166  -2.85  0.007643261    1.086    0.079
         9 -12.8019    244.2924    219.1187   3.3016948020e+01  -4.6869476698e+00     1.954552    0.6634125 -25.86   0.00844565    3.543    0.718
        10 -13.6440    234.5022    203.0897   3.1986239878e+01  -1.4479442506e+00     1.897213     1.238692   5.61   0.01214635    1.475    0.322
        11 -10.8882     95.7722    161.8606   5.5446655105e+01   2.8389543848e+01     0.682915    0.3471787 -36.27  0.002432479    2.868    0.651
        12  -8.8610      2.9390    209.9884   8.5725181257e+01   2.8313835111e+01    0.1356919    0.1062849  65.52 0.0008880458    1.053    0.050
        13  -9.2133    107.9943    156.9673   5.1058086564e+01   2.7446933098e+01    0.2313925    0.2107188  52.65 0.0004792334    1.080    0.074
        14  -9.1522    183.9420    179.5020   3.7026280725e+01   9.3446719106e+00    0.2180626    0.1697222 -32.72  0.001245962    1.247    0.198
        15  -8.9509    160.1884    152.6635   3.6843651675e+01   1.8623698138e+01    0.2253534    0.1966696 -54.24 0.0005882499    1.243    0.195
        16  -9.5907    101.8581    152.5498   5.1982069306e+01   2.9608595551e+01     0.271546     0.239365 -27.75 0.0003926888    1.265    0.210
        17 -10.7336    105.4146    147.5894   4.9978403794e+01   3.0173778904e+01    0.5863229      0.38673 -30.17  0.001494931    1.983    0.496
        18 -10.0366    134.3523    148.0950   4.2132079219e+01   2.4561647495e+01    0.7454454    0.1557372 -52.60  0.001679614    6.374    0.843
        19 -11.0854     91.6693    146.0685   5.3788362575e+01   3.3002666181e+01    0.3609686    0.3103465 -24.51 0.0007422162    1.341    0.254
        20 -10.2594    102.1618    177.0160   5.6183313797e+01   2.3706847732e+01    0.6702436    0.3185167 -37.08    0.0023558    3.142    0.682
        21 -11.8247     33.5229    141.7560   7.2110001163e+01   4.2310121980e+01    0.6729633    0.3575172  -7.40  0.002502713    3.214    0.689
        22  -8.1023    122.2851    144.6647   4.4609574206e+01   2.7684155811e+01    0.1558837    0.1224429  78.81 0.0003288635    1.624    0.384
        23 -10.2306     98.3683    175.3884   5.6965809333e+01   2.4710190442e+01    0.2912703    0.2478455  51.94 0.0005986862    1.139    0.122
        24  -9.7708    151.0782    142.1889   3.6721851536e+01   2.2559287934e+01    0.4190463     0.286446 -87.46  0.001641769    2.709    0.631
        25  -9.0900    104.8259    141.0759   4.8823690550e+01   3.1867402564e+01    0.2389709      0.20504  68.27  0.000484484    1.256    0.204
        26  -8.5552    180.7435    176.5692   3.7131970447e+01   1.0390345583e+01    0.1773612     0.125455  44.28 0.0003945892    1.548    0.354
        27 -10.5630    114.0753    134.8597   4.4787099524e+01   3.1591039676e+01    0.4181969    0.2719053 -28.94  0.001692917    2.044    0.511
        28 -10.3735    103.9916    133.4669   4.7448586790e+01   3.3881207614e+01    0.3778255    0.2987255   3.90 0.0007948104    1.597    0.374
        29 -11.5285     45.1633    129.8326   6.6403454295e+01   4.4191138604e+01    0.4264103    0.3589549  81.55 0.0003714261    1.201    0.167
        30 -10.0442     45.9897    126.7695   6.5614360187e+01   4.4907682077e+01    0.3319269    0.1726902  29.55 0.0004551569    1.898    0.473
        31 -11.6076     45.9656    123.7710   6.5125046508e+01   4.5709046677e+01    0.5587776    0.3080277  27.28  0.001209413    1.836    0.455
        32 -13.2739     16.9327    249.9158   8.4150073252e+01   1.8803936580e+01    0.2637835    0.1944842  24.70  0.001450975    1.449    0.310
        33  -8.9498    162.5536    129.5125   3.1257853584e+01   2.2869285923e+01    0.1459881    0.1427096 -30.74 2.078541e-05    1.008    0.008
        34 -10.4838     13.8926    135.1033   7.8074269469e+01   4.5817934383e+01    0.2290887    0.2180051   2.55 0.0002763695    1.195    0.163
        35  -8.8727    107.2925    122.6078   4.3977138326e+01   3.5863189270e+01    0.2613476    0.1948824  29.35 0.0004816837    1.418    0.295
        36 -10.2672    149.3323    178.1333   4.4342362916e+01   1.5394505305e+01    0.3790731    0.2514702 -63.83  0.001672162    2.058    0.514
        37 -10.2434     19.2489    129.5940   7.5646836809e+01   4.6856361046e+01    0.2577002    0.1818849 -74.90 0.0006042045    1.311    0.237
        38  -9.5791     26.7427    119.0447   7.1586463075e+01   4.9017725072e+01    0.2004422    0.1791337 -75.49 0.0004868339    1.052    0.049
        39  -8.3811     91.0106    114.9676   4.7298566180e+01   4.0903163601e+01    0.1856048    0.1780555  48.12            0    1.014    0.013
        40 -10.8922     70.9483    112.1040   5.3600559808e+01   4.5188156689e+01     0.465324    0.1980592 -51.22  0.001673173    2.318    0.569
        41  -8.9463    110.9434    169.0692   5.2445727292e+01   2.4073921728e+01    0.2247284    0.2094167  35.79 0.0003041225    1.005    0.005
        42  -9.5871     15.4918    157.4743   7.9463735327e+01   3.9864373041e+01     0.247244    0.1828373 -18.86 0.0007088842    1.754    0.430
        43  -9.1294      5.3255    112.3199   7.8968484746e+01   5.2368689047e+01    0.1440449   0.08742087 -44.28 0.0003520587    1.679    0.404
        44 -10.0016     21.4816    111.1824   7.2526912990e+01   5.1558588796e+01    0.2393992    0.1940886  19.23  0.000509386    1.324    0.245
        45 -10.1558     14.0266    161.3934   8.0200668864e+01   3.8983283867e+01    0.4055877    0.2718222 -56.68 0.0006160285    1.581    0.367
        46 -11.3501     60.5830    108.1585   5.6574807821e+01   4.7831078125e+01    0.5530492    0.3424694 -18.85  0.002033765    2.513    0.602
        47 -10.7380     67.9834    107.0157   5.3514041301e+01   4.6968565751e+01    0.3366708     0.206763  45.52 0.0009580207    1.664    0.399
        48  -8.9995    135.6985    106.0355   3.1877693558e+01   3.3542806218e+01    0.2156006    0.2064291 -53.84 0.0003837441    1.059    0.056
        49  -9.5259     96.1364     96.6092   4.0826975213e+01   4.4276344317e+01    0.3385147     0.249455  68.39 0.0008733184    1.667    0.400
        50  -9.0209     65.9557     96.0358   5.1584291995e+01   5.0053189232e+01    0.2183319    0.2162516  17.98   0.00119738    1.001    0.001
        51 -10.0514     18.1562    161.0554   7.8934957630e+01   3.8720274377e+01    0.2862107    0.2163482 -65.25 0.0004866383    1.337    0.252
        52  -8.9835    158.0682     70.7239   1.7285743199e+01   3.5059507987e+01    0.2010833    0.1793295  66.70 0.0002090036    1.104    0.094
        53 -10.5177    159.0190     63.7205   1.5167013010e+01   3.5991642215e+01    0.3572076    0.2920516  87.34 0.0009277942    1.212    0.175
        54 -10.3592    166.7457     62.3170   1.3433230423e+01   3.4348440527e+01    0.3969321    0.2507719 -75.54  0.001362427    1.973    0.493
        55 -10.1511    159.5935     57.4057   1.3299861900e+01   3.6853959728e+01    0.3078998    0.2215242 -82.89 0.0008522787    1.515    0.340
        56 -11.8273    172.6314     49.9704   9.1868618693e+00   3.4801871151e+01    0.8399794    0.7762709  -9.50  0.004619557    1.375    0.273
        57 -10.5326    177.7391     42.1978   6.4250954074e+00   3.4668673006e+01    0.3871694    0.3363162 -17.05 0.0008020131    1.471    0.320
        58  -8.5103    199.8623     45.1438   4.5082328669e+00   2.9177589479e+01    0.1604854    0.1507874  65.43 0.0003708181    1.288    0.224
        59  -9.3394    216.6711     36.6801   9.0041891112e-01   2.6667971999e+01    0.1116387   0.09663416  33.63 0.0007047841    1.687    0.407
        60  -9.5890      7.0623    167.7705   8.2655356352e+01   3.7929429563e+01    0.2796211    0.2064244  -4.70 0.0006513971    1.757    0.431
        61  -9.5201     10.9332    164.5892   8.1337146537e+01   3.8424227383e+01    0.4358871    0.1717564  46.89  0.001681027    2.258    0.557
        62  -8.1333    105.5242     19.5566   1.1587896194e+01   5.5680217152e+01    0.1408708    0.1220888  67.74 9.045946e-05    1.019    0.019
        63  -8.3628     89.4526     19.5600   1.5649478298e+01   5.9654231970e+01    0.1392461    0.1215808  57.26 0.0001362779    1.018    0.017
        64 -10.0803     23.5654    166.4090   7.7749517852e+01   3.6865178604e+01    0.3152762     0.223475   0.59  0.001360757    1.811    0.448
        65 -12.9986    206.8725    205.0666   3.7111220718e+01   1.7624781474e+00     1.695246    0.9260149  10.70  0.008405033    2.254    0.556
