#   1 NUMBER                 Running object number                                     
#   2 MAG_AUTO               Kron-like elliptical aperture magnitude                    [mag]
#   3 X_IMAGE                Object position along x                                    [pixel]
#   4 Y_IMAGE                Object position along y                                    [pixel]
#   5 X_WORLD                Barycenter position along world x axis                     [deg]
#   6 Y_WORLD                Barycenter position along world y axis                     [deg]
#   7 A_WORLD                Profile RMS along major axis (world units)                 [deg]
#   8 B_WORLD                Profile RMS along minor axis (world units)                 [deg]
#   9 THETA_WORLD            Position angle (CCW/world-x)                               [deg]
#  10 FWHM_WORLD             FWHM assuming a gaussian core                              [deg]
#  11 ELONGATION             A_IMAGE/B_IMAGE                                           
#  12 ELLIPTICITY            1 - B_IMAGE/A_IMAGE                                       
         1 -11.2006     56.4103     33.4765   7.6138349916e+01   6.3481657204e+01    0.5594684    0.4658132  57.05  0.001316408    1.775    0.437
         2 -10.5415    123.6423     31.1298   5.4287494958e+01   5.0183529774e+01    0.5881248    0.5157732 -40.34   0.00341486    1.252    0.201
         3 -12.0936    107.4247     29.2612   5.7524358823e+01   5.4175426147e+01    0.5569621    0.4555134 -35.49  0.003186929    1.345    0.257
         4 -11.0983     16.8640     17.4051   8.7611266411e+01   7.0901366171e+01    0.5365256    0.4348752 -14.76  0.003363252    1.131    0.116
         5 -11.8204      5.7015     14.5155   9.2543390702e+01   7.2298260928e+01    0.6544908    0.3545032 -50.41  0.003483761    1.898    0.473
         6 -10.0230     23.7075      1.3864   7.5716151825e+01   7.2381370610e+01    0.3231938    0.1194052  37.36 0.0001846653    2.749    0.636
         7 -10.1693     13.7924     11.2245   8.6367043932e+01   7.2130450648e+01    0.2959732    0.1955514 -27.79  0.001400593    1.213    0.176
         8 -11.3132     16.6115      7.8324   8.3071464901e+01   7.2343241903e+01    0.4282308    0.2891295 -52.35  0.002184855    2.436    0.590
         9 -11.5003     24.9460      6.9074   7.8064784285e+01   7.1542674631e+01    0.2102814    0.1508219 -24.28 0.0002997857    1.273    0.215
        10 -11.8674     20.8141      6.1767   7.9883968811e+01   7.2117309868e+01    0.4195569      0.34723 -36.90  0.002527991    1.644    0.392
        11 -11.3829    165.5675     18.7796   4.2746908415e+01   4.1243214771e+01    0.4828702    0.3128555  36.70  0.001000086    1.855    0.461
        12 -11.0813     25.1561     22.2216   8.5455534426e+01   6.9316992706e+01     1.038346    0.4563339  10.99  0.004406807    3.504    0.715
        13 -11.3534      2.0658     24.9122   9.8851450691e+01   7.0772429619e+01    0.2914491    0.1501642 -51.12 0.0005599434    1.635    0.388
        14 -10.8500    182.9820     17.7057   4.0186973799e+01   3.7049296543e+01    0.8626602    0.3876429  39.00  0.002878089    3.591    0.722
        15  -9.8990    179.0657     13.3035   3.9461616672e+01   3.8471724198e+01     0.302278    0.2193648  82.44 0.0005015277    1.251    0.201
        16 -10.7595    175.9108     10.8405   3.9161426360e+01   3.9493680563e+01    0.6091912     0.344045  33.01  0.002779126    2.577    0.612
        17 -10.7990    153.8175     22.9936   4.5785345672e+01   4.3719253891e+01     0.263039    0.2289421  59.31 0.0003628611    1.073    0.068
        18 -12.1511    117.0137     22.2810   5.2588217008e+01   5.2770198712e+01    0.3105015    0.2705266  59.18 0.0003756529    1.113    0.102
        19  -9.9764     61.3702     17.3270   6.6951478543e+01   6.4881319196e+01    0.3925237    0.2301155  28.07  0.001591317    1.619    0.382
        20 -10.8488     67.2488     15.4240   6.3907513382e+01   6.4052985512e+01    0.5177391    0.4409321  20.44  0.001816032    1.071    0.067
        21  -9.4109    127.3298     17.3496   4.8643061172e+01   5.0828424004e+01    0.5928971    0.2699462 -32.16  0.002633982    2.327    0.570
        22 -10.9948    133.1206     12.6933   4.5954231093e+01   4.9876181496e+01    0.2541108    0.2365696 -66.35 0.0002925829    1.186    0.157
        23  -9.4471    128.0063      8.4869   4.5424015557e+01   5.1495483675e+01    0.3840905    0.2202201  77.73  0.001326526    1.893    0.472
        24  -9.4645     37.0475     19.4698   7.8336528199e+01   6.8319991257e+01    0.4022701    0.2132677   1.38  0.001869332    2.686    0.628
        25 -10.5712    230.3357     15.0968   3.4872750014e+01   2.6256678286e+01    0.4376602    0.1901696 -40.74  0.002169159    1.998    0.500
        26 -10.0093    225.6151     16.7584   3.5634702193e+01   2.7113913143e+01    0.3149266    0.2119248 -38.69  0.001243683    1.454    0.312
        27  -9.0416     55.9070     10.8649   6.5971183735e+01   6.6565905211e+01     0.309293    0.2728747  76.62  0.001991931    1.888    0.470
        28  -9.2863     45.2742     15.4607   7.2647744039e+01   6.7711576393e+01    0.5147256    0.2502356  32.29  0.002672835    1.954    0.488
        29  -9.3415     51.4611     12.7138   6.8664669325e+01   6.7089871244e+01    0.5216506    0.1616435 -31.97  0.001769528    3.152    0.683
        30  -9.0175     49.4293      8.1678   6.7238008174e+01   6.7936990940e+01    0.1685683     0.154377 -13.31 0.0002597628    1.381    0.276
        31  -9.8211    116.9601     15.1969   4.9991110207e+01   5.3511500579e+01    0.3149284    0.2016227  38.75  0.001042794    1.498    0.333
        32  -8.4824    112.5075     15.4813   5.1069198513e+01   5.4524205026e+01    0.2582426    0.2047498 -27.96  0.001508015    1.393    0.282
        33 -10.2504    242.9247     14.1062   3.3688198424e+01   2.3658863171e+01    0.1946498    0.1710323 -44.40  0.000755409    1.287    0.223
        34  -9.4725    219.2521     12.3875   3.5188989617e+01   2.9032794773e+01    0.2635542    0.2121485 -56.66  0.001696525    1.138    0.121
        35  -9.5031     32.4226     12.7636   7.7290259789e+01   6.9845715736e+01    0.2742472    0.2076359   6.87   0.00186598    1.109    0.098
        36 -10.1740    146.9226     12.1455   4.3480517598e+01   4.6539116918e+01     0.461778    0.3085378  72.76  0.001461881    1.379    0.275
        37  -9.0893     98.2914     11.0746   5.2702855223e+01   5.8168916105e+01    0.5775968    0.2292609 -32.60  0.002510274    2.704    0.630
        38  -9.2116     87.0592      6.9540   5.3906598533e+01   6.0972179779e+01    0.2999343    0.2663974  58.67  0.001957851    1.248    0.199
        39  -9.4378     89.0069     13.0769   5.5985602363e+01   5.9987702088e+01    0.2111741    0.1686851  14.36 0.0004768287    1.195    0.163
        40  -9.5151     91.8379      8.2983   5.3204425779e+01   5.9832019765e+01    0.3858625    0.1625084  40.16   0.00103766    2.185    0.542
        41  -8.7375     75.4423     12.7322   5.9905042268e+01   6.2788741206e+01    0.2210473    0.1982267 -29.51  0.001206182    1.350    0.259
        42  -9.4178     78.8762     11.5836   5.8309222691e+01   6.2224502419e+01    0.2200527    0.1621457  -2.53 0.0001063728    1.357    0.263
        43 -10.0358    224.5852      9.1886   3.4030255941e+01   2.8180826579e+01    0.2321406    0.1936794 -61.41 3.932753e-05    1.104    0.094
        44 -10.6619    192.0354      8.0357   3.6661156425e+01   3.5851824555e+01     0.378792    0.3091828 -75.44            0    1.098    0.089
        45 -10.7031    194.0681      3.6347   3.5356201927e+01   3.5795375124e+01    0.6678413    0.2203727  63.03   0.00238205    2.570    0.611
        46 -10.2594     48.7440      2.8208   6.4770783527e+01   6.8611897618e+01    0.5213017    0.2094119  26.66  0.002201082    3.103    0.678
        47  -9.8318     42.6889     10.1994   7.1172473406e+01   6.8748753015e+01    0.4370607    0.2042695  21.93  0.001660037    2.555    0.609
        48  -8.9700     37.5399      9.7124   7.3279393400e+01   6.9551661596e+01    0.1406208    0.1246239   5.56 0.0003345773    1.309    0.236
        49  -9.5370    211.8424      8.9855   3.5041884910e+01   3.1090804634e+01     0.303661    0.2081279  71.85  0.001796463    1.363    0.267
        50 -10.8338    208.3292      4.2406   3.4232199561e+01   3.2387641429e+01    0.4248458     0.291575 -62.80  0.001873607    1.313    0.239
        51  -9.7882    172.0882      6.1451   3.8313309504e+01   4.0881082477e+01     0.600739    0.1862766  61.30  0.002389246    2.597    0.615
        52 -10.3439    165.1986      7.7284   3.9592307127e+01   4.2430400031e+01    0.3609419    0.2207001 -51.33 0.0008550358    1.740    0.425
        53 -11.3295    160.3557      2.6289   3.8719809459e+01   4.4077425895e+01    0.5997071    0.2661125  67.46 0.0005971863    1.893    0.472
        54 -10.5171    202.5498      8.6417   3.5795575159e+01   3.3291153215e+01    0.2789834     0.215475 -79.89   0.00171902    1.130    0.115
        55  -9.7317    120.0336      8.3620   4.6867665204e+01   5.3413212683e+01    0.2615597    0.2393405   1.09  0.001674005    1.200    0.167
        56 -11.1328    109.5195      6.0282   4.8130367454e+01   5.6071826761e+01    0.8843651    0.3895365  50.15  0.003294607    1.870    0.465
        57 -10.7626    119.4633      2.4208   4.4827440126e+01   5.4036461687e+01    0.2384676    0.1973999  58.23 0.0005649104    1.047    0.045
        58 -10.4386    115.6721      1.7484   4.5289885040e+01   5.4981427718e+01    0.2099971     0.127976  51.35 0.0002665148    1.378    0.275
        59  -8.8820     74.3744      7.9777   5.8083636418e+01   6.3469747390e+01    0.1741724    0.1436676   9.47 0.0007165695    1.115    0.103
        60 -10.7379    248.2702      4.8057   3.1420089097e+01   2.3576092244e+01     0.297601    0.2741463  -2.05 0.0002348638    1.615    0.381
        61 -10.3378    237.4820      3.4326   3.1848592824e+01   2.5981860430e+01    0.3139069    0.2172866 -46.93  0.002021418    1.306    0.234
        62  -9.5153     39.4622      4.4542   6.9637921005e+01   6.9891108293e+01    0.2766653    0.2296086 -11.81  0.001965638    1.258    0.205
        63  -9.9248     61.6488      4.9946   6.0941530291e+01   6.6163608971e+01    0.3195568    0.2547177 -49.98  0.001373155    1.905    0.475
        64  -8.6247    153.0124      4.8332   4.0327301629e+01   4.5696076171e+01    0.2130561    0.1859564 -35.33  0.001336053    1.288    0.224
        65 -10.3879     30.9804      3.3680   7.3079769195e+01   7.1212484890e+01    0.2537474    0.2046699 -39.59 0.0008872587    1.805    0.446
        66 -10.7423    180.1538      2.2497   3.6372539234e+01   3.9269136713e+01    0.3701276    0.2179653  84.56  0.001420961    1.569    0.363
        67  -9.8742     90.6323      1.8462   5.0789324604e+01   6.0634253644e+01    0.3655662    0.2220104  68.64   0.00112844    1.825    0.452
        68 -10.2052     73.8460      2.1648   5.5563241065e+01   6.4094932338e+01    0.2797711    0.2259291  42.82 0.0009470481    1.152    0.132
        69  -9.7047     68.9063      2.2226   5.7136532702e+01   6.5056607479e+01    0.2735264     0.167009  23.74  0.001247252    1.543    0.352
        70  -9.4534    146.5721      3.2723   4.0738943833e+01   4.7412113511e+01    0.2818459    0.1863892  38.90  0.001524424    1.621    0.383
        71  -9.3279    143.1912      2.8182   4.1080941827e+01   4.8278253943e+01    0.3047847    0.1486864  54.58 0.0009657163    1.758    0.431
        72  -8.0215    134.3310      3.3212   4.2594790417e+01   5.0398175788e+01    0.1406599   0.08397154  40.43 0.0007049193    1.696    0.410
        73  -9.6293      3.3210      2.5616   8.8170600094e+01   7.4305466074e+01    0.3075153    0.1513877 -11.68   0.00172953    2.162    0.537
        74  -9.2283     80.8805      1.7909   5.3342339761e+01   6.2700382887e+01    0.2436383    0.1726614  68.03  0.001410767    1.660    0.398
        75  -8.9665    186.1233      1.2688   3.5517053813e+01   3.7916964157e+01    0.1776875   0.09800605  83.71 0.0002579921    1.669    0.401
        76  -8.0834    128.3625      1.2937   4.2878444703e+01   5.2000213461e+01    0.1418731   0.08034939  42.26 0.0007029959    1.706    0.414
        77  -9.9489    218.0525      3.1479   3.3194031847e+01   3.0275711813e+01     0.260394    0.2374452  53.51  0.001196404    1.390    0.281
        78 -10.1636      6.1567     98.3002   1.1466470219e+02   5.4947970181e+01    0.4157716    0.4026343  85.37    0.0030336    1.234    0.190
        79  -9.2876    201.5001    249.5139   9.0024442487e+01  -5.7399692723e+00    0.2160093     0.164101  20.75 0.0007131407    1.045    0.043
        80  -9.8632    115.9735    248.8275   1.0657471816e+02   7.3941434942e+00    0.2259416    0.2065901  71.31  0.001046944    1.176    0.150
        81 -10.4253      4.1145    110.0417   1.1695841068e+02   5.2273846889e+01    0.4094408    0.2833107 -87.83   0.00249494    1.350    0.259
        82  -9.3311      7.5770    106.5463   1.1540196282e+02   5.2906555125e+01    0.2424141    0.1428301 -56.06 0.0001270238    1.382    0.276
        83  -9.2010     83.7862    117.3650   9.3085167035e+01   4.1835514659e+01    0.2537204    0.1925019 -63.56 0.0006018291    1.320    0.242
        84  -9.1977     54.6694    117.8751   1.0229745080e+02   4.5872566370e+01    0.2025611    0.1894795 -20.95 0.0002907071    1.182    0.154
        85  -9.1236     48.1095    115.7639   1.0396254659e+02   4.7169482059e+01    0.2695796    0.2069954  44.26  0.001105589    1.459    0.315
        86  -8.9738     52.9013    113.4008   1.0195368018e+02   4.7191607644e+01    0.3037758    0.1441003  14.86  0.001128993    3.380    0.704
        87  -8.6769     49.0065    111.9807   1.0292317378e+02   4.7998708180e+01    0.1981214    0.1594237  88.37 0.0007506559    1.383    0.277
        88 -10.0166     62.9502    110.9196   9.8172225719e+01   4.6517117822e+01    0.2471432    0.1866654 -52.33            0    1.190    0.160
        89  -8.4948     71.9653    112.9754   9.5749978785e+01   4.4741521644e+01    0.1744905    0.1514912 -54.20 -0.002661949    1.057    0.054
        90  -9.1210    231.3431    109.6730   5.6608944568e+01   1.2147373558e+01    0.1463638    0.1041798 -66.05 0.0007050992    1.741    0.426
        91  -9.5129    128.9601    109.3114   7.7885980966e+01   3.5064183888e+01    0.2570842    0.1981797  63.25  0.001168891    1.504    0.335
        92  -9.0966     36.9631    108.3061   1.0613975864e+02   5.0179227498e+01    0.3417703     0.142086 -53.19  0.001001827    1.978    0.494
        93 -10.2838     37.4820    103.6022   1.0504800310e+02   5.1271169450e+01    0.3317085     0.227814 -13.84  0.001734267    1.860    0.462
        94 -10.0002    137.4657    107.4378   7.5133467580e+01   3.3606998686e+01    0.2741351    0.2687785 -61.31 0.0006049478    1.035    0.034
        95 -10.2369    118.1295    105.8227   7.9911621835e+01   3.8139117856e+01    0.3799724    0.2780011 -32.86 0.0007984653    1.442    0.306
        96 -11.4203     19.9374    110.5337   1.1205497958e+02   5.1109840582e+01    0.6494652    0.5872945  -4.97  0.004338244    1.337    0.252
        97 -10.2389     95.0852    106.7675   8.6960661445e+01   4.2421063993e+01    0.6508374    0.2210101  48.17  0.001940036    3.806    0.737
        98  -9.3600     74.5220    104.9481   9.2995447526e+01   4.6292549956e+01    0.2306013    0.1363366 -54.23  0.001025422    1.572    0.364
        99  -8.8703     62.6310    104.8707   9.6884002157e+01   4.8026565485e+01    0.2245383    0.1948964  -3.05 0.0005772745    1.294    0.227
       100  -8.7879     66.7393    103.1679   9.5111156748e+01   4.7865228113e+01    0.2558456    0.2012492  15.77 0.0007875811    1.459    0.314
       101 -10.2913    104.4863     90.9280   7.9635507966e+01   4.4197889770e+01    0.4061984    0.2676991  52.57            0    1.715    0.417
       102 -10.2605    101.5280    102.4956   8.3844230729e+01   4.2208002991e+01    0.4896783    0.3210484   7.42  0.001903666    2.497    0.599
       103  -9.3753    101.1604     98.7804   8.2919900448e+01   4.3118918905e+01    0.3420379    0.2838791 -34.96 0.0007382524    1.186    0.157
       104 -10.5687    109.4671     99.2476   8.0566429989e+01   4.1379592306e+01    0.7900522     0.358276  49.97  0.002650562    2.527    0.604
       105  -9.4444    108.9561     95.4856   7.9637023021e+01   4.2310914033e+01    0.3234018    0.2997703  35.87 0.0009783513    1.105    0.095
       106  -9.5648     84.9711    102.4596   8.8984981769e+01   4.5198040901e+01    0.2475905    0.1873715 -48.32 0.0007874253    1.239    0.193
       107  -8.8939     47.7704    101.9611   1.0121397020e+02   5.0577551873e+01    0.4146026    0.1303467 -57.18  0.001352517    2.619    0.618
       108  -9.1103     50.7358     99.0652   9.9544184966e+01   5.0928174208e+01    0.2235589    0.1816604 -24.57   0.00066611    1.308    0.235
       109  -9.9259    139.0570    102.0351   7.3225743189e+01   3.4404445641e+01    0.2326837     0.226423 -62.11            0    1.048    0.046
       110 -10.4197     57.0592    100.0642   9.7614607998e+01   4.9911719974e+01    0.4116897    0.2434454 -31.06  0.001568502    2.015    0.504
       111  -9.3312     77.8066     99.3156   9.0470799481e+01   4.7107887001e+01    0.3994392    0.2063913 -57.22  0.001630011    1.976    0.494
       112  -9.1885     80.1431     95.4982   8.8670521999e+01   4.7612838500e+01    0.3164089      0.21352 -27.05  0.001030728    1.718    0.418
       113  -8.9912    156.9986     98.5829   6.7897455182e+01   3.0964863771e+01    0.2251684    0.2058107 -42.84 0.0001546032    1.078    0.072
       114 -10.1277    124.2307     98.2349   7.6075915997e+01   3.8505548194e+01    0.4656261    0.3003279  28.26  0.001920066    1.894    0.472
       115  -8.5746     42.7454     99.5760   1.0241120845e+02   5.1702690341e+01    0.1800692    0.1257454  40.83 0.0009554071    1.653    0.395
       116  -8.9116    117.4627     98.1084   7.7930125928e+01   3.9980716173e+01    0.2302957    0.2054931  39.58 0.0004671279    1.142    0.125
       117  -9.8355     33.9949     97.8674   1.0507641619e+02   5.2984796143e+01    0.2106675    0.1650479 -56.86            0    1.076    0.071
       118  -9.1194    130.1539     96.7681   7.4050153597e+01   3.7515066456e+01    0.2109475    0.1816215   6.69 0.0003216869    1.320    0.242
       119 -10.5234     23.4159     95.5204   1.0829437486e+02   5.4451375155e+01    0.2864316    0.2054856 -59.18 0.0001684998    1.140    0.123
       120  -9.8018    135.1637     96.1591   7.2556756888e+01   3.6517481309e+01    0.2182602    0.1914224 -79.73 0.0005442649    1.315    0.240
       121  -8.2166     62.6525     96.2713   9.4766387563e+01   5.0068591778e+01    0.1377636    0.1101643  71.48 0.0006995275    1.623    0.384
       122  -9.0268     42.2538     95.2531   1.0162261849e+02   5.2785470150e+01    0.2652328    0.1819342  71.96 0.0007606211    2.112    0.526
       123  -8.8161     73.5066     95.0056   9.0745813690e+01   4.8782174988e+01    0.2193899     0.134768 -50.91 -0.0001614174    1.505    0.335
       124  -8.6255    178.6463     94.2228   6.2034038266e+01   2.6677623826e+01    0.2171973    0.1433486 -28.29 0.0004338405    1.656    0.396
       125 -10.2649     43.3865     88.2215   9.9561151434e+01   5.4313713158e+01    0.3619868    0.2291764  33.49 0.0006110311    1.784    0.440
       126  -9.6817     52.0105     93.9519   9.7881846888e+01   5.1986904059e+01    0.2660179    0.2046116 -77.29            0    1.499    0.333
       127  -9.7395     47.1528     92.7139   9.9297568988e+01   5.2847426103e+01    0.4066386    0.1638236 -47.64  0.001667443    2.145    0.534
       128 -10.4348     49.0975     88.4579   9.7549374241e+01   5.3614460108e+01    0.4646135    0.2584043  51.42  0.002035965    2.569    0.611
       129 -10.1486     33.5925     91.3696   1.0383637873e+02   5.4563017696e+01    0.4735078    0.2127996 -39.59   0.00173039    2.275    0.560
       130  -9.5243     27.6648     91.9128   1.0607665713e+02   5.4959917524e+01    0.2219262    0.2051511 -59.45 0.0006145129    1.115    0.103
       131 -11.2374     30.2425     85.3077   1.0370443033e+02   5.6280143249e+01    0.7298872    0.4297348 -12.82  0.002505238    2.257    0.557
       132  -9.7754    116.8101     91.8110   7.6277313943e+01   4.1469059759e+01     0.262803    0.2493467  -7.85 0.0002891486    1.057    0.054
       133 -10.0112    124.1289     88.0195   7.3098059078e+01   4.0667883472e+01    0.4720255    0.2838935 -51.41  0.001949065    1.811    0.448
       134 -10.1549    132.8477     81.9242   6.8927102957e+01   3.9907903521e+01    0.2960966    0.2277261  33.66 0.0006303901    1.380    0.275
       135  -9.0347      7.7266     89.4272   1.1270503996e+02   5.6940971351e+01    0.2796975    0.1619961  39.26  0.001044831    2.134    0.531
       136 -10.3383     87.3092     86.7865   8.3811188797e+01   4.8337598866e+01    0.6646165    0.3190851 -47.70  0.002222745    1.995    0.499
       137  -9.6328     16.2752     86.7903   1.0915788484e+02   5.7023621018e+01    0.3474149    0.2081392 -33.92  0.001782437    1.695    0.410
       138  -8.9478     95.4912     86.1395   8.0981077919e+01   4.6974784603e+01    0.5145217    0.2962505  -9.79  0.001547285    4.381    0.772
       139  -9.2249     70.1035     86.5012   8.9546067441e+01   5.1235889601e+01    0.2200986    0.1976568 -66.00 0.0006524326    1.231    0.188
       140 -10.0969     80.2504     84.0616   8.5344878280e+01   5.0151729014e+01    0.5150036    0.3878136   9.86   0.00256142    1.558    0.358
       141 -10.7341     73.8124     80.7006   8.6543459114e+01   5.1935201101e+01    0.6059909    0.3506608 -39.03   0.00275142    1.656    0.396
       142  -9.7317     64.5361     87.6072   9.1807290991e+01   5.1804831644e+01    0.3629006    0.1306066  36.12  0.001338077    2.946    0.661
       143  -8.6551     54.6344     86.7168   9.5096590328e+01   5.3339120387e+01    0.1450194   0.09857198 -22.53 0.0007017442    1.689    0.408
       144  -9.0915     11.3883     85.7693   1.1074220451e+02   5.7575038912e+01    0.2870124    0.1077572 -45.00  0.001295219    2.277    0.561
       145 -10.1972    155.0735     84.3060   6.4270094977e+01   3.4197211237e+01     0.408713    0.2291073 -41.82  0.001210493    1.766    0.434
       146 -10.8434    150.9250     80.7127   6.4158427605e+01   3.5866173874e+01    0.5669321    0.2913316  57.07  0.002182124    2.065    0.516
       147 -10.3713    129.4404     85.7065   7.0969019870e+01   3.9944408203e+01    0.4350242    0.3851356  14.56  0.001499176    1.217    0.178
       148 -10.3675     58.7706     83.1420   9.2620798761e+01   5.3608028568e+01    0.4848134    0.2675076  38.73  0.001628084    2.019    0.505
       149  -9.4132     53.5679     81.2451   9.3994256938e+01   5.4710327559e+01    0.2828442    0.1521711 -49.63  0.001317167    1.627    0.385
       150  -9.0149     49.6998     83.6923   9.6089579341e+01   5.4634474429e+01    0.1776478    0.1284029  38.92 0.0004497577    1.594    0.372
       151  -9.3940     46.8317     81.6283   9.6602134029e+01   5.5437623742e+01     0.235365    0.1724553 -85.73 0.0003927461    1.932    0.482
       152 -10.1795     20.6779     79.9517   1.0610052283e+02   5.8286374565e+01    0.4360209    0.2241174 -66.73  0.001099027    1.800    0.445
       153 -10.5175     17.4611     74.0503   1.0602277783e+02   5.9850941313e+01    0.4008274    0.2287796 -62.63  0.001107595    1.510    0.338
       154  -9.4363     42.0430     81.0510   9.8246122443e+01   5.6101104161e+01    0.2545083    0.2290352  54.49  0.001568987    1.367    0.269
       155  -8.5999     38.4636     79.5172   9.9204057622e+01   5.6822276932e+01    0.1893296     0.160654  74.30 0.0007824561    1.542    0.351
       156  -9.4406    142.8727     80.8318   6.6090683565e+01   3.7768921694e+01    0.2207419    0.2044637   5.50 0.0002425479    1.149    0.130
       157 -10.0381    167.2518     79.6352   6.0298524564e+01   3.2100341247e+01    0.3536714     0.213442 -18.73  0.001370633    2.329    0.571
       158  -9.4459      2.0598     79.3513   1.1300749412e+02   5.9554787353e+01    0.3222975    0.1426485 -64.80  0.001648398    1.727    0.421
       159  -8.7467     13.1354     79.2233   1.0881573636e+02   5.8969659577e+01    0.1668223    0.1356148 -86.15 0.0005925738    1.383    0.277
       160 -10.0476    110.5167     76.8054   7.3468177238e+01   4.5867312925e+01    0.3217049     0.283129  24.16 0.0008487613    1.150    0.131
       161 -10.6035     94.4387     71.9083   7.6803340567e+01   5.0097262700e+01    0.7380887    0.3478799 -41.65  0.002632999    2.070    0.517
       162  -9.8999     66.2786     76.9127   8.8068426056e+01   5.3911715137e+01     0.555566    0.3515265  66.23  0.001755264    3.204    0.688
       163  -8.9667     61.4872     76.9735   8.9834825251e+01   5.4592338012e+01    0.2614799    0.1829922 -45.30 0.0006902558    1.292    0.226
       164  -9.7263     68.9734     74.0627   8.6208803853e+01   5.4108138839e+01    0.2557071    0.2025057 -34.83 0.0005314103    1.156    0.135
       165  -9.8985    158.4777     76.7804   6.1317157651e+01   3.4750958442e+01    0.2834993    0.2270602   0.46  0.001343147    1.573    0.364
       166 -11.8608     79.7339     69.9994   8.1078110106e+01   5.3178196949e+01    0.3321393    0.2649883  12.63 0.0002714661    1.326    0.246
       167 -10.2028     80.1649     76.1921   8.2941786414e+01   5.1840917097e+01    0.3469496    0.2791445  42.00 0.0006538624    1.349    0.259
       168  -9.3380     83.7878     74.0041   8.1003517449e+01   5.1659098789e+01    0.2440078    0.1995286 -33.28 0.0003650695    1.155    0.134
       169 -12.4129     52.9491     74.7757   9.2368580448e+01   5.6213006827e+01    0.4382384    0.3192573 -50.04 0.0004956512    1.265    0.209
       170 -10.5697     46.1756     68.0167   9.2964540726e+01   5.8491283452e+01    0.6132463    0.3515374 -18.58  0.001512871    2.292    0.564
       171  -8.8711     28.3074     75.5796   1.0212711679e+02   5.8663113432e+01    0.2665938    0.1282501 -53.84 0.0008523343    1.673    0.402
       172 -10.2617    175.7622     75.5278   5.7451469992e+01   3.0742271186e+01     0.334197      0.19882  70.59  0.001019634    2.034    0.508
       173 -10.4136    170.9208     73.2994   5.7754963225e+01   3.2310870312e+01    0.3362775    0.2673246  59.35 0.0009708822    1.258    0.205
       174  -9.5845    145.8910     70.8797   6.2345467843e+01   3.8856605399e+01    0.3586101    0.2861586  22.18  0.001216042    1.464    0.317
       175  -8.3142     37.3127     75.3129   9.8540990459e+01   5.7879306170e+01      0.13989   0.08633801 -30.83 0.0005163521    1.634    0.388
       176 -10.0708    152.2297     72.9670   6.1548917165e+01   3.6950444661e+01    0.3098139    0.2540804 -54.60 0.0006046125    1.283    0.221
       177 -10.3581    199.6698     71.8457   5.2286314951e+01   2.5583129375e+01    0.2602267    0.2489349 -18.87   0.00044939    1.161    0.139
       178  -9.8168    142.4581     74.0503   6.4124238266e+01   3.9118906055e+01    0.3759189    0.2270216 -15.73  0.001420711    2.488    0.598
       179  -9.2208    181.6136     72.1786   5.5433783700e+01   2.9880733176e+01    0.2087851    0.1433585 -22.22 0.0009385874    1.717    0.418
       180 -10.7658     89.4467     73.8717   7.9071066387e+01   5.0656409050e+01    0.4377572    0.3227869 -46.14 0.0007332015    1.361    0.265
       181  -8.9243    101.8995     69.8688   7.3783514341e+01   4.9002975363e+01    0.2339321    0.1958378  14.87  0.001212681    1.251    0.200
       182  -9.4768     10.3201     69.4239   1.0782327397e+02   6.1339983624e+01    0.2574914    0.1344174 -48.07  0.000661262    1.488    0.328
       183  -9.1679    173.3745     69.1243   5.6094725898e+01   3.2411093739e+01    0.2658255     0.196379  47.84 0.0008028896    1.393    0.282
       184 -10.2376    120.5456     66.1794   6.7170728886e+01   4.5648901812e+01    0.5271896     0.322386 -31.85  0.001538844    1.705    0.413
       185  -8.9154     63.8642     69.4998   8.6625888015e+01   5.5828845173e+01    0.2528655    0.1365496  26.95  0.001129822    2.072    0.517
       186 -11.5044     32.6034     64.5497   9.7424845638e+01   6.0678986044e+01    0.6393044    0.3572272  -9.73 0.0001830045    2.408    0.585
       187 -10.7699     31.8116     59.2333   9.6167366764e+01   6.1867799808e+01    0.6231117    0.3135197 -45.76  0.003156129    1.632    0.387
       188  -9.3152     15.1764     64.3043   1.0461813059e+02   6.2152040124e+01    0.3141815    0.2398946   6.59  0.001356281    1.483    0.326
       189 -10.8629      2.0598     67.3377   1.1070710046e+02   6.2239882274e+01     0.578755    0.2450195 -63.31  0.002942597    1.833    0.454
       190 -10.4043      8.0823     62.2832   1.0710156674e+02   6.3027557695e+01    0.4643435     0.268386 -14.05  0.002571213    1.963    0.490
       191 -11.1293      4.2025     59.9098   1.0818629259e+02   6.3745803946e+01    0.5473245    0.3281756 -42.38  0.003298183    1.333    0.250
       192 -10.2371    143.8132     66.4572   6.1452296943e+01   4.0124260289e+01    0.3291661    0.2949209  48.99 0.0007154517    1.094    0.086
       193  -9.5440    147.5228     64.4664   5.9994735218e+01   3.9556670877e+01    0.2591228    0.2166466   2.60 0.0006400564    1.409    0.290
       194 -11.0147    135.0192     64.8445   6.3020334056e+01   4.2512997124e+01    0.5485302    0.4167684  59.69  0.002679825    1.354    0.261
       195  -9.6268    106.6110     66.1089   7.1096990189e+01   4.8721286061e+01     0.298891    0.2055407  35.55  0.001410405    1.480    0.324
       196  -9.6816     75.0828     65.8853   8.1331829734e+01   5.4785888872e+01    0.2498848    0.1872401 -31.21 0.0003653709    1.259    0.206
       197 -10.1756    204.1742     63.7624   4.9503908872e+01   2.5798216277e+01    0.4814549    0.3023247  79.21  0.002164928    1.852    0.460
       198  -9.2499     83.6532     64.7162   7.7940236117e+01   5.3514063551e+01    0.2925596    0.2123175  -5.55  0.001198268    1.630    0.387
       199  -8.8445     82.3067     62.3142   7.7566591330e+01   5.4211922437e+01     0.241576    0.1662338 -34.85 0.0007702688    1.396    0.284
       200 -10.0507     25.0347     54.4275   9.7618346573e+01   6.3472470190e+01    0.3346916    0.1810004 -45.25 0.0004634318    1.490    0.329
       201 -10.6913     23.0912     63.2556   1.0102480042e+02   6.1793236523e+01    0.5190489     0.248757 -23.94  0.001907914    2.612    0.617
       202 -10.2325     21.9567     59.5332   1.0046944072e+02   6.2672130752e+01    0.3423613    0.2015132 -47.76 0.0008447359    1.358    0.263
       203  -9.3429     97.8877     63.9157   7.3006410693e+01   5.0928908649e+01    0.4294297    0.1883898  43.76  0.001336995    2.275    0.560
       204  -9.4036     66.1764     63.2602   8.3689484611e+01   5.6736484680e+01    0.3375573    0.2915505 -57.64   0.00100961    1.376    0.273
       205 -10.0722    160.1297     60.8440   5.6238134704e+01   3.7037975855e+01    0.2999408    0.2776382 -26.29 0.0009004415    1.139    0.122
       206 -10.0183    162.8356     57.2041   5.4621844681e+01   3.6935688922e+01    0.4920694     0.220207 -31.08  0.001594146    2.394    0.582
       207  -9.5823    193.9794     60.3415   5.0146256445e+01   2.8765550267e+01    0.2637129    0.2044232 -39.47            0    1.266    0.210
       208  -8.5965    116.1643     61.1757   6.6689149339e+01   4.7508965701e+01    0.1935159     0.175878  78.38 0.0009487249    1.276    0.216
       209 -10.6649     70.5612     59.9025   8.0896614774e+01   5.6688136200e+01    0.3198243    0.2833042  62.95 0.0009852836    1.503    0.335
       210  -9.9568     53.6203     60.6350   8.7635424021e+01   5.9068061794e+01    0.2581165    0.2501054  77.32 0.0004702159    1.360    0.265
       211  -9.9379    149.8684     59.5786   5.7966053980e+01   3.9778652720e+01    0.2865341    0.2141482 -46.10 0.0007912575    1.388    0.279
       212  -8.4946     98.5199     60.5008   7.1620781087e+01   5.1415402871e+01    0.1458998     0.135481   3.45 0.0001246523    1.006    0.006
       213  -9.1668     15.7257     59.8442   1.0323263020e+02   6.3069288334e+01    0.2001009     0.140563 -50.42 0.0007573708    1.152    0.132
       214 -10.3212     18.6796     47.9239   9.8443451011e+01   6.5301103111e+01    0.6404347    0.3336961 -56.31  0.003421376    1.771    0.435
       215  -9.5501     14.1942     54.8397   1.0253583131e+02   6.4223531622e+01    0.4259818    0.1896618 -62.18  0.001693687    2.148    0.534
       216  -9.4385     25.1660     47.8171   9.5434390694e+01   6.4779018468e+01    0.2206752    0.1470681 -48.86 0.0002240826    1.338    0.252
       217  -9.2191     27.3425     44.2372   9.3204317702e+01   6.5266829094e+01    0.2142852    0.1348498 -36.48 0.0006409111    1.309    0.236
       218  -9.2403      8.4537     43.5498   1.0187941590e+02   6.6881080382e+01    0.2170637    0.1305014 -51.55 0.0005214471    1.351    0.260
       219 -10.5691      6.9965     51.1406   1.0474591647e+02   6.5436736668e+01    0.3417977    0.2157811 -65.29 0.0009823218    1.571    0.363
       220  -9.7118     10.9822     50.3249   1.0270342028e+02   6.5363135045e+01    0.2456386    0.1894517 -53.67 0.0009261586    1.199    0.166
       221 -10.2527     12.1544     45.1773   1.0062364987e+02   6.6319969846e+01    0.4665622    0.1539072 -53.09  0.001585937    2.295    0.564
       222 -11.6503     14.3476     39.0142   9.7557167260e+01   6.7358476435e+01    0.5192093    0.3631187 -63.34  0.002585925    1.720    0.418
       223 -11.1773      4.8896     37.7048   1.0179254871e+02   6.8233746400e+01    0.5375779    0.4142452 -52.97  0.003750079    1.264    0.209
       224  -9.8758      5.0186     31.9886   9.9825856376e+01   6.9306627784e+01    0.2800227    0.1572212 -21.63  0.001623185    1.656    0.396
       225  -9.8599    105.1104     57.5861   6.8599397591e+01   5.0543414279e+01    0.2820263    0.2005466 -34.49 0.0003449343    1.414    0.293
       226 -10.3594     39.8321     57.9444   9.2370565583e+01   6.1298316040e+01    0.2642398    0.2119595 -55.41  0.001087541    1.355    0.262
       227  -9.6576    175.4304     50.3078   5.0356778749e+01   3.4824856829e+01    0.2725495    0.2551486  89.61 0.0007762237    1.008    0.008
       228  -9.6949    172.0742     53.6023   5.1875609825e+01   3.5178143737e+01    0.2601291    0.2586152  79.06 0.0004129177    1.080    0.074
       229  -9.7180    170.7092     57.6776   5.3297643792e+01   3.4902116221e+01    0.2627485    0.2255455 -44.20 0.0005810887    1.170    0.145
       230 -10.0117    167.2992     56.3778   5.3540098595e+01   3.5950299455e+01    0.3145218    0.2324975  51.17  0.001086459    1.343    0.256
       231  -9.4441    132.8688     58.1830   6.1378007462e+01   4.4133104512e+01    0.2419585    0.1764923  21.13 0.0005603285    1.671    0.402
       232  -9.5724    136.6994     56.3452   5.9870032491e+01   4.3507482394e+01    0.2787806    0.2732589  -3.68 0.0007877749    1.045    0.043
       233  -8.5921     48.2574     57.9512   8.8884649869e+01   6.0297877479e+01    0.2239081    0.1274892 -25.60  0.001056809    1.932    0.482
       234  -9.2138    111.2076     56.5500   6.6477074670e+01   4.9392565008e+01     0.217436    0.1940038 -41.62 0.0005417913    1.194    0.163
       235  -9.9368     48.2703     25.2445   7.5942372958e+01   6.5935037650e+01    0.4169351    0.2110402  34.92  0.002146604    1.937    0.484
       236  -9.6214     41.6344     21.9263   7.7363678195e+01   6.7353938654e+01    0.2251638    0.1861746  33.45  0.000728134    1.456    0.313
       237  -9.4351     65.0475     56.6581   8.1802041823e+01   5.8179247041e+01    0.2034024    0.1651992  -5.46 0.0003688624    1.191    0.160
       238  -9.6990     61.7407     52.3159   8.1491181112e+01   5.9491696676e+01    0.3855037    0.3042855 -79.14  0.001731643    2.215    0.549
       239  -8.6233    192.4630    248.4929   9.1572594870e+01  -4.2748817304e+00    0.1232434   0.09784679  19.65  0.000141953    1.013    0.013
       240 -10.2279     51.9545     28.9959   7.6045277351e+01   6.4838672049e+01    0.1825382    0.1552336  -1.09 0.0003218963    1.065    0.061
       241 -10.5132     71.2582     52.0210   7.7776001773e+01   5.8016490838e+01    0.3144206    0.2624266  -0.18 0.0003036815    1.130    0.115
       242 -11.4742     67.8147     47.5534   7.7364546861e+01   5.9368684874e+01    0.5398855    0.4211448 -16.61   0.00132621    1.201    0.168
       243 -12.6321     61.8693     43.9946   7.8262813434e+01   6.0933168116e+01    0.4222683    0.2913539 -32.31 0.0005547007    1.350    0.259
       244  -9.0412    225.8257     55.7885   4.4652156044e+01   2.2006771416e+01    0.1907576    0.1803189 -33.60  0.001117489    1.212    0.175
       245 -11.0331    124.8999     45.7427   5.9115705965e+01   4.7935284595e+01    0.4608223    0.3558899  24.59 0.0008447642    1.407    0.289
       246 -11.2549    118.8933     52.4855   6.2970536069e+01   4.8317309679e+01    0.6607494     0.401008  43.79 0.0006450555    1.591    0.371
       247  -8.9300    127.5745     51.5325   6.0445248952e+01   4.6439587000e+01    0.3024747    0.1672692  48.99 6.861067e-05    1.709    0.415
       248  -9.6808     45.1275     54.7745   8.9087720808e+01   6.1309525971e+01    0.3487889    0.2312034 -10.02  0.001852505    1.684    0.406
       249  -9.5039     31.7952     41.8225   9.0275683090e+01   6.5271859435e+01    0.3013971    0.2656932 -42.02  0.001510405    1.298    0.229
       250 -11.5434     40.8256     38.6252   8.4944379859e+01   6.4811120114e+01    0.5117913    0.2785202 -10.10 0.0006496023    2.590    0.614
       251  -8.4861     42.5739     44.6718   8.6522321128e+01   6.3523779974e+01    0.2720681    0.2092168 -50.94  0.000738464    1.493    0.330
       252  -9.9102     46.8462     47.6532   8.5807445233e+01   6.2441686677e+01    0.3030033    0.1962786 -22.08 0.0005862556    1.523    0.343
       253 -10.4212     42.4199     50.1396   8.8601211072e+01   6.2527631478e+01    0.4519088    0.1756901 -40.93  0.001745556    2.265    0.559
       254 -10.4651     38.2853     46.4824   8.9074343939e+01   6.3698768662e+01    0.3668637    0.3056727  58.15  0.002229509    1.856    0.461
       255 -10.1681    191.4897     54.1829   4.8879223406e+01   3.0296251599e+01    0.2928303    0.2574482 -22.77 0.0008290895    1.279    0.218
       256 -10.3827    149.0061     54.4900   5.6559449276e+01   4.0787028650e+01    0.4843158    0.2988795  57.94 0.0003856007    1.565    0.361
       257 -10.0393     90.8180     40.9855   6.6826274910e+01   5.6164838049e+01    0.5120941    0.2555598 -41.67  0.002232029    2.209    0.547
       258 -11.5380     92.9947     49.1952   6.9263315361e+01   5.4453625038e+01    0.7630941    0.6721797  61.89  0.002710104    1.364    0.267
       259  -9.1610     53.6176     54.0886   8.5358954815e+01   6.0339773439e+01    0.3597271    0.2451289   4.41  0.001902106    1.654    0.395
       260  -9.0838     53.7900     49.9975   8.3796635187e+01   6.1078205656e+01    0.1960985    0.1530689 -15.18 0.0003197406    1.175    0.149
       261 -10.7188     31.2818     52.8162   9.4357190423e+01   6.3219820236e+01    0.4909377    0.2412931  30.01  0.002019137    2.247    0.555
       262 -10.3140     94.0106     45.0417   6.7382215198e+01   5.4901117726e+01    0.3262603    0.2666061  -1.90 0.0003334356    1.236    0.191
       263  -9.1085     83.1173     52.4740   7.3736593708e+01   5.5829818841e+01    0.3189718    0.1718182 -46.95 0.0009025165    2.110    0.526
       264  -9.0171     79.4175     48.3906   7.3475948611e+01   5.7203947943e+01    0.3166417    0.1598132 -53.14 0.0008279764    3.156    0.683
       265  -8.4962    165.5000     51.4778   5.2423044175e+01   3.7132780436e+01    0.1449637    0.1382126  77.50 -1.103148e-05    1.011    0.011
       266 -10.4807    153.3821     48.9668   5.3946741112e+01   4.0523823770e+01    0.5474739    0.2986693  68.70  0.001480753    2.026    0.506
       267  -8.7959    224.6036     48.6257   4.3099531177e+01   2.3300839642e+01    0.1753255    0.1540638  26.68 0.0005784126    1.513    0.339
       268 -10.2942    181.2584     48.1373   4.8801218413e+01   3.3687252896e+01    0.3851969    0.2319948 -54.25  0.001163603    1.778    0.437
       269 -10.2426    114.1286     45.5221   6.1772774097e+01   5.0466186048e+01    0.6203859    0.2821307 -35.63  0.002526877    2.251    0.556
       270  -9.8662     31.7868     47.8514   9.2452508828e+01   6.4139939480e+01    0.1898539    0.1612898  -1.42 0.0005657037    1.178    0.151
       271  -9.6835    204.3029     46.3932   4.5034967927e+01   2.8318989127e+01    0.2500056    0.2096139  68.62  0.000723224    1.196    0.164
       272  -8.8289    164.9427     46.0419   5.0908329679e+01   3.8051669516e+01    0.2314685    0.1680563  29.26 0.0006263312    1.711    0.416
       273  -9.0684     82.9123     45.2205   7.1056289305e+01   5.7067933101e+01    0.3392296    0.1844109 -57.79   0.00120672    3.912    0.744
       274  -8.4058    138.9836     45.2402   5.5719196176e+01   4.4615802998e+01    0.1890814    0.1172386  58.06 0.0003682219    1.534    0.348
       275  -9.4523    245.0941     43.8124   3.9853018415e+01   1.9506716850e+01    0.2224876    0.1829837 -33.65 0.0008116428    1.320    0.242
       276  -9.2911    185.4234     44.0573   4.7037881685e+01   3.3225360592e+01    0.2796005    0.1779626  50.96   0.00106941    1.628    0.386
       277  -9.1726    175.4240     43.7583   4.8488170246e+01   3.5747567864e+01    0.3315199    0.1842339 -52.06  0.001449177    1.957    0.489
       278  -8.9760    149.9765     44.0403   5.3071822319e+01   4.2069343240e+01    0.2141175    0.1992793  47.57 0.0003392536    1.064    0.060
       279  -8.7435    133.0296     43.9717   5.6609273321e+01   4.6243488430e+01    0.2321545    0.1650987  25.54 0.0006751484    1.648    0.393
       280  -9.8829    103.9628     43.0143   6.3652817549e+01   5.3098549269e+01    0.5244715    0.2666658  51.61  0.002277913    1.917    0.478
       281 -11.8156    103.7001     38.6622   6.2095992689e+01   5.3777262755e+01    0.4170803    0.2628649  55.87 0.0003246417    1.628    0.386
       282  -9.1647    200.1476     43.0169   4.4711523995e+01   2.9777124820e+01    0.2353811    0.1933166  54.87 0.0007774248    1.306    0.235
       283  -8.2135     52.7434     43.6489   8.1805438808e+01   6.2358549678e+01    0.1352748   0.08860681 -15.29 0.0002934151    1.603    0.376
       284  -8.7957    143.8455     42.3699   5.3762515158e+01   4.3819253770e+01    0.2220691    0.1187324  49.62 0.0009532441    1.764    0.433
       285 -10.6885    228.2767     38.1618   4.0256620246e+01   2.3895899875e+01    0.3839755    0.1871505 -44.84 0.0007191792    1.796    0.443
       286  -9.4682    191.0463     39.9882   4.5135483407e+01   3.2391854526e+01    0.3271564    0.2086723 -18.42  0.001089327    2.006    0.502
       287  -8.3725     27.2815    245.6748   1.2306943437e+02   1.9762664745e+01    0.1174567   0.06035141  65.44 0.0004657704    1.596    0.373
       288  -9.3887    128.4971     40.4552   5.6441571295e+01   4.7821113925e+01    0.2628663    0.2314402  63.76 0.0001164207    1.137    0.121
       289 -10.0689    135.8363     35.9395   5.3296557264e+01   4.6639141789e+01    0.2729504    0.2207601  44.08    0.0003857    1.182    0.154
       290 -10.8791    131.3026     35.9864   5.4280471217e+01   4.7735931572e+01    0.4953796    0.3463825  57.50  0.002057682    1.334    0.250
       291  -9.0988     83.3265     39.5320   6.8686807909e+01   5.7865453015e+01    0.3359977    0.2487158 -74.26  0.001580631    2.561    0.610
       292  -8.8415     71.8279     41.1797   7.3367650595e+01   5.9734706306e+01    0.1907437    0.1429499   8.35 0.0006092438    1.345    0.257
       293  -8.3838    222.5129     40.4943   4.1411127343e+01   2.4883012650e+01    0.1357831    0.1134254 -67.38 0.0002981948    1.046    0.044
       294  -9.6190    186.3271     36.8986   4.4953532824e+01   3.3954686663e+01    0.3155609    0.2352608  72.16 0.0008277499    1.269    0.212
       295 -10.1286    182.1819     39.2455   4.6187821731e+01   3.4672900661e+01    0.2367243    0.2209836 -24.84 0.0006249558    1.209    0.173
       296 -10.4475    177.5793     36.9552   4.6226198990e+01   3.6113949759e+01    0.5425331    0.2821166  76.33  0.001885548    2.120    0.528
       297  -8.3682    171.4234     40.4729   4.8183419168e+01   3.7189538293e+01    0.1416813     0.130009 -83.99 -1.254885e-05    1.044    0.042
       298  -9.6965    157.9366     38.7719   4.9950254235e+01   4.0791065586e+01    0.2838508    0.2433419 -37.04 0.0009718107    1.229    0.186
       299  -8.3714    165.9728     39.5398   4.8801532249e+01   3.8677199845e+01    0.2051798    0.1321138  63.38 0.0003719299    1.458    0.314
       300  -8.8115    133.9125     29.6677   5.1575451366e+01   4.7882602727e+01    0.5295428    0.2932143   1.68  0.002053091    3.110    0.678
       301  -9.5904     25.1899     38.7526   9.2223653344e+01   6.6492944401e+01    0.1983233    0.1556407 -26.47 0.0005865255    1.012    0.012
       302  -9.0729    238.6016     37.6799   3.9126448688e+01   2.1699227712e+01    0.1741718    0.1521972  22.45  0.001083889    1.640    0.390
       303  -9.8156     86.3360     35.5676   6.6115834259e+01   5.7848280056e+01    0.6466071    0.2132679 -35.79  0.002412082    3.048    0.672
       304  -9.3125     81.8349     32.1443   6.6192946567e+01   5.9209860818e+01    0.4264825    0.1366279  44.10  0.001589915    2.885    0.653
       305 -10.0425     76.6105     34.7560   6.9044781623e+01   5.9839695848e+01    0.5578808    0.2559529  49.79   0.00241235    2.369    0.578
       306 -10.0999     75.4455     27.6062   6.6447127260e+01   6.1042005769e+01    0.4163908    0.2995407 -33.47  0.002364879    1.480    0.324
       307  -9.2416     71.5084     29.5210   6.8651962490e+01   6.1513227449e+01    0.2370562    0.1843634  27.81 0.0006917385    1.173    0.147
       308 -10.4261    209.1527     34.0855   4.1352445216e+01   2.8807762907e+01    0.3952747    0.3217165  16.13  0.002233641    1.746    0.427
       309  -9.1870    100.2391     26.7443   5.8460887299e+01   5.6077147411e+01    0.4029052    0.1430953  46.44  0.001029063    2.486    0.598
       310  -9.4445    163.4889    246.1208   9.6833494778e+01   4.9035531770e-01    0.1656735    0.1242824 -41.40   0.00103102    1.586    0.370
       311 -10.6039    117.2889     32.7092   5.6339303144e+01   5.1485620960e+01    0.2542213    0.2321664  -2.85 0.0001999448    1.135    0.119
       312 -10.9552    113.7146     32.3002   5.7066039997e+01   5.2365487117e+01    0.3763685    0.2396749 -46.62 0.0001947861    1.879    0.468
       313  -9.3116    144.0133     34.9788   5.1332281706e+01   4.4748661637e+01    0.3295975    0.1544786  41.30  0.001292067    2.413    0.586
       314 -10.2155    144.5970     29.5985   4.9476347427e+01   4.5261369322e+01    0.5773762    0.4724551  33.35  0.002757985    1.298    0.230
       315  -8.6519     95.1623     35.3833   6.3306614711e+01   5.6063546655e+01    0.1833148     0.128189  59.97 0.0003404117    1.639    0.390
       316  -8.1225     67.2878     34.3343   7.2243421412e+01   6.1572699202e+01    0.1369345   0.09268546   2.54 0.0007017254    1.628    0.386
       317  -8.9018     47.3739     34.4265   8.0340337694e+01   6.4656567813e+01    0.2022501    0.1138187  25.64  0.001047169    1.812    0.448
       318  -9.3880    233.5149     32.3249   3.8415776971e+01   2.3492255624e+01    0.3165346     0.157507 -61.42  0.001496987    2.059    0.514
       319  -8.5964    215.4493     33.4638   4.0502314599e+01   2.7417300383e+01    0.1342048    0.1137156 -70.87 3.375161e-05    1.029    0.028
       320  -8.9515    202.9348     32.1669   4.1591882147e+01   3.0523863877e+01    0.2361109    0.1745508   9.02  0.001209726    2.082    0.520
       321 -10.7277    186.9983     30.5005   4.3131298140e+01   3.4593103368e+01    0.5361652    0.2889442  49.70  0.002058838    1.991    0.498
       322 -10.1590    182.8352     28.3640   4.3099787768e+01   3.5876319467e+01    0.2848675    0.2449121  69.30  0.001116129    1.112    0.101
       323  -9.2601    153.4049     31.5895   4.8526972671e+01   4.2830029548e+01    0.4680101    0.1694043  47.43  0.001495963    2.834    0.647
       324  -8.5449      1.3758    244.2209   1.2744231420e+02   2.2695165528e+01    0.1422594   0.07329722  81.11 0.0003552393    1.553    0.356
       325 -10.7864     34.4012     29.1696   8.3979509895e+01   6.7171194775e+01    0.7236757    0.4124383  18.08  0.003996177    1.824    0.452
       326  -9.4499    202.9465    242.1641   8.8613353888e+01  -4.9479871557e+00    0.1887008    0.1441955  16.86 0.0005215118    1.072    0.067
       327  -8.9706    246.7412    238.9982   8.0172369544e+01  -1.0614135279e+01    0.1433148   0.08682961 -26.06 0.0004117267    1.555    0.357
       328 -11.3106     24.7135     30.8920   8.9393620360e+01   6.7934351381e+01    0.3260863    0.2622526  20.96  0.001251484    1.407    0.289
       329 -11.3064     19.1972     29.1575   9.1456700249e+01   6.8751813491e+01    0.2864113     0.222965  17.16  0.000399739    1.405    0.288
       330  -9.1922    221.5677    237.2535   8.4355159162e+01  -6.9799089156e+00    0.1620449    0.1007959 -17.64 0.0009141191    1.636    0.389
       331  -8.2952    139.7062    236.6999   1.0030331355e+02   5.7936004255e+00    0.1217781   0.09506769   6.87 0.0006845621    1.569    0.363
       332  -8.8686     32.0058    232.5096   1.2141143469e+02   2.1774089448e+01    0.1626892   0.06229616  55.82 0.0003793536    2.215    0.548
       333  -9.1157    186.3289    231.3375   9.0096845310e+01  -8.1534519418e-01    0.1337161   0.08986648   4.68 0.0007051927    1.731    0.422
       334  -9.5037    247.8689     30.8112   3.6809661296e+01   2.0621004749e+01    0.1750491    0.1594293 -76.59  0.001116299    1.188    0.158
       335 -10.4985    164.8721     26.5064   4.5118603075e+01   4.0562643392e+01    0.7925152    0.3779921  48.23    0.0033987    2.151    0.535
       336  -8.4952    176.5197    231.4958   9.2071885280e+01   7.2508587229e-01    0.1298399    0.1095409  23.96 0.0008103428    1.006    0.006
       337  -8.6757    162.1423    224.8399   9.3954888610e+01   4.1783637749e+00    0.3108417    0.1780199 -67.25  0.001297765    3.399    0.706
       338 -10.9274    222.1537     26.6709   3.8211594994e+01   2.6726181793e+01    0.3878431    0.3492596  12.39  0.001280961    1.532    0.347
       339  -8.4723    195.7817     29.0790   4.1652493998e+01   3.2624071638e+01    0.1653402    0.1049131 -36.48 0.0005218138    1.583    0.368
       340  -8.3078     94.6165     29.7499   6.1240630065e+01   5.6920051543e+01    0.1447942    0.0911686  28.21 0.0006953261    1.659    0.397
       341  -9.7898    213.6913     25.4940   3.8774012113e+01   2.8808726981e+01    0.4524608    0.2676788   5.63  0.001749913    4.206    0.762
       342  -8.6556    207.5312     26.5089   3.9664916148e+01   3.0127305596e+01    0.1332844    0.1146638 -76.15 2.546624e-05    1.010    0.010
       343  -9.8841    205.3084     23.1939   3.9085764056e+01   3.1044744240e+01    0.2693217      0.23306 -36.36 0.0008970253    1.273    0.215
       344  -8.7212    223.7095    225.0497   8.1893199459e+01  -5.6139442182e+00    0.1725799    0.1364821  -0.65 0.0006480285    1.071    0.066
       345  -8.8403    131.8809    225.1504   1.0034019623e+02   9.1323373023e+00     0.199821    0.1663548  62.26 0.0006025896    1.245    0.197
       346  -9.6748    170.5082     23.7072   4.3479598762e+01   3.9474910232e+01    0.4159759    0.2246686  81.57 0.0008555165    2.025    0.506
       347  -9.7359    174.5918     22.7978   4.2657867316e+01   3.8561549828e+01    0.3657098    0.2102604 -48.75  0.001455626    1.800    0.444
       348  -8.4675      2.0113    224.4782   1.2645989946e+02   2.6437309228e+01    0.1455486   0.09296369  43.92   0.00042396    1.509    0.337
       349  -8.9863    196.4879    222.5074   8.6635360196e+01  -1.0595395188e+00    0.1328139    0.1083236  11.45 -0.0001646235    1.074    0.069
       350  -9.0904     88.6436    220.9539   1.0900557432e+02   1.6745473409e+01    0.2089652    0.1686104  35.16 0.0005893255    1.299    0.230
       351  -9.1729    203.0756    217.9188   8.4554881792e+01  -1.3959153794e+00    0.1929366    0.1597961  10.03 0.0003064715    1.033    0.032
       352  -8.6771     70.4363     21.5218   6.5541840348e+01   6.2748568907e+01    0.3089717    0.1020582 -36.25  0.001215634    3.180    0.686
       353  -9.4166     61.7367     23.3173   6.9560298141e+01   6.4064924075e+01     0.280861    0.2179889 -24.00  0.001732213    1.279    0.218
       354  -9.1593    231.0422    209.1573   7.7704275388e+01  -4.4133714850e+00    0.1956045    0.1440312   2.65 0.0004181009    1.227    0.185
       355  -8.9886     35.5074    201.4883   1.1841542190e+02   2.7883337427e+01    0.1250391   0.09951326  76.94 -9.573027e-05    1.010    0.010
       356  -9.3641    189.2534     21.4989   4.0451057772e+01   3.5097830942e+01    0.3157008    0.2188739  23.28  0.001591556    2.150    0.535
       357  -8.2625     66.0000     22.9188   6.7770929068e+01   6.3375890689e+01     0.196404   0.06882685 -31.34 0.0006625269    2.851    0.649
       358  -9.7618    132.6056     21.3071   4.8985195764e+01   4.9141324687e+01    0.2736491     0.244254  31.08  0.001640792    1.142    0.124
       359  -8.4052    120.5014    199.4546   9.9049997434e+01   1.6151571590e+01    0.1416901    0.1262021  57.56 0.0002743451    1.060    0.056
       360  -8.9386      6.4249    194.7595   1.2399560380e+02   3.2259219192e+01    0.1574005   0.08813087 -70.89 0.0005586593    1.591    0.372
       361  -8.0736     92.3108    188.2948   1.0396395492e+02   2.3259180622e+01    0.1313731    0.1108117 -19.65 0.0006693881    1.592    0.372
       362  -9.2112    109.3991     21.7806   5.4180487213e+01   5.4589559372e+01    0.2479933     0.185995   1.78 0.0007988567    1.475    0.322
       363 -11.0658    104.9823     20.8913   5.4926872968e+01   5.5688826477e+01    0.2660659    0.2292297  54.71 0.0003008781    1.145    0.126
       364  -8.6888     10.3993     22.5796   9.3389771380e+01   7.0610105756e+01    0.1152699   0.08669675 -25.34 9.590953e-05    1.017    0.017
       365  -9.2750     55.2320    181.4097   1.1194442938e+02   3.0140402662e+01     0.226746    0.1650996 -74.61 0.0004482178    1.258    0.205
       366  -8.1708    236.6620     25.3505   3.6589528456e+01   2.3673466667e+01    0.1409729   0.07554504 -62.87 0.0007045367    1.792    0.442
       367 -10.3724    217.9736     18.9994   3.6825994994e+01   2.8584032311e+01    0.4945641    0.2412788  83.07  0.002343347    2.098    0.523
       368  -8.5888    124.2908     23.2174   5.1334702743e+01   5.0943642410e+01    0.3752221    0.2294742  78.62 0.0009947666    2.048    0.512
       369 -10.2627     93.5539     19.5333   5.7407809331e+01   5.8349520425e+01    0.2949426    0.2357431  27.58  0.001294051    1.132    0.117
       370  -9.8220    199.2834     17.8786   3.8400016737e+01   3.3081480884e+01    0.2974162    0.2281478 -59.84 0.0009935054    1.216    0.178
       371  -9.3091    235.1847     18.6262   3.5248972609e+01   2.4793267669e+01    0.2295768    0.1102273  67.68  0.001166236    2.029    0.507
       372  -9.8458      7.3352    174.9416   1.2245385260e+02   3.6629106057e+01    0.1769893    0.1291786 -87.93 0.0008089042    1.080    0.074
       373  -9.3638     17.9484    174.5048   1.2001374619e+02   3.5811009827e+01    0.1692012    0.1188358  34.58  0.001040576    1.614    0.380
       374 -10.0910    144.7131     17.2189   4.5455431347e+01   4.6589637949e+01    0.3397506    0.2200031  53.50  0.001330948    1.392    0.282
       375  -9.4030    208.0051     16.7552   3.7240249382e+01   3.1143583634e+01    0.1918272    0.1674078  63.15 0.0005636091    1.266    0.210
       376  -9.5369    209.6745     13.6953   3.6347926730e+01   3.1090185201e+01    0.2508708    0.1669979  56.70 0.0009917666    1.613    0.380
       377 -10.6394     18.1707    164.6517   1.1908661994e+02   3.8108478905e+01    0.2473958    0.1899966 -12.83   0.00150195    1.960    0.490
       378 -10.2351      7.2827    166.5569   1.2182419408e+02   3.8572931437e+01    0.2497163    0.1251589  20.44  0.001301248    2.660    0.624
       379 -11.6464     37.7245    159.5380   1.1367826264e+02   3.7441856256e+01    0.6105242    0.3729772  61.01    0.0028886    1.705    0.413
       380 -12.1332     30.7337    154.9637   1.1494018775e+02   3.9272189312e+01    0.6046137    0.4350078  68.40  0.002659439    1.369    0.269
       381 -10.7241      1.9681    155.5003   1.2219626562e+02   4.1560720109e+01    0.7083848    0.1220538 -71.54  0.002489734    3.814    0.738
       382 -10.6748      4.1017    146.3748   1.2088882253e+02   4.3569959016e+01    0.3997011     0.233918  79.02  0.001868664    1.618    0.382
       383  -8.4001    103.3681     16.2687   5.3519041582e+01   5.6534642819e+01    0.1438015    0.0854281  34.33 0.0006994577    1.662    0.398
       384  -9.6481      5.4979    141.3389   1.2005904392e+02   4.4676085198e+01    0.2487995    0.1941339 -69.27 0.0007046354    1.133    0.118
       385  -9.5413    249.7927    153.6526   6.3413298597e+01   1.2956729962e+00    0.1936509    0.1501029 -20.95  0.001132852    1.132    0.117
       386  -8.5057    154.7425     13.8848   4.2839815549e+01   4.4434428965e+01    0.1714807    0.1587372  80.56 0.0004076782    1.050    0.047
       387  -8.9042    139.3293     13.7797   4.5239828142e+01   4.8254981588e+01    0.2272478    0.1675227  59.78 0.0007068575    1.191    0.160
       388 -10.9911     12.2149    151.7400   1.1933632811e+02   4.1687513613e+01    0.3712358    0.2684492 -88.63  0.002319571    1.147    0.128
       389  -9.8289     45.9539    151.3180   1.1045083310e+02   3.8559266209e+01    0.2319152    0.1698318 -67.28 0.0003408575    1.206    0.171
       390 -10.4467     24.5957    162.8021   1.1734221366e+02   3.7964320517e+01    0.2199451    0.1995829  82.39 0.0002448753    1.147    0.128
       391  -8.9104    230.2135    147.6485   6.5390117871e+01   5.7409417575e+00    0.1850577    0.1265088  32.17 0.0004226623    1.617    0.381
       392  -9.7463     54.2575    146.0057   1.0739276653e+02   3.8899323308e+01    0.2103112    0.2029439  23.03 0.0002233548    1.222    0.181
       393 -10.5752     13.2827    144.1966   1.1830602239e+02   4.3419888274e+01     0.328622    0.2359642 -73.92  0.001424625    1.132    0.116
       394 -10.6959     19.0836    140.6412   1.1636625137e+02   4.3821103180e+01    0.3916972    0.2224729  22.55  0.002084466    2.177    0.541
       395  -8.8836     41.4607    139.2669   1.0996494312e+02   4.2050773054e+01    0.1883365     0.118076 -81.02 0.0009365237    1.554    0.357
       396 -10.9335      7.0328    123.8855   1.1778585064e+02   4.8773372725e+01    0.3692411    0.2190757 -42.52  0.001315602    1.809    0.447
       397 -10.8194      2.1130    135.9110   1.2042696102e+02   4.6198819914e+01    0.4806597    0.1832102 -70.71 0.0009600706    1.980    0.495
       398 -10.0535      3.3888    129.8006   1.1946640388e+02   4.7581567940e+01    0.2855163      0.15227 -62.15  0.001288952    1.515    0.340
       399  -9.2141    236.1282    136.8661   6.2012757183e+01   6.5148562418e+00    0.2074512    0.1805817 -52.81 0.0005743063    1.263    0.208
       400  -9.9107     34.3988    136.6972   1.1159923171e+02   4.3413985465e+01    0.2748017    0.2323746  41.15 0.0009204725    1.333    0.250
       401  -9.7992     15.2998    135.1717   1.1676791148e+02   4.5454805750e+01    0.1903912    0.1708073 -29.82 0.0007595844    1.372    0.271
       402 -10.7820     43.0319    130.9349   1.0821864353e+02   4.3959611856e+01    0.5215166    0.2932185 -44.53  0.002039449    1.866    0.464
       403  -8.4970    248.6932    133.6659   5.9316411278e+01   4.7718157813e+00    0.1369438   0.09852049  -5.72 0.0003413158    1.669    0.401
       404 -11.4388     28.6852    131.9921   1.1257498995e+02   4.5118540102e+01    0.2407792     0.210865 -83.04 0.0003232836    1.066    0.062
       405  -8.9027     23.8554    133.4553   1.1415662233e+02   4.5182665628e+01    0.1648923     0.131029  25.64 0.0004151115    1.522    0.343
       406 -10.7144      8.2244    133.1822   1.1849482662e+02   4.6450563010e+01    0.4417216    0.1374395 -48.15  0.001727836    3.424    0.708
       407 -10.3911     19.9926    130.6344   1.1489245409e+02   4.6195353297e+01    0.3433155    0.2408996  86.38  0.001387364    1.381    0.276
       408  -9.9585     34.2187    128.0582   1.1037772899e+02   4.5575355662e+01    0.3545403    0.1750279 -62.70  0.001387361    1.673    0.402
       409  -8.3817    230.6842    137.2943   6.3016788755e+01   7.4618133230e+00    0.1349495    0.1084093 -66.31 0.0004679758    1.602    0.376
       410  -9.5116     61.7891    131.1127   1.0267476353e+02   4.1669168192e+01    0.2414731    0.2142397 -84.12 0.0005568697    1.100    0.091
       411  -8.7634     30.1161    125.7952   1.1125632256e+02   4.6520415620e+01    0.1998256    0.1573353 -89.00  0.001167984    1.226    0.184
       412  -8.7157    217.6257    124.8046   6.2409349634e+01   1.2270665515e+01    0.2155907    0.1242436 -45.42 0.0009499358    1.665    0.399
       413  -8.6029     59.5918    125.5034   1.0227019414e+02   4.3357020619e+01     0.143044     0.126302 -65.83 4.174192e-05    1.020    0.020
       414  -9.6269     37.0415    123.8000   1.0885331182e+02   4.6355325435e+01     0.360705    0.1850492  65.38   0.00139977    2.993    0.666
       415  -9.5719     32.7813    121.9325   1.0985075550e+02   4.7229045567e+01    0.2162106    0.1540178 -50.57   0.00121029    1.306    0.234
       416  -9.5280     71.8712    123.7255   9.8159632737e+01   4.2111684934e+01    0.2576023    0.2163344 -78.90            0    1.223    0.182
       417  -9.1109    123.5703    120.9876   8.2419805488e+01   3.3560139113e+01    0.2241828    0.2106427  44.20 0.0003160523    1.087    0.080
       418 -11.0241     28.2107    116.1788   1.1033884921e+02   4.9059336403e+01     0.414156    0.3179132 -77.87   0.00105433    1.191    0.160
       419 -10.2140     32.5479    112.5635   1.0835373365e+02   4.9557488453e+01    0.4685964     0.228453  85.50  0.001627311    4.009    0.751
       420 -10.8228     21.0850    119.7857   1.1309090533e+02   4.8766221067e+01    0.5491781    0.3133929  69.39  0.002666204    2.230    0.552
       421 -11.2589     13.6923    113.7805   1.1450052813e+02   5.0773630440e+01    0.5599445    0.3593526 -12.97  0.003093498    2.118    0.528
       422  -9.0732    237.1902    120.6294   5.8207738500e+01   9.1063270772e+00    0.1897025    0.1278026  37.43 0.0009526041    1.746    0.427
       423 -10.0802     93.7810    118.9440   9.0434586418e+01   3.9760625353e+01    0.3233535    0.2653172   1.53  0.001592868    1.490    0.329
       424 -10.0488     43.0147    119.3160   1.0623732380e+02   4.6851833416e+01    0.3268909    0.2359903  41.51 0.0009299678    1.549    0.354
       425  -9.3869     72.6419    118.9070   9.6879664483e+01   4.3188921027e+01    0.3000707    0.1803157  51.64  0.001316922    1.977    0.494
       426 -10.5684      2.6477    115.3290   1.1806087235e+02   5.1094126151e+01     0.523748    0.2801479  85.71  0.002688847    1.978    0.495
       427 -11.1001     15.7506     97.7911   1.1134910369e+02   5.4472515445e+01    0.4114947      0.33102  73.59 0.0004760416    1.437    0.304
       428  -9.6313      1.9256     92.8713   1.1527097761e+02   5.6447041774e+01    0.3243977    0.1847042  24.88   0.00186197    2.145    0.534
       429  -9.7314      3.1537    103.3873   1.1637679778e+02   5.3909888274e+01    0.4019812    0.1521028 -73.37  0.001814008    2.190    0.543
