#   1 NUMBER                 Running object number                                     
#   2 MAG_AUTO               Kron-like elliptical aperture magnitude                    [mag]
#   3 X_IMAGE                Object position along x                                    [pixel]
#   4 Y_IMAGE                Object position along y                                    [pixel]
#   5 X_WORLD                Barycenter position along world x axis                     [deg]
#   6 Y_WORLD                Barycenter position along world y axis                     [deg]
#   7 A_WORLD                Profile RMS along major axis (world units)                 [deg]
#   8 B_WORLD                Profile RMS along minor axis (world units)                 [deg]
#   9 THETA_WORLD            Position angle (CCW/world-x)                               [deg]
#  10 FWHM_WORLD             FWHM assuming a gaussian core                              [deg]
#  11 ELONGATION             A_IMAGE/B_IMAGE                                           
#  12 ELLIPTICITY            1 - B_IMAGE/A_IMAGE                                       
         1 -11.2219    208.7191     30.1514   4.7915627723e+01   2.9167262952e+01     0.700893     0.526603  62.77  0.003758105    1.315    0.239
         2 -11.6223    226.4874      9.9029   4.0836974911e+01   2.7174598220e+01    0.7216696    0.5567686 -67.39   0.00287389    1.158    0.137
         3  -8.7372     33.0000      3.9503   8.2316841779e+01   7.0813618676e+01    0.3167474   0.05628715 -37.42  0.001060455    5.017    0.801
         4  -9.8172    124.3349    249.3430   1.1188612946e+02   7.7826648027e+00     0.161165     0.152479   2.31  0.001218258    1.449    0.310
         5 -10.9866    114.7700    246.7490   1.1333535589e+02   9.6423889275e+00    0.5866616    0.2142103 -61.58  0.002780966    3.501    0.714
         6 -11.6243     99.5975    248.9850   1.1625225077e+02   1.1529807188e+01    0.6639549    0.2871272  37.44  0.003437198    2.180    0.541
         7 -10.4831     83.0000    243.4443   1.1869402955e+02   1.4804472369e+01    0.2843845     0.121906 -67.44  0.001537835    2.624    0.619
         8 -11.1195     73.0649    245.5000   1.2059490429e+02   1.5809023187e+01    0.2948363     0.267167  81.98  0.001901492    1.359    0.264
         9 -12.6358     32.7555    213.8467   1.2546525332e+02   2.6559183039e+01    0.8146039    0.7968406  44.34   0.00246415    1.596    0.374
        10 -14.0460     44.2517    202.1275   1.2245144714e+02   2.7579331851e+01     2.771159     1.119544  63.10   0.01313538    2.550    0.608
        11 -12.0359    112.8537    228.8139   1.1177937412e+02   1.2920193037e+01    0.6242576    0.4183317  47.83  0.003839727    1.218    0.179
        12 -12.0540     24.6169    232.7283   1.2799229197e+02   2.3909098024e+01    0.7561781    0.2953917  49.53 0.0009817979    1.914    0.478
        13 -10.5337     45.4979    228.4391   1.2416554252e+02   2.2332750387e+01    0.2387783    0.2054385   1.55  0.001695887    2.177    0.541
        14 -10.8166     96.6207    227.2743   1.1469734449e+02   1.5669542380e+01    0.4214512    0.1536247  51.39  0.001901131    2.410    0.585
        15  -8.7508    163.7624    225.7483   1.0161909276e+02   5.0715957359e+00    0.1746237    0.1052176 -61.62 0.0008948959    2.433    0.589
        16 -15.1814      7.3067    238.9112   1.3106656877e+02   2.4580954737e+01     12.25769      1.98485 -79.29   0.04789012    5.699    0.825
        17 -11.2783     44.7846    221.1150   1.2378537669e+02   2.3787118400e+01    0.3355409    0.2597701  70.08  0.002480143    1.070    0.065
        18 -11.2405    126.6183    230.2696   1.0932594344e+02   1.0491517885e+01    0.4349212    0.2780882 -46.72  0.002539053    2.006    0.502
        19  -8.8182     74.6362    190.0438   1.1508373337e+02   2.6183472314e+01    0.1810168    0.1455925  87.46  0.001139682    1.110    0.099
        20 -12.5629     10.4879    206.9203   1.2904768183e+02   3.0187154963e+01    0.9162173     0.644349  32.56  0.003689892    1.840    0.456
        21 -10.0414     61.2550    184.2037   1.1729951182e+02   2.9242393649e+01     0.337282     0.247131 -44.31  0.001442223    1.885    0.470
        22 -10.9201     83.0000    228.5218   1.1737561149e+02   1.7422563176e+01    0.3580475    0.1795826 -72.14  0.001968285    2.192    0.544
        23  -9.8361     66.9546    177.8135   1.1533493228e+02   2.9883480719e+01    0.2548779    0.2266483 -66.58 0.0004767161    1.280    0.219
        24 -11.0739     83.2870    223.4085   1.1683898238e+02   1.8319440762e+01    0.5018352     0.206365  55.91  0.002391445    2.283    0.562
        25  -9.4021     76.7966    167.3539   1.1175644777e+02   3.0849172727e+01     0.222885    0.2034737 -84.43 0.0003748059    1.126    0.112
        26 -11.3545     63.9614    163.8362   1.1429558075e+02   3.3415631786e+01    0.4581591    0.2701436 -46.47  0.001456194    2.117    0.528
        27 -10.8833     83.4382    160.4935   1.0918800860e+02   3.1432488531e+01    0.5706694    0.4250056 -48.18  0.001466374    1.521    0.342
        28 -10.7419     32.6792    155.8687   1.2069442346e+02   3.8862165684e+01    0.8237149    0.1075744 -71.54  0.002083739    7.422    0.865
        29 -10.3292     66.4151    244.5614   1.2167008316e+02   1.6846422206e+01    0.2501301    0.1611906  79.66  0.001019631    1.412    0.292
        30 -10.2491     70.4853    145.4695   1.1008189877e+02   3.6800429284e+01    0.3515149    0.2652756 -83.78  0.001096074    1.256    0.204
        31 -10.9113     67.6012    142.7628   1.1039647421e+02   3.7832793514e+01    0.4992405    0.3529964  43.74  0.001723128    1.475    0.322
        32  -8.9831     98.0282    145.4971   1.0305147129e+02   3.2578510240e+01    0.2168996     0.138943  41.23 0.0006570774    1.589    0.371
        33 -10.2045     86.0969    144.0596   1.0584454352e+02   3.4842388708e+01    0.2926032    0.2676761 -75.00 0.0005179436    1.062    0.059
        34  -9.0446    109.7136    132.9783   9.7545855763e+01   3.3439407349e+01    0.2121122    0.1924016 -61.83 0.0007652717    1.073    0.068
        35 -10.2534     73.2829    154.8592   1.1081395154e+02   3.4213290987e+01    0.4775775    0.2194974 -71.58  0.002014389    2.308    0.567
        36  -9.3064     58.5006    129.4953   1.1067057929e+02   4.2164599230e+01    0.1352195     0.117113 -76.54 0.0008106687    1.007    0.007
        37  -9.2350     96.3290    129.4817   1.0036412235e+02   3.6616743583e+01    0.2884339    0.2317965 -31.00  0.001108509    1.493    0.330
        38  -7.5471    106.5262    121.4194   9.5844116844e+01   3.6705949283e+01    0.1467332    0.1413096 -73.72 0.0001483653    1.018    0.018
        39  -9.5183     32.7452    106.8199   1.1428281635e+02   5.0308866371e+01    0.4040122   0.07630575 -63.64    0.0013361    3.734    0.732
        40 -11.0169    119.7311    243.3391   1.1208339004e+02   9.4301670781e+00    0.3587482     0.209511 -59.88  0.002153122    2.088    0.521
        41 -10.0765     83.0000    248.5091   1.1911357507e+02   1.3955679746e+01    0.2765423     0.129175 -60.42  0.001589912    2.535    0.606
        42 -11.3343    126.8330    241.1814   1.1054706756e+02   8.6726842456e+00     0.502484    0.2660515 -73.37  0.002530638    2.975    0.664
        43 -10.7735     78.5715    237.9717   1.1901937158e+02   1.6358296938e+01    0.2268228    0.1774584 -63.44  0.001612778    1.595    0.373
        44 -10.7221    134.4769    234.2196   1.0831250230e+02   8.5757528645e+00    0.3983018    0.1708857 -61.21  0.001839946    3.238    0.691
        45 -10.0719     49.9620    234.9893   1.2383069469e+02   2.0602872484e+01    0.1797672    0.1284525  66.31  0.001308331    1.023    0.023
        46 -10.4049    199.5250     35.8339   5.0675636623e+01   3.0765290812e+01    0.3975664     0.282076 -29.39  0.001996725    1.469    0.319
        47  -9.1089     33.0000     33.3646   9.5570449027e+01   6.6139277668e+01    0.3989188   0.05869221 -49.94   0.00114429    5.815    0.828
        48  -8.1226    164.0000    248.9785   1.0469829034e+02   1.6275623475e+00    0.1619099   0.06918443 -47.34 0.0008121671    3.010    0.668
        49 -10.9211    214.9345     22.4368   4.5147028852e+01   2.8560465865e+01    0.6635262    0.3007595  50.66  0.002122534    2.451    0.592
        50  -9.2800     32.5932     22.2991   9.1288109026e+01   6.8106332923e+01    0.3026496   0.09445494 -43.34  0.001310001    2.676    0.626
        51  -8.5685     33.0000     15.9176   8.8243736310e+01   6.9086040202e+01    0.1929415   0.05723241 -42.16 0.0008022283    2.941    0.660
        52 -11.4302    134.9666    245.9903   1.0960039497e+02   6.6493389873e+00    0.4317805    0.3165938  63.69  0.002859487    1.371    0.270
