#   1 NUMBER                 Running object number                                     
#   2 MAG_AUTO               Kron-like elliptical aperture magnitude                    [mag]
#   3 X_IMAGE                Object position along x                                    [pixel]
#   4 Y_IMAGE                Object position along y                                    [pixel]
#   5 X_WORLD                Barycenter position along world x axis                     [deg]
#   6 Y_WORLD                Barycenter position along world y axis                     [deg]
#   7 A_WORLD                Profile RMS along major axis (world units)                 [deg]
#   8 B_WORLD                Profile RMS along minor axis (world units)                 [deg]
#   9 THETA_WORLD            Position angle (CCW/world-x)                               [deg]
#  10 FWHM_WORLD             FWHM assuming a gaussian core                              [deg]
#  11 ELONGATION             A_IMAGE/B_IMAGE                                           
#  12 ELLIPTICITY            1 - B_IMAGE/A_IMAGE                                       
         1 -14.9028    164.5984     42.0202   7.8059764804e+01   3.8665676279e+01     1.427579     1.080161 -10.03   0.00399986    1.412    0.292
         2 -14.7789    182.0485      8.4124   6.4721430731e+01   3.7998089820e+01     2.076104    0.9427482  64.14  0.006950971    2.082    0.520
         3 -11.0431    133.8124    246.6398   1.2815044605e+02   1.0043182419e+01     0.133997    0.0980482  33.26 0.0003365915    1.044    0.042
         4 -19.8968     73.1894    168.7290   1.3254899494e+02   3.1145963015e+01     16.35165     7.513894 -69.08   0.07615735    2.397    0.583
         5 -11.4338    125.0409    243.6101   1.2947607506e+02   1.1539900883e+01    0.1287672    0.1244355   1.52 0.0005484209    1.310    0.236
         6 -11.3271     21.8169    241.8001   1.4843698278e+02   2.3020839462e+01    0.1454046    0.1008154  81.92  0.001185387    1.419    0.295
         7 -11.3138    118.9643    240.1121   1.3027722210e+02   1.2780260209e+01    0.1383184    0.1313151 -74.50 0.0008985948    1.392    0.281
         8 -10.9614     13.8225    238.6588   1.4974451404e+02   2.4205379126e+01   0.07745954    0.0640338 -77.65 0.0006610843    1.509    0.337
         9 -12.5423    153.4472    185.0800   1.1627462035e+02   1.6380641480e+01    0.4209945    0.2625334 -61.21  0.002096748    2.559    0.609
        10 -11.1821    119.0031    182.0072   1.2337814998e+02   2.2185307092e+01    0.3147901    0.1909165  56.95  0.001026066    2.055    0.513
        11 -11.6931    114.4042    178.4109   1.2391461086e+02   2.3535345680e+01    0.4419094    0.2351949  58.28  0.001590725    2.736    0.634
        12 -12.3119    199.6485    179.3522   1.0604445955e+02   9.9973919042e+00    0.4904476    0.3381169 -62.67  0.002277939    3.590    0.721
        13 -13.1900    195.6301    169.4612   1.0496679164e+02   1.2040242966e+01    0.4533798    0.3890165 -15.61 0.0008243739    1.203    0.169
        14 -12.2362    193.5923    164.7473   1.0445240038e+02   1.3067810275e+01    0.3702457    0.2974592  16.05  0.001500194    1.070    0.066
        15 -11.2362      3.8108    179.8947   1.4976677438e+02   3.5571029634e+01     0.238797    0.1761887  39.01  0.001641881    1.306    0.234
        16 -13.2575    138.4040    171.1019   1.1725840638e+02   2.1167682054e+01    0.7602369    0.5992255  50.13  0.004409391    1.368    0.269
        17 -14.0015    144.3499    169.0522   1.1556651364e+02   2.0569010496e+01    0.7983357     0.550953  69.81  0.003762093    2.544    0.607
        18 -10.8773     11.0532    174.3467   1.4792635190e+02   3.6163901084e+01    0.1540245    0.1345085 -81.79 0.0004297352    1.237    0.191
        19 -12.9134    177.9160    170.7289   1.0869372567e+02   1.4745338573e+01    0.4534102    0.3364938 -43.25  0.002613096    1.603    0.376
        20 -11.6223    165.5405    172.3486   1.1154605640e+02   1.6522534334e+01    0.2293102    0.2277328 -29.77  0.001101846    1.316    0.240
        21 -11.5304    125.7284    171.8637   1.2029053304e+02   2.3040924011e+01    0.2744923    0.2444078 -55.64  0.001085231    1.283    0.221
        22 -12.2814    113.0004    169.4207   1.2290583670e+02   2.5469095299e+01    0.4455379     0.331789  37.88  0.001602868    1.213    0.176
        23 -10.5197     25.6112    230.5844   1.4734128532e+02   2.4493704994e+01    0.1190518   0.07879526  72.00 0.0006794468    1.346    0.257
        24 -11.9625    230.0881    166.6959   9.8264305093e+01   7.0062335447e+00    0.2688929     0.159838 -39.60  0.001469002    2.041    0.510
        25 -10.5004    123.1351    165.9877   1.1994435409e+02   2.4563331830e+01    0.2036066    0.1662734  55.11 0.0004983204    1.324    0.245
        26 -10.5135     25.3984    165.0553   1.4403160823e+02   3.6964264333e+01    0.2119735     0.161037  -8.94  0.001342575    1.866    0.464
        27 -11.4247     25.2415    225.1043   1.4719085428e+02   2.5444033382e+01    0.1777656    0.1154608 -73.18  0.000862364    1.738    0.425
        28 -11.4328    129.9048    161.1659   1.1751742175e+02   2.4397107595e+01    0.2002792     0.174247  50.19 0.0004433233    1.212    0.175
        29 -10.6373    192.0593    157.9574   1.0340891556e+02   1.4348272824e+01    0.2311189    0.1470676   7.12  0.001145555    1.805    0.446
        30 -10.3883    219.3014    224.6413   1.1001158837e+02   1.6914515599e+00    0.0935201    0.0838877  28.78 0.0007037377    1.716    0.417
        31 -10.2543    139.4376    249.9736   1.2745943371e+02   8.9151796543e+00    0.1252361    0.1045449 -31.39 0.0004048516    1.539    0.350
        32 -12.8493    161.7825    153.5405   1.0878538839e+02   2.0341319299e+01    0.4140257    0.3574145  71.93  0.001901512    1.634    0.388
        33 -10.9670     23.7755    214.5549   1.4703193359e+02   2.7402589206e+01    0.2338204    0.1121849 -59.36  0.001399263    2.581    0.613
        34 -10.9938    111.7913    213.7990   1.2896942575e+02   1.7687460540e+01    0.1552096    0.1170604  57.62 0.0003353492    1.421    0.296
        35 -11.3807    174.4290    148.8432   1.0511131231e+02   1.8893251554e+01    0.2644612    0.2482095  70.33 0.0008549621    1.444    0.307
        36 -12.0733      5.1116    137.4526   1.4751575943e+02   4.4591522050e+01    0.3757611     0.294524  16.20   0.00208562    1.541    0.351
        37 -10.5404    171.9048    138.1804   1.0336183477e+02   2.1171316885e+01    0.2032105    0.1942864  45.26 0.0005771219    1.262    0.207
        38 -12.2722    160.4237    127.7296   1.0352045982e+02   2.5224680057e+01    0.4162595    0.3189534 -58.02  0.001801019    1.688    0.408
        39 -11.6389    108.9259    209.0595   1.2903828972e+02   1.8849347284e+01    0.3817694    0.2505581  80.72  0.001673638    2.381    0.580
        40 -11.1565    116.4869    212.2543   1.2782395175e+02   1.7312564796e+01    0.2234928     0.151626 -67.37  0.001376317    1.962    0.490
        41 -10.6593    167.6093    112.6183   9.8260739605e+01   2.6515798355e+01     0.284437    0.2214051 -78.58  0.001321902    2.074    0.518
        42 -10.0717    130.2619    212.5717   1.2502754634e+02   1.5386086365e+01    0.1146386   0.08483295  64.21 0.0004404611    1.792    0.442
        43 -10.8329    205.3274    110.2417   9.0256817158e+01   1.9244287891e+01    0.2835381    0.1883382  38.19  0.001049274    1.539    0.350
        44 -13.1770     11.7257    206.0221   1.4907098028e+02   2.9958614440e+01     0.416952    0.2365897  21.97  0.002236844    1.978    0.494
        45 -11.4071      8.9392    102.0837   1.4378509889e+02   5.2742719555e+01    0.2931449    0.2184319  47.98   0.00130315    1.412    0.292
        46 -12.5233    163.5494    202.7103   1.1694164937e+02   1.2127217239e+01     0.308142    0.2588105  57.17   0.00117342    1.627    0.386
        47 -12.6365    160.8471    198.0184   1.1677524180e+02   1.3223384314e+01    0.2951482    0.2637763 -60.15  0.001535708    1.573    0.364
        48 -11.7408    156.9247    199.8540   1.1784683986e+02   1.3528380859e+01     0.517919    0.3529513  68.04  0.002570052    2.980    0.664
        49 -10.9164    153.8047    194.9822   1.1775230469e+02   1.4744153395e+01    0.2590476    0.1960192  50.69  0.001372558    1.548    0.354
        50 -14.4936    153.0433     56.7431   8.5179826160e+01   3.9408381345e+01     1.324827     1.172816  26.52 0.0009748362    1.140    0.123
        51 -11.0581     16.4610    250.1858   1.4962676275e+02   2.2189517017e+01    0.1169114   0.07939561  80.27 0.0009757396    1.433    0.302
        52 -12.9677    168.5945     33.8725   7.4699336561e+01   3.8699567354e+01    0.4290782    0.3819463  12.79 0.0008911688    1.175    0.149
        53 -11.1407     13.6171     59.9169   1.3628799142e+02   6.2878894066e+01    0.2049361    0.1876016  39.41 0.0004204562    1.289    0.224
        54 -10.1288    139.6492    200.6119   1.2151609323e+02   1.5947420330e+01    0.2667019    0.1639628  30.31 0.0008468588    1.387    0.279
        55 -10.3459    141.8022     33.0269   7.9195861483e+01   4.5638216354e+01    0.2236967    0.1980474 -66.58 0.0005215991    1.266    0.210
