#   1 NUMBER                 Running object number                                     
#   2 MAG_AUTO               Kron-like elliptical aperture magnitude                    [mag]
#   3 X_IMAGE                Object position along x                                    [pixel]
#   4 Y_IMAGE                Object position along y                                    [pixel]
#   5 X_WORLD                Barycenter position along world x axis                     [deg]
#   6 Y_WORLD                Barycenter position along world y axis                     [deg]
#   7 A_WORLD                Profile RMS along major axis (world units)                 [deg]
#   8 B_WORLD                Profile RMS along minor axis (world units)                 [deg]
#   9 THETA_WORLD            Position angle (CCW/world-x)                               [deg]
#  10 FWHM_WORLD             FWHM assuming a gaussian core                              [deg]
#  11 ELONGATION             A_IMAGE/B_IMAGE                                           
#  12 ELLIPTICITY            1 - B_IMAGE/A_IMAGE                                       
         1 -10.9922    231.6323      2.2762   4.9784234775e+01   2.6261766186e+01    0.3216287    0.1186566  59.37  0.001355463    2.627    0.619
         2 -10.6049    191.0821    247.4560   1.1075561993e+02   1.6418522855e+00    0.2866873    0.2489372 -23.91  0.002296632    1.538    0.350
         3 -11.2585    241.4273    244.7848   1.0190321367e+02  -4.9891396915e+00    0.6688955     0.310241 -40.22  0.003634277    3.810    0.738
         4 -13.6786    226.3078    188.9367   9.5373482986e+01   3.1580000738e+00     3.492573     1.242124 -28.58   0.01492396    3.075    0.675
         5 -11.4175    230.4377    235.9334   1.0241509173e+02  -2.6802075049e+00    0.3775977     0.352245  49.48  0.002906435    1.978    0.494
         6 -11.9432    227.9765    222.3860   1.0076109262e+02  -9.4591307307e-01    0.7855849     0.329884 -37.86  0.004046193    3.108    0.678
         7 -13.4503    242.8898    136.4994   8.1844412550e+01   7.1302541197e+00     3.055356    0.5945212 -38.97  0.008062269    6.473    0.846
         8 -11.5588    236.0370    228.8462   1.0040298294e+02  -2.7520538862e+00    0.3891359    0.3031631 -14.85  0.001822756    1.460    0.315
         9 -11.8461    238.3227    219.4449   9.8533025580e+01  -2.1192934309e+00     0.465011    0.3325117 -18.98  0.001847572    1.494    0.330
        10 -11.4329    233.0294    212.0388   9.8219965244e+01  -5.6775151467e-01    0.4364894    0.2637015  -8.94  0.001916258    1.667    0.400
        11 -12.6884    236.3595    191.6501   9.4102217928e+01   1.2383012186e+00     2.769778    0.3613813 -32.23  0.007466613    8.186    0.878
        12 -13.9565    248.4086     74.6019   6.6379126854e+01   1.4338877168e+01     5.490368     1.356305 -22.55   0.01335852    6.632    0.849
        13 -14.8845    247.1956     20.8862   5.3173576208e+01   2.0911006237e+01     6.462039     1.805474 -19.60   0.02049667    4.558    0.781
        14 -12.8211    245.0469    190.8984   9.2482456744e+01  -1.1787925098e-02      1.15059    0.6060385 -45.09  0.005321139    3.607    0.723
        15 -11.8541    241.3340    179.2737   9.0939726788e+01   1.9258484076e+00    0.7385137    0.2674791 -30.28  0.003285437    2.735    0.634
        16 -10.5334    224.5065    249.5959   1.0535970908e+02  -3.1920438427e+00    0.2072468    0.1679697  15.56  0.001197848    1.295    0.228
        17 -11.2186    225.1393    242.3227   1.0423384916e+02  -2.5797818173e+00    0.3492187     0.223735 -25.43  0.002455444    1.825    0.452
        18 -10.9940    209.7257    248.9819   1.0775404095e+02  -1.1228702106e+00    0.3208995    0.2281602  25.39  0.001726906    1.054    0.051
        19  -9.6347    139.9471    248.9878   1.1996722719e+02   8.6899330770e+00    0.1777755    0.1322223  37.22  0.001317758    1.028    0.028
        20  -9.1740    124.2291    249.2650   1.2279033865e+02   1.0811450549e+01    0.1363025   0.08842954 -78.39 0.0008860682    2.398    0.583
        21 -11.0621    233.1293    246.3660   1.0348465667e+02  -4.0404990591e+00     0.302136    0.2178242   6.55  0.001255886    1.197    0.165
        22 -10.2789    175.9913    246.3257   1.1325949478e+02   3.9158227916e+00    0.2356499    0.1663649 -30.96   0.00155594    1.823    0.452
        23  -9.3803    163.4271    246.7206   1.1553509070e+02   5.6631490524e+00    0.1610953     0.112858 -51.81  0.000943162    2.073    0.518
        24  -9.2176    156.5706    247.2524   1.1681728358e+02   6.5732503270e+00    0.1283362    0.1021704 -14.64 0.0009471835    1.619    0.383
        25  -9.0893    132.3821    246.8141   1.2109753443e+02   1.0024194383e+01    0.1268149    0.1019281 -30.08 0.0007176274    1.730    0.422
        26  -9.3553    112.7851    245.9733   1.2452687650e+02   1.2801783083e+01    0.1179375   0.08912372 -64.55 0.0008795251    1.731    0.422
        27  -9.6707    103.4956    244.0045   1.2601672659e+02   1.4307414828e+01    0.1346267    0.1061572 -73.20  0.001035843    1.598    0.374
        28 -10.2224    201.6650    241.9137   1.0818525841e+02   7.4169879883e-01    0.2046161    0.1886116   1.02  0.001201051    1.458    0.314
        29  -9.7629    169.1802    241.7684   1.1391519382e+02   5.4389712849e+00    0.1963071    0.1490788 -11.34  0.001397584    1.622    0.384
        30  -9.4495    125.0000    241.9600   1.2194607847e+02   1.1706462034e+01    0.1452434   0.06494346 -55.93 0.0008064849    2.971    0.663
        31 -10.1187    219.7402    239.9157   1.0480059243e+02  -1.5959562167e+00    0.2072029    0.1436309 -23.13 0.0009123993    1.678    0.404
        32  -9.9695    214.0633    240.5992   1.0586518756e+02  -8.7233326602e-01    0.1886567    0.1511008  -4.97 0.0009736607    1.347    0.258
        33  -9.2035    117.5964    240.7966   1.2318000523e+02   1.2886409384e+01    0.1329415    0.1015061  88.58  0.000954036    1.700    0.412
        34 -10.1981    183.3802    239.1819   1.1104341924e+02   3.6843414245e+00    0.2181809     0.206112   2.15  0.001370487    1.399    0.285
        35 -10.1974    159.0907    237.9639   1.1528155346e+02   7.3837712990e+00    0.2471482    0.1828386 -53.93  0.001724042    1.917    0.478
        36  -9.1232    148.4577    239.4921   1.1740354920e+02   8.7269292476e+00     0.115203   0.08639162  36.53 0.0001928427    1.005    0.005
        37 -10.9090    190.7662    234.5022   1.0909688418e+02   3.1505857536e+00    0.3579919    0.2997629 -39.89  0.002474016    1.692    0.409
        38 -11.1110    204.8458    234.6651   1.0662362137e+02   1.0750323075e+00    0.3215545    0.2969004 -19.28  0.001750928    1.551    0.355
        39 -10.3778    176.8246    235.0016   1.1167784205e+02   5.1484006134e+00    0.3153508    0.1635604 -33.96  0.001767723    2.494    0.599
        40 -11.2144    216.2190    233.0742   1.0441311432e+02  -3.9088499099e-01     0.353552     0.281493  -5.46  0.001808478    1.325    0.245
        41  -9.1269    138.7824    235.9823   1.1878952864e+02   1.0594555443e+01    0.1242753   0.09560355 -51.28 0.0008793334    1.714    0.417
        42  -9.3138    170.5031    234.0616   1.1270855664e+02   6.2016072220e+00    0.1446554    0.1142035 -29.75  0.001029607    1.589    0.371
        43  -8.7265    152.6687    233.6741   1.1594863033e+02   8.8892520600e+00    0.1152756   0.07854054  14.47    0.0007051    1.708    0.415
        44  -9.4767    122.6810    232.4658   1.2141146171e+02   1.3388206534e+01    0.1689453    0.1067978 -56.73  0.001091559    2.038    0.509
        45  -9.0109    133.6604    231.6627   1.1926581896e+02   1.1940590129e+01    0.1128115   0.08128428  12.18 0.0007050854    1.759    0.432
        46  -9.3451    174.0774    228.3483   1.1129947036e+02   6.3936295763e+00    0.1859878    0.1485122  -0.47  0.001301283    1.371    0.271
        47 -10.2959    211.7314    226.9223   1.0428369542e+02   9.2821779305e-01    0.2642597    0.1792183 -18.40  0.001252319    1.611    0.379
        48 -10.3170    198.8014    226.4897   1.0652127775e+02   2.8966705965e+00    0.2347046    0.1898132 -10.24  0.001061806    1.353    0.261
        49  -9.3511    184.4908    227.5158   1.0926740550e+02   4.9259825136e+00    0.1894194    0.1159731 -35.85 0.0008148135    2.023    0.506
        50  -8.8597    138.4720    228.4771   1.1799723353e+02   1.1698568711e+01    0.1180528   0.09124045  38.48 0.0001054624    1.001    0.001
        51 -10.3037    223.1345    226.2690   1.0219777589e+02  -6.6066551143e-01    0.2408013    0.1743477  -0.62  0.001034704    1.282    0.220
        52 -10.0481    190.4329    225.5507   1.0790235062e+02   4.2693654880e+00    0.2664552    0.1365814 -35.51  0.001444303    2.382    0.580
        53  -9.5599    162.8459    226.8788   1.1319877356e+02   8.2840673416e+00    0.1822074     0.137739  20.15  0.001077212    1.245    0.197
        54 -10.3365    205.9064    224.7003   1.0498330980e+02   2.0426010253e+00     0.273948    0.1797103 -25.75  0.001350369    1.745    0.427
        55  -9.5163     99.7552    232.0031   1.2565048674e+02   1.6591063546e+01    0.1252447   0.09360579 -70.99 0.0008957717    1.635    0.388
        56 -10.7647    216.8538    222.9310   1.0277661163e+02   6.1810215320e-01    0.3231969    0.2299556 -37.72  0.001649953    1.941    0.485
        57  -8.7434    155.2853    224.6601   1.1434004642e+02   9.7316989332e+00    0.1121703   0.08291114  58.75 0.0005921661    1.635    0.388
        58  -9.8984    148.2064    222.8702   1.1546427983e+02   1.1055529945e+01    0.2362684    0.1717525 -51.43  0.001557553    1.787    0.441
        59  -9.8017    180.4634    222.4275   1.0929542944e+02   6.1819853027e+00    0.2043036    0.1180825 -38.01  0.001199935    2.138    0.532
        60  -9.8196    185.8457    220.8254   1.0806427195e+02   5.5589127090e+00    0.2242842    0.1649359 -37.34  0.001482043    1.718    0.418
        61  -9.2879    174.5079    222.0043   1.1035010996e+02   7.1531929550e+00    0.1523219    0.1186486 -32.86 0.0009017711    1.579    0.367
        62 -10.6485    202.1331    218.0916   1.0466127326e+02   3.3929956972e+00    0.3786094    0.2413888 -35.80  0.002348467    1.926    0.481
        63  -9.3103    204.5451    212.2826   1.0331389802e+02   3.7281110277e+00     0.189712    0.1073757 -18.55 0.0007426414    2.119    0.528
        64 -10.6894    193.3079    218.2412   1.0630078784e+02   4.7330228126e+00     0.313378    0.2599689 -25.05  0.001649887    1.453    0.312
        65  -8.7324     56.2680    220.2664   1.3283966206e+02   2.3842541190e+01   0.08477045   0.08173019  19.63 0.0006849678    1.465    0.318
        66 -10.4480    210.7845    217.5853   1.0302150975e+02   2.1345221935e+00    0.3154038    0.1997879 -31.38  0.001494697    1.846    0.458
        67  -9.8808    209.8326    211.8923   1.0228946578e+02   2.9554231402e+00    0.2340448    0.1592591  -1.60  0.001046354    1.495    0.331
        68  -9.3267    158.5081    218.9762   1.1297854598e+02   1.0037049102e+01    0.1557394    0.1211365 -39.57  0.001037141    1.604    0.377
        69 -11.5970    217.3622    211.9678   1.0094949074e+02   1.7900855786e+00    0.5547271    0.3277347 -40.42  0.003202406    2.301    0.565
        70 -10.3447    217.2538    204.1123   9.9666494150e+01   2.7394447431e+00    0.2869046    0.1938127 -17.01  0.001162228    1.521    0.342
        71  -9.1333    119.5070    218.5130   1.2051847546e+02   1.5968521360e+01    0.1191816   0.09477282  43.62 0.0008105121    1.003    0.003
        72  -9.4863    179.5556    216.6554   1.0863469413e+02   7.0779654163e+00    0.1919708    0.1163013 -31.67  0.001118134    1.996    0.499
        73 -10.0504    170.7002    216.0008   1.1022508605e+02   8.5542650735e+00    0.2572372    0.1608242 -36.22  0.001531483    1.952    0.488
        74 -10.2853     56.0486    216.2990   1.3261383307e+02   2.4547637040e+01    0.2104778    0.1300108 -86.14 0.0006584991    1.670    0.401
        75  -9.1526    165.4147    215.2726   1.1113802788e+02   9.4847847527e+00    0.1971079    0.1164982 -35.40   0.00112019    2.099    0.524
        76  -9.8634    143.1551    215.4808   1.1550600263e+02   1.2912436889e+01    0.2024779    0.1369774 -17.39  0.001137413    2.258    0.557
        77  -9.1005    185.5948    214.8092   1.0722223597e+02   6.3744563868e+00     0.138816    0.1185618 -45.50 0.0007145676    1.629    0.386
        78  -9.5628    154.3906    213.7672   1.1307345626e+02   1.1428535286e+01    0.1496894    0.1132144 -25.70 0.0009465661    1.644    0.392
        79 -10.1044    176.8674    210.2976   1.0820531773e+02   8.3647382306e+00    0.2780843    0.1816611 -41.47  0.001530729    1.895    0.472
        80  -9.5548    200.1747    210.3242   1.0380631268e+02   4.6560884344e+00    0.1983847    0.1466383  -8.37 0.0007582456    1.405    0.288
        81  -9.4954    186.3112    210.4888   1.0642983872e+02   6.8318210548e+00    0.1986786     0.133609  -3.74 0.0009829627    1.773    0.436
        82  -9.8000    160.9637    210.4870   1.1132664212e+02   1.0873807705e+01    0.2186035    0.1660667 -14.63  0.001370261    1.608    0.378
        83 -10.1364    192.9259    209.3763   1.0500787658e+02   5.9253659773e+00    0.2394146    0.1790067 -27.79  0.001195892    1.539    0.350
        84 -10.4298    205.9756    207.0998   1.0221588506e+02   4.1460485031e+00    0.2941441    0.1890093 -19.24  0.001400087    1.701    0.412
        85  -9.0875    145.7070    208.6467   1.1409652980e+02   1.3561379855e+01    0.1205211   0.08922365   6.32 0.0007030488    1.682    0.406
        86  -9.2917    182.9816    206.7139   1.0648036873e+02   7.8762462864e+00    0.1794086    0.1358481  25.91 0.0007585926    1.060    0.057
        87  -8.9269    171.3042    207.3328   1.0883857207e+02   9.6745729762e+00    0.1259007   0.08607744  10.55 0.0005506964    1.660    0.398
        88  -9.4343    156.4804    206.0450   1.1157772533e+02   1.2249937318e+01    0.1638655    0.1250367 -40.00  0.001028813    1.584    0.369
        89  -9.7092    149.5211    206.5058   1.1303672090e+02   1.3290207678e+01    0.1259505    0.1023838  35.89 0.0008102311    1.016    0.016
        90 -10.3770    197.7646    203.2985   1.0312014888e+02   5.9453820351e+00     0.344341    0.2016661 -25.69  0.001583647    1.947    0.486
        91 -10.1141    139.4855    204.9772   1.1485443811e+02   1.5115178829e+01    0.1648998    0.1253283 -48.83 0.0009941739    1.600    0.375
        92  -9.9397    186.8515    202.8073   1.0511731503e+02   7.7847763120e+00    0.2383935    0.1787785 -37.74   0.00118112    1.627    0.385
        93  -9.3783    178.9591    203.7156   1.0678943522e+02   8.9467273317e+00    0.1816565    0.1415298  28.21 0.0009856286    1.027    0.026
        94 -10.6673    210.3923    200.7527   1.0034518301e+02   4.2405980594e+00    0.3227439    0.2261152 -41.32  0.001525911    1.920    0.479
        95  -9.5924    172.8486    203.2060   1.0790629628e+02   1.0017711128e+01    0.1755089    0.1309343  14.68  0.000874261    1.321    0.243
        96  -9.2575    192.6413    201.8012   1.0384497556e+02   6.9768461541e+00    0.1513183    0.1178894 -41.09 0.0009425337    1.662    0.398
        97  -9.9611    164.8032    201.6694   1.0926623289e+02   1.1560576532e+01    0.2078566    0.1676323 -12.70  0.001316397    1.414    0.293
        98 -10.5417    132.9976    199.0338   1.1538092670e+02   1.7107401063e+01     0.185016    0.1556269  35.55  0.001205067    1.047    0.045
        99  -9.8213    149.2331    198.2083   1.1190476841e+02   1.4642113253e+01    0.2018565    0.1613623 -37.74  0.001268072    1.483    0.326
       100 -10.6810    139.4073    198.4113   1.1396328885e+02   1.6194429798e+01    0.2932383    0.2080294 -21.24  0.001654756    1.953    0.488
       101  -9.8459    176.3141    196.8409   1.0621328221e+02   1.0373906628e+01    0.2625864    0.1493566 -34.71  0.001384816    2.052    0.513
       102  -9.4026    170.0115    197.2408   1.0753466611e+02   1.1365400259e+01    0.2187938    0.1570974 -17.19  0.001266499    1.667    0.400
       103 -10.1329    184.1360    195.6647   1.0447672485e+02   9.2368893457e+00     0.292775    0.1787923 -26.77  0.001585235    1.909    0.476
       104  -9.7185    185.2731    190.1925   1.0332802184e+02   9.8364297065e+00    0.2107985    0.1555022 -23.83 0.0009371737    1.487    0.328
       105  -9.6480    124.5153    197.4905   1.1694617274e+02   1.8691513956e+01    0.1257223    0.1062013  40.06 0.0008102701    1.027    0.026
       106 -10.5024    210.8706    181.5451   9.6833445247e+01   6.6791914908e+00    0.4183128    0.2298672 -24.96   0.00177912    1.952    0.488
       107 -10.0979    209.1538    193.9147   9.9393089262e+01   5.3187885106e+00    0.2577725    0.1729914 -25.00 0.0008673542    1.583    0.368
       108 -10.0220    210.1879    188.5316   9.8242784249e+01   5.8560482073e+00    0.2543877    0.1738312 -28.77 0.0008661867    1.579    0.367
       109  -9.8795    194.1379    193.7381   1.0220630888e+02   7.8339748718e+00    0.2305606    0.1775796 -14.92  0.000899997    1.362    0.266
       110  -9.9627    219.3399    194.1795   9.7570213113e+01   3.6286839751e+00    0.2391233     0.155745 -18.44   0.00100591    1.563    0.360
       111  -9.6101    161.9566    191.7437   1.0829289745e+02   1.3562469186e+01    0.1877575    0.1540644  32.19 0.0007874849    1.025    0.024
       112  -9.5206    205.0974    190.3723   9.9527734889e+01   6.4601831157e+00     0.214843    0.1536297 -13.45 0.0007266556    1.437    0.304
       113  -9.9814    198.7985    190.3317   1.0071863483e+02   7.5230257004e+00    0.2621748    0.1890212 -10.77  0.000971307    1.451    0.311
       114  -9.6575    172.2501    190.4802   1.0598440672e+02   1.2013704953e+01    0.2207411    0.1793506 -30.80 0.0008903891    1.401    0.286
       115  -9.6931    178.7813    189.5500   1.0451096227e+02   1.1039792547e+01    0.2247125    0.1761234 -29.32  0.001214139    1.432    0.302
       116  -9.6969    193.2941    187.5207   1.0128689929e+02   8.8526324186e+00    0.2186057    0.1454472  -4.35  0.001046433    1.752    0.429
       117  -9.8330    156.4178    187.7745   1.0880429181e+02   1.5138110193e+01    0.1708941    0.1218009 -26.61 0.0009481994    1.688    0.408
       118  -9.6651    166.5524    185.6492   1.0634287631e+02   1.3745713688e+01    0.2248867    0.1274138 -35.72  0.001123631    2.052    0.513
       119  -9.0611    150.5215    186.4898   1.0984063050e+02   1.6349927261e+01    0.1326304    0.1125658  30.55 0.0008100565    1.027    0.027
       120  -9.3676    128.6613    186.6586   1.1455870652e+02   1.9934154588e+01    0.1292198    0.0979393   2.09 0.0007049865    1.768    0.434
       121  -9.3062    189.5218    184.5005   1.0149078300e+02   9.9394106121e+00     0.211014    0.1189417 -22.82 0.0008279407    2.164    0.538
       122 -10.3312    203.3369    182.8027   9.8494345127e+01   7.7962979761e+00    0.2956556    0.2227773 -17.35  0.001133659    1.354    0.261
       123 -10.2399    202.2082    196.6913   1.0117477667e+02   6.0942110932e+00    0.2820272    0.2083844 -18.53  0.001242212    1.424    0.298
       124 -10.0215    183.8064    182.2404   1.0222650577e+02   1.1271936137e+01    0.2718078    0.1845012 -26.92   0.00149749    1.626    0.385
       125  -9.5802    154.5229    182.9759   1.0842093917e+02   1.6256896933e+01    0.1739989     0.110416 -15.86 0.0007132416    2.403    0.584
       126  -9.6509    197.3450    181.6304   9.9435623601e+01   8.9981331410e+00    0.2362877    0.1565674 -26.46  0.001232223    1.614    0.380
       127  -9.8011    176.5701    180.7445   1.0342908673e+02   1.2773203209e+01     0.227597    0.1279485 -33.78 0.0009191775    2.019    0.505
       128 -10.0939    190.9129    178.3381   1.0009477096e+02   1.0608060094e+01    0.3171966    0.2151163 -28.22  0.001410617    1.589    0.371
       129  -9.9796    215.3439    174.7414   9.4705098894e+01   6.8373329853e+00    0.4502998     0.146183 -30.70  0.001703501    3.425    0.708
       130  -9.9427    204.9892    176.5002   9.6999338044e+01   8.3963407392e+00    0.2468733    0.1685355  -9.04 0.0008296298    1.551    0.355
       131  -9.8094    197.6315    176.0995   9.8349807578e+01   9.7501278819e+00    0.2660611    0.1877364 -18.32 0.0009052783    1.486    0.327
       132  -9.3340    169.3699    176.8738   1.0423214637e+02   1.4666646799e+01    0.1835921    0.1215546 -24.90 0.0009421919    1.781    0.439
       133  -9.9255    150.3993    176.8268   1.0827878787e+02   1.8021042492e+01    0.1838683    0.1245026 -30.70 0.0009572039    1.770    0.435
       134  -9.8872    210.5744    174.7900   9.5608938351e+01   7.6598248286e+00    0.2725853     0.149277 -25.70  0.001349833    1.936    0.483
       135  -9.7238    182.1905    175.3127   1.0129279658e+02   1.2623598986e+01    0.2309779    0.1760382 -14.80  0.001309282    1.405    0.288
       136 -10.6012    101.0023    175.9966   1.1921959490e+02   2.6226653399e+01    0.1820431    0.1600661  53.47  0.001166524    1.009    0.009
       137  -9.1659    139.6754    175.6726   1.1044079079e+02   2.0077071184e+01    0.1346641    0.1012186   3.84 0.0007049494    1.695    0.410
       138  -9.4590    161.6845    174.6571   1.0546597348e+02   1.6403512640e+01    0.1395571   0.09955124   5.94 0.0007048109    1.711    0.416
       139  -9.5163    192.5818    172.7027   9.8703165166e+01   1.1157036235e+01    0.2421741    0.1262207 -29.50  0.001122226    2.139    0.532
       140  -9.1372    187.5280    171.9555   9.9576551735e+01   1.2183614001e+01    0.1854199     0.110101  -9.09 0.0008082553    2.428    0.588
       141 -10.6850    218.8404    167.2577   9.2585186405e+01   7.2535891877e+00    0.3718506    0.2543956  -3.05  0.001253804    1.465    0.317
       142  -9.4705    211.9211    168.8531   9.4195262994e+01   8.2554539783e+00    0.2073202     0.157348   7.80 0.0006868975    1.192    0.161
       143 -10.0249    205.3317    168.3781   9.5359275019e+01   9.5021227227e+00    0.2974724    0.2057325  -8.37  0.001231368    1.517    0.341
       144  -8.7993    197.2707    169.3251   9.7119663168e+01   1.0818592696e+01    0.1372857   0.09421589   6.63 0.0003628911    1.575    0.365
       145 -10.1158    178.8405    168.4162   1.0068528791e+02   1.4328287998e+01    0.2654927    0.1710436 -17.99  0.001293722    1.889    0.471
       146 -10.4990    229.1331    165.2673   9.0317293354e+01   5.7255921237e+00    0.3191924    0.2166442  -0.86  0.001592117    1.424    0.298
       147 -12.4808    235.3795    146.0812   8.5206907387e+01   7.1991162286e+00     2.172201    0.5944135 -27.37  0.006976897    4.184    0.761
       148 -10.0806    191.8869    164.2240   9.7188673264e+01   1.2585120552e+01    0.3488166     0.194079 -24.18  0.001559242    2.085    0.520
       149  -9.7503    199.7045    164.0924   9.5602748768e+01   1.1161080625e+01    0.2497608    0.1720222  -9.74 0.0009420438    1.568    0.362
       150  -9.3707    184.5691    164.7308   9.8782246883e+01   1.3863416444e+01    0.2384294     0.131588 -31.62 0.0009286439    1.984    0.496
       151 -10.6221    213.0298    162.0924   9.2626291632e+01   9.0187768179e+00    0.3927692    0.2407139 -20.81  0.001395731    1.681    0.405
       152  -8.8632    159.3286    164.3286   1.0408886271e+02   1.8611311459e+01    0.1438055    0.1032389   6.56 0.0007051112    1.708    0.415
       153  -9.9378    221.1720    161.2864   9.0946246007e+01   7.6660159316e+00    0.2447256    0.1812227 -23.44 0.0007801086    1.337    0.252
       154 -10.1768    205.4717    160.7847   9.3804458678e+01   1.0593233257e+01    0.3221375    0.2268339 -11.69  0.001415132    1.457    0.313
       155  -9.6390    176.7359    158.4753   9.9175970931e+01   1.6361494097e+01    0.2876614    0.1645418 -24.40  0.001275139    2.153    0.535
       156 -10.1808    226.6237    156.3323   8.8929998660e+01   7.3746580884e+00    0.3913544    0.2042118 -22.60  0.001261187    1.956    0.489
       157  -9.9849    228.2281    151.0698   8.7531361544e+01   7.8110199613e+00    0.2713461    0.1625158 -21.93 0.0009094027    1.617    0.381
       158  -9.8989    197.2451    156.1040   9.4456375576e+01   1.2845211288e+01     0.326477    0.2023361  -9.84   0.00150745    2.007    0.502
       159  -9.3246    221.6842    155.8006   8.9714075011e+01   8.3402587431e+00    0.1734786    0.1533659 -27.04  0.001037004    1.338    0.253
       160 -10.0877    221.4668    151.5050   8.8844742973e+01   8.9874804991e+00     0.324542    0.2121601 -15.24 0.0009299705    1.521    0.342
       161  -9.9148    216.1419    155.6155   9.0700049981e+01   9.3809008045e+00    0.2616357    0.1813917 -17.30 0.0008320082    1.410    0.291
       162  -9.2972    187.6135    155.1720   9.6219098772e+01   1.4830605861e+01    0.2018802    0.1269411 -21.93 0.0009562085    1.783    0.439
       163  -9.2970    205.9765    153.1125   9.2107319041e+01   1.1649520250e+01    0.2287978    0.1496886   8.30 0.0009126715    1.734    0.423
       164  -8.7783    192.5057    153.4849   9.4863455765e+01   1.4163269947e+01      0.14275    0.1234666  15.64 0.0002052514    1.004    0.004
       165  -9.1113    211.6051    151.2499   9.0629416849e+01   1.0864799425e+01    0.1881392    0.1214049 -16.39  0.000884284    1.608    0.378
       166  -9.1855    202.4151    150.6897   9.2286576809e+01   1.2698596250e+01    0.1911502    0.1255825 -17.51 0.0009395522    1.612    0.380
       167  -9.4244    196.7178    149.2700   9.3114371757e+01   1.4020653085e+01     0.269866    0.1553791 -12.67  0.001134765    2.336    0.572
       168  -9.8314    215.3656    148.1898   8.9261051808e+01   1.0606463133e+01    0.2720763     0.216275   0.19  0.001042245    1.143    0.125
       169 -10.2517    223.4778    145.5108   8.7184664242e+01   9.4681106768e+00    0.3400347    0.2205564  -3.99  0.001099725    1.656    0.396
       170  -8.8805    191.2874    147.3451   9.3801013915e+01   1.5390659106e+01    0.1483166    0.1029075   5.81 0.0004140961    1.651    0.394
       171  -9.0205    200.2475    144.6870   9.1411430579e+01   1.4056361369e+01    0.2170478    0.1121538 -22.07 0.0008860418    2.310    0.567
       172  -9.1766    218.5541    143.9160   8.7734860793e+01   1.0628141812e+01    0.1956451     0.110014  -5.50 0.0008058039    2.420    0.587
       173  -9.5074    208.0643    143.9613   8.9722664165e+01   1.2640992030e+01     0.233778    0.1553339   7.98 0.0009844454    1.698    0.411
       174 -10.5744    229.9570    139.8388   8.4781991034e+01   9.0582860972e+00     0.398443     0.186107 -30.49  0.001325889    2.045    0.511
       175  -9.3474    214.0128    141.5150   8.8048748047e+01   1.1855974961e+01    0.2195875    0.1708344 -16.52 0.0007634772    1.217    0.178
       176  -8.5582    194.6275    142.7014   9.2100839640e+01   1.5484755013e+01    0.1542859     0.102073  13.52 0.0007028926    1.743    0.426
       177  -9.6946    224.3319    139.2952   8.5658545801e+01   1.0198043217e+01    0.2526366    0.1494557 -17.16 0.0008448618    1.746    0.427
       178  -9.1505    181.5421    140.5061   9.4335820724e+01   1.8475314660e+01    0.1477052     0.130152  13.87  0.000808997    1.027    0.026
       179  -8.9634    166.4957    139.5042   9.7411814682e+01   2.1688785864e+01    0.1487461    0.1330807  16.87 -0.0001405541    1.034    0.033
       180  -9.8036    218.6852    137.4436   8.6268165146e+01   1.1554727855e+01    0.2878796    0.1860585  -0.91  0.001011313    1.761    0.432
       181  -9.4314    208.5074    137.0179   8.8082177993e+01   1.3620656384e+01    0.2151247    0.1336198 -27.52   0.00102944    1.592    0.372
       182  -9.3762    198.8224    136.0155   8.9749114398e+01   1.5722655264e+01    0.2401017    0.1551359  -4.38  0.001075593    1.911    0.477
       183  -9.0572    192.6326    136.1782   9.1038062631e+01   1.6953337023e+01    0.2071489    0.1306425 -21.56 0.0009468782    1.717    0.418
       184  -9.5729    216.5242    133.6424   8.5801927930e+01   1.2544204830e+01     0.396062    0.1977982  17.10   0.00132938    3.685    0.729
       185  -9.8617    225.9329    132.4508   8.3827933475e+01   1.0877124585e+01    0.2764178     0.175907  -9.24  0.001339566    1.672    0.402
       186  -9.4623    179.5065    131.4723   9.2711853891e+01   2.0457658719e+01    0.2663459    0.1384592 -25.25  0.001036506    2.353    0.575
       187  -9.0949    205.7745    130.0434   8.7000145089e+01   1.5258975040e+01    0.1873808    0.1137862 -31.53  0.000788233    1.627    0.385
       188 -10.4990    221.7040    126.6603   8.3242678805e+01   1.2554797789e+01    0.4387264    0.2859988  -5.19  0.001801038    1.694    0.410
       189  -9.1969    192.5720    128.2164   8.9196171548e+01   1.8286001673e+01    0.2098725    0.1351434 -19.36 0.0009504706    1.696    0.410
       190 -12.1351    230.6830    113.6020   7.8589906075e+01   1.2652785363e+01      1.03281    0.2907805 -26.80  0.003129292    4.052    0.753
       191 -10.8609    227.9894    124.1582   8.1551253888e+01   1.1672001651e+01    0.4439275     0.228374 -21.51  0.001934735    2.003    0.501
       192  -8.8462    217.6575    124.6695   8.3504916681e+01   1.3665724875e+01    0.1541661    0.1012441  11.60 0.0007051128    1.749    0.428
       193  -9.3770    179.9859    123.0133   9.0592333224e+01   2.1839588560e+01    0.2485839    0.1758329   6.79  0.001059835    1.704    0.413
       194  -9.2075    212.5325    121.9744   8.3805394627e+01   1.5125775030e+01    0.2196225    0.1347203 -28.16  0.001025589    1.577    0.366
       195  -9.4411    219.6532    114.2307   8.0638623169e+01   1.4823966539e+01    0.2017105    0.1257649 -20.02 0.0009372931    1.596    0.374
       196  -8.9362    223.2717    111.3502   7.9302235963e+01   1.4499556050e+01    0.1486955    0.1021558   6.09 0.0006997345    1.629    0.386
       197  -8.8484    129.6732    106.7214   9.8640343999e+01   3.5659250466e+01    0.1528957    0.1179394   4.71  0.000132135    1.593    0.372
       198 -12.1414    247.0627    241.5526   1.0051805507e+02  -5.4331214623e+00    0.7263348     0.522955 -50.99  0.004227531    4.064    0.754
       199 -10.5332    230.1652    102.3807   7.5939853876e+01   1.4367315429e+01     0.253982    0.1817114 -12.52   0.00127257    1.358    0.264
       200  -9.0594    225.2896     98.3741   7.5737102595e+01   1.5975101031e+01    0.1525208    0.1034267   8.45 0.0007021177    1.725    0.420
       201  -9.1121    128.0433     91.2524   9.4887303860e+01   3.9188991495e+01    0.1882147     0.130022  40.93 -0.000275831    1.440    0.306
       202 -10.7112    230.9296     90.1921   7.2767420186e+01   1.5935885231e+01    0.2649572    0.1831752  27.21 0.0009515324    1.574    0.365
       203 -12.0284    248.7329    180.4914   8.9923933600e+01   6.1724581581e-01     1.093351    0.2867675 -34.12  0.004222152    3.875    0.742
       204 -11.0888    230.3516     82.2363   7.0825706701e+01   1.7172614174e+01    0.2775133    0.1695152  -9.42  0.001242477    1.888    0.470
       205 -11.5670    235.4685     80.5796   6.9647858487e+01   1.6288800700e+01     0.449336    0.1653069 -23.77  0.001591164    2.878    0.653
       206 -12.4540    246.0777    162.4027   8.6811165232e+01   3.2222239821e+00     1.491279    0.4974961 -25.39  0.005836803    3.168    0.684
       207  -9.5119    225.4809     80.9979   7.1246316354e+01   1.8420468051e+01    0.2224662    0.1335374 -24.93  0.001022243    1.578    0.366
       208  -9.1552    211.3874     75.7612   7.2092504411e+01   2.2388517765e+01    0.2140402    0.1360099 -15.77 0.0009510255    1.686    0.407
       209  -9.1012    215.2980     79.3382   7.2421025382e+01   2.0962831975e+01    0.1529626    0.1081803  13.99 0.0004325228    1.658    0.397
       210  -8.8343    163.3352     70.3318   7.9700050990e+01   3.4922297026e+01     0.167691    0.1176045  17.57 0.0003931769    1.733    0.423
       211 -12.2992    242.8139    150.3011   8.4846897780e+01   5.3195189650e+00     1.540404    0.6331227 -13.09  0.004939544    4.640    0.785
       212 -13.1151    248.2845    124.0751   7.8190712528e+01   7.8011532696e+00     3.418748    0.2556171 -32.15  0.007442947    8.626    0.884
       213  -9.2228    172.2462     50.0209   7.1396722373e+01   3.5819024030e+01    0.2016276    0.1888578  -9.04 -0.000430966    1.060    0.057
       214 -11.4596    240.3607    207.8782   9.6270693675e+01  -1.1924353093e+00    0.5290161    0.2657655 -37.16  0.002354079    2.569    0.611
       215 -12.5262    247.8221    229.1763   9.8507883168e+01  -4.3937401630e+00    0.7235736    0.4105155 -31.63  0.004660726    2.172    0.540
       216 -12.8882    247.7858    215.8977   9.6375939686e+01  -3.0902584588e+00    0.9056908    0.3393062 -31.17  0.004643648    2.866    0.651
       217  -9.7698    222.3221     22.2726   5.5870034698e+01   2.6520727533e+01    0.1354049   0.09890264  35.41  0.000160507    1.573    0.364
       218  -8.5782     14.9940     18.0090   1.1491676147e+02   7.1050531224e+01     0.141038    0.1092549 -35.75            0    1.024    0.024
       219 -11.6007    242.7432    200.1073   9.4523016603e+01  -6.9607344865e-01     0.453889    0.2546169 -18.15  0.001575752    1.746    0.427
