#   1 NUMBER                 Running object number                                     
#   2 MAG_AUTO               Kron-like elliptical aperture magnitude                    [mag]
#   3 X_IMAGE                Object position along x                                    [pixel]
#   4 Y_IMAGE                Object position along y                                    [pixel]
#   5 X_WORLD                Barycenter position along world x axis                     [deg]
#   6 Y_WORLD                Barycenter position along world y axis                     [deg]
#   7 A_WORLD                Profile RMS along major axis (world units)                 [deg]
#   8 B_WORLD                Profile RMS along minor axis (world units)                 [deg]
#   9 THETA_WORLD            Position angle (CCW/world-x)                               [deg]
#  10 FWHM_WORLD             FWHM assuming a gaussian core                              [deg]
#  11 ELONGATION             A_IMAGE/B_IMAGE                                           
#  12 ELLIPTICITY            1 - B_IMAGE/A_IMAGE                                       
         1 -12.8348    191.1994     40.9702   4.8161288320e+01   3.2232534052e+01     1.325974    0.9947882  20.91  0.005034678    1.715    0.417
         2 -12.3043    216.4560      9.9047   3.6931041520e+01   2.9767335997e+01    0.8683421    0.7791659 -46.00  0.004359373    1.081    0.075
         3  -8.8531     71.7591    243.7266   1.1341478097e+02   1.7255629008e+01    0.1324451   0.08490173  87.79 0.0008145508    1.870    0.465
         4 -19.4836     17.0273    143.9139   1.1929708125e+02   4.2988711150e+01     18.93226     3.453591 -80.34   0.05655876    5.355    0.813
         5 -11.1041     58.6595    194.1196   1.1254299105e+02   2.7655020229e+01    0.4922421    0.2499684 -51.56  0.002511911    2.547    0.607
         6 -10.2835    141.7157    197.2669   9.4364122663e+01   1.5499602030e+01    0.1971847    0.1638314 -52.66  0.001266659    1.452    0.311
         7  -8.4802     58.1756    227.7373   1.1505555821e+02   2.1440596051e+01   0.09832779   0.06358688  62.59 0.0002800178    1.376    0.273
         8  -9.1985    192.3360    193.6456   8.3778422963e+01   8.3280897556e+00     0.308067    0.1555547 -55.14  0.001230854    4.568    0.781
         9  99.0000     39.9267    224.7264   1.1855362459e+02   2.3940239643e+01    0.3747409    0.1149425  39.87  0.001575249    2.180    0.541
        10  -9.3978     94.0224    186.8955   1.0359694847e+02   2.4496715521e+01    0.2354418    0.1775421 -68.19 0.0008764931    1.487    0.328
        11  99.0000     58.7441    220.3284   1.1445979610e+02   2.2677144124e+01    0.3007954    0.1888766  47.80  0.001793644    1.223    0.182
        12 -10.6638     68.5873    183.2169   1.0922663493e+02   2.8668717108e+01    0.6060733     0.314502  53.67  0.003067078    1.795    0.443
        13 -10.9127     70.1364    179.8797   1.0851339695e+02   2.9168713467e+01    0.6505983    0.5412666  12.92  0.004041257    1.484    0.326
        14 -10.3710     99.1527    181.3307   1.0169882251e+02   2.4861165102e+01    0.2980871    0.2418125  -4.68  0.001477944    1.634    0.388
        15  -7.0877     54.1589    221.3599   1.1547241184e+02   2.3009662167e+01    0.2157359   0.07479691  46.63  0.001079009    2.133    0.531
        16  -9.4358    187.3479    175.9075   8.1671741615e+01   1.1681450098e+01    0.2684944    0.2272005 -28.51  0.000995391    1.265    0.209
        17  -9.6312    115.3967    173.7886   9.6795951331e+01   2.3881215084e+01    0.1795815    0.1238361 -43.08 0.0009509291    1.678    0.404
        18  -8.9450     83.9083    173.4055   1.0439232723e+02   2.8684223682e+01    0.2193099    0.1693012  86.94 0.0008628708    1.383    0.277
        19 -10.8370    103.9002    171.7606   9.9257146453e+01   2.6084483268e+01    0.4028611    0.2508583  30.38  0.002045131    1.585    0.369
        20  -9.2596    138.2598    169.5902   9.0820694731e+01   2.0946776614e+01    0.1996181    0.1198177  28.24 0.0009554141    1.705    0.414
        21  -9.1528     59.0083    176.5654   1.1091422695e+02   3.1261785146e+01    0.1785007    0.1507723  62.87 0.0004296842    1.018    0.018
        22  -8.9540     90.0986    212.6961   1.0723398922e+02   2.0197353732e+01    0.1830111    0.1408857  64.64 0.0005048598    1.292    0.226
        23 -10.6292     72.6808    161.6665   1.0580273395e+02   3.2789050461e+01    0.3444024    0.2005539 -75.41  0.001702515    1.855    0.461
        24 -10.5784     69.6717    161.3018   1.0654905679e+02   3.3273146904e+01    0.2754598    0.1916522  48.89   0.00107339    1.292    0.226
        25 -10.3061    148.7715    207.9854   9.4407754656e+01   1.2723792870e+01    0.2334328    0.1389794  23.85  0.001282491    1.641    0.391
        26 -10.0730     90.1415    157.2569   1.0061868045e+02   3.1275122579e+01    0.2635183    0.2288259  31.44 0.0004227447    1.187    0.158
        27  -9.8047     65.6693    205.1636   1.1186584940e+02   2.4661373849e+01    0.3001571    0.1676203 -83.82  0.001678769    2.071    0.517
        28 -10.5486     95.7504    150.8863   9.8153658546e+01   3.1823718082e+01    0.5291094    0.3798603 -25.46  0.001844701    1.975    0.494
        29 -10.0102    134.1603    146.7609   8.7627882584e+01   2.6118390742e+01    0.6695762    0.1987622 -55.21  0.001890705    5.023    0.801
        30  -8.5655    109.0866    147.4837   9.4064785599e+01   3.0390332654e+01    0.1996835    0.1905809 -79.48 0.0004022634    1.089    0.082
        31  -9.9254    107.5932    137.2443   9.2565424531e+01   3.2907204920e+01    0.4143221    0.2861084 -32.96  0.001952361    1.818    0.450
        32 -10.7133     95.7980    136.6473   9.5693626476e+01   3.5042990242e+01    0.2753792    0.2617496 -66.91 0.0006357214    1.091    0.084
        33 -10.0212    105.9698    130.8702   9.1754854341e+01   3.4627006558e+01    0.3480583    0.3229373  84.66  0.001340983    1.094    0.086
        34  -9.2544    136.0000    128.9777   8.3468195687e+01   2.9417833930e+01    0.2433048   0.08394951 -46.94 0.0008078672    2.980    0.664
        35  -9.4534    114.6839    128.7229   8.8930227238e+01   3.3535269182e+01    0.2494005    0.2244743 -16.70  0.000737421    1.260    0.207
        36  -9.3815    102.3459    124.3718   9.1438273487e+01   3.6754599501e+01    0.2822458    0.2348178 -21.35 0.0007429119    1.469    0.319
        37  -8.4607    110.1509    118.1429   8.7863106404e+01   3.6754401680e+01    0.1968201    0.1716345  78.97 0.0003346245    1.246    0.197
        38  -8.8873    231.1900    113.9098   6.1354031402e+01   1.3316990127e+01    0.2058645    0.1859697  27.15 0.0008315044    1.210    0.173
        39  -9.8941    119.8523    111.4009   8.3571504661e+01   3.6379771781e+01    0.3231119    0.2420628 -84.71   0.00146656    1.799    0.444
        40  -8.3435    205.5329    110.4876   6.4591036161e+01   1.8682872340e+01    0.1392961    0.1245111 -12.29 0.0001521837    1.029    0.029
        41  -9.7236     62.2354    247.9482   1.1547767472e+02   1.7669308415e+01    0.2315508    0.1347246 -88.86   0.00145631    2.067    0.516
        42  -9.5388     95.3055    203.8858   1.0521897401e+02   2.1089154796e+01    0.4017975    0.2574745 -24.00  0.002014093    2.824    0.646
        43 -11.8706    175.6799     54.8839   5.4612457186e+01   3.4112895608e+01    0.5920276    0.4696604  -9.67  0.000845082    1.435    0.303
        44 -11.1588    247.3088    246.1923   8.2543968052e+01  -4.5704099301e+00    0.5011802    0.2448684   9.11  0.003227972    1.978    0.494
        45 -11.4459    196.1541     35.4093   4.5926193257e+01   3.1733993551e+01    0.4275076    0.4057349 -25.17 0.0009865119    1.115    0.103
        46  -8.7986     55.5249    200.5452   1.1375468919e+02   2.6747167506e+01    0.2861544    0.1834364 -37.50  0.001573387    2.529    0.605
