#   1 NUMBER                 Running object number                                     
#   2 MAG_AUTO               Kron-like elliptical aperture magnitude                    [mag]
#   3 X_IMAGE                Object position along x                                    [pixel]
#   4 Y_IMAGE                Object position along y                                    [pixel]
#   5 X_WORLD                Barycenter position along world x axis                     [deg]
#   6 Y_WORLD                Barycenter position along world y axis                     [deg]
#   7 A_WORLD                Profile RMS along major axis (world units)                 [deg]
#   8 B_WORLD                Profile RMS along minor axis (world units)                 [deg]
#   9 THETA_WORLD            Position angle (CCW/world-x)                               [deg]
#  10 FWHM_WORLD             FWHM assuming a gaussian core                              [deg]
#  11 ELONGATION             A_IMAGE/B_IMAGE                                           
#  12 ELLIPTICITY            1 - B_IMAGE/A_IMAGE                                       
         1 -13.5746    190.5099     15.5107   5.9482496136e+01   3.5962433135e+01     1.487505    0.7252667 -86.79  0.006763736    2.441    0.590
         2 -14.3774    170.9779     48.5524   7.0256704826e+01   3.6502687768e+01     1.981598     1.281341  30.37  0.006122609    2.318    0.569
         3 -13.8472    189.3250     27.4409   6.2375469540e+01   3.4887556971e+01    0.7244539    0.6112701 -84.70  0.001235033    1.050    0.047
         4 -14.2145    206.1592      4.9893   5.5598851898e+01   3.3537394464e+01     1.088844     0.693204  65.75  0.005611771    1.451    0.311
         5 -11.7667     50.6573      4.8347   8.4961845030e+01   6.6344268224e+01    0.1670338    0.1149404  25.87 0.0008485484    1.153    0.133
         6 -14.4728    113.4838    196.9871   1.1888205344e+02   1.7807082338e+01     1.083284      0.79361  54.20  0.005399065    1.337    0.252
         7 -14.2788     11.5818    206.8257   1.4305943706e+02   2.9617272084e+01    0.6962525    0.4285641  26.78  0.004109401    2.141    0.533
         8 -19.6340     28.5345    155.5457   1.3389569431e+02   4.0119257416e+01     20.60494     6.305882 -72.15   0.07292507    3.249    0.692
         9 -10.8164     80.8051    202.8319   1.2749240704e+02   2.1862214555e+01     0.289935    0.2509394  52.38  0.001678261    1.155    0.134
        10 -12.4572    193.4126    192.6276   9.9899521255e+01   3.6895487392e+00    0.8898758      0.48006 -53.13  0.003114074    2.130    0.531
        11 -10.7431    209.5134    198.8546   9.7841794616e+01  -4.2317351129e-01    0.2091219    0.1974332  77.70 0.0006337772    1.328    0.247
        12 -13.6885    110.1385    189.0487   1.1833964915e+02   2.0281771472e+01     1.407854    0.8583973 -24.44  0.005102166    3.264    0.694
        13 -16.4500     52.2978    231.4527   1.3699415227e+02   1.9418012012e+01     2.278879     1.704766  -6.24   0.01207112    2.722    0.633
        14 -11.4893    154.3459    195.8590   1.0910048693e+02   1.0447307412e+01    0.4074327    0.2808989  77.72  0.001724797    2.220    0.549
        15 -10.9227     99.8585    192.1702   1.2136222542e+02   2.1321330652e+01    0.2259773    0.1851499  74.60 0.0004559904    1.221    0.181
        16 -10.4340    166.8972    187.6738   1.0466671750e+02   9.7986975692e+00    0.2903821    0.2197815 -55.50 0.0007539331    1.398    0.285
        17 -11.0231     99.1956    187.3213   1.2072563631e+02   2.2603862014e+01    0.2833622    0.1760133 -73.09  0.001079825    1.787    0.440
        18 -12.4200    114.6377    209.3432   1.2061133246e+02   1.4758180933e+01    0.4083839    0.2737412  37.07  0.001555804    1.488    0.328
        19 -11.9383     99.6665    180.2552   1.1940343643e+02   2.4245690016e+01    0.4128855     0.258064 -49.12  0.001436281    1.653    0.395
        20 -12.5573    104.7015    199.7589   1.2142081917e+02   1.8691340311e+01    0.5167661    0.4594829 -45.92  0.002211022    1.271    0.213
        21 -10.1465    209.2100    177.2079   9.3549234427e+01   3.8082244551e+00    0.3422396    0.1841903 -22.76  0.001253677    2.909    0.656
        22 -11.2511     97.4794    213.4425   1.2514848499e+02   1.6738731349e+01    0.3592239    0.2389717  32.65  0.001776653    1.640    0.390
        23 -11.2004    142.8737    178.5783   1.0843054897e+02   1.6582654990e+01    0.3841821    0.1297684  48.50  0.001156073    3.319    0.699
        24 -12.0334     71.9536    174.5106   1.2546454585e+02   3.0096798558e+01    0.5791579    0.2181474  51.23  0.001989078    3.254    0.693
        25 -11.6087    195.7667    169.3547   9.4619020725e+01   7.9867129686e+00    0.3810553    0.3729793  79.38 0.0008695421    1.104    0.095
        26 -10.5352    192.8237    163.7715   9.4031961731e+01   9.7405788317e+00     0.401198    0.3060937 -67.75  0.001913451    1.588    0.370
        27 -11.7761    142.9008    171.5122   1.0698921872e+02   1.8222600662e+01      0.56085    0.3472569 -85.15  0.001922729    3.139    0.681
        28 -11.2021    146.1885    168.2683   1.0551931727e+02   1.8315776746e+01    0.3368861    0.2204133 -35.37  0.001426066    1.760    0.432
        29 -13.8981    107.0319    208.7052   1.2226644803e+02   1.6218167346e+01    0.9348448     0.701004 -70.91  0.004888069    1.373    0.272
        30 -11.5487    188.4293    211.7351   1.0461229741e+02   8.5744812321e-01    0.3163379    0.2407105  87.04  0.001518873    2.175    0.540
        31 -11.1451    140.9297    157.6416   1.0452245643e+02   2.1883347675e+01    0.2810764     0.240819 -65.03 0.0003561576    1.193    0.162
        32 -11.2129    165.2334    153.2744   9.7747704478e+01   1.7781347582e+01    0.3813436    0.2681298 -87.40  0.001540463    2.175    0.540
        33 -12.4973    133.9156    145.1434   1.0348153066e+02   2.6285886917e+01       1.2484     0.345614 -54.75  0.003064331    4.832    0.793
        34 -10.1040    129.4754    140.4635   1.0354043433e+02   2.8308783023e+01    0.2335038    0.1491798  52.03 0.0006725399    1.662    0.398
        35 -12.2906    148.0991    148.8615   1.0079843159e+02   2.2438855512e+01    0.7168042    0.4150591  72.72  0.002250971    3.561    0.719
        36 -10.9805    163.0948    210.6845   1.0986553870e+02   5.6598782637e+00    0.3251634    0.1942025 -58.18  0.001443882    1.991    0.498
        37 -10.4118    174.8537    149.0763   9.4627528706e+01   1.6655748710e+01    0.2427693    0.2143211 -85.21 0.0006279071    1.254    0.202
        38  -9.9818    120.7941    149.5936   1.0787998727e+02   2.7871356991e+01    0.2265742    0.1448546  52.20 0.0009508547    1.672    0.402
        39 -12.5404    109.5289    139.9848   1.0874600688e+02   3.2373784518e+01    0.6077137    0.3548419 -35.74  0.002402176    2.080    0.519
        40 -12.4700     98.4425    139.9479   1.1179990175e+02   3.4419467870e+01    0.3269703    0.3062924  86.24 0.0004490986    1.089    0.082
        41 -11.5104    105.9869    130.9957   1.0764537419e+02   3.5200842714e+01    0.3936128    0.3316852 -68.90   0.00127008    1.237    0.191
        42 -11.4394    104.1855    126.5160   1.0708360168e+02   3.6600222290e+01    0.3417404    0.2764797 -36.91 0.0007869715    1.273    0.215
        43 -12.3745    117.5560    129.8567   1.0418396973e+02   3.3227732973e+01    0.5611858    0.3888008  33.98  0.001836709    1.566    0.362
        44 -12.7700    136.2688    124.9425   9.8039688577e+01   3.0468961435e+01    0.9063308    0.4027946 -46.13  0.003247927    2.222    0.550
        45 -11.4979    120.5959    124.2238   1.0197864790e+02   3.3923372563e+01    0.3016275    0.2348813 -16.62 0.0008406221    1.636    0.389
        46 -11.3339    136.2799    209.9706   1.1575256726e+02   1.0744151440e+01    0.2026939    0.1921697 -65.76 0.0009870941    1.107    0.097
        47 -10.6371    111.2119    119.0919   1.0327177528e+02   3.6978528776e+01    0.2503743    0.2213178  40.11 0.0003895268    1.161    0.139
        48 -11.0001     95.3076    200.7404   1.2379365032e+02   2.0042369827e+01     0.380542    0.2507052  80.45  0.001750704    1.841    0.457
        49 -10.9011     93.6829    205.8298   1.2492772499e+02   1.9114329501e+01    0.3615545    0.2685442 -35.94  0.001363852    1.796    0.443
        50 -10.6269    168.0471    112.7440   8.7427995762e+01   2.5980571313e+01    0.3969942    0.2766541 -83.21  0.001352183    2.033    0.508
        51 -11.1142    160.5185    127.4889   9.2775270008e+01   2.4554593161e+01    0.3570577    0.2564305 -72.71  0.001264064    1.763    0.433
        52 -11.2649     88.4960    203.5840   1.2580915651e+02   2.0478179221e+01    0.4439079    0.2931225  51.65  0.002219772    1.444    0.308
        53 -10.4656    205.4902    110.1806   7.9434333750e+01   1.7985459597e+01    0.3041076    0.2137844  46.34 0.0008399053    1.572    0.364
        54 -10.1136    163.3178    203.9596   1.0859146307e+02   7.0117115585e+00    0.1991765    0.1857779 -44.79 0.0004033946    1.116    0.104
        55 -10.2142    157.3534    203.2051   1.0978525496e+02   8.2909225660e+00    0.2015735    0.1383674 -61.31  0.000454745    1.684    0.406
        56  -9.7731    152.0133     79.9904   8.2353615109e+01   3.6047773688e+01    0.1777035    0.1715886  85.41   0.00040945    1.021    0.020
        57  -9.6095     74.4344     73.7877   1.0188116275e+02   5.3059080029e+01     0.178259    0.1206335 -30.27 0.0002979519    1.464    0.317
        58 -12.6080    172.0258     71.1375   7.5935482052e+01   3.2817582718e+01     0.529701    0.3354587 -84.93  0.001081927    2.240    0.553
        59 -10.0426    108.8069     63.0821   8.8009916687e+01   4.8556992052e+01    0.1925197    0.1862419  73.59 0.0003487741    1.163    0.140
        60 -11.2842    159.9583    236.3086   1.1487062799e+02   1.1944194553e+00    0.1965131    0.1653033  35.32 0.0004662324    1.068    0.063
        61 -10.3573    198.8634    222.6891   1.0446180348e+02  -2.9625486282e+00    0.1891192    0.1612435  30.93 0.0005792826    1.137    0.121
        62 -13.9165    184.7892     33.9329   6.4511395209e+01   3.5156697358e+01    0.7147822    0.7066351  49.88  0.003442639    1.278    0.217
        63 -11.6669    186.8067    221.3969   1.0670704963e+02  -6.7465074063e-01    0.2827022    0.2020316   7.67  0.001431016    1.671    0.402
        64 -13.8752    122.1292    210.6663   1.1909994935e+02   1.3140908753e+01     1.568151    0.8173227  17.24   0.00444926    5.473    0.817
