#   1 NUMBER                 Running object number                                     
#   2 MAG_AUTO               Kron-like elliptical aperture magnitude                    [mag]
#   3 X_IMAGE                Object position along x                                    [pixel]
#   4 Y_IMAGE                Object position along y                                    [pixel]
#   5 X_WORLD                Barycenter position along world x axis                     [deg]
#   6 Y_WORLD                Barycenter position along world y axis                     [deg]
#   7 A_WORLD                Profile RMS along major axis (world units)                 [deg]
#   8 B_WORLD                Profile RMS along minor axis (world units)                 [deg]
#   9 THETA_WORLD            Position angle (CCW/world-x)                               [deg]
#  10 FWHM_WORLD             FWHM assuming a gaussian core                              [deg]
#  11 ELONGATION             A_IMAGE/B_IMAGE                                           
#  12 ELLIPTICITY            1 - B_IMAGE/A_IMAGE                                       
         1 -15.2659     12.0352    154.6383   1.4314550444e+02   4.1546109181e+01     10.61021     4.521763  77.18   0.04498415    3.331    0.700
         2 -13.3363    195.5022     29.8102   6.8310710517e+01   3.2915192378e+01     1.341303     1.154491  66.42  0.006670066    1.130    0.115
         3 -13.5446    211.2890     10.6148   6.1776652377e+01   3.1328408371e+01     1.260364    0.9484595  40.43   0.00738393    1.736    0.424
         4 -11.8128      2.2126     20.4899   1.2000379238e+02   6.9507920639e+01     1.156913          nan -50.60  0.002277428   17.867    0.944
         5 -11.6647      2.3674      3.9507   1.1343608259e+02   7.1877676414e+01     0.343148    0.2479313 -48.27  0.002584334    1.920    0.479
         6 -10.5126     46.3442    248.4595   1.4466457246e+02   1.8019067648e+01    0.3123412    0.1510235  78.58  0.001460722    2.046    0.511
         7 -11.8244    245.2419    247.3485   1.0801195412e+02  -1.3378934520e+01    0.4486488    0.2768157  14.87  0.002686743    1.566    0.362
         8 -11.0095    123.7059    250.1529   1.3103890005e+02   6.2108508106e+00    0.4439819    0.1287418  43.41  0.001758818    2.802    0.643
         9  -9.4743     66.6973    250.1016   1.4133272929e+02   1.4994957265e+01    0.1940949    0.1218813  59.05 0.0003189734    1.246    0.198
        10 -12.0962     35.1156    245.3941   1.4631007215e+02   1.9986032394e+01    0.5203473    0.4338035 -80.17   0.00402881    1.445    0.308
        11 -10.5975     29.1379    249.8381   1.4757005163e+02   1.9868948710e+01    0.1980217    0.1758146  55.41  0.001196882    1.576    0.365
        12 -11.6072      2.5853    246.1972   1.5149564953e+02   2.3437923806e+01    0.7605743    0.2330041 -83.64  0.003868522    2.898    0.655
        13 -12.5107     11.4935    240.0461   1.4979193692e+02   2.3662068057e+01    0.7173004    0.2786227  88.58  0.003856524    2.379    0.580
        14 -11.2766     19.5642    243.0756   1.4868487417e+02   2.2220043975e+01    0.2245665    0.1483068  80.82 0.0007779445    1.102    0.093
        15 -11.6953    234.6931    238.9023   1.0846408265e+02  -1.0716785681e+01    0.6489044    0.3565467 -57.37  0.002494992    5.295    0.811
        16  -9.9612    230.6667    231.9747   1.0800203657e+02  -9.1394777382e+00    0.2531541    0.1408112 -52.63  0.001178806    3.054    0.673
        17 -10.2468    228.4868    228.0280   1.0771104394e+02  -8.2294496163e+00    0.2846262    0.2036697 -47.51  0.001060241    1.813    0.448
        18  -9.9909    185.8082    239.3753   1.1768187435e+02  -2.7022375593e+00    0.1873222    0.1048245  34.15 0.0003864247    1.628    0.386
        19 -11.2449    119.7974    238.4973   1.3036761344e+02   8.9440433030e+00    0.2801512    0.1878475 -72.62  0.001589106    1.705    0.414
        20  -9.9412     22.2675    236.8324   1.4786000941e+02   2.3105928287e+01    0.1637039    0.1492424 -26.44  0.001238856    2.106    0.525
        21 -10.9716     50.8355    234.6715   1.4281885178e+02   2.0079022972e+01     0.268616    0.2166695 -67.13  0.001497069    1.518    0.341
        22 -11.1661    139.8492    250.2008   1.2801584985e+02   3.4941521618e+00    0.3869735    0.1457629  45.29  0.001717113    2.158    0.537
        23 -13.4898      9.5313    206.8311   1.4805332467e+02   3.0431415202e+01     1.145338    0.6988787  82.94   0.00578436    1.259    0.206
        24 -11.6169    217.3084    248.7127   1.1325250246e+02  -9.3015536567e+00    0.4112322    0.2036941  42.15  0.002151091    1.797    0.443
        25 -13.7649     39.6712    224.0400   1.4394193819e+02   2.3605882587e+01    0.7450427    0.5613844  78.09  0.002461026    1.018    0.018
        26  -8.7376    152.5343    212.9807   1.2011774141e+02   7.9297801572e+00    0.1805928    0.1386109 -53.22    0.0003151    1.445    0.308
        27  -9.6203     34.6761    202.3791   1.4302994985e+02   2.8721050523e+01    0.2023971    0.1640992  88.96 0.0002624186    1.117    0.105
        28 -11.5424     60.8867    197.9134   1.3732310726e+02   2.6427627420e+01    0.2878537    0.2316006 -57.97   0.00055931    1.447    0.309
        29  -9.4736    191.9758    192.9435   1.0831790889e+02   4.1221159567e+00    0.3566578    0.1837355 -63.66  0.001135355    4.407    0.773
        30 -11.8144     67.0684    189.7121   1.3503776720e+02   2.7409093008e+01    0.2834505    0.2299012 -65.43 0.0004153975    1.272    0.214
        31 -10.3072     54.8766    229.7794   1.4167660061e+02   2.0517810081e+01    0.3172303     0.150971  59.24  0.001687386    1.855    0.461
        32 -10.8787     77.2645    177.0978   1.3106216477e+02   2.8826761497e+01    0.2499068    0.2191454 -79.62 0.0004010144    1.087    0.080
        33 -13.1779     64.0126    175.0072   1.3379890543e+02   3.1200508631e+01    0.5116046    0.2790488 -46.35  0.001821823    2.276    0.561
        34  -8.9259     97.4877    173.0891   1.2572902417e+02   2.6552062177e+01    0.2223468    0.1327458 -58.44 0.0002854904    1.620    0.383
        35 -11.8039     84.6066    167.7986   1.2791620147e+02   2.9881442854e+01    0.6510165     0.568871 -71.05  0.003812957    1.099    0.090
        36 -11.3735      6.7017    227.1503   1.4982292760e+02   2.6627876997e+01     0.343423    0.2364787  15.82   0.00217554    3.039    0.671
        37  -9.8580     97.5614    152.0768   1.2196340525e+02   3.1490214819e+01    0.3060292    0.2618111 -51.25 0.0008526166    1.199    0.166
        38  -8.8916    100.4947    147.9658   1.2041929332e+02   3.1960506364e+01    0.2150545    0.1375947 -54.56 0.0003939999    1.489    0.329
        39 -12.0394     86.1434    151.1678   1.2468030975e+02   3.3584307565e+01    0.3076899    0.2505416 -48.41 0.0006281118    1.284    0.221
        40 -12.3623     67.5097    143.8213   1.2814094539e+02   3.8087640678e+01    0.7225021    0.4905943  72.32  0.003337635    1.742    0.426
        41  -8.4720    192.2616    143.7287   9.7767932375e+01   1.3777147105e+01    0.1454155     0.120262 -81.33 0.0002337152    1.463    0.317
        42  -9.6310    109.5910    136.9496   1.1577160619e+02   3.2926084011e+01    0.3914535    0.2392821 -30.21  0.001555494    2.376    0.579
        43 -10.3655     96.5659    134.3805   1.1864639392e+02   3.5858002088e+01     0.264291     0.230677 -30.03 0.0006691473    1.303    0.232
        44 -11.1463     56.9778    131.3594   1.2871813762e+02   4.2410147954e+01    0.5848662    0.2842944 -84.06  0.002008242    3.923    0.745
        45 -12.6631     34.0409    231.7327   1.4552632239e+02   2.2744503303e+01    0.2873035    0.2333046 -84.64 0.0007507954    1.300    0.231
        46  -9.6950     79.7122    131.7776   1.2263490725e+02   3.9193858556e+01    0.2453255    0.2032658  70.18 0.0004936424    1.311    0.237
        47 -10.2260     32.1272    131.9362   1.3542634720e+02   4.4975813879e+01    0.1925144    0.1517254  88.16 0.0006209006    1.243    0.196
        48 -11.3913     23.3351    126.8231   1.3697604428e+02   4.6937003916e+01    0.2827622    0.1869922  43.43 0.0007931085    1.762    0.433
        49  -8.7954    106.6406    123.9140   1.1359327203e+02   3.6509935192e+01    0.1985115    0.1749397 -56.88 0.0003927563    1.083    0.077
        50 -10.1536    167.8746    112.9400   9.5517573295e+01   2.5774015463e+01    0.3453161    0.2848588 -81.48 0.0009559101    1.403    0.287
        51  -9.0764    203.4734    111.5006   8.7795807684e+01   1.7633491629e+01    0.1511911    0.1477866 -44.35 3.263113e-05    1.054    0.051
        52 -11.6179    138.9733    231.0287   1.2561823265e+02   7.0068191646e+00    0.6314038    0.1622814  39.03  0.002009314    3.982    0.749
        53 -10.6837    242.6593     92.4998   7.6740419763e+01   1.2170898270e+01    0.2628592     0.122329 -38.81  0.001094335    1.978    0.495
        54  -8.8978    184.5090     77.4851   8.2661906274e+01   2.8521484663e+01    0.1504995    0.1445813  83.13 -2.281359e-05    1.027    0.027
        55 -10.0056    173.1896    222.2120   1.1740518921e+02   2.3920594686e+00    0.3191154   0.09718597  37.25  0.001045322    3.495    0.714
        56  -9.6497     43.1347     67.5822   1.1859141700e+02   5.7941961249e+01    0.2270956    0.1889338  56.58  0.000674091    1.686    0.407
        57  -9.0844     31.9533     62.1431   1.2105759289e+02   6.0085901757e+01    0.1625294    0.1575096 -52.72 0.0009011616    1.308    0.236
        58 -11.0234     14.5308     55.1309   1.2559006336e+02   6.2789356629e+01    0.2415022    0.1773137  25.84 0.0009104494    1.673    0.402
        59 -11.2313    198.9218    247.0639   1.1639680836e+02  -6.0815627123e+00    0.2936122     0.255933  84.11  0.001901783    1.668    0.401
        60 -10.5165    162.7524    249.5784   1.2360014835e+02  -3.1819386095e-01      0.25626    0.1046858  39.24  0.001144062    2.114    0.527
        61 -11.0793     97.1525    246.0217   1.3550249763e+02   1.1236723677e+01    0.3444226     0.234134 -74.36  0.001885927    1.561    0.360
