#   1 NUMBER                 Running object number                                     
#   2 MAG_AUTO               Kron-like elliptical aperture magnitude                    [mag]
#   3 X_IMAGE                Object position along x                                    [pixel]
#   4 Y_IMAGE                Object position along y                                    [pixel]
#   5 X_WORLD                Barycenter position along world x axis                     [deg]
#   6 Y_WORLD                Barycenter position along world y axis                     [deg]
#   7 A_WORLD                Profile RMS along major axis (world units)                 [deg]
#   8 B_WORLD                Profile RMS along minor axis (world units)                 [deg]
#   9 THETA_WORLD            Position angle (CCW/world-x)                               [deg]
#  10 FWHM_WORLD             FWHM assuming a gaussian core                              [deg]
#  11 ELONGATION             A_IMAGE/B_IMAGE                                           
#  12 ELLIPTICITY            1 - B_IMAGE/A_IMAGE                                       
         1 -15.3197    193.2369     58.4747   3.6493881601e+01   2.8957166563e+01      10.6665     5.936927   0.28   0.03098794    5.473    0.817
         2 -15.5141    203.3885     64.3685   3.6476706967e+01   2.5619313473e+01     11.51869     5.277925  44.70   0.04155863    2.632    0.620
         3 -14.3809     55.7953    130.7736   9.1472312211e+01   4.2205705718e+01     2.707408     1.541018  20.96  0.006698969    2.162    0.538
         4 -16.3433    248.0830     57.1946   2.9043446995e+01   1.6733602505e+01     4.003459     1.281364 -47.48   0.01546302    2.904    0.656
         5 -15.3569    233.4047    100.6807   4.0828748967e+01   1.3157253731e+01     3.681959     0.930664 -48.38  0.005550085    7.441    0.866
         6 -14.8319    224.7459     56.2616   3.1513843063e+01   2.1878980555e+01     1.960506    0.9712533 -17.93  0.007336914    3.397    0.706
         7 -17.4644    246.1455     83.9371   3.5236797867e+01   1.3223711949e+01     8.029086     5.129284 -21.29   0.02109844    1.804    0.446
         8 -11.2640    132.8587     23.9303   3.6808240604e+01   4.8748433433e+01    0.3779016     0.247182 -63.42  0.001751573    2.075    0.518
         9 -11.9647    249.0027     16.0148   2.0101521685e+01   2.1756462367e+01    0.3248625     0.221655  66.79  0.001976409    1.565    0.361
        10  -9.9638    153.3740     15.7155   3.0377890804e+01   4.4470347005e+01     0.527065    0.2692209  12.66  0.001856524    4.058    0.754
        11 -10.4332    114.7736      2.9868   3.2900385692e+01   5.5215609510e+01    0.3661948    0.2224493  39.12  0.001896713    1.551    0.355
        12  -9.8661    118.6342      3.2060   3.2208555998e+01   5.4268691581e+01    0.2493124    0.1730274  21.76 0.0008721391    1.592    0.372
        13 -10.0992    115.9716     12.5090   3.6265489262e+01   5.4074589424e+01    0.3100587    0.2184864  54.18 0.0009561191    1.233    0.189
        14 -11.7003    120.3701      9.0261   3.4023767567e+01   5.3342580352e+01    0.4722472    0.4099509  45.39  0.001455977    1.039    0.038
        15  -8.4015    221.4692      9.4483   2.0824589076e+01   2.8467345151e+01    0.1238431     0.107184 -80.99 7.068622e-05    1.064    0.060
        16  -9.5522    227.2189      5.8592   1.9556052878e+01   2.7551214889e+01    0.1756914    0.1451216  54.65 0.0005726329    1.462    0.316
        17 -11.3868    233.5175      3.0592   1.8480538648e+01   2.6454120446e+01    0.5069935      0.20278  55.32  0.002319935    2.924    0.658
        18 -10.3323    235.4404      6.8257   1.9152243491e+01   2.5642986857e+01    0.1692308    0.1637871  44.65 0.0006052834    1.385    0.278
        19 -11.3585    241.7166      4.1779   1.8150158934e+01   2.4576755984e+01    0.6385561    0.1692532  55.76   0.00234032    4.752    0.790
        20  -9.1322    212.7551      5.7335   2.0697425049e+01   3.0854881577e+01    0.1653962    0.1403064  84.04  0.000412312    1.115    0.103
        21  -8.7941    199.0164      1.8316   2.0964562204e+01   3.4478803477e+01    0.2321228     0.119571 -70.77  0.001091154    2.093    0.522
        22  -9.0341    144.0186      1.2349   2.7184733761e+01   4.8161407060e+01    0.1819176   0.09780446  67.86 0.0004291984    1.594    0.372
        23 -11.1955    177.5056    169.9940   6.7152373022e+01   1.1936477293e+01    0.3835006    0.2620937 -61.80  0.001734026    2.078    0.519
        24  -8.3788    170.3971    250.6975   8.2245257168e+01  -4.4511914115e-01    0.1218568   0.08324402  53.77 0.0001007645    1.822    0.451
        25 -10.8925    194.1535    170.7070   6.3752723603e+01   8.6400068808e+00    0.4038227    0.3227758  65.50  0.002076322    1.747    0.427
        26 -11.1327    214.6896    168.4259   5.9185931305e+01   5.2680813791e+00    0.6233202    0.4771354 -68.45  0.001658184    2.187    0.543
        27 -12.0142    185.4111    166.2438   6.4665184245e+01   1.1125704422e+01    0.6318889    0.4285098 -48.98  0.003033706    1.661    0.398
        28  -9.6715    162.1202    163.2607   6.9222807617e+01   1.6268505186e+01     0.238235    0.2144567 -50.45 0.0002882176    1.211    0.174
        29  -9.1362    207.2104    161.8869   5.9267193633e+01   7.7680409477e+00    0.1932477    0.1860374  -3.53 0.0004739103    1.154    0.133
        30  -9.3678    182.4907    159.9367   6.3957283930e+01   1.2895398256e+01    0.2684578    0.2052261  58.47 0.0008009832    1.597    0.374
        31  -9.0864    170.8465    159.8689   6.6515402360e+01   1.5221278570e+01    0.1963617    0.1806087  78.66 0.0003952598    1.318    0.241
        32  -9.3872    159.7642    159.1158   6.8900149194e+01   1.7586956055e+01    0.2861382    0.2115563 -21.25  0.001045845    1.579    0.367
        33 -12.5582      3.6833    146.7096   1.0798987377e+02   4.3140507797e+01     2.038202     0.488951 -81.44  0.006928958    4.217    0.763
        34 -13.7918     15.2018    140.0805   1.0438085934e+02   4.3887568705e+01     1.083843     1.042267 -89.36  0.003937457    1.194    0.162
        35  -8.5389    105.5220    156.8665   8.2069269807e+01   2.8397675945e+01    0.2009182    0.1449306 -56.80 2.703802e-05    1.408    0.290
        36 -10.3427    166.0762    151.3506   6.5752605648e+01   1.7909131407e+01    0.3710437    0.2450002 -60.71 0.0006679093    1.995    0.499
        37 -11.1400    133.6203    144.2129   7.2100985400e+01   2.6060125726e+01     1.333142    0.3388737 -53.98  0.003128903    5.797    0.828
        38  -9.5255    160.6631    151.3623   6.7014507746e+01   1.9014728196e+01    0.2306578    0.1885859  82.17  0.001098767    1.646    0.392
        39 -11.0212    144.8754    146.8823   6.9839996453e+01   2.3197428679e+01    0.5559478    0.3661317 -83.64  0.002027383    2.961    0.662
        40  -9.4618    159.1181    245.6245   8.3772129225e+01   2.0022041417e+00    0.1780197    0.1629892  45.40 0.0004119147    1.253    0.202
        41 -11.8354     67.7590    144.1282   9.0212778227e+01   3.7364460085e+01     1.217657    0.7318111  65.88  0.004228483    2.119    0.528
        42 -12.0060     43.8445    133.3509   9.5437368636e+01   4.2931818101e+01    0.4258167    0.3691643   6.58 0.0009242781    1.398    0.285
        43  -9.5369    161.0188    241.1057   8.2779920934e+01   2.3942335512e+00    0.1865068    0.1508138  29.83 0.0003302274    1.009    0.009
        44  -9.0994    167.6329    143.8681   6.3710709501e+01   1.9121651210e+01    0.2216099    0.1418002 -53.78 0.0009399022    1.801    0.445
        45 -11.4612    159.7266    142.9576   6.5347523180e+01   2.0967974540e+01    0.4999202     0.406924  67.00  0.001837388    1.483    0.326
        46 -11.9178    192.3812    194.0612   6.8703633572e+01   4.8601857830e+00     1.087774    0.6106514 -63.32  0.003672346    4.954    0.798
        47  -9.5821     95.0797    120.9982   7.7589322887e+01   3.8790946971e+01    0.2619845    0.2224493  35.96 0.0005988724    1.209    0.173
        48 -10.2545    129.1861    228.6774   8.7640794998e+01   9.4528496379e+00    0.2124472    0.2114044  60.69 0.0004687971    1.191    0.160
        49 -10.2529     76.0648    104.9855   7.9780763332e+01   4.5750301697e+01    0.2129326    0.2068417   4.64   0.00121715    1.075    0.069
        50 -11.0691    142.1365    141.8321   6.9395187474e+01   2.4866284704e+01    0.4711077    0.3304696  -6.42  0.001916454    2.138    0.532
        51 -11.6030    158.4706     88.1590   5.1522898947e+01   3.2438895405e+01     0.681999    0.3605288 -41.99  0.002693493    1.898    0.473
        52 -10.0487    140.4285     89.3623   5.6235100947e+01   3.6476446840e+01    0.4024218     0.207433  55.52  0.001496847    2.153    0.536
        53  -9.7692    200.4326    197.2406   6.7663112939e+01   2.9499236435e+00      0.17507    0.1281739 -45.46 0.0009511094    1.633    0.388
        54 -10.1115    154.0997     86.9137   5.2177552578e+01   3.3722380505e+01    0.4362998    0.2144503 -40.36  0.001062217    2.038    0.509
        55 -11.9436    139.2182     79.2677   5.3540630364e+01   3.8717416413e+01    0.5816892    0.5363966 -87.55  0.002408393    1.211    0.174
        56  -8.7932    217.6384    225.3178   6.9292601174e+01  -3.9758305041e+00    0.1114799   0.09689625  52.92 0.0002200466    1.766    0.434
        57 -12.1787    129.5122     75.3522   5.4859780777e+01   4.1727917087e+01     0.865811    0.6127715  -2.03  0.003689996    1.982    0.496
        58 -11.2979    140.5741     70.1233   5.0389506470e+01   4.0069903763e+01    0.6324534    0.3252444 -45.32   0.00247078    2.084    0.520
        59 -11.9026    144.4783     66.8702   4.8436504732e+01   3.9692100924e+01    0.6942675    0.3949052 -45.72  0.002875936    1.886    0.470
        60 -12.3477    134.6467     62.5104   4.9438911364e+01   4.2819632501e+01    0.8351951    0.5057731 -20.62  0.002632005    2.077    0.518
        61 -12.2843    143.2232     60.0027   4.6568618800e+01   4.1152962179e+01    0.7476895    0.5674468  20.69  0.002015924    1.575    0.365
        62  -8.7025    117.5973     78.1951   5.9067315152e+01   4.3867428550e+01    0.2170583    0.1453426 -28.41 0.0005279847    1.638    0.389
        63 -11.5731    152.2576     72.4953   4.8356468263e+01   3.6810788399e+01     0.545541    0.3390629 -56.23  0.002247839    1.993    0.498
        64  -9.9053    111.2135     72.3688   5.9089539484e+01   4.6391342386e+01    0.3537414    0.2009417 -44.99 0.0009376638    1.828    0.453
        65 -10.6082    106.0443     65.4518   5.8371955185e+01   4.8806605239e+01    0.6484702     0.206461 -39.51   0.00208474    3.180    0.685
        66 -10.2360    124.2882     61.9154   5.1929238940e+01   4.5372974303e+01    0.4518254    0.1967679 -31.76  0.001419184    2.556    0.609
        67  -8.3826     72.5712     58.4690   6.7381026424e+01   5.6498086070e+01    0.1413223    0.1262765 -12.22 0.0001082958    1.009    0.009
        68  -9.1591     90.4419     54.6417   5.9620935286e+01   5.3962668708e+01    0.3490643    0.1380115 -36.07  0.001284522    2.610    0.617
        69 -10.2651    113.0521     50.6435   5.1160164541e+01   4.9837428188e+01     0.343406    0.2336334  35.79 0.0006061672    1.463    0.317
        70 -11.6053    123.9060     47.8957   4.7262610639e+01   4.7746731681e+01    0.4723667    0.2712936  57.22  0.001917584    1.748    0.428
        71 -10.4838    171.9192     42.1284   3.5373615534e+01   3.6609784041e+01    0.3427012    0.2145855 -27.55    0.0015991    1.745    0.427
        72 -11.1799    165.4894     41.8420   3.6391215767e+01   3.8276850781e+01    0.3649312    0.3203116 -73.53  0.001231066    1.178    0.151
        73 -11.4532    122.7145     39.4553   4.4596511644e+01   4.9263506092e+01    0.3553405     0.253345   4.77  0.001696508    1.748    0.428
        74 -10.6404    159.0496     37.6545   3.6262868680e+01   4.0469836303e+01    0.3853368    0.2152165 -21.42  0.001656383    2.153    0.536
        75 -10.5916    106.7414     37.5573   4.8158940175e+01   5.3242816348e+01    0.4568781    0.2243551 -13.22   0.00159825    3.426    0.708
        76  -9.0828    238.9585    223.3040   6.5069896326e+01  -6.7483394841e+00    0.1740328    0.1272518  12.95  0.000659819    1.099    0.090
        77 -10.0476    169.6290     30.8429   3.2429057574e+01   3.8644503998e+01    0.4449456    0.2408034  80.67  0.001864619    2.172    0.540
        78  -9.6132    203.7610    188.9437   6.5430648726e+01   3.7466076299e+00    0.1939189    0.1682637  -4.18 0.0008677932    1.060    0.057
        79  -9.3120    237.7863    218.1958   6.4392227157e+01  -5.9215560432e+00    0.1681242    0.1411508  76.79 0.0009528449    2.834    0.647
        80 -10.4482    232.0116    186.0752   5.9501421655e+01  -4.9907608160e-01    0.3052151    0.2027252  49.29  0.001414816    1.982    0.495
        81 -10.4560    179.7930     24.1107   2.9012727688e+01   3.6875858935e+01    0.4864689    0.3725896 -89.82  0.002679244    1.274    0.215
        82 -11.0886    152.0905     24.4689   3.3359779184e+01   4.3851645961e+01    0.4781595    0.2984506 -73.00  0.002135204    2.149    0.535
        83  -9.1218    187.1407     24.4718   2.8146652457e+01   3.4999801879e+01    0.2209447    0.1854475  18.55 0.0007056057    1.518    0.341
        84  -8.4592    152.5154    215.9077   8.0867536434e+01   7.9116049661e+00     0.167566    0.1344303 -44.39 0.0004177359    1.439    0.305
        85  -8.6981     16.2753    187.5531   1.0803885063e+02   3.2844447896e+01    0.1303777    0.1153156  21.72  0.000608604    1.494    0.331
        86  -9.4027    197.1004     17.9703   2.5241512754e+01   3.3285541788e+01     0.459011    0.2671251  57.04  0.002323424    1.695    0.410
        87 -10.3917    239.4191    212.6354   6.3120683750e+01  -5.4133227371e+00    0.2341752     0.198609  -0.43 0.0007615823    1.186    0.157
        88 -10.9294    234.2551    211.0735   6.3763708547e+01  -4.4585306133e+00     0.375975    0.2341173 -24.37  0.002177731    1.513    0.339
        89  -8.9577    158.8609     23.0997   3.1802626274e+01   4.2286799179e+01    0.1881917    0.1558034  37.61 0.0003682951    1.295    0.228
        90 -10.0896    135.3171     15.8567   3.3532278517e+01   4.9003885327e+01    0.2171101    0.1747222 -52.08  0.001211681    1.411    0.291
        91  -9.6981    220.7168     14.8703   2.2138721955e+01   2.8052126470e+01    0.1913194    0.1567249  65.53 0.0006099983    1.298    0.230
        92  -8.3843    247.2715    211.6286   6.1567054768e+01  -6.3797142086e+00    0.1040272   0.09404775 -37.27 0.0006999069    1.676    0.403
        93  -9.3496    225.7818    206.1128   6.4414572044e+01  -2.4966002284e+00    0.2470279    0.1638813  44.25 0.0009222444    1.794    0.443
        94  -9.9826     12.6430    203.3203   1.0978155056e+02   2.9800964471e+01    0.2153913    0.1746474 -44.31            0    1.763    0.433
        95 -10.4005    193.0673    246.5506   7.7297643100e+01  -3.2370586776e+00    0.2009611    0.1743505 -15.64  0.001426056    1.317    0.241
        96  -8.5916    172.3804    187.6712   7.1739489946e+01   9.5616073462e+00    0.1429642    0.1119844  70.75 0.0007018016    1.853    0.460
        97 -10.1085    181.3346    184.7598   6.9254584350e+01   8.4626802211e+00    0.4395572    0.1628513 -44.80  0.001629543    2.923    0.658
        98 -10.1260    236.1330    183.7033   5.8299658113e+01  -7.9483797790e-01    0.2172767    0.1637636 -35.70 0.0005725907    1.402    0.287
        99 -10.5103    207.3843    171.2168   6.1182939564e+01   6.1089501431e+00    0.3901387    0.3266628  76.44  0.002081309    1.852    0.460
       100 -10.1936    197.2242    177.0098   6.4403542980e+01   6.9478257521e+00     0.347525    0.2662156  67.60  0.001261678    2.025    0.506
       101 -11.3331    200.8998    173.6659   6.2979358208e+01   6.8642043998e+00    0.4739586    0.3731793  -0.09  0.002118535    1.282    0.220
       102 -10.1438    174.2789    177.3857   6.9346319405e+01   1.1140254792e+01    0.4486219    0.2058333  50.77  0.001670842    2.681    0.627
       103 -10.4641    204.5008    200.6154   6.7477228795e+01   1.7257201741e+00    0.2471406    0.1943411 -24.66  0.001460438    1.273    0.214
       104  -9.6405    101.0136    175.9999   8.6525181211e+01   2.4734824925e+01    0.1968538    0.1836374  60.28  0.001140469    1.008    0.008
