#   1 NUMBER                 Running object number                                     
#   2 MAG_AUTO               Kron-like elliptical aperture magnitude                    [mag]
#   3 X_IMAGE                Object position along x                                    [pixel]
#   4 Y_IMAGE                Object position along y                                    [pixel]
#   5 X_WORLD                Barycenter position along world x axis                     [deg]
#   6 Y_WORLD                Barycenter position along world y axis                     [deg]
#   7 A_WORLD                Profile RMS along major axis (world units)                 [deg]
#   8 B_WORLD                Profile RMS along minor axis (world units)                 [deg]
#   9 THETA_WORLD            Position angle (CCW/world-x)                               [deg]
#  10 FWHM_WORLD             FWHM assuming a gaussian core                              [deg]
#  11 ELONGATION             A_IMAGE/B_IMAGE                                           
#  12 ELLIPTICITY            1 - B_IMAGE/A_IMAGE                                       
         1 -14.8789    159.8612     51.2342   7.6811707045e+01   3.8826917148e+01     1.083707     1.075159 -44.65  0.003464873    1.100    0.091
         2 -15.0353    171.5221     21.0608   6.6547964778e+01   3.9847129892e+01     1.483799    0.9300085 -85.89  0.006054409    1.822    0.451
         3 -14.0744    197.9610     21.8168   6.3260443772e+01   3.3470596645e+01    0.6297744     0.489048 -38.32  0.003819224    1.427    0.299
         4 -14.4563    189.7728     14.9440   6.2593261595e+01   3.6170778997e+01    0.5440013    0.4771933 -74.30  0.002524184    1.117    0.105
         5 -14.6031    181.4322      7.3945   6.1745703214e+01   3.8910436170e+01     1.713739    0.6383392  85.91  0.005554675    4.597    0.782
         6 -11.7229    110.1671    241.4047   1.2975492816e+02   9.1740649459e+00    0.3326145    0.2708271 -71.19  0.002089048    1.327    0.246
         7 -20.3758     75.2277    178.3599   1.2882447637e+02   2.8532831932e+01     16.58835      7.19275 -64.63   0.06857657    2.185    0.542
         8 -12.8697    162.7196    181.2236   1.0877297971e+02   1.2065395651e+01    0.3711458    0.3305883 -75.20   0.00154324    1.224    0.183
         9 -10.4451     15.3865    187.7958   1.4327273624e+02   3.3525491048e+01    0.1581282   0.08714201 -65.70 0.0004204934    1.574    0.365
        10 -13.1761    207.3405    220.9939   1.0698831081e+02  -3.9051846333e+00    0.3417516     0.254271 -43.78  0.001396546    1.488    0.328
        11 -10.4533     27.4288    227.3510   1.4416802547e+02   2.3659953750e+01     0.113203   0.08810429  78.33 0.0003033823    1.075    0.069
        12 -13.9175    237.6314    173.7760   9.2030116445e+01  -9.7071453553e-01    0.7225049    0.3475409  43.76  0.003192127    2.249    0.555
        13 -12.5655    193.7630    170.9608   9.9927343711e+01   7.9364238941e+00    0.5936368    0.3588169 -59.36 0.0007211308    2.137    0.532
        14 -11.4085    203.4916    174.4363   9.8670228560e+01   5.3038176801e+00    0.2717952    0.1337124 -52.71  0.001036319    2.433    0.589
        15 -10.5007     10.0031    168.2168   1.4261326993e+02   3.8470378318e+01    0.1673135    0.1285805 -64.28 0.0004305999    1.269    0.212
        16 -13.3716    160.6828    164.6913   1.0581221982e+02   1.6100227011e+01    0.7573043    0.4178016 -66.27  0.002658763    2.837    0.647
        17 -12.1503    187.4819    154.5503   9.7660575606e+01   1.2634102065e+01      0.66346     0.394372  44.26  0.002839815    1.724    0.420
        18 -11.0599    191.6146    151.8020   9.6173838486e+01   1.2330026785e+01    0.3847048    0.2238942 -58.76  0.001045702    2.149    0.535
        19 -10.4611      6.3048    225.2051   1.4775267532e+02   2.6346910401e+01   0.08747974   0.07797226 -81.83 0.0006700594    1.454    0.312
        20 -12.9380    164.3476    152.8612   1.0237401837e+02   1.7953146734e+01    0.4444145    0.3921945  34.57   0.00131962    1.184    0.155
        21 -11.9262    174.4413    148.9076   9.9205297223e+01   1.6643009546e+01    0.3764534    0.2923127 -64.77  0.001117643    1.443    0.307
        22 -11.3360     15.1207    217.9054   1.4570664819e+02   2.6971410828e+01    0.3067731    0.1050045 -70.90  0.001501963    2.392    0.582
        23 -12.5616     10.9497    144.3071   1.3984597758e+02   4.3929769921e+01    0.3066364    0.2222918 -37.31 0.0007531331    1.678    0.404
        24 -11.3062    217.4458    217.5340   1.0440042747e+02  -5.0330714761e+00    0.3103895    0.1236993 -45.96  0.001256773    2.871    0.652
        25 -11.4550    161.4533    236.6023   1.1878901878e+02   1.3543759016e+00    0.2263092    0.1968901  42.19 0.0004319572    1.021    0.021
        26 -10.7171    166.8080    133.6207   9.7322669124e+01   2.1657532104e+01    0.2226151    0.1485862  58.52 0.0007043607    1.658    0.397
        27 -12.8206    160.4349    127.9965   9.7412409191e+01   2.4313817981e+01    0.5308524    0.3923261 -63.52  0.001673364    1.514    0.339
        28 -10.9302     32.7222    212.2468   1.4195562387e+02   2.6267255766e+01     0.244964    0.1987401 -34.44  0.001565693    2.006    0.501
        29 -11.2024    153.9095    125.5153   9.8328693138e+01   2.6318524352e+01    0.2375667    0.1564787  48.14 0.0007783492    1.543    0.352
        30 -10.5299     25.0068    213.5123   1.4354020430e+02   2.6857576783e+01    0.1397445    0.1036249  55.57 0.0009337693    1.310    0.237
        31 -11.2278    231.3419    113.7640   8.0059842844e+01   1.1352106932e+01    0.2597356    0.2466245 -63.08 0.0007746309    1.063    0.060
        32 -11.0552    167.5894    112.7105   9.1943582773e+01   2.5945050109e+01    0.3488608    0.2440698 -78.28  0.001437487    2.011    0.503
        33  -8.9143     16.4137    212.4086   1.4506785659e+02   2.8005957108e+01    0.1173139   0.08658718  82.95 2.445873e-05    1.007    0.007
        34 -10.9570    205.3804    110.2476   8.3698326621e+01   1.7703602861e+01    0.3081212    0.2114078  49.19 0.0009797082    1.543    0.352
        35 -12.2720     14.3604    198.0608   1.4434391463e+02   3.1333303501e+01    0.2371049    0.1465848 -68.52  0.001120233    1.442    0.306
        36 -12.2689     31.4253    104.4998   1.2800870785e+02   5.1459561245e+01    0.3666639    0.2243806   2.28  0.001923251    2.270    0.559
        37 -11.3526      9.8255    211.0622   1.4618819671e+02   2.8954303938e+01    0.1718569   0.09099551 -78.86 0.0007508499    1.509    0.337
        38 -13.3524     11.6454    206.0198   1.4548353645e+02   2.9858943555e+01    0.4280238    0.3784103   1.25  0.003111352    1.880    0.468
        39 -16.0173     42.5313    152.0932   1.3297024023e+02   3.9129115391e+01      1.50982    0.9058127 -64.14   0.00535858    1.400    0.286
        40 -12.2891    133.9172    196.6308   1.1814777869e+02   1.4299076441e+01    0.3848871    0.2853903 -60.34 0.0006554319    1.407    0.289
        41 -12.7349     50.2450     91.8208   1.1917129457e+02   5.2342464230e+01    0.3109663    0.2543646  16.51 0.0009633998    1.367    0.269
        42 -10.2127    222.9952    198.7189   9.9769545431e+01  -2.7997515463e+00     0.163469    0.1157485  35.82 0.0004024364    1.407    0.289
        43 -12.8598    207.8587    226.6649   1.0789663489e+02  -4.9244293903e+00    0.2856622    0.1874764 -44.09 0.0009215184    1.698    0.411
        44 -11.1597     23.8313    191.1413   1.4183794886e+02   3.1932552693e+01    0.2193448    0.1482051 -59.11  0.001114137    1.544    0.352
        45 -14.4710    149.1459     65.4212   8.3086210632e+01   3.9196557388e+01      1.11705     0.941758  26.31  0.001111606    1.323    0.244
        46 -12.1169    117.4020    244.9690   1.2876711512e+02   7.3171053052e+00    0.1805428    0.1736206 -18.19  0.001206857    1.370    0.270
        47 -13.5971    164.4609     42.2643   7.3446423279e+01   3.8968018018e+01    0.4907539    0.4429818  78.64 0.0008688141    1.037    0.035
        48 -12.5757    164.4077    186.2107   1.0938464914e+02   1.0664321370e+01    0.3512926    0.2611004 -72.26  0.001657888    1.702    0.412
        49 -11.2588     13.6034     59.9309   1.2395239389e+02   6.2179241676e+01    0.1792081    0.1601294  -1.15  0.000410557    1.291    0.225
        50 -10.7427    105.2955    246.3166   1.3129029793e+02   9.0201506369e+00    0.1115961    0.1009636   0.39 0.0007013752    1.606    0.377
        51 -10.1221     35.9801    245.3667   1.4398428042e+02   1.9014907314e+01    0.1871491    0.1023687  71.48  0.000612939    1.560    0.359
        52 -10.9042    157.9355    244.4792   1.2067166637e+02   5.8540586811e-01    0.2263049    0.1704058 -37.78 0.0008732266    1.583    0.368
