#   1 NUMBER                 Running object number                                     
#   2 MAG_AUTO               Kron-like elliptical aperture magnitude                    [mag]
#   3 X_IMAGE                Object position along x                                    [pixel]
#   4 Y_IMAGE                Object position along y                                    [pixel]
#   5 X_WORLD                Barycenter position along world x axis                     [deg]
#   6 Y_WORLD                Barycenter position along world y axis                     [deg]
#   7 A_WORLD                Profile RMS along major axis (world units)                 [deg]
#   8 B_WORLD                Profile RMS along minor axis (world units)                 [deg]
#   9 THETA_WORLD            Position angle (CCW/world-x)                               [deg]
#  10 FWHM_WORLD             FWHM assuming a gaussian core                              [deg]
#  11 ELONGATION             A_IMAGE/B_IMAGE                                           
#  12 ELLIPTICITY            1 - B_IMAGE/A_IMAGE                                       
         1 -13.7703    185.9703     30.7358   6.2090072226e+01   3.4831070185e+01     1.689039     1.010014  14.26  0.006702299    2.331    0.571
         2 -11.6927    208.2288      1.9266   5.0156618512e+01   3.1981198318e+01    0.6809702    0.2157253  69.30  0.002384899    2.931    0.659
         3 -11.9616     65.2026    205.9372   1.2462500232e+02   2.6697823781e+01    0.3630567    0.2334799 -53.17  0.001550006    2.225    0.551
         4  -9.7962    159.4659    250.4840   1.1322511663e+02   7.4931460181e+00    0.1046601   0.07433147  43.50 0.0001735438    1.030    0.030
         5 -19.3640     28.5876    140.9873   1.2639683918e+02   4.2776778296e+01     16.71647      3.88731 -75.61   0.06444258    4.113    0.757
         6 -12.9461    116.2372    211.5871   1.1627576382e+02   1.8913456178e+01    0.5875002    0.3285598  68.69  0.003385619    2.134    0.531
         7 -11.9608    105.9628    202.0632   1.1709115279e+02   2.1892566176e+01    0.3640685    0.2211784  45.04  0.002331522    1.387    0.279
         8 -11.2735    107.2006    206.5927   1.1734060241e+02   2.0996891031e+01    0.2724915     0.174653  38.91  0.001164208    1.520    0.342
         9 -12.1215     47.1598    216.6586   1.2836491131e+02   2.7050320428e+01    0.2745835    0.1174017  52.78 0.0008164374    1.723    0.419
        10  -9.6496     67.5841    211.9491   1.2466921841e+02   2.5429303094e+01    0.1687082    0.1292429  -5.95  0.001032178    3.398    0.706
        11 -10.0975     79.0468    210.6311   1.2261534569e+02   2.4203055636e+01    0.1786348    0.1414377 -70.87  0.001397963    1.491    0.329
        12  -9.7746    164.4682    205.9812   1.0720146200e+02   1.2156187003e+01    0.1739871    0.1312212  42.87 0.0004654046    1.057    0.054
        13 -11.8124    126.1226    205.3286   1.1385607328e+02   1.8372567761e+01    0.3443711    0.1743405  69.28  0.001574965    3.315    0.698
        14 -12.0285    108.4854    210.4890   1.1751078782e+02   2.0207993856e+01    0.4645458     0.181157  42.68   0.00244816    2.097    0.523
        15 -11.3329    112.2855    197.0041   1.1539730967e+02   2.1774135220e+01    0.3417053     0.240053   3.12  0.001729087    3.552    0.718
        16 -11.5183    193.4727    193.6643   1.0037743046e+02   8.8658479342e+00     0.555613     0.406139 -62.91  0.003329209    2.191    0.544
        17 -12.3563     46.9700    204.4649   1.2764282446e+02   2.9058665085e+01    0.2014162    0.1252979  59.43 0.0006260515    1.211    0.174
        18 -12.1890     74.4227    191.7793   1.2180810990e+02   2.7941294658e+01     0.593447    0.4648228  55.67  0.003217257    1.157    0.136
        19 -10.6146     78.8306    184.8155   1.2032616305e+02   2.8588401953e+01    0.2655702     0.154521  48.87  0.001174441    1.455    0.313
        20 -10.6468     64.5970    192.8734   1.2369583628e+02   2.8983534223e+01    0.2879796    0.1778348  49.61  0.001973507    1.361    0.265
        21  -9.2603    180.0183    192.4836   1.0253939292e+02   1.1348845256e+01    0.1862448    0.1005256  44.98 0.0005205878    1.530    0.346
        22  -8.9752     90.4493    183.9478   1.1802814311e+02   2.7157088643e+01    0.1542799   0.08561869  82.47 0.0006960787    2.321    0.569
        23 -10.9848    211.0526    179.1937   9.4947024549e+01   7.5945693259e+00    0.3968166    0.2052041  29.18  0.001490998    2.029    0.507
        24 -10.2230     99.4658    180.7322   1.1593229353e+02   2.6429148714e+01    0.2046356    0.1716155  43.19 0.0006015887    1.283    0.221
        25  -9.7684     71.8400    174.2629   1.2061497200e+02   3.1418462108e+01    0.2343279     0.117343  51.67 0.0009254226    1.725    0.420
        26  -9.5430    193.9741    165.2737   9.5450268237e+01   1.2593247589e+01    0.2198253    0.1873947 -74.05  0.001323791    1.654    0.395
        27 -11.2715    105.0192    172.0278   1.1376479260e+02   2.7151029192e+01    0.2548037    0.1549877  45.79  0.001474089    1.463    0.317
        28 -11.4359    136.0778    171.3083   1.0749370237e+02   2.2225828329e+01    0.4336143    0.1456767  37.62  0.001608093    3.390    0.705
        29  -9.6181     10.6331    232.6615   1.3470000097e+02   2.8265708647e+01   0.07289362   0.06594007 -72.60 -3.174196e-06    1.842    0.457
        30 -10.6345    196.1095    171.0292   9.6111593459e+01   1.1389385061e+01    0.3135462    0.2490895  25.04  0.001135634    1.169    0.145
        31  -9.2341     66.6949    233.0676   1.2626447621e+02   2.2290953394e+01    0.1203711   0.09132173  69.13  0.001019613    1.125    0.111
        32 -11.9566     99.0457    155.6735   1.1277568324e+02   3.1118672952e+01    0.5019515    0.3581327 -38.37  0.002871512    1.965    0.491
        33 -10.5693    134.4171    148.6385   1.0412072793e+02   2.6529679112e+01    0.4130316    0.1327859 -52.94  0.001495079    3.586    0.721
        34 -11.0480    134.0000    142.4835   1.0309818660e+02   2.7746174719e+01    0.5196655    0.2018724 -56.30  0.001962204    3.222    0.690
        35  -9.2979    174.6791    148.7006   9.5928284317e+01   1.8842981861e+01    0.1364303    0.1009874  16.87 0.0002239682    1.623    0.384
        36 -10.5124    143.9937    145.0064   1.0144160588e+02   2.5423727981e+01    0.2164773    0.1622606  82.17  0.001138814    1.701    0.412
        37 -11.7354    109.5415    140.3639   1.0809779949e+02   3.2438040993e+01    0.4341975    0.2905776 -36.75  0.002251736    2.012    0.503
        38 -11.4777     98.1275    140.6819   1.1071690132e+02   3.4212094448e+01    0.2387252     0.226468  62.53 0.0004356816    1.158    0.136
        39  -9.9620     83.4897    134.0626   1.1303640330e+02   3.7758759009e+01    0.1823398    0.1155365 -65.79 0.0004912993    1.510    0.338
        40 -11.3961    116.4583    130.3798   1.0473577061e+02   3.3242473885e+01    0.3416225     0.278301 -13.31   0.00125049    1.758    0.431
        41 -10.9768    106.0153    130.8117   1.0723087127e+02   3.4938447186e+01    0.3278812    0.2622588  85.05     0.001308    1.300    0.231
        42 -10.6642    104.1413    127.0828   1.0699028758e+02   3.6009867703e+01    0.2729854    0.2499143 -27.85 0.0007440423    1.347    0.257
        43 -11.3117    135.3617    125.0973   9.9372261872e+01   3.0795279126e+01    0.7890882    0.1534125 -48.81  0.002100053    5.611    0.822
        44 -11.0349     87.8192    222.9645   1.2214308097e+02   2.1151859878e+01    0.2710529    0.2046786 -50.90  0.001098532    1.967    0.492
        45  -9.9204    125.6575    127.3306   1.0203278429e+02   3.2191573276e+01    0.2165126    0.1586004  81.62 0.0007893087    1.707    0.414
        46 -10.1048    111.1387    119.6044   1.0387708221e+02   3.6354374091e+01    0.2173793    0.1777238 -72.52 0.0003955634    1.240    0.193
        47 -11.4761     77.5726    217.2050   1.2338943654e+02   2.3353828107e+01    0.2263313    0.1399023  63.12 0.0004670427    1.295    0.228
        48  -9.5915    167.7420    112.6711   8.9483775512e+01   2.6410890738e+01    0.2957202    0.2144419 -83.51  0.001323159    2.142    0.533
        49 -10.7228    184.0487    216.0259   1.0523585286e+02   7.6890113490e+00    0.1757943      0.12796  64.53  0.001146858    1.749    0.428
        50  -9.2644    205.7115    110.0661   8.1441691381e+01   1.8400744220e+01    0.2007521    0.1808768  -8.20 0.0005659485    1.082    0.075
        51 -11.1544     60.1639    214.7956   1.2611352026e+02   2.5863573608e+01    0.3417931    0.1239175  57.76  0.001385824    2.378    0.580
        52  -8.7961     57.0532    210.2593   1.2632374971e+02   2.6958389075e+01    0.2934125     0.179446  32.49   0.00198086    2.076    0.518
        53 -10.8849    174.1483     72.8585   7.7449277770e+01   3.1772181185e+01    0.4163561     0.303766 -81.37 0.0007243188    1.977    0.494
        54 -11.8196    171.6234     45.8154   6.9495037964e+01   3.6583643233e+01    0.4210225    0.3960414   4.52 0.0008327144    1.058    0.054
        55 -11.0107    171.6525    239.4761   1.1014844671e+02   6.9172512540e+00    0.2312879    0.1386864  60.44  0.001473055    1.986    0.496
