#   1 NUMBER                 Running object number                                     
#   2 MAG_AUTO               Kron-like elliptical aperture magnitude                    [mag]
#   3 X_IMAGE                Object position along x                                    [pixel]
#   4 Y_IMAGE                Object position along y                                    [pixel]
#   5 X_WORLD                Barycenter position along world x axis                     [deg]
#   6 Y_WORLD                Barycenter position along world y axis                     [deg]
#   7 A_WORLD                Profile RMS along major axis (world units)                 [deg]
#   8 B_WORLD                Profile RMS along minor axis (world units)                 [deg]
#   9 THETA_WORLD            Position angle (CCW/world-x)                               [deg]
#  10 FWHM_WORLD             FWHM assuming a gaussian core                              [deg]
#  11 ELONGATION             A_IMAGE/B_IMAGE                                           
#  12 ELLIPTICITY            1 - B_IMAGE/A_IMAGE                                       
         1 -12.1807     26.3666     56.3737   9.3390573266e+01   6.2671993864e+01      1.20272    0.7975034  -1.89  0.006943637    1.564    0.361
         2 -13.2512     42.6892     45.5874   8.2495871617e+01   6.2930903457e+01    0.8273311     0.576441  44.38 0.0007327306    1.931    0.482
         3 -12.1939    124.8868     27.6806   4.9377801159e+01   4.9905887464e+01    0.7308504    0.4782178  52.52  0.002435572    1.357    0.263
         4 -12.5329    120.3926     57.4340   6.0313723528e+01   4.6943537091e+01     2.332903     1.416833 -70.14  0.008360112    3.671    0.728
         5 -12.6584    119.2832     37.7854   5.4029931430e+01   4.9980801072e+01    0.8270517     0.613297 -77.00  0.002992392    1.939    0.484
         6 -12.4611    113.9318     25.3106   5.0961255543e+01   5.2661486813e+01    0.9111978    0.3216308  47.79  0.002537799    2.456    0.593
         7 -11.3155    145.3704     47.7543   5.1573779882e+01   4.2624545753e+01     1.123943    0.4749566 -23.71  0.004121848    3.158    0.683
         8 -11.2237    154.7304     23.5042   4.2692625300e+01   4.3362807957e+01     1.366811     0.738295  26.19  0.005704959    3.084    0.676
         9 -10.3215    147.6434     16.1861   4.1637950393e+01   4.5776848059e+01     0.532459    0.2929627  36.17  0.002542286    2.205    0.546
        10 -11.2076    156.6372     52.8092   5.0888970709e+01   3.9261880712e+01     1.081749    0.5445811 -40.86  0.004729568    2.019    0.505
        11 -12.2003    130.8444     14.7699   4.3980909235e+01   4.9845491174e+01     1.358669    0.6422273  62.93  0.006411601    1.853    0.460
        12 -11.6819    142.4977     27.4685   4.5907452406e+01   4.5820276929e+01      1.35545    0.6631967  27.98  0.004893253    3.640    0.725
        13 -11.6378    136.5867     22.7863   4.5509027839e+01   4.7712613636e+01    0.9198209    0.3927153  52.86  0.004076109    2.022    0.505
        14 -11.4520    165.0645     17.8215   3.9601569430e+01   4.1519262235e+01    0.4706481    0.2610972  41.36  0.001556987    2.125    0.529
        15 -11.2075    106.0353     20.3442   5.1021304446e+01   5.4945271735e+01    0.5000601     0.417486 -41.37   0.00158693    1.405    0.288
        16 -10.7756    198.8226     29.4687   3.8430688626e+01   3.2470221591e+01    0.5259299    0.3592872 -34.91  0.003034034    1.510    0.338
        17 -10.3721     60.3771     21.6915   6.5384651467e+01   6.3868279131e+01    0.4729584    0.2295315 -27.53  0.002357276    2.088    0.521
        18 -10.5407     46.9099     19.3365   6.9720941386e+01   6.6341141271e+01    0.3160321    0.2421689  -1.90  0.001554977    1.107    0.096
        19 -11.0527     27.2131     28.0653   8.2671004261e+01   6.7685039961e+01     1.189878    0.4881627  36.03  0.005700272    2.756    0.637
        20 -12.1556     35.8829     17.5481   7.3805331432e+01   6.8157243383e+01    0.6372974    0.4483784 -33.09   0.00262889    1.507    0.336
        21 -12.0835     48.5931     12.9372   6.6038478866e+01   6.6852970165e+01    0.6225671    0.2878892  42.58  0.002854622    2.047    0.512
        22 -11.8779     20.1090     21.9185   8.3609898447e+01   6.9399413166e+01    0.6517485    0.2511936 -39.72  0.002932242    2.262    0.558
        23 -11.0950     13.9042      8.8355   8.0840828152e+01   7.1938381973e+01    0.3312418    0.2066111   1.68  0.001516872    1.412    0.292
        24 -12.1046     22.7970     11.5999   7.7404031856e+01   7.0594148768e+01    0.5049999    0.3025303  -3.02   0.00221953    1.610    0.379
        25 -12.3797     17.2592     12.4459   8.0760689366e+01   7.1090222879e+01    0.9683567    0.4511781  -9.69  0.003945899    3.193    0.687
        26 -10.5021    214.2574     24.3338   3.5626146803e+01   2.9671468405e+01    0.4008137    0.2929013  34.78  0.002354736    1.973    0.493
        27 -10.9533    178.7741     21.1868   3.8735806954e+01   3.7973915054e+01    0.5276995    0.2602841  46.99  0.001803602    2.291    0.564
        28 -11.1266     86.8318      7.5094   5.0882940446e+01   6.0270881916e+01    0.5560319    0.3213832  60.05  0.002464802    1.692    0.409
        29 -11.1478     90.7157     20.7406   5.5113688042e+01   5.8189296208e+01    0.5660282    0.3374718 -28.40  0.002491134    1.801    0.445
        30 -11.9828     68.3399     18.1884   6.0986806274e+01   6.2863373586e+01    0.5179837    0.4039504  35.44  0.002191772    1.161    0.139
        31 -12.3078    238.0849     16.0415   3.1844666294e+01   2.5661985474e+01    0.9945844    0.7383524  81.82  0.006826683    1.286    0.223
        32 -11.3631    227.6550     15.3600   3.2512353101e+01   2.7848327571e+01    0.4984181    0.2970645  83.49  0.001763103    1.583    0.368
        33 -11.5141    232.3914      7.3512   3.0517916212e+01   2.7730159529e+01    0.5515211    0.2548142  72.48  0.003056578    2.022    0.505
        34 -11.0202    232.6371      3.1249   2.9657025060e+01   2.8110447145e+01    0.6110359    0.1929772  77.68  0.001708463    3.105    0.678
        35 -10.3242    245.7482      1.3564   2.8477473503e+01   2.5710327514e+01    0.4345611    0.1442573  58.88  0.002060294    3.448    0.710
        36 -11.7311    247.2989      6.2629   2.9306866419e+01   2.4908751501e+01    0.5029379    0.4118244  25.22  0.002893346    2.041    0.510
        37 -10.9564    218.8018      3.2207   3.0659173633e+01   3.0940053424e+01    0.3019642    0.2393921 -44.15  0.001095296    1.296    0.228
        38 -11.0072    223.8075      2.0131   3.0044009409e+01   3.0018145144e+01    0.4192477    0.2034345  84.30  0.001922007    1.936    0.483
        39 -10.5806    211.2868     17.9293   3.4474886504e+01   3.1024848643e+01    0.3174607    0.1816424 -34.64  0.001781775    1.764    0.433
        40  -9.2284    198.8100     17.2043   3.5514643747e+01   3.3841250048e+01    0.2790455    0.1707006  11.76  0.001264266    3.420    0.708
        41  -9.4146    191.2178     16.8509   3.6218895310e+01   3.5582413113e+01    0.2939068    0.2060788 -21.83  0.001322957    1.727    0.421
        42 -11.4148    192.4717      7.8127   3.3919973876e+01   3.6206084428e+01    0.5375336    0.4094007  18.63  0.002240063    1.917    0.478
        43 -12.2218    104.6189     12.5755   4.8496913760e+01   5.6008241243e+01    0.4936743    0.4657592 -40.46  0.001784607    1.258    0.205
        44  -9.8246      5.0501     12.5329   8.7684361380e+01   7.2208006756e+01    0.2597576    0.1678153  24.20  0.001742731    1.705    0.413
        45  -9.2336      5.3205      9.3131   8.6017462621e+01   7.2667211538e+01    0.1790378    0.1034837 -24.53 0.0007425214    1.384    0.277
        46 -11.3662    211.8026      9.6210   3.2589268071e+01   3.1785877630e+01    0.4928242    0.3225958   3.33  0.002611248    2.837    0.648
        47 -11.4392     85.9883     14.2077   5.3827827741e+01   5.9832187631e+01    0.4821174    0.2853781 -12.15  0.001951609    1.897    0.473
        48 -10.7094     65.6498     10.3601   5.8454517847e+01   6.4183166249e+01    0.3991838    0.1960291  39.19  0.002066565    1.741    0.426
        49  -9.6887     62.6637      6.9675   5.7935295814e+01   6.5059570545e+01    0.3070597    0.1839108  21.13  0.001727114    1.624    0.384
        50  -9.7510    169.0088      9.6073   3.6886007725e+01   4.1395010717e+01    0.3345208    0.1488847  50.08   0.00155297    2.289    0.563
        51  -9.3557    163.0508     10.0937   3.7748169632e+01   4.2736688796e+01    0.1943941    0.1523236  49.52 0.0006990811    1.305    0.234
        52  -9.6051      1.0000      8.2178   8.8083965842e+01   7.3174631135e+01    0.2193594    0.0522435 -46.59 0.0009101168    3.739    0.733
        53  -9.9324     78.2549      7.4550   5.3227995221e+01   6.2026083388e+01    0.2352409    0.1616899  58.31 0.0009045895    1.503    0.335
        54 -11.2123     75.1652      3.5434   5.2446426191e+01   6.2975860339e+01    0.6960737    0.2905223  49.20  0.003415063    1.935    0.483
        55 -11.1062    177.2611      5.9522   3.5006085663e+01   3.9827429218e+01    0.4117813    0.1955976  83.31 0.0007525694    2.161    0.537
        56 -10.0180    158.0152      3.8146   3.6650076892e+01   4.4464074775e+01    0.4263539    0.2588775  -5.95  0.002262047    2.300    0.565
        57  -9.2974    153.7197      7.0279   3.8102069774e+01   4.5190988028e+01    0.1709134    0.1518907  70.21 0.0005655385    1.040    0.038
        58 -10.0034    116.5244      2.5377   4.2486872750e+01   5.4173188317e+01    0.2984777    0.2218596   9.32  0.001772689    1.549    0.355
        59 -10.6900    110.4287      1.8705   4.3396795245e+01   5.5599011342e+01    0.4741004    0.2057316  71.24   0.00208465    2.483    0.597
        60 -10.7781    105.1767      1.7802   4.4406409625e+01   5.6776811825e+01    0.5072325    0.2121479  67.45  0.002150003    2.378    0.579
        61 -10.5576     41.6280      4.3805   6.4785737985e+01   6.8880430984e+01    0.3963395    0.2086898   8.11  0.001870103    2.297    0.565
        62 -11.9425    134.5435      2.7994   3.9570202283e+01   5.0012017253e+01    0.4856827    0.2712731  79.47  0.001637516    1.848    0.459
        63 -10.0076    142.7828      3.3758   3.8536905542e+01   4.8050167240e+01    0.3182481    0.1921255  81.00  0.001706028    1.644    0.392
        64  -8.9406    122.1303      5.1954   4.2381702824e+01   5.2687315432e+01    0.1626071    0.1374036  89.17 0.0003923471    1.280    0.219
        65 -11.3096      2.7025      1.9743   8.3939693647e+01   7.3930367733e+01    0.3698359    0.1728451  11.46  0.002108786    2.156    0.536
        66  -9.8500     12.9655      1.7910   7.7734810225e+01   7.2962813980e+01    0.3241462    0.1362389  26.69  0.001710547    2.225    0.551
        67 -10.2603    207.5101      2.5008   3.1380627471e+01   3.3408345482e+01    0.2508163    0.1862269  78.17 0.0008921956    1.215    0.177
        68 -10.4077    203.9790      1.5260   3.1451930845e+01   3.4263644774e+01    0.2876872    0.1515298  67.51  0.001010902    1.718    0.418
        69  -9.6087    169.7137      2.8241   3.5020296825e+01   4.1838518609e+01    0.2256737    0.1303928 -72.86  0.001174149    1.930    0.482
        70 -10.7921    184.1273      4.7753   3.4004608929e+01   3.8370467535e+01    0.4097576    0.3280668 -38.48  0.002047289    1.355    0.262
        71  -9.2862    151.8205      1.3688   3.6740052611e+01   4.6106523232e+01    0.2397968    0.1067674  74.69 0.0007630863    2.085    0.520
        72  -9.2235    122.5655      1.3846   4.1036896323e+01   5.2882746974e+01     0.264846    0.1024527  64.73 0.0007841449    2.169    0.539
        73  -9.8292     82.1456      1.3031   4.9561729554e+01   6.1744680480e+01    0.1742478   0.09620399  55.27 0.0004561947    1.573    0.364
        74  -8.8595     33.5417      1.5202   6.6924853215e+01   7.0391169765e+01    0.1196475   0.08727668   9.70 0.0003197609    1.064    0.060
        75  -9.4237    107.7525    145.9336   8.8269910886e+01   3.0958582298e+01    0.2117628    0.1904369 -53.26 0.0003410152    1.091    0.084
        76 -10.2806    142.9717    249.7198   9.7391191600e+01   3.3075008418e+00    0.1873332     0.142393  32.69  0.001164193    1.113    0.102
        77 -10.9351     33.3762    144.3661   1.0934197946e+02   4.1490536411e+01    0.4199553    0.2804152  49.77  0.001783771    1.648    0.393
        78  -9.2010    234.1615    143.7347   5.9707273437e+01   7.3704454878e+00    0.2131352    0.1425675 -69.78  0.000945244    2.741    0.635
        79  -8.9528    104.5147    142.4945   8.8427687597e+01   3.2349624767e+01    0.1508821    0.1468007 -53.43 0.0008103455    1.026    0.026
        80  -9.8290    132.8966    140.5804   8.0331636821e+01   2.7551397604e+01     0.309693    0.2638614 -53.67 0.0008263683    1.200    0.167
        81 -11.9791     23.5915    135.1000   1.1090591218e+02   4.4655328344e+01     0.807767    0.4827063  37.12  0.004274634    1.862    0.463
        82 -11.8516     29.9722    132.9844   1.0870689422e+02   4.4637380492e+01    0.5024714    0.3365032  87.78 0.0003521295    1.646    0.393
        83 -10.5412    217.0929    138.2959   6.1441112633e+01   1.1374270433e+01    0.3635745    0.2851897 -55.82  0.001159706    1.436    0.304
        84  -9.9671     70.1424    139.1712   9.7694667353e+01   3.8542050232e+01    0.2246948    0.1858411 -36.80 0.0004953335    1.241    0.194
        85 -10.0004     80.1933    137.1003   9.4300681369e+01   3.7612599136e+01    0.4369135    0.2809437 -22.91  0.001850239    2.160    0.537
        86 -10.2037     47.1356    135.3241   1.0390234242e+02   4.2351601969e+01    0.4662467     0.204969 -66.84  0.001529519    2.160    0.537
        87  -9.9090     39.9142    138.0828   1.0651310059e+02   4.2421722415e+01    0.3096653    0.1967913  34.20  0.001101469    1.723    0.420
        88  -9.9346    245.0409    134.7097   5.6083901834e+01   7.0583453178e+00    0.1780192    0.1600708 -24.75  0.000401533    1.083    0.077
        89 -10.4588     93.2239    129.8675   8.8871597674e+01   3.7322189328e+01    0.5354581    0.3238227 -45.59  0.002344498    1.586    0.370
        90  -9.3290     87.3314    135.3050   9.1813637873e+01   3.6955047924e+01    0.1547053    0.1139516 -21.11 0.0007037557    1.659    0.397
        91  -9.5368     73.6608    132.7650   9.5368265873e+01   3.9641863052e+01    0.2468234    0.2223145  37.48  0.001363983    1.187    0.157
        92  -9.9621     61.2643    132.3314   9.9059885376e+01   4.1425682574e+01    0.3880765    0.2758923  -8.79  0.001873224    1.852    0.460
        93  -9.1787     38.2591    133.2072   1.0624003021e+02   4.3805730247e+01     0.192839    0.1513748  78.15  0.001069501    1.408    0.290
        94 -10.2651    103.7713    130.9491   8.6044026141e+01   3.5249006880e+01    0.2503422    0.2191548  37.18 0.0002363236    1.183    0.155
        95 -10.7360      9.7817    128.0720   1.1407221095e+02   4.7396041942e+01    0.4735033    0.2350639 -58.27  0.001978433    1.622    0.383
        96  -9.6659     82.1594    125.0319   9.1107966843e+01   4.0275909472e+01    0.4508557    0.2612787 -15.55  0.001564565    3.305    0.697
        97  -8.9673    223.8358    126.7731   5.7730051534e+01   1.2183392954e+01    0.1884907    0.1511933 -55.15 0.0004786752    1.330    0.248
        98  -9.2992     40.9453    126.5114   1.0429491254e+02   4.5206327220e+01    0.2149884    0.1629451 -62.60 0.0004271528    1.159    0.137
        99 -10.1605     22.9629    126.9850   1.0994993552e+02   4.6714267620e+01    0.1956354      0.16261 -61.36 0.0003040349    1.036    0.034
       100 -10.1994    239.4043    125.7062   5.5029841868e+01   9.5421673187e+00    0.2743829    0.1091437 -41.80  0.001140466    2.155    0.536
       101  -9.5648     53.4944    125.4581   1.0015219170e+02   4.4090783358e+01    0.3053478    0.1274565 -60.44  0.001205897    2.147    0.534
       102  -9.5150     56.6663    122.0779   9.8475497055e+01   4.4546642627e+01    0.2269271    0.2095675 -16.55 0.0008463683    1.146    0.128
       103  -9.4370     58.2847    118.0928   9.7127827006e+01   4.5326808610e+01    0.2580607    0.1630885 -54.85  0.001240538    1.414    0.293
       104  -9.7777      2.1176    125.9316   1.1608090795e+02   4.8379508881e+01    0.2294899    0.1708273 -89.95 0.0007425718    1.267    0.211
       105 -12.3126    103.8367    122.4291   8.3988458103e+01   3.7253069789e+01    0.4582069    0.3921106   1.73 0.0006417598    1.290    0.225
       106  -9.9915     49.4800    123.3352   1.0101737935e+02   4.5080865747e+01    0.3118934    0.2504083  -9.96  0.001129805    1.444    0.308
       107 -10.2415     45.3549    120.1282   1.0172869671e+02   4.6328856435e+01    0.3445968    0.2495058  62.42  0.001008531    1.723    0.420
       108  -9.8579     43.5049    116.4991   1.0163295397e+02   4.7419599716e+01    0.3074975    0.2273013   9.91  0.001656597    1.585    0.369
       109  -9.7319     19.0026    122.6786   1.1054431262e+02   4.8079206869e+01    0.2182865     0.158704 -70.07 0.0004540083    1.176    0.149
       110  -8.7344    143.4770    122.4455   7.3224534684e+01   2.9455521905e+01    0.1551195    0.1485342 -14.37 0.0002903418    1.021    0.021
       111  -9.1418     71.3519    120.9018   9.3548975081e+01   4.2890623318e+01    0.2106253    0.1729124 -47.90 0.0005846137    1.121    0.108
       112 -12.1152     49.2297     99.6322   9.6067465300e+01   5.0859522869e+01     2.260701    0.8207123 -40.17  0.008014725    3.009    0.668
       113 -11.2434      9.6751     97.4766   1.0967791737e+02   5.4783998618e+01    0.6496295    0.5316859  31.44  0.001071009    1.483    0.325
       114 -11.8882      7.0754     88.8335   1.0910769625e+02   5.6953654035e+01    0.6423833     0.492801  32.24  0.004082547    1.600    0.375
       115 -12.1396     42.5408     85.5671   9.5046046792e+01   5.4850121030e+01     1.038121    0.4449342  20.12  0.001992922    2.794    0.642
       116 -11.5416     18.7123    106.0453   1.0801276745e+02   5.2151808174e+01    0.3648102    0.2488518 -21.07 0.0001830937    1.664    0.399
       117 -12.2836     34.5950     94.0542   1.0003911423e+02   5.3700052372e+01     1.382703    0.7438182 -27.87  0.006320785    2.170    0.539
       118 -11.4805     27.1274     86.2703   1.0106295396e+02   5.6165512087e+01    0.5675079     0.499699 -24.80  0.001088429    1.125    0.111
       119 -11.5082     18.2986     90.3546   1.0525218417e+02   5.5900345602e+01    0.4766938    0.2693168 -61.87 0.0006121632    1.497    0.332
       120 -11.8942     25.6316    113.5908   1.0698756202e+02   4.9794129970e+01     1.016742     0.423536  13.90  0.004226485    3.158    0.683
       121 -12.0615     24.7813    108.4072   1.0636842614e+02   5.1123457593e+01     1.315704    0.6465034  -7.65  0.005444251    3.238    0.691
       122  -9.1992    221.2361    120.4267   5.6740887579e+01   1.3793689366e+01    0.1749684    0.1372984  68.10  0.000551498    1.601    0.375
       123 -10.0179     78.7869    126.7365   9.2522817880e+01   4.0375263308e+01    0.6724803    0.1679101 -53.53  0.001998526    3.516    0.716
       124  -8.6437     13.6732    118.7638   1.1164696436e+02   4.9413400768e+01    0.1257351   0.08287225 -39.43 0.0002461963    1.524    0.344
       125  -9.6893    113.4053    116.3473   7.9694559049e+01   3.6872705928e+01    0.3021978    0.2272993 -36.72  0.001137929    1.318    0.241
       126 -10.2859      6.9731    114.4872   1.1316547786e+02   5.0871491843e+01    0.2582255    0.2247717 -67.51  0.001109853    1.074    0.069
       127 -12.6107      2.1832    111.3192   1.1426224579e+02   5.1898586359e+01    0.4128058    0.2339512 -67.57 0.0004814952    1.393    0.282
       128 -11.2136      4.1347    104.8388   1.1272695487e+02   5.3345382673e+01    0.4286722     0.310956  35.65  0.002206353    1.672    0.402
       129  -9.3718     79.2160    114.4191   8.9548138183e+01   4.3289204612e+01    0.2926789    0.1967434 -51.32  0.001380955    1.392    0.282
       130  -9.3995     66.9941    114.4822   9.3499066590e+01   4.5060673205e+01    0.3274424    0.2076537  57.77  0.001429188    2.196    0.545
       131  -9.7352     66.6706    110.8579   9.2763701755e+01   4.5977576543e+01    0.3468848    0.2584276  20.05  0.001771605    1.481    0.325
       132  -9.4133    127.0093    113.5204   7.5186942114e+01   3.4802345524e+01    0.2334719    0.1535615  41.18 0.0007073174    1.553    0.356
       133 -10.6465    107.4748    112.1115   8.0304043790e+01   3.8962143666e+01    0.5908709    0.3796103 -60.20  0.002384091    1.832    0.454
       134  -9.2052    103.6733    112.3543   8.1487848088e+01   3.9615806961e+01    0.2613857    0.2225041  72.93  0.000690703    1.459    0.315
       135 -10.6650    101.7716    109.3816   8.1274786714e+01   4.0642075876e+01    0.5234236    0.3224099  22.50  0.001739864    2.024    0.506
       136  -9.7202    103.2355    105.9706   7.9923478431e+01   4.1138642519e+01    0.3418067    0.2302338  37.67 0.0007979058    1.528    0.346
       137  -9.5880     94.1938    112.5985   8.4411372183e+01   4.1258234140e+01    0.2885625    0.2421595 -85.16  0.001218942    1.502    0.334
       138  -9.9093     48.8021    112.5140   9.9074475064e+01   4.7818537237e+01    0.2600347    0.2203977 -78.35  0.000930553    1.270    0.212
       139 -10.6315    170.3501    110.4557   6.3914744153e+01   2.6172818262e+01    0.4437881    0.3499667 -27.55  0.001277274    1.301    0.231
       140 -10.9108    175.3316    107.8235   6.2195251876e+01   2.5597571072e+01    0.3726383    0.2829718  16.99   0.00102525    1.671    0.402
       141 -10.0778    128.9950    109.9965   7.3718379096e+01   3.5158258899e+01    0.2876988    0.2104628  41.31  0.001337224    1.394    0.282
       142 -10.0301    120.7170    109.0061   7.5702482110e+01   3.7066166306e+01    0.3581863    0.2740321  13.95  0.001100471    1.559    0.358
       143 -11.5848     79.7326    108.3414   8.7880525581e+01   4.4645377852e+01    0.6611729    0.3561073  29.43  0.001398636    2.036    0.509
       144  -9.1396     59.0221    109.8061   9.5061889130e+01   4.7246949211e+01    0.2230311    0.1558406  59.52 0.0005391306    1.920    0.479
       145  -9.9222    157.4019    106.1742   6.5664550493e+01   2.9851795038e+01    0.3286645    0.2383208  16.92  0.001081258    1.812    0.448
       146 -11.0000    143.4776    106.1119   6.8954892806e+01   3.2903403954e+01    0.3735808     0.333729  77.21  0.001330085    1.296    0.229
       147 -11.6067    145.4505    100.1286   6.6846354210e+01   3.3683732125e+01    0.4400109    0.3798018 -35.62 0.0003900942    1.138    0.122
       148 -11.5101     88.6245    103.9850   8.3897773136e+01   4.4196562891e+01    0.5420851    0.3820938  36.61  0.001122415    1.480    0.324
       149  -9.9567    132.4520    111.7288   7.3266619966e+01   3.4067355884e+01    0.4666322    0.1870352 -53.19     0.001453    3.192    0.687
       150  -9.6925     57.2024    102.5281   9.3975731312e+01   4.9213074108e+01    0.2735125    0.1881514 -53.68  0.001261381    1.325    0.246
       151 -10.0688    120.8449    101.2695   7.3545894871e+01   3.8702050543e+01    0.3038249    0.1996394 -17.38  0.001233275    2.091    0.522
       152 -10.1411     65.6222     98.7149   9.0122438915e+01   4.8981810229e+01    0.3908042    0.1844447 -43.07  0.001602654    1.990    0.497
       153 -10.9701     68.0038     95.3054   8.8404854570e+01   4.9423297710e+01    0.4998602    0.2771357  40.06  0.002225816    1.986    0.497
       154 -10.0406    210.0804     98.1099   5.3412490522e+01   1.9916927279e+01    0.3308815    0.2134376  41.04  0.001606935    1.812    0.448
       155  -9.4308     97.9699     97.3354   7.9137888005e+01   4.4019206350e+01     0.262009    0.2156315 -76.44 0.0006836102    1.583    0.368
       156 -10.5235     78.8169     97.2223   8.5257286497e+01   4.7344648596e+01    0.4583974    0.2928597  53.82  0.001173623    2.089    0.521
       157 -10.1979     82.5135     93.4988   8.2995482431e+01   4.7570664681e+01    0.3366781    0.2414032  24.58 0.0008148425    1.487    0.327
       158 -10.8485     77.9441     93.1177   8.4412726682e+01   4.8399681733e+01    0.4749555    0.3939387  -9.78   0.00206312    1.250    0.200
       159 -11.1006     16.9479    101.0488   1.0775110271e+02   5.3472884819e+01    0.3186914    0.2791648 -34.38 0.0003457318    1.156    0.135
       160  -9.4362    141.8331     95.9284   6.6565223149e+01   3.5311622278e+01    0.3267233    0.1885118  25.35  0.001196186    2.615    0.618
       161 -10.3924     43.0094     94.6641   9.7117768593e+01   5.2713699832e+01    0.3369614    0.3073174  13.33  0.001305789    1.210    0.173
       162 -10.2788    117.1294     94.1368   7.2558426714e+01   4.0952861047e+01    0.4402591    0.3314994  -4.23  0.001867052    1.664    0.399
       163 -11.1395    124.9471     93.6721   7.0270188484e+01   3.9416194114e+01    0.6030925    0.3548332  41.98   0.00127838    1.718    0.418
       164 -11.1168    120.6394     87.2185   6.9557105553e+01   4.1612919502e+01    0.6669348    0.3854174 -45.44  0.002842769    1.765    0.433
       165  -9.7296    160.1777     93.6719   6.1693446217e+01   3.1650177145e+01    0.4517784    0.2553783  72.30  0.001566175    3.191    0.687
       166 -10.8168    152.4954     92.1346   6.2985668946e+01   3.3668538455e+01    0.4263175    0.3748464  66.40  0.001794952    1.230    0.187
       167  -9.5449    104.4001     93.7269   7.6144573057e+01   4.3577810114e+01    0.3230622     0.242897 -85.36  0.001418937    2.127    0.530
       168 -10.3571     99.1234     91.0747   7.6978623989e+01   4.5142912015e+01    0.3440577    0.2477264  36.19 0.0008306646    1.414    0.293
       169 -11.0942     90.1899     89.2492   7.9260239753e+01   4.7166275394e+01    0.7168069    0.3815909 -31.66  0.002861822    2.166    0.538
       170 -10.6487    183.5468     85.5633   5.4866948679e+01   2.7830760728e+01     0.773324    0.2697451 -46.27  0.002614274    3.004    0.667
       171 -10.1721     66.6723     88.7178   8.7063828085e+01   5.1091197617e+01    0.2955453     0.206122 -18.58 0.0007749311    1.617    0.382
       172 -10.3926     67.1599     82.1541   8.4999204871e+01   5.2444971999e+01    0.4154757    0.3091412 -38.17    0.0021982    1.232    0.188
       173 -10.8613    111.7262     87.7683   7.2231468201e+01   4.3351974607e+01     1.667835    0.4960819  48.50  0.004886951    3.884    0.743
       174 -10.8627    113.9047     83.8652   7.0434201819e+01   4.3678161203e+01    0.5537986    0.4019741 -63.98  0.002533528    1.840    0.456
       175 -10.8747    109.0606     80.9100   7.0927881578e+01   4.5246905619e+01    0.3740485    0.3032294 -12.26  0.001170056    1.326    0.246
       176 -10.5645     80.6514     83.9003   8.0818737488e+01   4.9943586660e+01    0.4719095    0.3029869 -30.56  0.002198904    1.611    0.379
       177  -9.8763     75.6161     75.2035   7.9869603097e+01   5.2564648907e+01    0.3502521    0.2849838 -43.16  0.001822828    1.234    0.189
       178 -10.9882     76.5556     81.0245   8.1349697124e+01   5.1220858870e+01    0.4728195    0.4230188  36.75   0.00139361    1.231    0.188
       179 -10.5440     72.6017     77.7992   8.1742841567e+01   5.2523090545e+01    0.3738406     0.290161 -44.16  0.001698294    1.261    0.207
       180 -10.3362    165.7750     83.8083   5.7826886107e+01   3.2170778140e+01      0.36288    0.3085304 -66.08  0.001283536    1.280    0.219
       181 -10.8441     60.6509     83.5272   8.7753490932e+01   5.3079274359e+01    0.2816954    0.2340567 -44.12 0.0002636764    1.141    0.124
       182 -10.0049     47.0517     74.8665   9.0380792113e+01   5.6686906268e+01    0.4411938    0.2069688 -49.49  0.001024224    1.890    0.471
       183 -11.6242     53.0931     75.5648   8.8252917538e+01   5.5791880689e+01    0.6520474    0.3899247 -51.87  0.003210588    1.621    0.383
       184 -10.8311     58.2090     77.6157   8.6928691732e+01   5.4681681080e+01    0.3485101    0.2570946 -50.70 0.0007307495    1.350    0.259
       185  -9.9154    127.2664     82.8242   6.6471767463e+01   4.1036160743e+01     0.282099     0.238842  87.95  0.001016134    1.505    0.336
       186 -10.7640    103.7746     76.1770   7.1015675746e+01   4.7220457864e+01    0.6487395    0.3439255 -43.77  0.002739346    1.916    0.478
       187 -11.7780     22.4167     94.9304   1.0465873139e+02   5.4528243407e+01    0.4916126    0.3602609  -6.94  0.001639519    1.544    0.352
       188  -9.6279      2.5393     78.2927   1.0886972023e+02   5.9594785853e+01    0.3457803     0.229117 -39.90  0.001572972    1.287    0.223
       189 -11.5988      1.9615     71.3585   1.0772118872e+02   6.1167547467e+01    0.6059651    0.1715403 -64.13  0.002476527    2.796    0.642
       190 -12.8716      4.2423     61.7614   1.0463018076e+02   6.3132656540e+01    0.4670693    0.3277331 -26.73 0.0006003188    1.291    0.226
       191 -11.2655     10.0118     62.5247   1.0231468326e+02   6.2643657335e+01    0.5432228    0.3028995 -15.19   0.00294795    1.936    0.484
       192 -10.2093    233.0389     77.7289   4.5437857393e+01   1.8544230170e+01    0.3179884    0.2052937 -34.50  0.001409317    1.465    0.317
       193  -9.8671     13.8180     67.5074   1.0193326826e+02   6.1336172963e+01    0.4357934    0.2422933   5.90  0.002346129    2.049    0.512
       194 -10.4570     94.8142     76.5299   7.3889427489e+01   4.8899728329e+01    0.7743323    0.3244548  37.42  0.002899162    2.489    0.598
       195 -11.4737     85.5903     73.2754   7.5843006396e+01   5.1232064126e+01    0.9832115    0.6363873  52.08  0.004400284    1.909    0.476
       196  -9.5365     82.2381     48.0297   6.8220288561e+01   5.6279044400e+01      1.35297    0.6007879 -24.96    0.0051845    2.933    0.659
       197 -11.2428     76.0567     63.8275   7.5976554029e+01   5.4685577474e+01    0.5982521    0.4146053 -65.59  0.001785432    2.381    0.580
       198 -10.9611     76.4286     58.6679   7.4059533634e+01   5.5553575036e+01    0.4177554    0.2984847 -61.07  0.001472984    2.092    0.522
       199 -11.2595     74.5169     53.0249   7.2718329098e+01   5.6859289072e+01     0.331003    0.3152031  79.23  0.001231066    1.439    0.305
       200 -10.7261     72.5450     47.1755   7.1259318111e+01   5.8163328187e+01    0.7779605    0.3122751 -41.72  0.002489968    2.613    0.617
       201  -8.3393     38.3022     78.6329   9.4854418976e+01   5.6841465709e+01    0.1273447    0.1048493  81.47 0.0004827515    1.739    0.425
       202 -10.3822    126.9834     76.8967   6.4757799363e+01   4.2193914778e+01    0.2683005    0.2444306  36.76 0.0002691589    1.079    0.073
       203 -11.8425    123.0106     69.1014   6.3377755109e+01   4.4446062812e+01    0.5215646    0.5001808  -5.92  0.001542244    1.035    0.034
       204 -12.1975    186.3788     70.6818   5.0521295055e+01   2.9643494279e+01    0.8490739     0.580623 -39.40  0.003079673    1.414    0.293
       205 -10.0137    184.1670     61.1082   4.8394104895e+01   3.1616677656e+01    0.3707011    0.2627686 -39.13  0.001438697    1.385    0.278
       206  -9.3739     62.9576     75.3661   8.4480482580e+01   5.4486477940e+01    0.4098309    0.2918057  80.22  0.001650058    2.984    0.665
       207  -9.5095    197.8321     74.4534   4.9627176870e+01   2.6473326282e+01    0.2577311     0.182941  11.40  0.001191104    2.261    0.558
       208 -11.1463    142.5881     84.4558   6.3123895420e+01   3.7333250391e+01     0.616474    0.3091938  42.27 0.0009055643    2.074    0.518
       209  -8.7963     24.6609     74.0271   9.9087199142e+01   5.9115358954e+01    0.5463361    0.2259557 -39.77  0.002436966    2.160    0.537
       210  -9.6955     22.0252     66.2054   9.8128887397e+01   6.1015986986e+01    0.5011078    0.2394672 -74.41  0.001822124    4.268    0.766
       211 -11.3650     34.7711     72.1099   9.4475986848e+01   5.8614891798e+01    0.6596792    0.2628087  27.01    0.0028721    2.678    0.627
       212 -10.6547     40.9246     72.4149   9.2087762486e+01   5.7907568352e+01    0.3536795    0.2479375 -31.26  0.001078953    1.282    0.220
       213  -9.9550     40.6745     68.6991   9.1096545197e+01   5.8716658083e+01       0.2741    0.1829286 -13.74 0.0008149645    1.601    0.375
       214 -11.6708     13.9507     74.7972   1.0360852710e+02   5.9732514299e+01    0.5191632    0.3935008 -63.78   0.00300345    1.278    0.217
       215  -9.9701    153.4749     72.6131   5.7252757662e+01   3.6928327091e+01    0.4819606    0.2010956  40.89  0.001620057    2.889    0.654
       216  -9.0440     19.5107     71.9562   1.0066858167e+02   5.9971009626e+01    0.1806908   0.07319853 -40.10 0.0006274417    2.150    0.535
       217  -9.6902    162.0714     70.9049   5.5002468316e+01   3.5215362133e+01    0.2845835    0.2295473 -75.61  0.001462684    1.444    0.308
       218  -9.9684    172.2097     68.5871   5.2434068863e+01   3.3232630202e+01    0.2367607     0.219685   4.75 0.0009200303    1.209    0.173
       219 -10.5418    170.7093     64.1909   5.1506342308e+01   3.4268498780e+01    0.4895971    0.3400652 -71.04  0.001528835    1.813    0.449
       220 -11.4228    220.1185     66.4662   4.4547965345e+01   2.2878945452e+01    0.5822475    0.3490178  54.61  0.002841316    1.811    0.448
       221 -10.4242     59.4924     63.9454   8.2124796089e+01   5.7272877195e+01    0.4148045     0.243634 -27.18  0.001366292    1.785    0.440
       222  -9.6118     57.3340     61.3049   8.2072137215e+01   5.8088833172e+01    0.2667289    0.1896273  -9.56 0.0007205689    1.472    0.321
       223  -9.7965    192.3722     65.7394   4.8291806050e+01   2.9049376482e+01    0.2596854     0.198357 -73.31 0.0007128695    1.431    0.301
       224  -9.3784     67.2240     31.6251   6.7064589834e+01   6.1397625629e+01    0.4657022    0.4475515 -31.86  0.003088649    1.377    0.274
       225 -11.2906     21.0086     46.5879   9.2667694468e+01   6.5053189943e+01    0.4681014    0.2850115 -31.93  0.001484082    1.376    0.273
       226  -9.8282    175.1450    247.2642   9.0525597641e+01  -9.5811091316e-01    0.2187513    0.1621321 -19.03  0.001348605    1.418    0.295
       227 -11.9953     60.2996     46.3716   7.5539182738e+01   6.0312808545e+01    0.9414237    0.5102473 -42.82  0.004604513    1.914    0.478
       228 -11.3319     61.2797     37.0159   7.1493783812e+01   6.1631942132e+01     0.560869    0.3461769 -45.03  0.001825189    1.965    0.491
       229 -11.6041     26.5269     47.5251   9.0424379636e+01   6.4373242317e+01    0.5656201    0.2663373 -26.52 -0.0001103805    2.309    0.567
       230 -11.5468     53.3301     50.0010   7.9672398910e+01   6.0729254199e+01    0.5151036     0.413924  48.36  0.003007547    1.678    0.404
       231 -11.0931    127.4752    242.2673   9.9621465525e+01   6.8672862628e+00    0.3363879    0.2673114 -59.66  0.001893247    1.486    0.327
       232 -11.9015     51.8052     61.5712   8.4345551028e+01   5.8797858631e+01     0.398286    0.3767252  85.18  0.002485333    1.492    0.330
       233 -11.9531     44.8139     60.1824   8.6723890307e+01   5.9957362630e+01    0.7950612    0.4224534 -23.68  0.003593332    2.221    0.550
       234 -11.2608     40.7816     57.1222   8.7391791040e+01   6.1031564729e+01    0.4135927    0.2372989  36.44  0.001816201    2.000    0.500
       235 -10.4068    199.9882     63.8531   4.6676426913e+01   2.7625008275e+01    0.5002242    0.3034935  89.94  0.002247708    2.282    0.562
       236  -9.8028     84.3180     61.4833   7.2331507746e+01   5.3649410805e+01     0.336533    0.2510642 -34.20  0.001208098    1.316    0.240
       237 -11.4161     91.5058     63.0655   7.0519582036e+01   5.2023318212e+01     0.836369    0.4129537  45.83  0.003544779    2.074    0.518
       238 -10.8975     87.9044     56.7290   6.9489578876e+01   5.3800218532e+01    0.5521225    0.2461172 -35.53  0.001493221    2.272    0.560
       239 -10.4719     91.9753     57.4953   6.8451466886e+01   5.2888709502e+01    0.3082032    0.2446913  39.68 0.0009274128    1.243    0.195
       240 -10.1679     22.5509     36.9186   8.8491073510e+01   6.6682474761e+01    0.6007212    0.3791032  52.07  0.002945272    3.344    0.701
       241 -11.5014    234.8409     61.1206   4.1585485859e+01   2.0631752074e+01    0.4393961    0.3583963 -65.22  0.002039103    1.111    0.100
       242 -10.1416    238.0908     55.9435   4.0117152511e+01   2.0707590306e+01    0.2096565     0.159742 -40.54 0.0002799897    1.227    0.185
       243 -10.5367    240.2934     50.5427   3.8746139050e+01   2.1005862612e+01    0.3322948    0.2455733 -65.15  0.001594776    1.224    0.183
       244 -11.2833    106.1196     58.4407   6.4515668565e+01   4.9868588893e+01    0.6227502    0.4238166  63.80  0.002357074    1.899    0.473
       245 -10.5963    158.2653     62.3765   5.3334675384e+01   3.7458158673e+01    0.6220556    0.2815477  53.04  0.002524109    2.116    0.527
       246  -9.3465    163.7684    243.5909   9.2279214286e+01   1.2774604101e+00    0.1795987    0.1035181  40.68 0.0007081251    1.632    0.387
       247  -9.6203     68.0102    240.3093   1.1178609528e+02   1.5477061961e+01    0.1755706    0.1392037  46.47 0.0008367265    1.119    0.107
       248 -11.0133    148.3151    237.8176   9.4635770956e+01   4.5514443759e+00    0.4305935    0.2603698  30.83  0.001604213    1.466    0.318
       249 -12.2422    118.0793     44.0958   5.6458996453e+01   4.9418001697e+01    0.9291407    0.5351686  69.55  0.003923745    2.373    0.579
       250 -11.9144    114.2586     39.0576   5.5679749884e+01   5.0944343711e+01     0.474865    0.3844589 -42.26  0.001402076    1.384    0.278
       251 -11.9909    106.3953     32.4187   5.5318391898e+01   5.3513609323e+01    0.5812253    0.3032063  25.27  0.002378348    2.711    0.631
       252 -10.8074    198.3738    232.6093   8.3603715995e+01  -2.0139258329e+00    0.3732832    0.3010059 -23.26   0.00239561    1.238    0.192
       253  -9.7265     64.8047     60.9548   7.9089801392e+01   5.7046267157e+01    0.3726217    0.1414187 -44.46  0.001303452    2.554    0.609
       254  -9.8580    148.9594     60.9965   5.4813415402e+01   3.9849095099e+01     0.519015    0.2125689  58.85   0.00192581    2.546    0.607
       255  -9.0263    233.6474    235.6882   7.7491394961e+01  -7.2373306026e+00    0.1284112    0.0760746  -0.90 0.0001591045    1.726    0.421
       256 -10.3988    136.3577     56.8378   5.6284580176e+01   4.3414089618e+01    0.5993651     0.355127 -11.34  0.002440401    2.568    0.611
       257 -10.2856    135.4079     50.7999   5.4608372550e+01   4.4523699250e+01    0.2685459    0.1989947  53.00  0.001399575    1.277    0.217
       258 -10.2146    247.6247    232.0982   7.4421201788e+01  -8.4801909646e+00    0.2342105    0.2166982 -67.59  0.001603539    2.191    0.544
       259 -10.1356    242.7372    231.9567   7.5245761755e+01  -7.8633817836e+00     0.234528    0.2264517 -16.29  0.001719839    1.698    0.411
       260  -9.2656     15.3535    233.6104   1.2166360326e+02   2.2704950162e+01    0.2092323    0.1197823 -77.46  0.001199657    1.609    0.378
       261  -9.5180     23.8013    231.8286   1.1993955133e+02   2.2231452262e+01    0.1659011    0.1060036  62.00 0.0008238342    1.315    0.240
       262  -8.8779    190.4344    229.5237   8.4664681635e+01  -3.7174645751e-01    0.1308345    0.1070428   5.05 0.0001681611    1.048    0.046
       263  -9.9860    233.8542    223.1439   7.5291647156e+01  -5.4902101191e+00    0.1801166    0.1218895  -2.79  0.001083045    1.339    0.253
       264 -11.7344    156.3813     42.4031   4.7912704076e+01   4.0740817040e+01    0.9815847     0.417785  69.22  0.003706242    2.803    0.643
       265 -12.6732    152.9673     35.7893   4.6573873828e+01   4.2380188724e+01    0.3619632    0.3104041  55.14 0.0004245602    1.102    0.093
       266 -10.4672    161.9193     23.3035   4.1559792052e+01   4.1688526889e+01    0.2243693    0.2145751  22.21 0.0002841986    1.195    0.164
       267 -10.4102    164.6934    212.2358   8.7097769209e+01   6.6177276630e+00    0.2580034    0.2023438  34.32 0.0007633499    1.213    0.176
       268 -12.3000    159.7884     29.9288   4.3752847724e+01   4.1458016046e+01    0.4488497    0.4095079 -31.57  0.001046963    1.202    0.168
       269 -10.9543    164.0314     27.6583   4.2468197314e+01   4.0713899188e+01    0.2728592    0.2415929 -44.17 0.0005157962    1.196    0.164
       270 -10.1694     66.8541     54.4015   7.6010342328e+01   5.7906242186e+01    0.4007915    0.2384283 -50.64  0.001901901    2.063    0.515
       271  -9.3850    187.7676     55.0342   4.6260597723e+01   3.1673155446e+01    0.2493058    0.1626947  50.31  0.001261836    1.606    0.377
       272  -9.0267      6.9262     54.9261   1.0170758472e+02   6.4413722566e+01    0.1482718    0.1084234 -42.85 0.0004010445    1.068    0.064
       273  -9.9025    153.2587    208.6350   8.8986239351e+01   9.1674003762e+00    0.4355905    0.1955645 -55.18  0.001725924    2.812    0.644
       274  -9.9200    211.2956     53.1261   4.2567200185e+01   2.6677785198e+01    0.2268123    0.1759279  58.11  0.001330474    1.375    0.272
       275  -9.5409    201.5169     52.9966   4.3800163879e+01   2.8848781582e+01    0.2750185    0.2123984  -4.12  0.001330158    1.803    0.445
       276 -10.5170    201.8260     48.8195   4.2743118669e+01   2.9353063441e+01    0.2546293    0.2423625 -36.15  0.001036885    1.178    0.151
       277 -10.9867    200.6708     45.0931   4.1986233514e+01   3.0109024659e+01     0.578234    0.2946668  73.30  0.002680654    2.115    0.527
       278 -10.4536    175.1760     49.3561   4.6710990529e+01   3.5384203235e+01    0.4319758    0.3314512 -68.91  0.002162994    1.401    0.286
       279  -9.8832    171.3431     47.6714   4.6868800902e+01   3.6511896527e+01    0.2972275    0.2149998 -21.69  0.001089639    1.601    0.375
       280  -8.7532    215.6497     49.2889   4.1146872191e+01   2.6261652131e+01    0.1363398    0.0876205 -68.95 0.0004009291    1.666    0.400
       281  -9.3953     90.9633     47.9009   6.5352072376e+01   5.4620224393e+01    0.3054646     0.176278 -45.74  0.001407662    2.067    0.516
       282 -10.6922     12.7377     47.9726   9.7008020196e+01   6.5435722881e+01    0.3736133    0.1751778 -31.49  0.001784452    1.934    0.483
       283  -9.6379     17.4810     41.8303   9.2728586940e+01   6.6244595205e+01    0.2819863    0.1556771 -28.46  0.001286634    1.601    0.375
       284  -9.8657      1.9674     48.5113   1.0226156864e+02   6.5989381436e+01    0.9004428    0.2030875 -39.52  0.003490633    3.421    0.708
       285  -8.7500     11.7611     35.8324   9.3454290493e+01   6.7796681383e+01    0.2607528    0.2444607  27.27  0.001915113    1.512    0.339
       286 -10.4081     10.8711     30.0858   9.1796767009e+01   6.8885013037e+01    0.3503206    0.2035188 -46.74  0.002107761    1.558    0.358
       287 -10.2587      6.0132     36.2644   9.6526771249e+01   6.8120178802e+01    0.5398979    0.2119017 -48.71  0.002768619    1.970    0.493
       288  -9.7087      5.6117     31.2576   9.4990919329e+01   6.9057955506e+01    0.4700655    0.1777698 -28.92  0.002166641    2.642    0.622
       289 -10.8111    134.9007     45.8160   5.3146067599e+01   4.5338327697e+01    0.4283913    0.2413613  60.88 0.0006602405    1.773    0.436
       290 -10.8656    139.7702     43.9230   5.1528946419e+01   4.4457271896e+01    0.3926212    0.3388773 -49.20  0.002260754    1.248    0.199
       291 -10.3694    245.2502     51.1432   3.8381587499e+01   1.9955256974e+01    0.2237727    0.1685233  88.91  0.001018821    1.354    0.261
       292  -9.9119    176.9281     43.6465   4.4906224060e+01   3.5739446079e+01    0.2511485    0.1738201 -63.51  0.001302517    1.583    0.368
       293 -10.5283    189.1858     41.2006   4.2522091318e+01   3.3217987147e+01    0.4987932     0.185662 -29.19  0.001534374    3.005    0.667
       294 -10.7371     94.2758     41.3015   6.1922996889e+01   5.4918405057e+01    0.6602756    0.2776367  48.01  0.002754109    2.223    0.550
       295  -9.9050     85.7777     30.9734   6.0575235019e+01   5.8005000426e+01    0.3285725    0.2101233 -12.44  0.001267152    1.744    0.427
       296 -10.4895     82.1556     32.0238   6.2124112850e+01   5.8583421970e+01    0.4590342    0.2881891 -60.69  0.001945483    3.383    0.704
       297 -10.4044     81.9414     40.1983   6.5371316093e+01   5.7509685101e+01     0.665212    0.3678583  52.70  0.003095863    2.058    0.514
       298 -10.3995     78.2404     34.4485   6.4360974608e+01   5.9011907088e+01    0.4622015    0.2884902  41.45   0.00168016    1.488    0.328
       299  -9.5999    231.4993     38.8727   3.7138156123e+01   2.4296286689e+01    0.2507904    0.1514439 -45.22  0.001435439    1.449    0.310
       300  -9.1857    217.4198     39.1903   3.8643912340e+01   2.7203277094e+01    0.1843354   0.09993542 -46.66 0.0009517401    1.666    0.400
       301 -11.4104    176.7895     37.3160   4.3238218469e+01   3.6577695471e+01    0.5050865    0.3512515 -17.11  0.002672371    1.792    0.442
       302 -10.7931    174.4572     31.5972   4.2043812178e+01   3.7812744145e+01      0.66155    0.2679516  46.75  0.001658534    2.840    0.648
       303  -8.7274    193.6580     38.7280   4.1315346394e+01   3.2511298158e+01    0.1272189   0.09628458  39.64 0.0001869944    1.612    0.380
       304  -9.0341    184.0678     38.2040   4.2449593088e+01   3.4775722418e+01       0.1814    0.1406673 -76.28  0.001031624    1.307    0.235
       305  -9.7703    133.0630     37.0643   5.0744063947e+01   4.6906209336e+01    0.3543387    0.2406424 -84.81  0.001673191    2.125    0.529
       306  -9.1872    206.6712     37.0802   3.9346891089e+01   2.9803715541e+01    0.1735754    0.1539198 -57.27 0.0006225019    1.092    0.085
       307  -9.1414     94.0555     35.9507   5.9998558245e+01   5.5688852061e+01     0.191349    0.1655817 -81.50 0.0006707077    1.632    0.387
       308  -9.4092     61.1879    206.6028   1.0988575142e+02   2.3429508947e+01    0.2100287    0.1639101  88.34 0.0007631978    1.236    0.191
       309  -9.3980    215.8850     33.2621   3.7467833791e+01   2.8268596845e+01    0.2946549    0.1847323  23.23  0.001335459    3.326    0.699
       310 -10.4233    239.9556     32.3723   3.5002702835e+01   2.3397463927e+01    0.3495809    0.3241532 -26.62  0.002373312    1.380    0.275
       311  -9.6521    240.5014     26.4664   3.3753976790e+01   2.3995532132e+01    0.2093194    0.1654584 -49.97 0.0006280226    1.162    0.139
       312  -9.3358    123.9406    205.9096   9.5199388940e+01   1.4499774481e+01    0.1947171    0.1733511  -0.08            0    1.211    0.174
       313  -9.0842     43.0169     28.0290   7.5280994019e+01   6.5717579873e+01    0.1469516    0.1166404   6.96 0.0009434566    1.073    0.068
       314 -12.2812     58.3415     29.8094   6.9662798175e+01   6.3148081643e+01     0.362034    0.2516765  11.30 0.0007479949    1.387    0.279
       315 -11.7034     48.9657     30.5897   7.3808026062e+01   6.4491643182e+01    0.7349527    0.2836025  36.40  0.003281074    2.508    0.601
       316 -10.6605    237.7792    204.3066   7.1185095217e+01  -3.2075313013e+00    0.2992796    0.2765156  54.80  0.001980323    1.723    0.420
       317 -10.7735    234.2832    197.0403   7.0442350116e+01  -1.5815736835e+00    0.4036542    0.2877419  -1.64  0.001617087    1.344    0.256
       318 -11.1798     13.9627     23.5141   8.7533383706e+01   6.9732220917e+01    0.4038407    0.3010343  27.64 0.0003111529    1.629    0.386
       319 -10.1715     16.7225    203.8358   1.1947547481e+02   2.8866336539e+01    0.3329474   0.09501583 -77.26  0.001318729    3.278    0.695
       320 -11.4538      6.1317    197.6229   1.2129625037e+02   3.1169484385e+01     1.060455    0.0823471 -66.77  0.003376745    5.351    0.813
       321 -12.0989      4.7223    184.3745   1.2069515713e+02   3.4276119899e+01    0.6246452    0.4459121  80.49  0.003386188    1.186    0.157
       322 -10.7326    245.6358    200.8936   6.9182642511e+01  -3.7625645035e+00    0.2109952    0.1507739  11.35 0.0006877487    1.339    0.253
       323  -8.9695    195.5690    199.8186   7.8359152130e+01   3.8749044650e+00    0.1824743    0.1272795 -49.56 0.0008287916    1.701    0.412
       324  -9.4680     82.7551    196.2303   1.0354203604e+02   2.2911158395e+01    0.3264118    0.2035616  16.52   0.00150784    2.149    0.535
       325  -9.2727    221.7676     29.7166   3.6095187662e+01   2.7443280797e+01    0.1718257    0.1178235 -60.75 0.0005982089    1.314    0.239
       326  -9.1281     99.7138     30.4148   5.6342322806e+01   5.5197426535e+01    0.1842575    0.1117277  42.84 0.0004238909    1.480    0.324
       327 -10.1169     97.7644     26.5924   5.5436998830e+01   5.6060583788e+01      0.24332    0.2329164 -58.98  0.001120274    1.290    0.225
       328 -10.2901    250.3401     27.3263   3.3145679264e+01   2.1979456063e+01    0.2743398    0.1441372 -31.29  0.001237553    2.020    0.505
       329 -10.0416    230.0735     27.6062   3.4876070093e+01   2.5964737210e+01    0.3272519     0.162794 -34.77   0.00156339    1.945    0.486
       330 -10.5338    189.2538     27.4545   3.9053666270e+01   3.4869557786e+01     0.315447    0.2604854  30.16  0.001921251    1.545    0.353
       331  -9.8364    170.0257    191.2242   8.2126583586e+01   9.7503193241e+00    0.3767375    0.1852638  26.58  0.001490562    2.388    0.581
       332 -11.2448    183.3187     25.4133   3.9261154094e+01   3.6462359863e+01     0.534926    0.2838566  52.27  0.002656617    1.921    0.479
       333  -9.0501    162.6608    191.2873   8.3772090419e+01   1.1010586072e+01    0.1382599    0.1140458  68.30 0.0003822533    1.637    0.389
       334  -9.4881    169.1658     23.8010   4.0676762790e+01   3.9931997646e+01    0.2692187    0.1564703  57.18  0.001389009    1.589    0.371
       335  -9.2691     80.4367     19.1793   5.7482510609e+01   6.0442958069e+01    0.3019769    0.1893022  42.22  0.001015479    1.385    0.278
       336  -9.1179     16.4595    191.4877   1.1860524618e+02   3.1669928747e+01    0.1214521    0.1013653 -89.18 7.522705e-05    1.053    0.050
       337 -10.2510    239.8498    184.6044   6.7074468969e+01  -4.0164413356e-01    0.2590905    0.1880806 -15.29 0.0006077428    1.225    0.183
       338  -8.7372     45.2780     24.6433   7.2810567151e+01   6.5877984408e+01     0.106902   0.09944122 -49.14 0.0006301379    1.657    0.396
       339  -9.1934    223.4086     22.1600   3.4306397315e+01   2.7976230438e+01    0.1945539    0.1260401  84.77 0.0008985459    1.465    0.318
       340 -10.0934    214.1849    184.7840   7.1771389994e+01   3.5207501032e+00    0.2085204    0.1587162 -84.18 0.0009590171    2.869    0.651
       341  -9.5892     74.5324     19.5409   5.9494316229e+01   6.1551727640e+01    0.2050835      0.16202  13.96 0.0005697754    1.140    0.123
       342  -8.6786    173.5104    184.4777   8.0053113570e+01   1.0472643880e+01    0.1445341    0.1320316  -1.55 0.0008101817    1.001    0.001
       343 -10.4935    250.3355    178.6458   6.4150518623e+01  -9.6974447168e-01     0.494959    0.1250883 -35.31  0.001716172    3.616    0.723
       344  -8.8796    157.4965    179.5767   8.2680350456e+01   1.4319216730e+01     0.147189    0.1357193   2.95 8.852756e-05    1.033    0.032
       345  -9.7209    230.7537    175.5263   6.6870264782e+01   2.4754146123e+00     0.324517    0.1527645  33.80  0.001466066    2.353    0.575
       346 -10.4028     52.1741    173.5621   1.0815179904e+02   3.2272273909e+01    0.5145226    0.2701598  89.83    0.0021447    2.508    0.601
       347 -10.2846    243.8654     12.8771   3.0803247803e+01   2.4869111290e+01    0.2174211    0.1317796 -79.72 0.0003346841    1.519    0.342
       348  -9.9496     27.7608    175.9192   1.1456909032e+02   3.4281456562e+01    0.2314318    0.1752896  49.68 0.0007803618    1.336    0.251
       349  -9.9535    247.2784    174.1987   6.3781247157e+01   1.8274770455e-01    0.4441961    0.2063863  22.49   0.00178337    3.485    0.713
       350  -9.8537     39.4917    173.5080   1.1138450265e+02   3.3692570370e+01    0.2778054    0.1848428 -84.29  0.001148318    1.432    0.302
       351  -8.7774      1.4638     20.5962   9.3211041710e+01   7.1180134960e+01    0.1148639   0.08365624 -22.46  0.000272332    1.018    0.018
       352 -10.8277     35.7297    170.4049   1.1198381246e+02   3.4833140858e+01    0.4153937    0.2568797 -89.98  0.002139857    1.641    0.391
       353  -8.9205    194.7932     19.3578   3.6443498464e+01   3.4510719764e+01    0.1722191    0.1012526  62.67 0.0003876192    1.603    0.376
       354  -8.8189    170.7162    171.9876   7.8144247518e+01   1.3485611291e+01    0.1843146    0.1269659 -41.00 0.0006617038    1.422    0.297
       355 -10.3440     22.6080    155.3461   1.1369321221e+02   3.9737133008e+01    0.3291806    0.2207538  23.94   0.00106762    1.754    0.430
       356 -12.1340     22.6799    149.0994   1.1294960797e+02   4.1267469468e+01    0.6821873     0.301663 -42.15  0.002924285    2.692    0.628
       357  -9.1616    205.4727     17.3649   3.4895430316e+01   3.2351594264e+01    0.2047057    0.1048596  72.93  0.001063269    1.813    0.449
       358 -10.2530    186.4079     15.2020   3.6334124100e+01   3.6844309833e+01    0.2330348    0.1905137  86.04 0.0003475056    1.079    0.073
       359 -11.0101     15.9237    147.9022   1.1465789954e+02   4.2102831843e+01    0.3813468    0.2884336 -87.64  0.001098968    1.191    0.161
       360  -9.3088     75.7775     13.9128   5.6716233107e+01   6.1906201310e+01    0.2135468    0.1382515  39.96 0.0006160363    1.316    0.240
       361  -8.9810    115.5028     13.0842   4.6337952652e+01   5.3526781323e+01    0.1650471    0.1275533 -11.44 -0.0006011227    1.458    0.314
       362 -11.7360     12.8775    137.9714   1.1436844137e+02   4.4762452457e+01     1.503686     0.409977 -58.75  0.005977014    2.667    0.625
       363 -11.6628      9.4446    166.9565   1.1821372609e+02   3.7986513517e+01    0.5132186    0.4031347  70.11  0.002720855    1.209    0.173
       364 -11.7044     13.6086    159.3742   1.1646898512e+02   3.9486845576e+01    0.6621186    0.4310786 -85.32  0.002963383    1.349    0.259
       365 -11.4839      3.4808    147.2166   1.1792647400e+02   4.3144752293e+01    0.7120534    0.2542955 -72.89  0.002394534    2.223    0.550
       366 -11.6670      2.7368    141.5480   1.1757267195e+02   4.4561446936e+01    0.8889305    0.4612136 -89.53  0.004504264    1.866    0.464
       367  -9.3484    198.1203    167.8846   7.1467546448e+01   9.3214521678e+00    0.2068865     0.194686 -36.01 0.0007085946    1.178    0.151
       368  -9.6601    188.4091    165.4997   7.2955321511e+01   1.1535138130e+01    0.6147873    0.1831857 -34.68  0.001682493    4.618    0.783
       369  -9.0401    152.3907    166.7110   8.1256236317e+01   1.7991698654e+01    0.2002437    0.1378718 -35.85 0.0003551631    1.477    0.323
       370  -9.3758    156.2172    166.1669   8.0240662017e+01   1.7393804931e+01    0.2199718    0.1942551 -15.76 0.0004219649    1.131    0.116
       371 -10.2825     18.8015    164.8776   1.1569231057e+02   3.7737490747e+01    0.2986479    0.2407772 -36.32  0.001661627    1.494    0.331
       372 -10.1109    204.9808    162.9704   6.9067808008e+01   9.0234798246e+00    0.4243555    0.2327867  46.60   0.00173605    2.083    0.520
       373  -9.5935    208.4516    160.4847   6.7867510354e+01   8.8683007844e+00    0.2678556    0.1690959 -37.56 0.0008777016    1.449    0.310
       374  -9.7223     39.6621    162.1908   1.0997097832e+02   3.6443086727e+01    0.4644953    0.2220165  81.05  0.001712667    3.358    0.702
       375 -10.2939     27.8174    163.6132   1.1325136979e+02   3.7251982921e+01    0.2921488    0.2025499  60.28  0.001649584    1.488    0.328
       376 -10.0034     28.6820    160.6771   1.1269319777e+02   3.7890665643e+01    0.2044005     0.185558 -64.55 0.0009974609    1.131    0.116
       377 -10.2410    246.4508    158.7704   6.0829773895e+01   2.8238638125e+00    0.3370188    0.1102725 -36.78  0.001312408    2.626    0.619
       378  -9.3518     79.0911    159.9299   9.8913820906e+01   3.2117303453e+01    0.2269987     0.192428  80.30  0.001086846    1.264    0.209
       379  -9.5403    224.2540    157.3620   6.4287632943e+01   6.6814222938e+00    0.3445383    0.1785831 -48.91  0.001508763    2.145    0.534
       380  -9.4499    215.3870    157.8175   6.5992302597e+01   8.1330166067e+00    0.2100835    0.1188064 -29.34 0.0009497417    1.744    0.427
       381 -10.3540    104.8090    154.0842   9.0770491091e+01   2.9504659757e+01    0.3941045    0.3085751 -27.18  0.001927457    1.444    0.308
       382  -9.8025     33.0421    154.4919   1.1077793623e+02   3.9005717095e+01    0.2482398    0.2283989  53.05  0.001120997    1.186    0.157
       383 -10.4163     31.1959    151.6026   1.1091652982e+02   3.9895759610e+01    0.3004707    0.2117721 -31.08   0.00130359    1.735    0.424
       384 -10.7136     63.0850    150.6512   1.0180875878e+02   3.6609113042e+01    0.4446637    0.3106553  -1.01  0.001616613    1.989    0.497
       385 -11.2768     46.9990    146.2729   1.0571107346e+02   3.9622940910e+01    0.7377056    0.3339075 -59.15  0.003206011    1.897    0.473
       386 -10.1386     41.3065    149.1306   1.0775961672e+02   3.9516297827e+01    0.2236195    0.2022693  21.85 0.0003394898    1.274    0.215
       387  -9.9329     71.8345    150.8026   9.9345381629e+01   3.5406529021e+01    0.3776489    0.2528555 -33.92  0.001769889    1.760    0.432
       388  -9.5600    234.7478    149.7175   6.0873451545e+01   6.2397839026e+00    0.3290339    0.1883272 -14.92  0.001415036    2.478    0.596
       389 -10.9734    249.4979    141.4397   5.6808753340e+01   5.2052295489e+00    0.4311459    0.2428512 -29.45  0.002182566    1.628    0.386
       390 -10.2131    239.6953    146.6219   5.9414773485e+01   5.9433115255e+00    0.2389422    0.1850988 -27.46 0.0006589972    1.112    0.101
       391  -9.0738     93.8491    146.8231   9.2336619265e+01   3.3087036473e+01    0.1974654    0.1700334  66.92 0.0002804337    1.294    0.227
