#   1 NUMBER                 Running object number                                     
#   2 MAG_AUTO               Kron-like elliptical aperture magnitude                    [mag]
#   3 X_IMAGE                Object position along x                                    [pixel]
#   4 Y_IMAGE                Object position along y                                    [pixel]
#   5 X_WORLD                Barycenter position along world x axis                     [deg]
#   6 Y_WORLD                Barycenter position along world y axis                     [deg]
#   7 A_WORLD                Profile RMS along major axis (world units)                 [deg]
#   8 B_WORLD                Profile RMS along minor axis (world units)                 [deg]
#   9 THETA_WORLD            Position angle (CCW/world-x)                               [deg]
#  10 FWHM_WORLD             FWHM assuming a gaussian core                              [deg]
#  11 ELONGATION             A_IMAGE/B_IMAGE                                           
#  12 ELLIPTICITY            1 - B_IMAGE/A_IMAGE                                       
         1 -11.4466      4.0812     18.1406   1.1111532651e+02   7.1288248613e+01     0.352025    0.2749667 -10.51  0.002466652    1.467    0.318
         2 -11.8683     60.9122     23.1167   8.7104274054e+01   6.4359160739e+01     0.661723    0.3126855 -52.47  0.002716249    2.935    0.659
         3 -10.0593     90.1436      7.4067   6.9491092892e+01   6.1282195555e+01    0.5267064    0.2898553  77.27  0.001954307    3.948    0.747
         4 -12.0631     81.0476      6.6980   7.1897479938e+01   6.3214310047e+01    0.3940842    0.2835721   5.12 0.0005795383    1.393    0.282
         5 -11.1639     74.3220      6.8807   7.4198451493e+01   6.4483865590e+01    0.3350666    0.2267471 -15.40 0.0006211312    1.369    0.270
         6 -11.3614     75.9946     15.2251   7.7824910669e+01   6.3044529629e+01     0.613174    0.3070236 -21.05  0.001906955    2.154    0.536
         7 -11.8249     70.3834     15.0871   7.9732060407e+01   6.4071332020e+01    0.4025007    0.2226537 -25.94  0.001199851    1.690    0.408
         8 -11.9271     21.3778     18.5201   1.0254583200e+02   6.9963414482e+01    0.5292502    0.4356464  75.10  0.003277491    1.923    0.480
         9 -11.1859     64.8016     13.9389   8.1222895007e+01   6.5196017178e+01    0.5152397    0.2939274  12.07  0.002269551    2.704    0.630
        10 -10.2360     34.9193     15.7813   9.4817832636e+01   6.9103594873e+01    0.3213073    0.1822157 -26.08  0.000937379    1.800    0.445
        11 -10.7311     55.1517     12.8300   8.4459736872e+01   6.6902900519e+01    0.3393905    0.1588315 -34.70 0.0009272287    1.851    0.460
        12 -10.5308     26.4275     13.8283   9.8001845003e+01   7.0357064174e+01    0.2173644     0.144586 -25.58 0.0002530395    1.391    0.281
        13 -10.7612      6.4963      8.1080   1.0594143336e+02   7.3065966589e+01    0.5818911    0.1849805  34.49  0.002719762    4.180    0.761
        14 -11.9699     22.9198      7.4019   9.6697334153e+01   7.1834645595e+01    0.5628016    0.4196548  44.96  0.003106952    1.970    0.492
        15 -13.1166     31.5054      2.1818   8.9500476979e+01   7.1755567127e+01    0.3840929     0.217785  24.05 0.0008098166    2.038    0.509
        16 -12.1714     11.8340      2.3585   1.0021882701e+02   7.3704859373e+01    0.3885116    0.2422493 -22.05  0.002032319    1.543    0.352
        17 -10.8314     16.9964      1.9221   9.7071155027e+01   7.3331467659e+01    0.2464865    0.1295199 -34.54 0.0009865701    1.534    0.348
        18  -9.6688    137.6624     11.9745   6.0319931064e+01   4.9638443312e+01    0.2539495    0.1397862 -68.72  0.000749365    3.193    0.687
        19 -10.2366    118.3296     11.6748   6.4219977180e+01   5.4455516423e+01    0.2549347    0.2251837 -23.09 0.0008139155    1.136    0.120
        20 -10.5299    117.0000      8.0013   6.2909936605e+01   5.5177150835e+01    0.2781806    0.1912535 -21.30 0.0005943748    1.422    0.297
        21 -11.5280    115.9421      3.1650   6.0989915868e+01   5.5924898940e+01    0.4003847    0.2260771  -7.87 0.0004553011    1.911    0.477
        22 -11.0728     10.0736     15.6246   1.0709705449e+02   7.1400602547e+01    0.2661399    0.1857179 -43.55  0.001836101    1.077    0.072
        23 -10.3964    185.9076     10.9877   5.2503784541e+01   3.6993416137e+01    0.2111158    0.2038043 -66.09 0.0003955411    1.026    0.026
        24 -10.3774    176.7401     10.9088   5.3662569856e+01   3.9453792265e+01    0.3088063      0.16628  13.79  0.001156017    2.720    0.632
        25  -9.7053     85.9497     10.6313   7.2331489535e+01   6.1747503807e+01    0.1772689    0.1592323  20.90 0.0004161031    1.105    0.095
        26 -10.3311     59.6973     10.3467   8.1362063753e+01   6.6563804324e+01    0.2153718    0.1990612  42.50 0.0006854289    1.382    0.276
        27  -9.6095     50.9767     11.0246   8.5275257452e+01   6.7803702003e+01     0.199785    0.1332552  -5.00 0.0007380201    1.676    0.403
        28 -10.0011    107.6025      9.9663   6.6009754219e+01   5.7160239701e+01    0.3530436    0.1750068  57.43  0.001534436    2.039    0.510
        29  -9.9889    236.5340      9.4865   4.6875113346e+01   2.4109217544e+01    0.1353051     0.124446 -49.08 7.271681e-05    1.018    0.018
        30 -10.4512    127.4575      8.1382   6.0743932332e+01   5.2612389434e+01    0.2186925    0.1965541 -64.12 0.0003738208    1.282    0.220
        31  -9.8391    146.0000      6.0046   5.6467678962e+01   4.8097530657e+01    0.3993261   0.08173133 -20.38  0.001055855    4.975    0.799
        32  -9.6844    229.0192      5.5169   4.6422401355e+01   2.6348631306e+01    0.1981715    0.1324702  82.63 0.0007006873    1.542    0.352
        33 -10.4446    176.6713      4.2006   5.1382784911e+01   4.0124135913e+01    0.2361348    0.1841422   1.00 0.0006838971    1.406    0.289
        34  -9.6843     59.7539      5.5634   7.8803724861e+01   6.7228293349e+01       0.2335     0.116086  40.28  0.001152607    2.126    0.530
        35  -9.4017    167.5073      1.4466   5.1593464132e+01   4.2826444555e+01    0.1416716    0.1368585  89.62 2.008124e-05    1.041    0.039
        36  -8.9282    139.2945      1.6844   5.5880775761e+01   5.0238658866e+01    0.1445367    0.1053053 -55.75 0.0003400955    1.602    0.376
        37 -10.1404    141.8521    220.8763   1.1089733547e+02   1.2633047794e+01     0.172247    0.1340806  36.07 0.0009217068    1.251    0.201
        38 -10.2708    247.3251    250.0799   9.7879329704e+01  -6.2854155854e+00    0.1889802   0.09836607  30.74  0.001312611    1.383    0.277
        39 -12.2172    226.2703    246.3456   1.0048439791e+02  -3.0669630032e+00    0.4995021    0.2787196  20.03   0.00330785    1.765    0.433
        40 -10.2938      5.3561    235.3969   1.3410405524e+02   2.7482406941e+01    0.1683083    0.1208319  66.35 0.0008223544    1.179    0.152
        41 -12.5299     16.5092    238.2823   1.3257509579e+02   2.5985776000e+01    0.8572255    0.2975037  36.12  0.005144901    3.012    0.668
        42 -13.1626     20.2743    248.6289   1.3241032366e+02   2.4068022846e+01     1.030043    0.2625607  43.76  0.006258925    2.553    0.608
        43 -12.2565      5.8176    244.8726   1.3433178038e+02   2.6006716110e+01    0.4693924    0.2270872  68.19   0.00305502    1.407    0.289
        44 -10.8336      1.4542    245.0230   1.3494740484e+02   2.6383637217e+01    0.1727722    0.0822165  88.29 0.0005315153    1.745    0.427
        45  -9.5110    250.4789    219.4520   9.2955634376e+01  -4.1344863274e+00    0.1120144   0.08013818  20.61 0.0004992801    1.035    0.034
        46  -9.9324    174.0321    219.5517   1.0524493883e+02   7.7309580285e+00     0.184996    0.0905998  43.06  0.000973342    1.607    0.378
        47 -10.1968    191.6703    217.4633   1.0200010958e+02   5.1585442308e+00    0.1696191    0.1404942 -11.84   0.00123093    1.414    0.293
        48 -10.5694      5.3350    226.2533   1.3380678726e+02   2.8917239770e+01    0.2614059   0.05160074  58.20  0.001328397    3.322    0.699
        49 -10.9480      9.7776    217.0630   1.3279239695e+02   3.0001200624e+01    0.2449747    0.1139599  61.14 0.0009703661    1.513    0.339
        50 -11.0823    236.0194    213.7536   9.4276154523e+01  -1.4331837429e+00    0.3214803    0.1320238  47.56  0.001541202    2.464    0.594
        51 -10.3346     30.9769    215.7454   1.2934187567e+02   2.8135680332e+01    0.2138571    0.1114441  47.32  0.001514965    1.558    0.358
        52  -9.6547    201.5370    215.5349   1.0008718734e+02   3.8006173960e+00    0.1175297   0.08957305  28.92 0.0008073074    1.077    0.072
        53  -9.4264    136.9545    216.0000   1.1117550911e+02   1.4092119534e+01    0.1899807   0.05313542  42.98 0.0007907375    2.862    0.651
        54  -9.6228    170.3091    213.3194   1.0504196805e+02   9.1410765159e+00    0.1140421   0.08155578  19.29 0.0004456711    1.641    0.391
        55 -10.9748     21.1550    212.2414   1.3076878603e+02   2.9720693601e+01    0.2917674    0.1126223  58.90  0.001823779    1.936    0.483
        56 -10.6476    241.1665    211.5871   9.3132409418e+01  -2.0039460231e+00    0.2505834    0.1758054  48.98  0.001664361    1.703    0.413
        57 -10.1784    208.9784    212.0901   9.8348657029e+01   2.9996971421e+00    0.1759698    0.1375913  29.72 0.0004577457    1.000    0.000
        58  -9.5769      2.2867    212.3387   1.3379232222e+02   3.1464972775e+01    0.1276464   0.08129854  44.28 0.0005083521    1.568    0.362
        59 -12.0624      5.1760    208.0281   1.3317370007e+02   3.1936625172e+01    0.3832603     0.172524  82.29  0.002189679    1.762    0.433
        60 -11.2887     18.6590    202.8831   1.3073252469e+02   3.1574495378e+01    0.2810669    0.1866827 -80.30 0.0008028267    1.444    0.308
        61 -10.2183    175.3080    202.6953   1.0266746337e+02   9.7467432939e+00    0.1971684    0.1581575  53.69 0.0005387911    1.241    0.194
        62  -9.4445    223.5860    201.7919   9.4333486152e+01   1.7972453070e+00    0.1380229    0.1090212 -38.21 0.0005582302    1.651    0.394
        63  -9.4156    193.3235    202.3414   9.9482737055e+01   6.7564850963e+00    0.1232875   0.08230238  16.81 0.0007050824    1.727    0.421
        64  -9.4834    184.4602    208.5298   1.0193375484e+02   7.4429469411e+00     0.119253   0.09528945  34.21 0.0001157683    1.039    0.038
        65  -9.7337     34.6373    201.0409   1.2789910920e+02   3.0283995505e+01    0.1405136    0.1018378  78.75 0.0004471399    1.090    0.082
        66  -9.7089    227.1689    196.8555   9.2929749010e+01   1.7665310112e+00    0.1703615    0.1159844  18.05 0.0007298874    1.360    0.265
        67  -9.3686    203.0273    195.9864   9.6809966219e+01   5.9187784453e+00    0.1492582    0.1202286  31.13 0.0006198016    1.019    0.018
        68 -10.1586    215.4036    194.7605   9.4515356994e+01   3.9695023716e+00    0.1527438    0.1068737 -10.59 0.0005222557    1.587    0.370
        69 -10.7529    187.3210    190.0313   9.8573967912e+01   9.4256944320e+00     0.270741    0.1147162 -35.45   0.00124229    2.868    0.651
        70  -9.2920    245.6909    190.6651   8.8904861793e+01  -5.6428001680e-01    0.1248252   0.07505182  14.24 0.0007042738    1.676    0.403
        71  -9.2557      1.5147    188.4404   1.3299699262e+02   3.5701110372e+01    0.1009681   0.06959893  74.62 0.0002008207    1.016    0.016
        72  -9.5052     61.7646    185.0220   1.2173982353e+02   3.0103110147e+01    0.1437201   0.08369129 -76.01 0.0008837222    1.637    0.389
        73 -11.2341     15.9894    182.6768   1.3015185674e+02   3.5487314112e+01    0.3382326    0.1560367  78.35   0.00186679    1.841    0.457
        74  -9.9643    166.8179    183.5927   1.0126137185e+02   1.3995136457e+01    0.1816524    0.1058648  51.91 0.0009436077    1.635    0.388
        75  -9.7091      2.0001    180.2909   1.3255705485e+02   3.7158845021e+01    0.1425446   0.09857186  69.91 0.0005568588    1.080    0.074
        76 -10.2499    244.4068    178.2508   8.6853901203e+01   1.0091461081e+00    0.2146525    0.1088039 -21.29 0.0009707954    2.068    0.516
        77 -10.8912    224.3088    178.3427   9.0137843643e+01   4.4422126022e+00      0.23756    0.1945804  34.44 0.0005472015    1.154    0.133
        78 -10.0699    200.3626    176.7623   9.3973660749e+01   8.9329036368e+00    0.1663734    0.1158122 -18.75   0.00048556    1.645    0.392
        79  -9.7419     70.1985    177.5857   1.1937533248e+02   3.0444781919e+01    0.1410724    0.1064381  36.33 0.0005409184    1.558    0.358
        80 -10.9810     18.0494    173.0293   1.2920762359e+02   3.7133484700e+01    0.2970537    0.0854947  58.72  0.001371692    3.236    0.691
        81  -9.5280     74.9356    171.0580   1.1771704430e+02   3.1085360559e+01    0.1664733    0.1451449 -34.14  0.001115122    1.722    0.419
        82  -9.4468    210.0006    166.2290   9.0306718753e+01   8.6159783314e+00    0.1731036   0.09760576  43.76 0.0006219562    1.614    0.380
        83 -11.0885     36.4640    164.5307   1.2496488254e+02   3.7000090153e+01    0.4854421    0.1702609 -68.64   0.00245265    2.463    0.594
        84 -11.1602     36.9654    157.8965   1.2429287838e+02   3.8294165533e+01    0.1835532     0.140384 -88.33 0.0002919248    1.098    0.089
        85  -9.7013     67.1477    165.1522   1.1867221170e+02   3.3287930038e+01    0.1732629    0.1168096  70.87  0.000782551    1.342    0.255
        86 -10.6971     51.9004    163.7289   1.2170974042e+02   3.5452164665e+01    0.2394487    0.1559347 -49.63  0.001356548    2.049    0.512
        87 -10.9176     44.5635    162.2724   1.2309869060e+02   3.6583265715e+01    0.2890737    0.1399428 -71.66  0.001577653    1.835    0.455
        88 -10.1026     48.1970    159.5989   1.2208217755e+02   3.6720182087e+01    0.2087788     0.189909  48.36  0.001317017    1.382    0.277
        89  -9.4091    200.4739    162.5701   9.1295536308e+01   1.0931574082e+01    0.1311988    0.1169877  29.39 0.0001822642    1.045    0.043
        90  -9.7828    238.6286    158.6758   8.3978726308e+01   4.3426350567e+00    0.1403938   0.08585874  15.75 0.0004513738    1.812    0.448
        91 -11.3772     22.7238    156.2530   1.2713507961e+02   4.0034262216e+01    0.3496407     0.241033  74.83  0.002020228    1.148    0.129
        92  -8.9940    147.6698    156.3340   1.0034420127e+02   2.2071061920e+01     0.138074    0.1026283  79.84 0.0007052104    1.726    0.421
        93 -10.2640     11.7696    153.4315   1.2920172881e+02   4.1576391438e+01    0.2231225    0.1065744  28.10  0.001306949    2.669    0.625
        94 -10.2967    178.3221    151.5456   9.3271627733e+01   1.6963609256e+01    0.2252749    0.2133247 -39.93 0.0005496343    1.155    0.134
        95  -9.6210     27.2704    147.3449   1.2544569568e+02   4.1448650548e+01    0.1068925   0.07495834 -58.28 0.0002749068    1.615    0.381
        96  -8.9470    229.3562    146.6781   8.3014831897e+01   7.6273171911e+00    0.1249509    0.1078543 -74.72  0.000704569    1.763    0.433
        97 -10.0775    207.0052    146.0472   8.6753916094e+01   1.2098460039e+01    0.2114654      0.18838  20.98 0.0006843282    1.016    0.016
        98 -10.1413     12.0700    147.0000   1.2869782028e+02   4.2868973049e+01    0.1533675   0.05925037  30.51 0.0002973366    2.986    0.665
        99  -9.8589     30.5797    144.5277   1.2446372748e+02   4.1723435963e+01    0.1157484   0.08902541  87.34 0.0001059401    1.016    0.016
       100 -10.8139     22.6565    144.1403   1.2618308035e+02   4.2549053491e+01    0.1771412    0.1241224  62.59 0.0002772939    1.280    0.219
       101 -10.3266      2.5531    144.2806   1.3053811809e+02   4.4177653411e+01    0.1546909    0.1248583 -47.54  0.001183165    1.750    0.429
       102  -9.4460    239.9571    140.9966   8.0062564593e+01   6.3599894461e+00     0.166626    0.1606767 -40.39 0.0005629067    1.339    0.253
       103  -9.7703    236.7600    138.5900   8.0052610927e+01   7.2900057323e+00     0.191202    0.1251322  43.17 0.0004839381    1.502    0.334
       104 -10.3911     16.2533    139.7713   1.2724067889e+02   4.4029016698e+01    0.2191616    0.1114298  13.79  0.001104729    3.810    0.738
       105 -10.1024     55.2576    136.0594   1.1784041643e+02   4.0879349825e+01    0.1891501    0.1359501  79.72 0.0002044192    1.277    0.217
       106 -10.2722     87.9161    137.9640   1.1037088968e+02   3.6045560926e+01    0.1871448    0.1688554  85.51 0.0003633367    1.048    0.045
       107 -10.5813      9.2214    136.6599   1.2856682080e+02   4.5254860888e+01    0.1934584    0.1336378 -76.31 0.0002929003    1.235    0.190
       108 -10.6475      2.7628    136.3726   1.2997968393e+02   4.5800777579e+01    0.2309437    0.1078158 -73.02  0.001393484    1.695    0.410
       109 -10.6008     21.4506    135.9153   1.2573855548e+02   4.4401052747e+01    0.2197447    0.1491038  67.93  0.001059405    1.304    0.233
       110  -9.1953    138.3237    135.3353   9.8284754180e+01   2.7820629958e+01    0.1396085    0.1125869   0.67  0.000705089    1.712    0.416
       111 -10.1798    107.0004    133.2489   1.0504696278e+02   3.3977127708e+01    0.2282556    0.1944444 -63.75 0.0009276813    1.153    0.133
       112  -9.2305    227.0389    131.9962   8.0184625133e+01   1.0114037051e+01    0.1653274    0.1469876  10.80  0.000438665    1.019    0.019
       113 -11.0233     36.8929    130.5292   1.2156125078e+02   4.4111551175e+01    0.3463988    0.2257188 -79.20  0.002160735    1.267    0.211
       114 -11.3487     33.0476    125.8753   1.2196478622e+02   4.5513418541e+01      0.28999    0.1702328  47.11 0.0003689353    1.737    0.424
       115 -10.3175     74.0239    129.6090   1.1236880479e+02   3.9874573282e+01    0.2391404    0.1718367 -62.81 0.0007743448    1.299    0.230
       116 -11.5275      2.3224    124.3268   1.2921940177e+02   4.8377976991e+01    0.4655523    0.1357017 -74.72  0.002226165    2.520    0.603
       117  -9.4540     81.8690    125.1866   1.0968726816e+02   3.9725185134e+01    0.1698091    0.1463056 -51.59 0.0005091117    1.274    0.215
       118  -9.5131    219.5547    124.4962   7.9728919215e+01   1.2737168606e+01    0.1407948    0.1274519   3.71   0.00020838    1.006    0.006
       119 -11.3725     10.6642    122.3515   1.2706870958e+02   4.8203376932e+01    0.2371783     0.184964  86.75  0.001131695    1.060    0.056
       120 -10.9511     21.1603    121.3152   1.2440005401e+02   4.7592634374e+01    0.2332427    0.1915746  -8.25  0.001041929    1.890    0.471
       121  -9.7298     33.4368    118.7467   1.2101989924e+02   4.7055102562e+01    0.1638352   0.09206358 -64.06 0.0003748477    1.519    0.342
       122 -12.0020     17.7007    116.2994   1.2474554451e+02   4.8981067891e+01     0.465431    0.2114474 -58.95  0.002544156    1.980    0.495
       123 -12.1834     15.2236    109.0387   1.2461161192e+02   5.0780622201e+01    0.4660265    0.3069926  36.97  0.001937505    1.773    0.436
       124 -10.5396      6.8151    107.1939   1.2662806317e+02   5.1791153224e+01    0.2388603    0.1849355  72.81 0.0009771291    1.227    0.185
       125 -10.8418      2.5181    105.3773   1.2758079644e+02   5.2470777298e+01    0.2061152    0.1501132 -83.12 0.0001783375    1.021    0.021
       126 -10.0132    249.8200    118.6052   7.3506650117e+01   7.3934870484e+00    0.1730681    0.1322203  62.40 0.0009461548    1.684    0.406
       127  -9.4540    220.3781    117.1554   7.7849587316e+01   1.3651735252e+01    0.2001301    0.1230601 -40.42  0.000541902    1.689    0.408
       128 -10.0779     86.0626    116.4865   1.0702066804e+02   4.1016654989e+01    0.2011058    0.1650787 -67.37 0.0003320922    1.117    0.105
       129 -11.2951     51.0757    116.3767   1.1612925313e+02   4.5733510844e+01     0.322933    0.1527791 -65.29  0.001602933    1.797    0.444
       130  -8.8659    166.3170    115.6947   8.7765931699e+01   2.5773397596e+01     0.146863    0.1177288 -83.83 0.0002648637    1.627    0.385
       131 -10.0486     35.0000    113.9948   1.2000799186e+02   4.7966926679e+01    0.2387788    0.1405586 -77.27  0.001369801    1.426    0.299
       132 -11.6636     35.8067    109.3034   1.1915494639e+02   4.8944426603e+01    0.3749336    0.2239484  61.88  0.001052346    1.802    0.445
       133 -11.0107    249.0120    111.8243   7.2040214161e+01   8.4494724826e+00    0.2416962    0.1809306 -22.62  0.000567553    1.207    0.172
       134  -8.9284    212.5266    112.5171   7.8071935088e+01   1.6055655428e+01    0.1451777    0.1333343   3.23 0.0002320987    1.018    0.018
       135 -10.4018     56.2228    108.3278   1.1345527019e+02   4.6949490194e+01    0.3659244    0.1409131 -59.92  0.001610086    2.180    0.541
       136  -9.7176     91.4739    107.9591   1.0386173081e+02   4.2052576455e+01    0.2028621    0.1268981 -56.79 0.0003663715    1.487    0.328
       137 -11.3718     23.6278    107.0687   1.2214326920e+02   5.0549085618e+01    0.2768251    0.1865466  63.27 0.0009512619    1.510    0.338
       138 -11.1689    243.7008    104.6112   7.1098206271e+01   1.0506388358e+01    0.2504361    0.1579313 -14.78 0.0008167256    1.605    0.377
       139 -10.1870    223.2562    103.9940   7.4136457290e+01   1.4980732335e+01    0.2289251    0.2067694  38.04 0.0004163337    1.142    0.125
       140 -10.6022     74.0902    102.4882   1.0742199184e+02   4.5928342924e+01    0.3175249    0.2107709 -87.51  0.001586219    1.815    0.449
       141 -10.8120    247.9651    102.3085   6.9913861573e+01   9.9336681385e+00     0.193957    0.1762674  18.25 0.0007421735    1.112    0.101
       142 -10.1443    119.4280    101.7142   9.5140436280e+01   3.8398012427e+01    0.2385484    0.1857262  16.93  0.001168096    1.709    0.415
       143  -9.4024     91.3468    101.3156   1.0242109844e+02   4.3545390836e+01     0.138106    0.1089618 -20.44 0.0007047796    1.721    0.419
       144 -10.1060     35.9886    101.4557   1.1795541459e+02   5.0703642125e+01    0.3069674    0.1184188  42.34  0.001438443    2.764    0.638
       145 -11.7992      3.2526    100.1744   1.2688263614e+02   5.3569234498e+01    0.2631505    0.1839197  81.43  0.000346312    1.243    0.195
       146 -10.6840      1.8411     93.8496   1.2662346452e+02   5.5051940829e+01    0.3448765      0.11318 -70.76  0.001699195    2.158    0.537
       147  -9.9480     66.3426     98.3058   1.0874199822e+02   4.7943863044e+01    0.2327419    0.1800157 -36.23 0.0008631374    1.534    0.348
       148 -10.6269     62.0534     98.4923   1.1000576781e+02   4.8461957555e+01    0.3010066     0.232558 -61.75 0.0009095115    1.134    0.119
       149  -9.3434     27.9166    100.8052   1.2013241401e+02   5.1592719473e+01    0.1253704   0.09642655  29.98 0.0002898898    1.635    0.388
       150 -10.2743     29.2069     97.1844   1.1924103033e+02   5.2299313881e+01    0.3464741    0.1664522  70.29  0.001468786    2.965    0.663
       151 -11.2341     20.2156     96.8571   1.2177056853e+02   5.3121798131e+01    0.2632731    0.1415327 -73.91  0.001296489    1.469    0.319
       152  -9.6799     57.4769     96.4978   1.1093025816e+02   4.9488531225e+01    0.1313648    0.1112146 -73.90 -8.179976e-05    1.021    0.020
       153  -9.3718     98.9097     93.4934   9.8472476938e+01   4.3979655215e+01    0.1877841    0.1413424  44.98 0.0002986364    1.418    0.295
       154  -9.8718     31.3756     92.2720   1.1784493243e+02   5.3221274636e+01    0.2508639    0.1258813 -69.53  0.001318049    1.620    0.383
       155 -10.7787     95.5445     90.8307   9.8726333540e+01   4.5147118866e+01    0.4062722    0.2692873   8.05  0.001671608    2.908    0.656
       156 -12.0918     11.0717     91.0067   1.2364747903e+02   5.5102316771e+01    0.3009597    0.2126061  25.59  0.002040096    1.840    0.457
       157 -10.8103      4.8394     86.0128   1.2486599147e+02   5.6614018151e+01    0.3520079    0.2081553 -73.47  0.002236367    1.262    0.208
       158 -10.6037     22.9668     86.8036   1.1950335920e+02   5.5176090868e+01     0.250941    0.1347602 -64.68 0.0005023109    1.448    0.310
       159 -10.7602    157.9157     89.4712   8.2687164854e+01   3.2545395567e+01    0.3667409    0.2130955 -39.84   0.00154716    1.687    0.407
       160 -10.8441    112.2320     86.2627   9.2932347677e+01   4.3055345153e+01    0.3820497    0.2926113 -79.89  0.001867339    1.636    0.389
       161 -10.8257     41.2131     81.7262   1.1291232894e+02   5.4677103641e+01    0.4945483    0.2363265  59.69  0.001880154    3.320    0.699
       162 -10.9431     48.9253     86.1986   1.1141665073e+02   5.2835753334e+01    0.4343603    0.1810285 -62.62  0.001103346    2.028    0.507
       163 -10.5269     46.0000     85.0123   1.1207824748e+02   5.3427457167e+01    0.4304091    0.1310499 -60.25  0.001649396    2.602    0.616
       164 -11.5410     25.6274     91.7026   1.1945996377e+02   5.3849402598e+01    0.2271434    0.1887725 -71.22 0.0002637987    1.087    0.080
       165 -11.2259     66.3815     85.1715   1.0584252880e+02   5.0909711370e+01    0.4114276    0.2783296  -1.79  0.001679799    2.627    0.619
       166  -9.8012     15.1578     83.8940   1.2145455626e+02   5.6418478592e+01    0.1944946     0.122603  36.34  0.001220718    1.897    0.473
       167  -9.2220    173.3586     83.3134   7.7658234628e+01   2.9991250906e+01    0.1629746    0.1182326  18.18 0.0007043301    1.746    0.427
       168 -10.6387    117.9955     82.7215   9.0394373903e+01   4.2641993725e+01    0.2963653    0.2092755 -36.48  0.001147795    1.429    0.300
       169  -9.5183     88.0284     83.5266   9.8965901733e+01   4.8015128009e+01    0.1859094    0.1393282  46.16 0.0004592235    1.456    0.313
       170  -9.8667     29.7227     81.8650   1.1657637073e+02   5.5732024736e+01    0.1812948    0.1635125 -30.66  0.001064307    1.358    0.264
       171  -9.7142     74.6278     81.1874   1.0235125722e+02   5.0631812619e+01    0.1944735    0.1130918 -47.55 0.0004798581    1.573    0.364
       172 -10.7419     22.8964     80.1179   1.1843571957e+02   5.6694217948e+01    0.2806502    0.1777393 -37.99 0.0008513237    1.860    0.462
       173 -11.5445     21.0871     76.9816   1.1847970252e+02   5.7542521164e+01    0.3744855    0.2353496 -36.94  0.002093234    1.884    0.469
       174 -11.6024     11.7833     78.9131   1.2177326342e+02   5.7767088950e+01     0.469851    0.2107876 -64.27 0.0003651936    1.651    0.394
       175 -11.0215      2.9747     78.6825   1.2451250735e+02   5.8353768765e+01    0.2502203    0.2197365  80.64  0.001222244    1.240    0.193
       176 -11.7301      6.8031     73.4750   1.2256702315e+02   5.9293772402e+01    0.2540519    0.2473897  15.76  0.001143227    1.375    0.273
       177 -10.0625     91.8032     78.1986   9.6396968434e+01   4.8530831501e+01    0.3077092     0.185095 -40.41  0.001427174    1.651    0.394
       178  -9.9854     70.9765     79.3199   1.0299228161e+02   5.1577930775e+01    0.1765601    0.1735545 -62.27 0.0005218428    1.130    0.115
       179 -10.4753    151.7162     77.5339   8.0580513278e+01   3.6202308283e+01    0.4583619    0.2647945  46.89  0.001918522    1.766    0.434
       180 -11.9871     57.7297     74.0726   1.0585959370e+02   5.4527651551e+01    0.4435347    0.2981432  76.61 0.0003843321    2.128    0.530
       181 -11.7535     62.5218     71.5866   1.0365340591e+02   5.4459335694e+01    0.4024124    0.3358028 -56.71  0.001312048    1.034    0.033
       182  -9.3345    177.5210     76.5297   7.4847104521e+01   3.0136189503e+01    0.1532357    0.1482304 -43.75 2.447648e-05    1.053    0.050
       183  -9.7033    121.9771     76.4696   8.7494363846e+01   4.3081877421e+01    0.2199592    0.1487992  48.86 0.0009051922    1.551    0.355
       184 -10.8871     27.3932     69.8511   1.1503885613e+02   5.8643924477e+01    0.2718149    0.1392622 -47.29  0.001429589    1.806    0.446
       185 -11.0844     30.9698     66.0748   1.1299688286e+02   5.9181067213e+01    0.3127796    0.1850135 -67.77 0.0006598177    1.435    0.303
       186 -12.0880     44.7875     75.2701   1.1037906727e+02   5.5764405050e+01    0.2231249    0.2034065 -89.64 0.0002741855    1.167    0.143
       187 -11.3384     37.9517     69.5692   1.1137323433e+02   5.7747174833e+01    0.5696001    0.3676895  81.57   0.00301713    2.086    0.521
       188 -10.0405    138.9706     75.0156   8.2782029933e+01   3.9629415922e+01    0.2265016    0.2223657 -42.46 0.0003555185    1.022    0.021
       189 -10.5897    108.8007     74.1632   9.0343451871e+01   4.6235050748e+01    0.3489061    0.2158899 -46.10  0.001257611    1.521    0.342
       190 -11.3663    102.7270     73.2230   9.1767980441e+01   4.7601153546e+01    0.3418573    0.2818838 -71.49  0.001320531    1.368    0.269
       191 -11.5429     76.2295     71.0344   9.9095522700e+01   5.2616229788e+01    0.4659205    0.3553663  63.15  0.001714809    1.613    0.380
       192  -9.9712     16.5637     72.4961   1.1919075352e+02   5.8882833864e+01    0.2173315    0.1210279 -76.26 0.0006144944    1.525    0.344
       193 -11.9033     17.8232     67.1220   1.1779173331e+02   5.9997256629e+01    0.4839899    0.2942089 -16.84  0.001377004    2.465    0.594
       194 -10.4868     18.7251     60.7673   1.1621009575e+02   6.1347121496e+01    0.4235592    0.2114583  58.62  0.002027868    3.097    0.677
       195 -11.5652     94.3866     68.8015   9.2843058468e+01   5.0058508937e+01    0.6634274     0.299884 -38.20  0.002280564    2.319    0.569
       196 -10.2352     99.4763     65.0190   9.0135504704e+01   4.9891939617e+01     0.316291    0.2030224 -28.29  0.001436504    1.781    0.438
       197  -8.8496    212.6658     70.3485   6.6881171278e+01   2.2440517867e+01    0.1597523    0.1108079 -60.02 0.0007048087    1.775    0.437
       198 -10.2141    160.9592     69.7124   7.6153923626e+01   3.5371795044e+01    0.2087299    0.1972431  38.88 0.0002742751    1.075    0.070
       199 -10.4419    144.6016     69.9181   7.9855396818e+01   3.9270212618e+01    0.2526848    0.2083546  32.88 0.0005747085    1.297    0.229
       200 -10.5309     68.6384     69.8602   1.0119099006e+02   5.3994814727e+01     0.207337    0.1949121  74.39 0.0001577821    1.193    0.162
       201 -10.3444     68.7093     66.7186   1.0027037085e+02   5.4666427712e+01    0.2160404    0.1833604 -56.04  0.000210955    1.062    0.058
       202 -11.8460     50.1773     68.7983   1.0702969314e+02   5.6612790654e+01    0.4067262     0.293434  -9.42  0.002249267    1.977    0.494
       203 -10.8354     50.9817     63.7417   1.0542411289e+02   5.7634796458e+01    0.3770148    0.1745473 -44.62  0.001559926    2.005    0.501
       204  -9.5198    123.4492     68.4720   8.4608489932e+01   4.4333650636e+01    0.1497301    0.1419684 -44.93 4.222622e-05    1.035    0.033
       205  -9.5465     83.9524     72.4809   9.7110068107e+01   5.1079068322e+01    0.1815438     0.140638  40.81 2.026175e-05    1.435    0.303
       206 -11.8459      3.9457     65.0311   1.2223021888e+02   6.1332079353e+01    0.4503073    0.2611491  75.17  0.001630082    2.017    0.504
       207 -11.8350     57.9978     61.4908   1.0235742123e+02   5.7257779217e+01    0.7605121    0.1859764 -43.64  0.002244144    4.701    0.787
       208 -10.0157    139.1825     65.8042   7.9813557928e+01   4.1287182934e+01    0.2072291    0.1778138  15.87 0.0004202846    1.294    0.227
       209  -9.4095    128.6097     66.7303   8.2718362728e+01   4.3529918981e+01    0.1558284    0.1165189  16.57 0.0005660659    1.716    0.417
       210  -9.8175    216.8967     64.6996   6.4643988356e+01   2.2222518776e+01    0.3392955    0.1869779  68.75  0.001282975    2.176    0.540
       211 -10.9337     77.1438     63.6779   9.6606521523e+01   5.4044801411e+01    0.3605544    0.2175548 -50.68 0.0005997065    1.487    0.327
       212  -9.6779     41.8877     64.3035   1.0874748773e+02   5.8521765473e+01    0.1621934    0.1461143 -55.24 0.0004051203    1.101    0.092
       213 -11.1234     83.9838     61.7829   9.3817045392e+01   5.3324417850e+01    0.4166354    0.3419639   7.47  0.001884871    1.481    0.325
       214 -11.1129     86.8426     56.2167   9.1059370358e+01   5.3961217670e+01    0.3194985    0.2571593   3.00 0.0007075553    1.506    0.336
       215 -11.2228     87.3880     52.2817   8.9513671128e+01   5.4639891558e+01    0.3163243    0.2247969 -45.26 0.0008869902    1.297    0.229
       216 -10.5885      6.9670     41.3257   1.1644275013e+02   6.6339753361e+01    0.3033965    0.1129772 -61.33 0.0007947086    1.889    0.470
       217 -10.5375     11.0986     62.8026   1.1934417939e+02   6.1409013191e+01    0.2012806    0.1597264  89.27 0.0003787961    1.268    0.212
       218 -10.2444      7.7888     59.7995   1.1998075048e+02   6.2273310139e+01    0.2923919    0.1712457 -81.31  0.001025012    1.557    0.358
       219 -12.2368      5.1234     52.0366   1.1950388287e+02   6.4127220120e+01    0.6260909    0.2351447 -68.00  0.002048042    1.985    0.496
       220  -9.8082    201.2965     61.9661   6.6276611730e+01   2.6488194595e+01    0.2125302    0.1842902 -23.29 0.0003209419    1.116    0.104
       221 -10.8161     45.2899     50.3228   1.0359512950e+02   6.1184215667e+01    0.5415509    0.1492856 -46.85  0.002018148    3.010    0.668
       222 -11.5554     29.9863     60.8412   1.1214470726e+02   6.0431050785e+01    0.5438432    0.2645416  12.59  0.002477838    3.312    0.698
       223 -12.5787     37.5329     51.0889   1.0677387573e+02   6.1849231565e+01    0.7075638    0.4897068 -43.80  0.002922612    1.261    0.207
       224 -10.7339     47.4456     57.6780   1.0498601208e+02   5.9365842016e+01    0.3373179    0.2238581 -85.16  0.001714016    2.152    0.535
       225  -9.9765     43.7175     57.3040   1.0623312020e+02   5.9861927790e+01    0.1895869     0.159191 -62.82 0.0001755011    1.107    0.097
       226 -10.6962    128.6568     57.0256   7.9454291666e+01   4.5297110842e+01    0.4149238    0.2729737 -14.30  0.000919716    1.948    0.487
       227 -10.7462    123.1561     56.4698   8.0668680242e+01   4.6637806318e+01    0.3598334    0.2308586 -53.08  0.001077349    1.770    0.435
       228 -12.0118    128.2718     50.6126   7.7296857798e+01   4.6504500090e+01    0.7291244    0.4174643 -12.36  0.001914994    2.690    0.628
       229 -10.5242    113.8487     48.7632   8.0394843098e+01   5.0056350085e+01    0.4847248    0.2754989 -57.55  0.001851022    2.525    0.604
       230 -10.1171    114.5357     57.4066   8.3293927779e+01   4.8343176305e+01    0.2572497    0.2044594  45.38 2.589694e-05    1.325    0.245
       231 -10.8647    117.5122     54.9491   8.1627940087e+01   4.8155461597e+01    0.4164929    0.3131385  11.06  0.001976224    1.685    0.406
       232 -10.9985    101.2568     55.9541   8.6559850268e+01   5.1332558653e+01    0.5319583    0.2162431  48.93   0.00199702    2.720    0.632
       233 -10.6502     75.2090     56.0424   9.4785601139e+01   5.5935976346e+01    0.2003468    0.1928237 -34.17  0.000345314    1.095    0.087
       234 -11.6527     63.3348     60.3219   1.0017192516e+02   5.6796147926e+01    0.4196492    0.2539073  31.41  0.002141498    1.975    0.494
       235 -10.7117     12.5953     51.7559   1.1657217634e+02   6.3747253074e+01    0.2744938    0.1599571 -67.66 0.0009085875    1.359    0.264
       236  -9.2627    157.3696     52.2926   7.1259824171e+01   3.9157138292e+01    0.1640946    0.1154459  24.91 0.0007026214    1.721    0.419
       237  -9.6943    179.7934     50.8603   6.6498996453e+01   3.3627661947e+01    0.2330551    0.2008166  16.22  0.000487773    1.251    0.201
       238 -10.6318     69.9181     50.5332   9.4711743488e+01   5.7875206262e+01    0.3408479    0.2725567 -75.71  0.001432251    1.598    0.374
       239  -9.9198     51.6987     50.3129   1.0119127165e+02   6.0429568646e+01    0.2524667     0.153568 -26.95  0.001252535    2.037    0.509
       240 -10.9501     81.8358     50.1144   9.0535350469e+01   5.6031771570e+01    0.2039409    0.1828721 -61.22 0.0004112393    1.222    0.182
       241  -9.5534     94.8802     48.7159   8.5878662701e+01   5.3935349955e+01    0.3287705    0.1913885  -6.49   0.00109205    3.960    0.747
       242  -9.2028    220.6767     48.7419   5.9577753831e+01   2.3472299047e+01    0.1458875    0.1083669  29.24 0.0006942059    1.550    0.355
       243 -11.2191    152.7524     47.9190   7.0728593381e+01   4.1007504542e+01    0.4231818    0.2991265  63.58  0.001295727    1.517    0.341
       244 -11.3664     61.0264     47.2554   9.6731901208e+01   5.9833901443e+01    0.3413613    0.2682099 -35.02  0.002021661    1.155    0.134
       245  -9.0859    160.6872     60.6734   7.3340071829e+01   3.6967369686e+01    0.1609919    0.1192823  17.03 0.0007042069    1.665    0.399
       246 -10.0160    103.7369     46.0025   8.2218322234e+01   5.2675096346e+01    0.3026957    0.1961404 -37.69 0.0007626562    1.439    0.305
       247 -11.3296     11.5646     44.2148   1.1523738776e+02   6.5445763502e+01    0.4027623    0.1888285 -46.29  0.001594149    1.789    0.441
       248 -10.2875    163.9068     45.3051   6.7592391348e+01   3.8558289544e+01    0.2506499     0.200183 -38.72 0.0002021868    1.239    0.193
       249 -10.6600    142.4834     45.4995   7.2101727950e+01   4.3944595669e+01    0.3858158    0.2659728 -65.92  0.001007814    1.980    0.495
       250 -10.8083    121.7044     43.2766   7.6268227832e+01   4.9243366666e+01    0.4259205     0.323922 -33.73  0.002134321    1.257    0.205
       251  -9.2738    233.2943     45.3039   5.7022197675e+01   2.0826974245e+01    0.1425915    0.1071833  21.35 0.0002888023    1.578    0.366
       252 -11.7011     88.5338     40.6253   8.4785252770e+01   5.6611112781e+01    0.5884952    0.3272258 -20.12  0.002318963    2.469    0.595
       253 -10.3258     51.2662     44.9811   9.9583125472e+01   6.1585487834e+01    0.2295023    0.1601878 -40.75 0.0003357904    1.235    0.190
       254 -10.9376     52.2653     41.1387   9.7847115493e+01   6.2235342371e+01    0.2563623    0.2323617  79.85 0.0009689954    1.432    0.302
       255 -10.0372    110.5682     41.8616   7.8699457919e+01   5.1953604695e+01    0.2227062    0.2004382 -81.47 0.0003827183    1.350    0.259
       256 -10.3433     23.6683     41.3149   1.0945374713e+02   6.5190347415e+01    0.1982438    0.1620827 -72.69 0.0008122647    1.275    0.216
       257 -11.6082     20.7925     37.7858   1.0961969933e+02   6.6160452313e+01    0.3120483    0.1960802 -50.23 0.0007048245    1.227    0.185
       258 -12.7109     26.0498     36.3727   1.0692287756e+02   6.6020356091e+01    0.4536374    0.3862542 -74.85  0.002741539    1.333    0.250
       259  -9.4289    220.4297     41.5260   5.7541372196e+01   2.4463592681e+01    0.1454982    0.1358104 -34.75 7.404604e-05    1.009    0.009
       260 -11.1817    101.0412     28.3241   7.5910276669e+01   5.6159062258e+01    0.2865452    0.2239929 -46.38 0.0002541847    1.393    0.282
       261 -11.3827     98.1046     32.0058   7.8322568438e+01   5.6196924754e+01    0.6476505    0.3464308  57.24 0.0004600709    2.271    0.560
       262 -11.2369     97.1786     41.0170   8.2248309273e+01   5.4876848597e+01      0.43852    0.2792118  40.98  0.001382245    1.678    0.404
       263 -11.8369    101.6686     36.9350   7.9291090149e+01   5.4659781796e+01    0.5763702    0.3365674  34.18  0.002433361    1.977    0.494
       264 -12.0189     97.1263     36.9769   8.0657064513e+01   5.5579828667e+01    0.2658585    0.2548395 -16.37  0.000309812    1.080    0.074
       265 -11.1609     69.9737     36.4666   8.9429316042e+01   6.0582469187e+01    0.4449817    0.2462349 -24.52  0.001971886    2.223    0.550
       266 -10.2117    226.0686     40.0455   5.6422347835e+01   2.3246827543e+01    0.2349836    0.1572367 -55.81 0.0005834898    1.608    0.378
       267  -8.9098    215.6782     40.7063   5.7913230213e+01   2.5762909978e+01    0.1501029    0.1093515  27.83  0.000355495    1.613    0.380
       268 -12.0206     80.1553     36.9032   8.6054600706e+01   5.8793678728e+01    0.5509558    0.4248497 -78.95   0.00281325    2.044    0.511
       269 -10.9691     77.5221     33.4958   8.5553098312e+01   5.9855552819e+01    0.4177012    0.2239786 -22.68  0.001716349    2.343    0.573
       270  -9.9791     43.5821     38.3065   1.0026213116e+02   6.3857843450e+01    0.4222865    0.2376742 -71.92  0.001423597    3.187    0.686
       271  -9.2089    188.1749     39.3965   6.1431149687e+01   3.3047205720e+01    0.1906866    0.1467429  81.65 0.0001928514    1.448    0.310
       272  -9.2981     61.9644     37.9576   9.2959276308e+01   6.1527936442e+01    0.1604813     0.129386 -37.28 0.0003123626    1.061    0.057
       273  -9.3359    127.4801     36.4439   7.2225794363e+01   4.8976807985e+01    0.1477534    0.1411357  -5.17 8.527017e-05    1.010    0.010
       274  -9.9415     84.9017     34.8863   8.3649765160e+01   5.8292423928e+01     0.171672    0.1649297 -82.62 0.0005167805    1.277    0.217
       275 -11.0027     10.6292     34.4032   1.1306462019e+02   6.7584095891e+01     0.325658    0.2178545  -6.03  0.001187474    1.910    0.476
       276 -11.4696      5.9182     31.2104   1.1428597227e+02   6.8530979451e+01    0.5717409    0.1735691 -43.68  0.002339239    2.752    0.637
       277 -10.2547    139.9763     34.0157   6.8440374911e+01   4.6287978249e+01    0.2195368    0.2139851  -2.52 0.0003101456    1.024    0.023
       278 -11.0255     18.1984     31.9270   1.0893700175e+02   6.7572069909e+01    0.3342785     0.273775 -53.51  0.002375885    1.091    0.083
       279  -9.7206    206.4706     33.5457   5.6986039955e+01   2.9016829535e+01    0.1450424    0.1415113  -0.18  2.64426e-05    1.056    0.053
       280  -9.8241    124.7803     32.7796   7.1452355406e+01   5.0163834582e+01    0.2688956    0.1722218  51.31  0.001237001    1.573    0.364
       281  -8.9564     60.3265     33.6933   9.1885045491e+01   6.2569149157e+01    0.1231267    0.1026635 -74.84  0.000424765    1.651    0.394
       282  -9.8043    145.0719     32.2397   6.6697027478e+01   4.5255127376e+01    0.1986904    0.1927016  62.42 0.0002746089    1.079    0.073
       283 -10.4420     49.6777     31.3121   9.5120913544e+01   6.4478379466e+01    0.2190695    0.1781611 -89.52  0.000760822    1.917    0.478
       284 -10.3891     50.5968     28.1569   9.3444801479e+01   6.4946229679e+01    0.2882167    0.1792072 -39.52 0.0002815172    1.347    0.258
       285  -9.9927     42.8146     31.7661   9.8136148219e+01   6.5236303338e+01    0.1835077    0.1488869 -24.22 0.0009380978    1.176    0.150
       286 -10.0459    177.2072     31.2071   6.0480557105e+01   3.7007530226e+01    0.2176739    0.1693502 -53.27 0.0005397901    1.364    0.267
       287  -9.4869     90.0309     31.5319   8.0597678575e+01   5.7885682132e+01    0.1902184    0.1380366  45.10 0.0004314628    1.483    0.326
       288  -9.9388     73.6218     31.3220   8.6000290152e+01   6.0902856776e+01    0.2282887    0.1668082  33.07 0.0005672039    1.495    0.331
       289 -10.0329    129.9654     32.8587   7.0249494660e+01   4.8912486101e+01    0.2761672    0.1964062 -44.29  0.001314999    1.479    0.324
       290 -10.4816     82.8371     30.2191   8.2367733453e+01   5.9462665240e+01    0.3558398    0.2281068 -66.55  0.001476139    3.013    0.668
       291  -9.5816    153.6265     28.8051   6.3738077821e+01   4.3519001397e+01    0.2133865    0.1311654 -36.95  0.000446236    1.610    0.379
       292 -11.0237    214.6454     27.3986   5.4131608256e+01   2.7646737765e+01    0.2422487     0.228352 -41.21 0.0001765223    1.012    0.012
       293 -11.5432     70.4440     25.9985   8.4823561763e+01   6.2344719514e+01    0.4781666    0.3087521  35.18  0.002540244    1.696    0.410
       294 -10.0267     21.3273     27.7450   1.0610065613e+02   6.8171266240e+01    0.3109736    0.1009908 -60.91   0.00123756    3.185    0.686
       295 -11.0487      2.1594     24.1389   1.1400678985e+02   7.0189595351e+01     0.505553     0.152069 -59.22   0.00243721    2.236    0.553
       296 -10.7688     10.2535     25.1855   1.1043049581e+02   6.9502166518e+01    0.2616148    0.1659514 -35.13   0.00053637    1.448    0.309
       297 -10.0288      8.0108     20.9904   1.1011347154e+02   7.0486224359e+01    0.2423826    0.1229495 -55.12 0.0008178018    1.455    0.313
       298 -10.4556    180.9876    248.5733   1.0770495215e+02   3.2814508748e+00    0.2069734    0.1095964 -24.36  0.001194173    3.329    0.700
       299 -10.5682     87.8282     25.1152   7.8514726424e+01   5.9334034819e+01    0.3817132    0.2686681 -60.14  0.001661968    2.048    0.512
       300 -11.2600     84.6698     20.9557   7.7646870228e+01   6.0575338145e+01    0.3523231     0.294583  22.12  0.001804474    1.199    0.166
       301  -9.7021     16.5006     26.9383   1.0806089229e+02   6.8712342670e+01    0.1763827   0.09032661 -54.44 0.0003975348    1.485    0.326
       302 -11.5170    129.6167     24.2137   6.6913232050e+01   5.0190156121e+01    0.4920787    0.3285365 -59.71   0.00219137    1.993    0.498
       303 -10.4573    129.3805     19.2263   6.4946148873e+01   5.0880776814e+01    0.2656687    0.1393778 -29.24 0.0005331726    1.838    0.456
       304 -10.6375    250.4437    245.3048   9.6772406798e+01  -6.3283724726e+00    0.2956462    0.1140176 -23.38  0.001717191    3.104    0.678
       305  -9.4664    115.4971    244.5001   1.1766006347e+02   1.3243683060e+01    0.1052788   0.07738138  52.09 -0.0001687784    1.033    0.032
       306 -12.1787     74.2935    238.3433   1.2373598215e+02   1.9563981251e+01    0.3944069      0.25995  79.64  0.003055192    1.405    0.288
       307 -10.1131    109.6715    243.0468   1.1846363142e+02   1.4245100238e+01    0.1876888    0.1055413  52.82 0.0009084222    1.334    0.250
       308 -11.1627     37.3332    242.6916   1.2967720212e+02   2.3191736665e+01    0.2056493    0.1210017  60.23  0.001659397    1.151    0.131
       309 -11.3329     35.6782    239.6776   1.2978465589e+02   2.3822593938e+01    0.2967014    0.1850596 -47.05  0.001946158    3.651    0.726
       310  -9.3810    220.3328     24.2933   5.2578392752e+01   2.6554441626e+01    0.1464893    0.1051975  32.54 0.0003802927    1.636    0.389
       311  -9.9572    210.4982     24.4982   5.3758347522e+01   2.9048332455e+01    0.1448919    0.1369364 -50.48 -0.000220889    1.017    0.016
       312 -10.3603    173.7602     24.1522   5.8630444080e+01   3.8790573602e+01    0.2403183    0.2003853  85.45 0.0002823722    1.284    0.221
       313 -10.3078     93.8968     24.1568   7.6209532897e+01   5.8268657277e+01    0.2098538    0.1818282 -43.76 0.0006615194    1.266    0.210
       314 -10.2538     88.8826    241.2398   1.2162983190e+02   1.7281958464e+01    0.1588567    0.1319288 -35.47  0.001236186    2.172    0.540
       315  -9.8554    135.2013     22.0852   6.4852230157e+01   4.9080592968e+01     0.322705    0.1498545  37.58  0.001182111    2.543    0.607
       316  -9.8761    120.4414     21.3600   6.7860034001e+01   5.2775125036e+01    0.2538768    0.1401017 -20.68 0.0006397453    1.854    0.461
       317  -9.6632     35.2015     22.6096   9.7731938571e+01   6.7835490934e+01     0.160649    0.1098766   5.68 0.0009464842    1.787    0.440
       318  -9.8945    112.0210     24.9813   7.1479956180e+01   5.4241058930e+01    0.1775129    0.1606021 -10.52 0.0005192017    1.036    0.035
       319  -9.9588    162.0152     20.2204   5.9133098355e+01   4.2372093092e+01    0.2022623    0.1911608  63.77 0.0002291023    1.062    0.058
       320 -10.7775    156.4962    241.0847   1.1074381714e+02   7.7616739613e+00    0.1290769     0.108952 -52.79  0.001032443    1.589    0.371
       321 -10.2212     46.5870     20.4706   9.1753292617e+01   6.6853530510e+01    0.3250388    0.1231474  38.07  0.001436005    3.064    0.674
       322  -9.1842    151.2852     18.7202   6.0427155602e+01   4.5367884662e+01    0.1459573    0.1112017 -60.00 0.0002452888    1.516    0.340
       323 -11.0544    108.0257     17.1786   6.9144557142e+01   5.6190929455e+01    0.2889376    0.2253042  49.71 0.0004458235    1.305    0.234
       324  -9.5534     46.8267    241.4091   1.2818455087e+02   2.2347073002e+01    0.1190573   0.07675578  42.54 0.0003000468    1.548    0.354
       325 -10.0619    217.5152     16.4994   5.0617845994e+01   2.8127751613e+01    0.2565428    0.1122345  56.98  0.001029906    2.255    0.557
       326  -9.9970    131.3238     15.3094   6.2932728860e+01   5.0864892822e+01    0.1559014    0.1030926  27.93 0.0007037377    1.651    0.394
       327  -9.3930     50.3298    240.3071   1.2759160601e+02   2.2119019812e+01    0.0787615   0.07364628  52.44 0.0005255193    1.660    0.398
       328 -10.5113    195.7236    238.2650   1.0413934704e+02   2.1861137902e+00    0.2167969    0.1451171  28.83  0.001537036    1.272    0.214
       329  -9.8610     30.5275     12.9948   9.5597444830e+01   7.0079211293e+01    0.1743748    0.1381987 -28.03 0.0005026916    1.039    0.038
       330 -10.6023     31.6446    237.3131   1.3028364123e+02   2.4608418918e+01    0.2030094    0.1283666  71.04 0.0009637825    1.141    0.123
       331 -10.4792     29.1719    232.8860   1.3045866046e+02   2.5550577536e+01    0.2090947    0.1118582  66.59 0.0009819228    1.351    0.260
       332 -10.0234     72.5902    250.1241   1.2476911780e+02   1.8067640091e+01    0.1478069    0.1217956  37.16  0.001257263    1.642    0.391
       333 -10.2900    159.9175    235.8596   1.0960416095e+02   7.8871385780e+00    0.1685417    0.1239846  32.97 0.0007186998    1.263    0.208
       334 -12.4556    233.6610    246.8891   9.9453559420e+01  -4.1529558469e+00    0.4957206    0.2604513  30.77  0.003368492    1.429    0.300
       335 -10.1259    100.1714     13.0587   6.9367366000e+01   5.8454968500e+01    0.2255713    0.1737738  10.13  0.001213235    1.305    0.234
       336 -11.3114    153.3974    234.1654   1.1047927870e+02   9.0862614163e+00    0.2079441    0.1803299 -11.35  0.000945634    1.583    0.368
       337  -9.7059    166.8752    233.8159   1.0822924435e+02   7.0782746380e+00    0.1451653    0.1124252  57.06 0.0008762835    1.313    0.238
       338 -10.0720     85.9775    232.9850   1.2146812544e+02   1.8873616710e+01    0.1742825   0.09350716  64.39 0.0007227294    1.678    0.404
       339  -9.8224     24.0124    232.3112   1.3121865972e+02   2.6166813640e+01    0.1337245   0.08916483  63.67 0.0006074191    1.052    0.049
       340 -10.1125     79.8920    231.4963   1.2234689362e+02   1.9886915316e+01    0.1550557   0.07839718  46.70 0.0004736066    1.521    0.343
       341 -10.3093    177.6164    234.8444   1.0660660048e+02   5.3134761931e+00    0.2091407    0.1388326  28.10 0.0008970052    1.447    0.309
       342  -9.4966     58.3112    230.3003   1.2575592087e+02   2.2731225836e+01   0.08151201   0.07702659  53.23 0.0003211864    1.604    0.377
       343 -10.1559    190.5566    226.6317   1.0344693444e+02   4.2607054410e+00    0.2067655    0.1111883 -40.84 0.0009104303    2.391    0.582
       344  -9.4639    249.3062    227.3107   9.4336579960e+01  -4.6673437422e+00    0.1114158   0.06290904  17.95 0.0004760457    1.616    0.381
       345 -10.1216    129.7601    226.8363   1.1361845612e+02   1.3628644730e+01    0.2327385    0.1112405  58.61  0.001247053    2.230    0.552
       346 -10.1247     87.5883    227.2349   1.2074600621e+02   1.9535106872e+01    0.1252047   0.09524667 -64.29 0.0009522943    1.647    0.393
       347 -10.4739     66.6879    226.6979   1.2416015069e+02   2.2289132873e+01     0.270451    0.1084126  50.61  0.000982558    1.848    0.459
       348  -9.8192    144.5081    226.5061   1.1109254292e+02   1.1445911000e+01    0.1130923    0.0870011  48.94 0.0008105431    1.018    0.018
       349 -10.0297    120.4670    226.4965   1.1515391488e+02   1.5049807728e+01    0.1111953   0.08484583  54.16 0.0001170346    1.005    0.005
       350 -10.0826     10.5622    226.5170   1.3302797626e+02   2.8391849835e+01   0.09686081   0.06192454  68.10 7.004572e-05    1.027    0.026
       351  -9.1827     80.6549    223.3369   1.2159193713e+02   2.1054281752e+01    0.1163672   0.06061584  65.04 0.0007048919    1.773    0.436
       352 -10.8867    123.2911    221.3927   1.1414517734e+02   1.5379756164e+01    0.3528437    0.1728512  49.21  0.002060009    1.615    0.381
       353  -9.6511     13.3720    221.7484   1.3241598095e+02   2.8895398255e+01    0.1179937   0.07128266 -81.21 0.0006486676    1.576    0.366
