#   1 NUMBER                 Running object number                                     
#   2 MAG_AUTO               Kron-like elliptical aperture magnitude                    [mag]
#   3 X_IMAGE                Object position along x                                    [pixel]
#   4 Y_IMAGE                Object position along y                                    [pixel]
#   5 X_WORLD                Barycenter position along world x axis                     [deg]
#   6 Y_WORLD                Barycenter position along world y axis                     [deg]
#   7 A_WORLD                Profile RMS along major axis (world units)                 [deg]
#   8 B_WORLD                Profile RMS along minor axis (world units)                 [deg]
#   9 THETA_WORLD            Position angle (CCW/world-x)                               [deg]
#  10 FWHM_WORLD             FWHM assuming a gaussian core                              [deg]
#  11 ELONGATION             A_IMAGE/B_IMAGE                                           
#  12 ELLIPTICITY            1 - B_IMAGE/A_IMAGE                                       
         1 -12.9022    248.6156    133.3080   8.1702375390e+01   4.1024026764e+00     1.390682    0.7711476 -39.40  0.006576884    1.602    0.376
         2 -12.9567    195.3695     31.9584   6.6232189345e+01   3.2688371483e+01     0.947342    0.8023955  45.18  0.005690056    1.389    0.280
         3 -13.8266    209.2784     14.8404   6.0581342494e+01   3.1445737654e+01       1.2346    0.9160596  39.63  0.007242487    1.842    0.457
         4 -12.3759      2.5637      4.4541   1.1046953704e+02   7.1807692021e+01    0.8106586    0.3511753  18.83   0.00504873    2.273    0.560
         5 -11.6653      2.2850     13.3114   1.1426555832e+02   7.0628705567e+01    0.5115211    0.1222474 -46.52  0.002321232    3.599    0.722
         6 -11.4778     96.9337    239.7265   1.3231666039e+02   1.1680637972e+01     0.517022     0.392278 -38.27  0.002992941    1.970    0.492
         7  -9.9208    204.9901    250.4946   1.1253215633e+02  -8.1963000298e+00    0.1903365    0.1054421  36.23 0.0004063352    1.545    0.353
         8  -9.8325    193.0114    249.7118   1.1470071934e+02  -6.1586368898e+00    0.2108429    0.1801173 -21.07 0.0007825993    1.288    0.224
         9 -12.1222    200.1217    246.1386   1.1276508615e+02  -6.7749357490e+00    0.6424608    0.2333398  38.79  0.002759022    2.390    0.582
        10 -10.3859    193.9233    245.2323   1.1381728679e+02  -5.6253128467e+00    0.1980905    0.1764736 -18.65 0.0003588525    1.225    0.184
        11 -11.0124    184.8616    250.2947   1.1636615965e+02  -4.9120393384e+00    0.4631881     0.158715  42.02  0.001919979    2.505    0.601
        12 -11.1689    169.8925    248.3948   1.1900218495e+02  -2.1110374286e+00    0.3507273    0.2484091   7.52 0.0008026743    1.888    0.470
        13 -11.5274    149.6543    247.8482   1.2291451645e+02   1.4163019684e+00    0.4450081    0.3114817 -61.03  0.002555587    1.746    0.427
        14 -11.4575    133.7348    248.8879   1.2619315633e+02   3.9278200631e+00    0.5380076    0.2441693  43.19  0.002544663    1.841    0.457
        15 -12.9924    124.5758    243.5994   1.2731948620e+02   6.4244546954e+00     0.983001    0.8321905  33.63  0.006185528    1.277    0.217
        16 -10.7340    115.5948    250.4684   1.2992805683e+02   6.6467218022e+00    0.4727631    0.1829449  43.74 4.383781e-05    2.133    0.531
        17 -11.2189    109.6702    247.4711   1.3072353101e+02   8.1606774018e+00    0.5185839    0.3502069 -70.80  0.002428098    1.654    0.395
        18 -12.6263    134.8574    234.4830   1.2401795290e+02   6.3768974537e+00    0.8007633    0.5047918 -63.24  0.002950252    1.865    0.464
        19 -11.4490     59.9657    245.8589   1.3993467446e+02   1.5930659883e+01    0.4607724    0.3465398 -79.89  0.001773363    1.309    0.236
        20 -14.5963      3.5790    178.5035   1.4510533767e+02   3.6707794501e+01     5.450124    0.8458908 -70.86    0.0190701    4.205    0.762
        21 -13.6361     11.1403    151.6860   1.4087154198e+02   4.2199919848e+01     1.347306    0.5612323 -62.75 0.0005945814    1.860    0.462
        22 -14.0024     10.8784    208.7990   1.4601387930e+02   2.9413938429e+01     2.152137     1.111288 -70.87   0.01284133    1.646    0.392
        23 -13.5150     40.7481    243.7737   1.4320094359e+02   1.8851010929e+01     1.131219    0.8022019  61.58  0.007355694    1.151    0.131
        24 -13.0470     35.5450    227.8922   1.4290343727e+02   2.2696691514e+01    0.4823425    0.4232613  82.85  0.002223783    1.274    0.215
        25 -14.4949     42.7332    218.7331   1.4077056488e+02   2.3752204572e+01     1.846768     1.555776  24.42   0.01229428    1.736    0.424
        26 -11.0451     99.5758    223.4909   1.2982361166e+02   1.4544716255e+01    0.4168188    0.2626082  51.04 0.0009867561    1.405    0.288
        27 -11.1793    113.2204    230.3374   1.2789108211e+02   1.0886965155e+01    0.4341624    0.3564113  31.09  0.001637252    1.396    0.284
        28 -11.4070    105.4712    228.4013   1.2923228188e+02   1.2566734135e+01    0.5386744    0.3477145  60.89  0.002520019    1.473    0.321
        29 -10.5103     91.2110    241.7762   1.3366206447e+02   1.2174046617e+01    0.2993006    0.2169153  74.79  0.001148537    1.281    0.219
        30 -10.5165     89.9349    238.0755   1.3350405223e+02   1.3101090455e+01    0.2611491    0.1922231 -69.37 0.0008229157    1.430    0.301
        31 -10.1358     73.1747    246.6711   1.3758268610e+02   1.3916977293e+01    0.2956736     0.145111 -72.63  0.001544058    2.129    0.530
        32  -9.4362     75.3264    240.6811   1.3659775165e+02   1.4780635610e+01    0.2547133    0.1216382 -76.77  0.001048164    2.337    0.572
        33  -9.6202    222.6955    244.6476   1.0824040413e+02  -1.0111041952e+01    0.1287235   0.08428144   3.25 0.0007040962    1.707    0.414
        34 -10.5816    143.3778    249.3920   1.2436366667e+02   2.2142749669e+00    0.2257577    0.1787689  55.58 0.0005251432    1.159    0.137
        35 -11.3443    245.4942    240.5508   1.0337343169e+02  -1.2900748553e+01     0.403928    0.1303715  35.66  0.001742003    2.889    0.654
        36 -11.4294    165.9272    242.3617   1.1888538363e+02  -4.3402819394e-01    0.3968558    0.1851643  39.92  0.001265285    1.847    0.459
        37  -9.8721    102.9300    247.3319   1.3201235879e+02   9.2675376212e+00    0.2204846    0.1941569  64.15 0.0006099978    1.116    0.104
        38 -10.7248    116.5702    238.6505   1.2828514794e+02   8.6972394398e+00    0.3770016    0.2757125 -32.43   0.00182621    2.076    0.518
        39 -10.7173     66.9689    243.8090   1.3846632593e+02   1.5361253037e+01    0.3867135    0.2150767  31.70   0.00200909    2.335    0.572
        40  -9.7897    173.0100    236.0161   1.1648487403e+02  -5.7976315571e-01     0.194945    0.1743601  37.89 0.0003199881    1.045    0.043
        41 -11.2633    122.5936    233.4139   1.2637936099e+02   8.6935271623e+00    0.3830648    0.3453519 -62.56  0.001747471    1.266    0.210
        42 -10.9016     99.0015    247.0289   1.3273526290e+02   9.9462740452e+00    0.5179968    0.3220935  76.43  0.002806113    1.800    0.445
        43 -10.8082    127.7841    234.0158   1.2539976809e+02   7.6882687095e+00    0.2476769    0.2116134  32.29 0.0009829362    1.266    0.210
        44  -9.0294     71.3923    236.2160   1.3690465666e+02   1.6246884635e+01    0.1767338    0.1035807 -86.73 0.0006675601    1.766    0.434
        45  -9.6195     55.4289    235.8373   1.3988976138e+02   1.8542203708e+01    0.2735376    0.1397305  61.54 0.0008882646    1.764    0.433
        46 -10.7903    156.7561    231.7012   1.1911387938e+02   3.0435979199e+00    0.2375679    0.2318661  11.41 0.0003680338    1.136    0.120
        47 -10.6720     62.9641    232.9766   1.3820230794e+02   1.8099584268e+01    0.1867771    0.1488694  66.86 0.0003143559    1.068    0.064
        48 -10.4077    158.1296    242.4566   1.2045727810e+02   8.9354766394e-01     0.218214    0.1876869 -49.53 0.0007501108    1.356    0.262
        49  -9.2423    162.3084    232.6715   1.1812802307e+02   1.8849132210e+00    0.1333692    0.1006375  70.10 0.0006992355    1.660    0.397
        50  -8.7130     69.4374    247.0000   1.3830414926e+02   1.4388262814e+01    0.2856732   0.05680995  44.44  0.001043448    3.656    0.727
        51  -9.9556    141.3164    231.3014   1.2223253911e+02   5.8497472778e+00    0.1898639    0.1643451  35.21 0.0004716481    1.154    0.134
        52 -10.1564    142.6715    228.0229   1.2146441187e+02   6.2343389263e+00    0.3033675    0.1989484 -79.90    0.0014433    2.226    0.551
        53  -8.7884     57.4657    230.9858   1.3906374821e+02   1.9262625006e+01    0.1714709    0.1065746 -78.06 0.0008826343    1.498    0.332
        54 -10.6776    165.7424    235.1654   1.1781895422e+02   8.3825398337e-01    0.2191773    0.1720704 -52.79   0.00127505    1.481    0.325
        55  -9.7324     77.2877    220.9149   1.3410797631e+02   1.8568146184e+01    0.2368975    0.1495975  59.75 0.0005828559    1.430    0.301
        56  -9.9345     80.0582    227.3157   1.3426737506e+02   1.6801700235e+01    0.2926398    0.2410019 -18.43 0.0008642336    2.096    0.523
        57  -9.6482     79.1464    224.6251   1.3414996802e+02   1.7502840609e+01    0.2612361    0.2179892  57.31 0.0007609159    1.148    0.129
        58 -10.1955     92.4454    225.9759   1.3160220103e+02   1.5170521638e+01    0.2842874    0.1616008  53.08 0.0009114608    1.570    0.363
        59  -8.5074    147.2629    225.3465   1.2009809321e+02   5.9271675368e+00    0.1292078     0.106562  -5.72 0.0002968647    1.605    0.377
        60  -9.7965    132.4028    224.7260   1.2312084358e+02   8.6972599062e+00     0.183245    0.1651907   7.85  0.001083648    1.376    0.273
        61 -10.9412     87.9147    248.4156   1.3499583276e+02   1.1397404688e+01    0.4391375    0.3031882  58.02  0.001260516    1.185    0.156
        62 -10.0460    117.1990    224.3184   1.2625423180e+02   1.1427089425e+01    0.2271373     0.199236  85.07 0.0003276466    1.127    0.112
        63 -10.8202    160.4426    223.5106   1.1705234367e+02   3.8966273770e+00    0.2956755    0.2234295  24.92 0.0009835797    1.410    0.291
        64  -9.4810    110.7592    221.3474   1.2719935418e+02   1.3135135916e+01    0.3404962   0.09746796 -52.69    0.0011836    3.740    0.733
        65 -10.8216     69.8018    217.2872   1.3523109642e+02   2.0444623738e+01    0.7212372    0.3286921 -83.12  0.002987845    2.872    0.652
        66 -10.7749     72.8962    209.7777   1.3372581256e+02   2.1642201503e+01    0.3761879    0.2744624  31.49  0.002018151    1.676    0.403
        67 -11.2217    142.3593    221.7009   1.2056426522e+02   7.5175651690e+00    0.4336896     0.240939  39.16  0.001095807    1.666    0.400
        68  -9.4573    104.8694    218.7200   1.2808738451e+02   1.4675208543e+01    0.2036491    0.1729023 -63.78 0.0002751142    1.279    0.218
        69  -9.0381     99.5581    218.1510   1.2913547480e+02   1.5673545795e+01     0.176265    0.1228313 -51.83 0.0004874743    1.650    0.394
        70  -8.5673     89.2727    218.6062   1.3135611449e+02   1.7227398141e+01    0.1419287   0.08958868  76.25 0.0006988856    1.732    0.423
        71  -8.5651    133.6639    217.7142   1.2179846492e+02   9.8807837275e+00    0.1331277    0.1096855   7.11 0.0004834959    1.627    0.386
        72 -10.2070    137.3452    214.4442   1.2049684156e+02   9.8820407779e+00    0.2864965    0.2278353 -87.83  0.001193715    1.448    0.310
        73  -9.6279    141.1637    213.2299   1.1947807229e+02   9.4321884559e+00    0.3312143    0.1646792  53.44   0.00136695    2.146    0.534
        74  -9.8903     88.1877    212.9383   1.3087146633e+02   1.8624530105e+01    0.2997584    0.1923345 -80.95  0.001311752    1.636    0.389
        75  -8.7800    160.0974    213.8484   1.1551718292e+02   5.8068202311e+00    0.1809602    0.1612526   1.43 0.0004133013    1.274    0.215
        76 -10.8140    245.7866    219.4215   9.9550743292e+01  -9.9536327700e+00    0.3315932    0.1623625 -19.99   0.00146037    2.669    0.625
        77 -10.0673    107.0103    209.7569   1.2637921987e+02   1.6237538902e+01      0.24755    0.2093781 -11.20 0.0009760177    1.747    0.428
        78 -10.1088    112.5089    208.3686   1.2497275684e+02   1.5595144574e+01    0.2617171    0.2248475  71.39 0.0003046509    1.071    0.066
        79  -9.0292    134.9365    208.0154   1.1998832605e+02   1.1655816097e+01    0.2201711    0.1784511  -2.90 0.0009663912    1.739    0.425
        80 -10.1627     96.0563    206.0573   1.2825263451e+02   1.8879512806e+01    0.7101721    0.3455949 -87.71  0.002263721    4.505    0.778
        81 -10.3088     91.3661    204.9988   1.2913556993e+02   1.9875421326e+01    0.4418872    0.3604687  70.88  0.001400032    1.102    0.093
        82 -10.7396     84.9007    234.5455   1.3410376150e+02   1.4582402532e+01    0.3899844    0.2353584  64.49   0.00107504    1.570    0.363
        83 -11.0031    249.9324    194.3719   9.4058755501e+01  -6.7099872011e+00    0.3940577    0.2597584 -36.46  0.002189582    1.413    0.292
        84 -10.8638    247.0909    206.1731   9.6837901589e+01  -8.1361912633e+00    0.2893831    0.2216259  10.12  0.001752015    1.252    0.201
        85 -10.3965    250.1511    200.9531   9.5296064648e+01  -7.7939321920e+00    0.4473943     0.186905 -24.16  0.001639752    3.560    0.719
        86  -9.2393     32.8832    206.8858   1.4163487160e+02   2.7495828256e+01    0.1687191    0.1374211 -72.02  0.000299775    1.298    0.230
        87  -8.9864    149.0476    204.4739   1.1629490272e+02   9.7631000284e+00     0.283816    0.1793632 -14.06  0.001036975    3.446    0.710
        88  -8.7248    125.5154    205.5425   1.2166744762e+02   1.3900808743e+01    0.1428925    0.1292593  63.29 0.0001031718    1.003    0.003
        89  -9.3525     74.8679    203.6020   1.3255106983e+02   2.2734049320e+01    0.2865915    0.2247012   1.04 0.0007914521    2.190    0.543
        90  -9.7508    102.9068    202.7638   1.2626722498e+02   1.8474664237e+01     0.393529    0.2134118  51.68  0.001565085    1.771    0.435
        91 -10.5758     84.2335    201.6443   1.3025010863e+02   2.1756981332e+01    0.3356832    0.2192102 -44.30  0.001206322    1.977    0.494
        92  -8.9870     85.7141    195.6955   1.2910350616e+02   2.2883692707e+01    0.1986651    0.1666158  58.74  0.000205712    1.130    0.115
        93 -10.2605     32.7102    201.6747   1.4119454070e+02   2.8667233233e+01    0.2111228    0.1583785  82.06 0.0003272393    1.070    0.065
        94  -9.5463    115.0942    200.3163   1.2316554509e+02   1.6911107018e+01    0.2198168    0.1855207 -57.19 0.0001987775    1.261    0.207
        95  -9.1605    127.9004    199.6897   1.2018229919e+02   1.4735756285e+01    0.1972831    0.1704712  55.94 0.0003222982    1.073    0.068
        96  -8.5715    182.9794    200.2730   1.0821530084e+02   4.1297918645e+00    0.1767513    0.1197959  41.14 0.0003353263    1.401    0.286
        97  -9.9580     53.9165    197.7823   1.3637638482e+02   2.6970225677e+01    0.3678712    0.2198034  43.10   0.00199145    1.676    0.403
        98  -9.6226     57.7693    198.9976   1.3568802608e+02   2.6185654299e+01    0.2854826    0.1454972 -79.88  0.001113566    1.999    0.500
        99 -11.4177     62.4141    194.7314   1.3417193893e+02   2.6534831842e+01    0.3780125    0.3069544 -36.71  0.001221502    1.723    0.420
       100 -10.1330     58.5231    193.4531   1.3487244994e+02   2.7356255763e+01    0.3372554    0.2471346  38.50  0.001738583    1.518    0.341
       101  -9.1868    134.0173    197.9528   1.1851241135e+02   1.3979042981e+01    0.1728782    0.1625929  74.88 0.0004737072    1.034    0.033
       102  -9.6183     97.9293    196.5336   1.2646313244e+02   2.0715694893e+01    0.5049981     0.238107  54.62  0.001365982    2.281    0.562
       103  -9.6734    102.7218    195.9751   1.2529058464e+02   2.0036784832e+01    0.2142056    0.1933743  81.10 0.0005703013    1.023    0.022
       104 -13.7682      5.8189    245.3520   1.4917004628e+02   2.2518292012e+01     1.235221    0.6905767  82.15  0.008388961    1.360    0.265
       105  -8.6395    168.8046    196.3953   1.1051465582e+02   7.6269477577e+00     0.196674    0.1330594  31.60 0.0002508288    1.537    0.349
       106  -9.2469     38.5976    195.7569   1.3940838554e+02   2.9320130776e+01    0.2642683     0.145268 -88.04   0.00119308    1.728    0.421
       107  -9.1662     38.6384    192.1928   1.3903343171e+02   3.0126081605e+01    0.1926859    0.1463272 -59.84 0.0002737903    1.416    0.294
       108 -10.3089     42.1081    189.8759   1.3804270188e+02   3.0250405516e+01    0.4498743    0.2366411 -88.96  0.001419334    1.963    0.491
       109  -9.8450    112.9401    193.2120   1.2251736819e+02   1.8888793684e+01    0.4770959    0.2033737 -55.99  0.001362607    2.376    0.579
       110  -9.0946     32.2337    195.4592   1.4070445948e+02   3.0112351757e+01    0.1772025   0.09411706  52.64 0.0009510983    1.794    0.443
       111  -8.8202    159.8225    194.3832   1.1210459645e+02   9.7905725282e+00    0.1994311    0.1343544  32.55 0.0001777276    1.550    0.355
       112  -9.5180     72.8137    192.9400   1.3163103741e+02   2.5476328373e+01    0.1868134    0.1711514 -68.55 0.0003574515    1.223    0.183
       113  -8.8888     25.7123    192.4361   1.4176551663e+02   3.1498694763e+01    0.2203205    0.1499069  76.17 0.0008448464    1.276    0.216
       114  -9.8678    191.4944    191.4588   1.0472641763e+02   4.2017196257e+00    0.2457919    0.2372187   7.58  0.000625459    1.028    0.028
       115  -8.8282     84.7697    192.3795   1.2884792673e+02   2.3797485806e+01    0.1701337    0.1315471  33.44 0.0002357774    1.492    0.330
       116 -12.9817     14.0741    238.8717   1.4744571030e+02   2.2908255206e+01    0.6691949    0.4931006  80.03  0.001109708    1.069    0.065
       117 -11.1781     51.1721    189.5484   1.3602695420e+02   2.9215709709e+01    0.2387399    0.2054724  89.52 0.0002774421    1.074    0.069
       118  -9.9592     32.4079    189.8308   1.4011424075e+02   3.1368993552e+01    0.3173268    0.2266592  46.03   0.00198021    1.476    0.322
       119  -9.0729    135.2450    190.0575   1.1684902363e+02   1.5481664020e+01    0.1970346    0.1828394 -80.37 0.0003034436    1.087    0.080
       120 -13.5210     28.2502    247.0531   1.4558549396e+02   1.9721155717e+01     1.237431    0.7850888  69.20  0.007831269    1.197    0.164
       121 -10.8904    249.8387    187.8594   9.2794518904e+01  -5.6331880865e+00     0.354224    0.2399043 -20.99  0.001931571    1.450    0.310
       122  -9.8988     76.5640    188.8824   1.3022895545e+02   2.5867411930e+01    0.2850182    0.2166166  29.25 0.0006526593    1.613    0.380
       123 -11.6573     68.0880    187.3474   1.3195653445e+02   2.7461029187e+01    0.3062505    0.2335715 -52.01 0.0005426743    1.466    0.318
       124  -9.2547    111.1583    187.7743   1.2203356695e+02   2.0449363948e+01    0.2240162    0.1862739  78.32 0.0007491352    1.195    0.163
       125  -9.6245     30.1506    183.9267   1.3999722076e+02   3.2965113516e+01    0.2869401    0.1543904 -66.98  0.001316318    1.581    0.367
       126  -9.9952     24.6934    184.1286   1.4118747749e+02   3.3487888056e+01    0.3593452     0.214424  44.51  0.002103237    1.734    0.423
       127  -9.1791     36.7266    183.9419   1.3856870546e+02   3.2241400846e+01    0.1796216    0.1461821  83.59 0.0007337802    1.052    0.050
       128  -9.4387    140.0373    183.0968   1.1446319703e+02   1.6106989148e+01    0.2214339    0.2065534  71.16  0.000327274    1.041    0.039
       129 -12.8718    248.2962    101.2925   7.4855026583e+01   9.8511267363e+00     1.125828    0.4995344 -39.56  0.004800828    2.034    0.508
       130 -11.8471    244.7748    162.4458   8.8506176907e+01  -4.1170832684e-01    0.5029562    0.3909851 -53.42  0.002787211    1.412    0.292
       131 -10.8892    249.5972    150.9566   8.5287817547e+01   7.6216192799e-01    0.5167387    0.3149908 -39.52  0.002030557    1.454    0.312
       132 -10.3320    249.7097    117.9103   7.8230156726e+01   6.6452592582e+00    0.4237372    0.2955001 -19.31  0.001729526    1.848    0.459
       133 -12.1308    248.1986    112.9442   7.7385137752e+01   7.8248556126e+00     1.389844    0.8969987  -1.32  0.005356702    3.610    0.723
       134 -12.0132    247.9206    142.3896   8.3751361707e+01   2.6011482339e+00    0.7205587    0.6708836   2.02  0.004050066    1.165    0.142
       135 -10.2528     81.6725    246.8272   1.3601064251e+02   1.2640945477e+01    0.4073431    0.2299393 -89.15  0.002145099    2.045    0.511
       136 -10.0154     84.6063    229.7431   1.3362821312e+02   1.5608700186e+01    0.2239271    0.2073209 -19.20 0.0008069214    1.611    0.379
       137 -10.4102     19.8986    179.1063   1.4172421535e+02   3.5110694719e+01    0.1959953    0.1658836  74.39  0.001360431    1.169    0.145
       138  -9.6829    115.5660    177.7343   1.1924841120e+02   2.1986812336e+01    0.3274826    0.2310797 -64.92   0.00144163    1.445    0.308
       139  -8.9338     47.7735    179.6901   1.3560943705e+02   3.1940793867e+01    0.1707992    0.1076969  47.53 0.0007050725    1.604    0.377
       140  -9.1398     92.7064    178.0944   1.2480637039e+02   2.5883790405e+01    0.1932011    0.1677509 -72.62 0.0001703335    1.097    0.088
       141 -11.4748     77.6477    175.1295   1.2796106619e+02   2.8964918553e+01    0.2903114    0.2464535 -58.06 0.0004663115    1.221    0.181
       142  -9.1022     68.6347    175.7939   1.3022065774e+02   3.0121579622e+01    0.2813037    0.1267166 -66.25 0.0007253004    2.089    0.521
       143 -11.6546     64.5953    173.3803   1.3083715782e+02   3.1262907885e+01    0.4549552    0.2570088 -49.74 0.0009761043    1.898    0.473
       144 -10.1845     68.6881    166.7172   1.2884838258e+02   3.2297531280e+01    0.2466852    0.2177746 -81.73 0.0005375738    1.021    0.021
       145 -11.6288    107.8859    172.8977   1.2023486887e+02   2.4516931499e+01    0.2685132    0.2459238 -86.51 0.0002902556    1.028    0.027
       146  -9.6888     46.0690    172.2603   1.3507607845e+02   3.3901890897e+01     0.301216    0.1696341 -68.35 0.0004298903    1.529    0.346
       147 -10.6424     43.6296    169.1913   1.3525804491e+02   3.4916706648e+01     0.321963    0.2250692 -48.78  0.001017008    1.591    0.372
       148 -10.3119     44.8742    165.0952   1.3442717595e+02   3.5748348581e+01    0.3205413    0.2075528 -63.91 0.0008169787    1.347    0.257
       149  -8.5343     95.2712    172.6413   1.2327326815e+02   2.6760415003e+01    0.1511705    0.1064867  82.62 0.0006998797    1.647    0.393
       150 -10.3023     28.8462    170.8301   1.3888264920e+02   3.6137444550e+01    0.3506595    0.2873195 -88.04  0.001730022    1.034    0.033
       151  -8.7656     52.5231    170.9636   1.3338280073e+02   3.3424567241e+01    0.1644124   0.09720344 -45.67 0.0003391329    2.007    0.502
       152  -8.3079    166.7409    170.6504   1.0585476429e+02   1.3455100257e+01    0.1516095    0.1202142 -12.19 0.0001774551    1.604    0.377
       153 -12.0959     85.5075    166.5965   1.2465442533e+02   2.9807767537e+01    0.5987772    0.5321859  35.93  0.003399048    1.272    0.214
       154 -10.6768     89.6802    160.0227   1.2245029792e+02   3.0730796811e+01    0.2593126    0.2056803  53.59  0.000408912    1.280    0.219
       155  -8.7274    126.4938    167.5339   1.1467728629e+02   2.2316375290e+01    0.1547038    0.1419139  80.63  0.000193949    1.071    0.067
       156  -8.5807     58.4644    167.4801   1.3146772762e+02   3.3501231433e+01    0.1375658    0.1168048 -86.09  0.000173766    1.026    0.025
       157 -10.3669     24.0341    162.0776   1.3900190059e+02   3.8658035691e+01    0.2071494    0.1718335 -62.07 0.0003280064    1.232    0.188
       158 -10.1075     16.1597    158.6856   1.4045919242e+02   4.0162459108e+01    0.1870045    0.1333428  64.00  0.001016966    1.431    0.301
       159  -8.8158     52.4893    158.4541   1.3162559230e+02   3.6433503685e+01    0.1355122    0.1160832 -79.27 9.743594e-05    1.005    0.005
       160 -10.6363     23.5485    149.4932   1.3760806544e+02   4.1656309445e+01    0.2253623    0.1552193 -65.42 0.0007493899    1.202    0.168
       161 -11.1519     31.8883    155.6870   1.3634643713e+02   3.9396242811e+01     0.395772    0.2220669 -49.78  0.001431663    1.827    0.453
       162 -12.3602     24.1095    154.5109   1.3809137605e+02   4.0425626959e+01    0.5290745    0.4612235  64.38   0.00361288    1.242    0.195
       163  -9.1400    228.4334    155.4978   8.9925191896e+01   3.9040742835e+00    0.2425742    0.1250172 -49.58 0.0005370742    2.049    0.512
       164 -10.1291     84.2445    155.5007   1.2302640383e+02   3.2701937600e+01    0.3772202    0.2116777  24.80 0.0007971745    2.467    0.595
       165  -9.8344    113.9380    150.5866   1.1437167376e+02   2.8742286589e+01    0.3212962    0.2377722 -59.87 0.0004938756    1.330    0.248
       166 -10.5967     98.0825    151.0317   1.1857589260e+02   3.1502132538e+01    0.3550273     0.320285 -47.29 0.0009671328    1.156    0.135
       167  -9.3423    101.4032    146.3019   1.1674571182e+02   3.2065301976e+01    0.3399658    0.2054767 -29.17 0.0008753897    2.575    0.612
       168  -9.7730     86.2979    150.0651   1.2147981586e+02   3.3699029666e+01    0.2634801    0.1846493 -74.48 0.0004465802    1.492    0.330
       169 -10.0159     56.2045    149.5396   1.2929734141e+02   3.8127471262e+01    0.3232224     0.201679 -33.22  0.001512663    2.234    0.552
       170 -12.3499     68.2939    144.3921   1.2521536338e+02   3.7776357515e+01    0.6858499    0.4999812  88.65  0.002408491    1.536    0.349
       171 -10.9764     72.8723    139.3738   1.2303965131e+02   3.8344074914e+01    0.3988451    0.2952546 -47.54 0.0009014218    1.325    0.245
       172  -9.4578     76.9671    147.0302   1.2338047535e+02   3.5882478834e+01    0.2084932    0.1881015 -69.55   0.00118983    1.021    0.020
       173  -9.1783     39.6661    147.2827   1.3323801790e+02   4.0592229345e+01    0.1318628   0.09033176  72.88 0.0002708968    1.616    0.381
       174 -10.3853    236.2311    145.9624   8.6479634713e+01   4.1699171288e+00    0.2950068    0.2143292  46.43 0.0008595834    1.509    0.337
       175 -10.2842    133.3844    141.1717   1.0733386200e+02   2.7114201831e+01    0.5716993    0.2728266 -53.93  0.002094596    2.184    0.542
       176 -10.7722     32.7007    140.8202   1.3410225773e+02   4.2844391740e+01    0.3095907    0.1785926 -88.17  0.001290076    1.939    0.484
       177  -8.8981     41.5446    140.4823   1.3171615627e+02   4.2017654439e+01     0.133193     0.111747 -69.92 0.0001367285    1.009    0.009
       178  -9.2491     37.4539    140.4821   1.3280112008e+02   4.2447959330e+01    0.1319033    0.1094557 -69.24 0.0001669022    1.019    0.019
       179 -10.2415     56.0825    138.8918   1.2753659516e+02   4.0716803511e+01    0.2311829    0.2067536 -49.20 0.0003665278    1.157    0.136
       180 -11.2291     60.7311    136.9935   1.2592468893e+02   4.0584456722e+01    0.3390991    0.2530582 -86.38 0.0001766383    1.437    0.304
       181  -9.8840    109.8516    136.3344   1.1234795964e+02   3.2913902724e+01    0.3475528     0.267278 -15.95  0.001070056    1.767    0.434
       182 -11.8909     68.0267    129.7053   1.2248982484e+02   4.1358528587e+01    0.6672847    0.4207542  81.21  0.002865606    2.453    0.592
       183 -11.5536     45.0961    131.4253   1.2925974927e+02   4.3792855009e+01    0.4050855    0.3282584 -84.03  0.002421927    1.217    0.178
       184 -11.5318     33.0744    130.9821   1.3250605776e+02   4.5135400066e+01    0.5313354    0.1859977 -64.31   0.00221115    2.337    0.572
       185 -10.7835     30.1984    126.6115   1.3260297554e+02   4.6431777493e+01    0.2667361    0.1721393 -33.74  0.000780881    1.833    0.455
       186 -12.6372     16.5717    122.3908   1.3573445433e+02   4.8551298814e+01    0.9290208    0.3434426 -37.56  0.003554297    4.024    0.751
       187 -12.8329      2.6245    130.0807   1.4048772836e+02   4.7768633881e+01    0.7782396    0.4167414 -58.31  0.004549881    1.491    0.329
       188  -8.8793     80.4778    129.5059   1.1892777767e+02   3.9584005568e+01    0.1450099    0.1331316 -64.50 6.121436e-05    1.015    0.015
       189  -9.9342     59.4911    128.4875   1.2467154997e+02   4.2784581790e+01    0.1387269    0.1223643 -63.25 -6.616391e-05    1.005    0.005
       190 -11.1521     23.9262    127.4791   1.3447083103e+02   4.6783452781e+01    0.2628059    0.1675068 -54.13  0.001079072    1.345    0.257
       191 -10.4750    209.8657    125.8346   8.6701474520e+01   1.3484103208e+01    0.3152097    0.2421193 -35.42 0.0005372777    1.296    0.228
       192  -8.8349     66.0868    181.8583   1.3167490095e+02   2.9036088104e+01    0.1692328    0.1575478 -44.31 0.0004025953    1.342    0.255
       193 -10.1741     54.7795    120.7362   1.2450591171e+02   4.5206289947e+01     0.274555    0.1962462   1.84  0.001354394    1.910    0.477
       194 -11.8965     30.4815    119.4529   1.3133642195e+02   4.8073205624e+01    0.4002603    0.2705092  47.04  0.002306332    1.755    0.430
       195 -12.5456     11.0707    114.6495   1.3612131313e+02   5.0710489211e+01    0.4438476    0.2447234 -63.64  0.002536469    1.396    0.283
       196 -10.7567    168.1132    113.2768   9.2162291494e+01   2.5582717070e+01    0.3684474    0.3099011 -81.45  0.000826952    1.337    0.252
       197 -10.6845     67.4823    115.1788   1.1957552609e+02   4.4862187828e+01    0.4104523    0.2035627  27.02  0.001443105    2.466    0.595
       198  -9.9238    236.4790    110.9917   7.8740227031e+01   1.0565022018e+01    0.2308012    0.1296971 -40.00  0.001044461    1.633    0.388
       199  -9.2535    203.4964    111.4932   8.4494480422e+01   1.7713741218e+01    0.1499071    0.1443882 -53.34  0.000810136    1.050    0.048
       200  -9.5856     44.7418    105.2165   1.2433100567e+02   4.9932566521e+01    0.1949601    0.1741737  47.55 0.0004407776    1.315    0.239
       201  -9.7067    231.8163    116.3823   8.0691193697e+01   1.0556170837e+01    0.2060664    0.1680603 -51.67 0.0007303611    1.129    0.114
       202 -11.1114     14.9079    104.0959   1.3329904648e+02   5.2812516265e+01    0.2023541    0.1681124 -13.48  0.001386252    1.420    0.296
       203 -10.6165     17.3468     99.2108   1.3168338702e+02   5.3720387905e+01    0.2153451    0.1854401  81.40  0.000149256    1.370    0.270
       204 -12.7203    248.3714    171.8385   8.9825523262e+01  -2.6850490408e+00      1.14081    0.4916057 -42.44  0.004891533    2.153    0.536
       205 -12.8422    245.6765    156.9303   8.7198297955e+01   4.0752252214e-01     1.659056    0.9600056 -62.10  0.006776971    2.876    0.652
       206  -8.6723    184.5178     77.4902   7.9518027533e+01   2.8504577235e+01    0.1478195    0.1409674  85.84 -1.744862e-05    1.037    0.036
       207 -10.3061     84.4520    241.0849   1.3489340308e+02   1.3343880057e+01    0.3762251    0.2621542 -73.57  0.002281682    1.468    0.319
       208 -11.2553    104.7912    238.0911   1.3057077780e+02   1.0743388938e+01    0.5795359    0.4325781  -6.01  0.002918916    2.701    0.630
       209 -11.4747     98.7853    232.5121   1.3110278078e+02   1.2820857926e+01     0.765232    0.3277535 -70.77  0.002109869    3.012    0.668
       210  -9.8607    189.7834     15.5889   6.2966508964e+01   3.5945325837e+01    0.1854551    0.1087662  82.56 0.0006086192    1.618    0.382
