#   1 NUMBER                 Running object number                                     
#   2 MAG_AUTO               Kron-like elliptical aperture magnitude                    [mag]
#   3 X_IMAGE                Object position along x                                    [pixel]
#   4 Y_IMAGE                Object position along y                                    [pixel]
#   5 X_WORLD                Barycenter position along world x axis                     [deg]
#   6 Y_WORLD                Barycenter position along world y axis                     [deg]
#   7 A_WORLD                Profile RMS along major axis (world units)                 [deg]
#   8 B_WORLD                Profile RMS along minor axis (world units)                 [deg]
#   9 THETA_WORLD            Position angle (CCW/world-x)                               [deg]
#  10 FWHM_WORLD             FWHM assuming a gaussian core                              [deg]
#  11 ELONGATION             A_IMAGE/B_IMAGE                                           
#  12 ELLIPTICITY            1 - B_IMAGE/A_IMAGE                                       
         1 -10.1712     21.3821     28.6897   1.1049405082e+02   6.6838676930e+01    0.5624181    0.3706057 -11.38  0.003292879    1.324    0.245
         2 -10.4742     40.1600      3.0982   9.2010006805e+01   6.7910583296e+01    0.4069709    0.2367999  34.05  0.001521317    1.534    0.348
         3 -11.2110      9.3460      3.2258   1.0564244408e+02   7.1371414486e+01    0.7799982    0.2431036  28.87   0.00409965    3.140    0.681
         4 -10.8783     25.7581      5.3810   9.9027034580e+01   6.9463243432e+01    0.5023453     0.323589  -9.90  0.001729468    1.284    0.221
         5  -9.8930      1.3699     17.4226   1.1535190426e+02   7.0087875004e+01    0.9646462    0.2436784 -53.27   0.00303941    8.160    0.877
         6 -10.1550     16.8465      9.8955   1.0502247037e+02   6.9856503974e+01    0.2999533    0.1912908  -4.98 0.0003900769    1.308    0.236
         7 -10.3833     33.7666      9.6933   9.7506457859e+01   6.8032172237e+01    0.9148605    0.4932867 -20.20  0.005652404    1.716    0.417
         8  -9.9283      6.3041     17.3142   1.1297844412e+02   6.9755454003e+01    0.6318398    0.2381486 -27.79   0.00325636    2.608    0.617
         9  -9.9814     10.3769     10.2254   1.0818769174e+02   7.0400899687e+01    0.3754034    0.2101804 -14.54 0.0006513248    1.569    0.363
        10 -10.1092     26.7223     15.0701   1.0280040143e+02   6.8195597684e+01    0.4129784    0.2257455 -35.61 0.0004175735    1.737    0.424
        11 -10.6125     20.1933     14.4278   1.0541597717e+02   6.8951633413e+01    0.5365956     0.309787   0.43  0.002267303    1.693    0.409
        12 -11.5172     68.8258     11.4948   8.5409015342e+01   6.2687931734e+01    0.3257987    0.2202543  32.12 0.0003102026    1.242    0.195
        13  -8.7024    161.0516     10.1505   6.4786788463e+01   4.3287499357e+01    0.2033231    0.1509718  49.67 0.0007651657    1.319    0.242
        14  -8.4342     48.9838      9.9990   9.1636536447e+01   6.5966497464e+01    0.1764277     0.133079   8.94 0.0003592311    1.049    0.047
        15 -10.1338     81.0011      6.3664   7.9755489900e+01   6.0993194794e+01    0.3867487    0.2786043  56.48  0.001060899    1.477    0.323
        16  -8.3334    144.9389      3.8087   6.5438778611e+01   4.7619931202e+01    0.2019465    0.1440013  47.46 0.0006896091    1.313    0.238
        17  -7.9535     86.3347      2.3252   7.6779471690e+01   6.0321494646e+01    0.1292787   0.07189228  29.73  0.000705126    1.715    0.417
        18  -8.7035    157.9394      1.4342   6.2887406257e+01   4.4804910260e+01    0.3100641    0.1039282  68.03 0.0008898939    2.482    0.597
        19  -7.9675    248.9857    245.3003   1.0273977151e+02  -1.4073087898e+01     0.159679    0.1185455  17.72 0.0002761719    1.150    0.131
        20  -8.6032    250.0918    250.2822   1.0338932708e+02  -1.4868107763e+01    0.1690979    0.1240516   8.41  0.000434926    1.121    0.108
        21  -8.5870    232.2468    250.6830   1.0665872928e+02  -1.2447985032e+01    0.2062301   0.09563195  37.63 0.0007177967    1.965    0.491
        22  -8.6740    202.7680    249.7634   1.1202361545e+02  -7.8649001341e+00    0.3051142    0.1871848  29.31 0.0008736044    1.448    0.309
        23  -8.1012    198.0250    250.5527   1.1305796112e+02  -7.2291646778e+00    0.1811306    0.1064118  37.52 0.0004362644    1.468    0.319
        24  -8.2520    183.2668    250.6307   1.1592528040e+02  -4.8508023559e+00    0.1667826    0.1036933  31.73 0.0002482211    1.432    0.302
        25  -8.2728    166.3026    249.9828   1.1915279875e+02  -1.9277311717e+00    0.1876018    0.1599112  63.99 0.0008970494    1.327    0.247
        26  -7.9918    150.2702    249.5945   1.2226445253e+02   8.3914984416e-01    0.2850855    0.1417551  32.18 0.0005511618    2.099    0.524
        27  -9.3891    156.8296    246.1653   1.2047434044e+02   3.1555029283e-01    0.3933671    0.2463783  19.94 0.0008319589    2.129    0.530
        28  -9.0023    151.9077    244.3107   1.2119078057e+02   1.4776715633e+00    0.2403635    0.1996727 -68.09 0.0003499292    1.438    0.305
        29  -8.1473    136.4181    250.2855   1.2509537787e+02   3.0498436687e+00     0.268175    0.1341837  44.52 0.0007623535    1.675    0.403
        30  -9.7792    124.9736    248.3517   1.2710352847e+02   5.3063435539e+00    0.2788393    0.2166001 -75.47 0.0005681101    1.465    0.318
        31  -7.7488     84.1844    250.6393   1.3524242698e+02   1.1351545749e+01    0.1660229    0.1054024  37.31 0.0007107441    1.654    0.395
        32  -9.4548     72.0402    250.3267   1.3747356457e+02   1.3192876207e+01    0.2760526     0.150546  56.90 0.0004166751    1.542    0.351
        33  -9.8543     61.8404    248.7878   1.3920433684e+02   1.4926163292e+01    0.2262137     0.203373  73.63  0.000459985    1.288    0.223
        34 -10.1727     47.3475    250.1281   1.4190962759e+02   1.6600765215e+01    0.3332794     0.165212  41.16  0.001017582    1.923    0.480
        35  -9.8917     16.2416    249.0273   1.4712483914e+02   2.0538601653e+01    0.2458382    0.2278541  28.53  0.001401864    1.808    0.447
        36  -9.5462      8.9783    248.4008   1.4826951954e+02   2.1443558011e+01    0.2141787    0.1676277  69.84 0.0004406114    1.219    0.180
        37  -8.2504      1.8905    250.5704   1.4951227480e+02   2.1767223024e+01     0.142179   0.08869111  47.03  0.001014111    1.581    0.367
        38  -8.8997    193.0661    243.1567   1.1283776110e+02  -5.2912449192e+00    0.4450203    0.3001596  68.85  0.001426871    2.764    0.638
        39  -8.3347    187.4545    244.6396   1.1417380229e+02  -4.5984054225e+00    0.2657156     0.203472  -2.07  0.001028526    1.497    0.332
        40  -8.2340    133.9069    245.0078   1.2489373657e+02   4.4191562741e+00    0.1936163    0.1657576  55.26 0.0003500467    1.037    0.036
        41  -9.0680    113.9690    243.9198   1.2872836743e+02   7.9492187536e+00    0.2061876    0.1801923 -70.11 0.0003641712    1.283    0.221
        42  -9.4364     81.2303    244.2886   1.3515899228e+02   1.3024085002e+01    0.2140729    0.1871449  64.60 0.0003589935    1.165    0.142
        43  -9.4764     41.2228    244.2858   1.4254073688e+02   1.8525698003e+01    0.2151709    0.1740642  61.72 0.0005238451    1.220    0.180
        44 -10.5270    234.2856    243.0399   1.0500003813e+02  -1.1697814526e+01    0.3429728    0.2327915  -0.78 0.0005463151    1.494    0.331
        45  -8.7328    240.7794    238.9373   1.0311277446e+02  -1.2065735592e+01    0.1916908    0.1463212  16.06 0.0004138102    1.124    0.110
        46  -8.1594    220.0756    244.0459   1.0780438242e+02  -9.7209154448e+00    0.1739407    0.1446956  54.01 0.0006130105    1.632    0.387
        47  -8.0176    163.3109    244.1256   1.1888042582e+02  -4.4079470401e-01    0.1707168    0.1655971  45.79  0.001133424    1.136    0.120
        48  -7.8701     48.3799    243.8105   1.4122383963e+02   1.7707705625e+01    0.1617505   0.09531445 -65.63 0.0009603825    1.767    0.434
        49  -8.2826     19.8177    243.8596   1.4621239331e+02   2.1145452058e+01    0.1552323    0.1264599  81.04 0.0005651254    1.226    0.184
        50  -7.7799    177.1757    242.6069   1.1588378207e+02  -2.5456867816e+00     0.184013    0.1087523  29.67 0.0004701679    1.655    0.396
        51  -9.8341    104.2422    241.0582   1.3031341676e+02   1.0082520586e+01    0.2662045    0.2154239  69.36 0.0005182345    1.101    0.092
        52  -7.5976    155.3635    240.8475   1.1999010374e+02   1.4935863733e+00    0.1540241    0.1248245 -36.85 0.0004332603    1.458    0.314
        53  -9.2937    126.5898    240.2129   1.2572440261e+02   6.5468158521e+00     0.237303    0.2144596  84.99 0.0006102583    1.156    0.135
        54  -9.4463     69.1325    239.8003   1.3701909353e+02   1.5684386583e+01    0.2314312    0.1833123  62.95  0.000426901    1.080    0.074
        55  -9.8857     25.3855    239.2056   1.4495138124e+02   2.1437555007e+01    0.2377746    0.1884201 -73.51 0.0004830715    1.433    0.302
        56 -10.8566    207.5195    232.4529   1.0823073168e+02  -5.9766269236e+00    0.9663419    0.4636847  33.58 0.0008048135    1.957    0.489
        57  -9.7733    202.2859    239.6682   1.1046956874e+02  -6.2554881773e+00    0.2656301    0.1970139  29.44 0.0003379517    1.180    0.152
        58  -8.5759    199.3936    235.8043   1.1038728780e+02  -5.1699881279e+00    0.3831409    0.1424456 -36.07  0.001076655    3.228    0.690
        59  -9.2361    170.3736    239.7661   1.1680047287e+02  -9.0709143852e-01    0.3057407    0.2259216  59.04  0.001641304    1.541    0.351
        60  -9.0869    135.8487    239.0458   1.2368824465e+02   5.1871402415e+00    0.3850757    0.2214067  60.27  0.001832523    1.991    0.498
        61  -8.8415    118.2865    239.1054   1.2725698728e+02   8.1547878696e+00    0.2078141    0.1793906  55.22 0.0004557811    1.044    0.042
        62  -8.9158     62.0708    239.4692   1.3832409729e+02   1.6743360246e+01    0.2044016    0.1693249 -87.75 0.0004104611    1.195    0.163
        63  -9.6090     34.9143    239.3729   1.4328843561e+02   2.0282531629e+01    0.3855669    0.1699511  60.60   0.00180595    2.008    0.502
        64 -10.1560     35.5791    231.7308   1.4258103670e+02   2.1759296896e+01    0.4178146    0.1831326 -70.29   0.00221283    2.063    0.515
        65  -9.7755      7.9528    216.0139   1.4645887352e+02   2.8068520113e+01    0.2384913    0.1992318 -48.98 0.0006291896    1.776    0.437
        66  -9.9270     10.6497    238.8500   1.4744308698e+02   2.3127039436e+01     0.239659    0.1764555  84.72 0.0005227035    1.109    0.098
        67  -9.8010     10.4312    231.6202   1.4703701164e+02   2.4596265011e+01    0.2502878    0.1890914 -77.46 0.0009040958    1.352    0.260
        68  -9.9236      7.5446    226.2482   1.4719859540e+02   2.5983972284e+01    0.3558958    0.2582048 -65.57  0.001299657    1.585    0.369
        69  -9.8683      1.8937    225.8310   1.4814840205e+02   2.6626105544e+01    0.6133201    0.1164478 -72.17  0.001371924    3.860    0.741
        70  -9.7411    247.7562    238.3747   1.0176299354e+02  -1.2975264315e+01    0.2675117    0.1787385  28.79 0.0009518292    1.381    0.276
        71  -9.1447    243.9608    234.9688   1.0184579871e+02  -1.1967074826e+01    0.2984855    0.2502021  86.47  0.001116769    2.511    0.602
        72  -9.2704    214.7178    238.7538   1.0792434642e+02  -8.1090930940e+00    0.2341623    0.2049697 -19.39 0.0003888131    1.203    0.169
        73  -9.0753    149.3968    238.0231   1.2078365344e+02   3.0336264545e+00    0.2324163    0.1985752  36.36 0.0004046109    1.098    0.089
        74  -9.0255    220.5230    237.9005   1.0667797455e+02  -8.8897388795e+00    0.2240873    0.1593605  30.35 0.0004299633    1.257    0.204
        75  -8.1047     97.7116    237.5508   1.3119913794e+02   1.1819356043e+01    0.2166791    0.1124502 -64.46  0.001069333    2.074    0.518
        76  -7.1814     48.4789    238.5119   1.4076771867e+02   1.8758248348e+01    0.1208872   0.09417333  74.96 4.222791e-05    1.032    0.031
        77  -9.2999     41.7669    236.6776   1.4184533687e+02   1.9985550120e+01    0.2574702    0.1763631 -88.88  0.001221364    1.240    0.194
        78  -7.5112    183.6190    236.7967   1.1367360572e+02  -2.6757667297e+00    0.1570161    0.1267815 -57.07 0.0004020114    1.546    0.353
        79  -9.6399     91.4952    236.1752   1.3227897486e+02   1.3074171474e+01    0.2307963    0.2067543  75.65 0.0003900137    1.133    0.118
        80 -10.6436     93.3885    228.2732   1.3096793763e+02   1.4394384562e+01    0.3791301      0.35075 -34.81 0.0008410332    1.483    0.326
        81  -8.7547    112.2431    237.2115   1.2823645044e+02   9.5279102291e+00    0.3156577    0.1730278 -57.67  0.001095785    2.012    0.503
        82  -9.1388      3.5286    235.3860   1.4842872462e+02   2.4544066703e+01    0.1882844     0.155241 -88.06 0.0005093397    1.330    0.248
        83  -7.8172    238.7668    234.5582   1.0271337237e+02  -1.1156658647e+01    0.1851529    0.1527958 -54.29  0.001161654    1.816    0.449
        84  -9.8032    171.7423    233.3981   1.1551719721e+02  -4.1872109933e-02    0.3229902    0.2817357  61.50 0.0007594934    1.272    0.214
        85  -8.1785    129.9943    235.0785   1.2433234962e+02   6.9441531678e+00    0.1924182    0.1695571  57.87 0.0003466984    1.027    0.026
        86  -9.7993    192.2564    233.0248   1.1132853049e+02  -3.5191033940e+00    0.2786239    0.2427399  -8.87 0.0004747015    1.181    0.153
        87  -7.7966    119.5790    233.3744   1.2623965412e+02   9.0539509155e+00     0.249187    0.1300028 -66.23  0.001142539    2.316    0.568
        88  -8.6801    108.4385    233.1446   1.2849343367e+02   1.0962924789e+01    0.2045767    0.1903108  31.47 0.0003998713    1.303    0.233
        89  -8.1343     64.9683    234.0239   1.3725446886e+02   1.7450950291e+01    0.1819427    0.1505867  75.82 0.0003508032    1.070    0.065
        90  -8.8636     18.7729    239.4368   1.4610597842e+02   2.2135250926e+01    0.3234296    0.1469193  83.07   0.00175492    2.053    0.513
        91  -8.3630    230.9347    232.8248   1.0384760980e+02  -9.7368598555e+00    0.2045158    0.1651967  32.52 0.0008055606    1.265    0.209
        92  -8.0224    176.8739    232.7573   1.1437208028e+02  -8.2544494910e-01    0.1925204    0.1611298  16.80 0.0003169893    1.203    0.169
        93  -8.4621    153.1527    233.0593   1.1927007321e+02   3.2853596246e+00    0.1967311    0.1746511  49.02 0.0004567043    1.041    0.040
        94  -9.6685    250.3541    231.3955   1.0007257995e+02  -1.2373355048e+01    0.2039755    0.1485175 -31.25   0.00129778    1.374    0.272
        95  -9.2483    140.4216    234.6706   1.2213119049e+02   5.2163207924e+00    0.2457095    0.2204985  36.94 0.0003911881    1.120    0.107
        96  -7.4998    148.9366    232.4796   1.2005139190e+02   4.1353539699e+00    0.2132495    0.1187522  42.72  0.001024849    1.578    0.366
        97  -9.2998    100.6282    231.0805   1.2983043107e+02   1.2656890272e+01    0.2268865    0.2159399  72.60 0.0004174783    1.204    0.170
        98  -8.9383     85.2029    231.2518   1.3297701385e+02   1.5052577163e+01     0.210281    0.2002683  65.47 0.0004170418    1.276    0.216
        99  -9.0312    133.1581    229.9734   1.2295428238e+02   7.3844077062e+00    0.3178428    0.2234524  42.54 0.0008625053    1.275    0.216
       100  -9.1014    123.6502    230.9039   1.2506244374e+02   8.8477517959e+00    0.2377889    0.1889334  45.82  0.000360536    1.137    0.121
       101  -8.6911     55.4997    230.9353   1.3877991970e+02   1.9390396949e+01    0.1889376    0.1741465 -80.86 0.0006230593    1.359    0.264
       102  -8.5969    245.1392    229.7175   1.0070347514e+02  -1.1391325509e+01    0.2133257    0.1550215 -17.58 0.0004345331    1.256    0.204
       103  -7.8674    226.3483    230.0405   1.0421164975e+02  -8.6155289983e+00    0.1668815    0.1440627  -8.31 0.0004302941    1.098    0.090
       104  -8.3490    231.0433    197.5595   9.7277091698e+01  -4.1373089522e+00    0.2649024    0.1649553 -32.14 0.0007843706    1.543    0.352
       105  -9.9922    239.1218    217.4985   9.9573545290e+01  -8.6755979371e+00     0.362332    0.2449642  21.60 0.0006510601    1.444    0.308
       106  -9.7660    222.3388    225.2602   1.0411641765e+02  -7.2456787350e+00    0.8118577      0.42275  19.94   0.00289473    2.510    0.602
       107  -8.3008    236.3020    202.0300   9.7170928240e+01  -5.7592442337e+00    0.2012504    0.1722893   2.57 0.0004479855    1.065    0.061
       108 -10.7245    227.4569    215.6646   1.0139765148e+02  -6.5452647874e+00    0.7718894    0.5972224   9.86  0.004130092    1.242    0.195
       109 -10.0862    233.7133    210.2616   9.9217990407e+01  -6.6837884525e+00    0.4513958    0.3235854 -24.53 0.0009585389    1.327    0.246
       110  -9.5651    232.0731    203.1732   9.8172981568e+01  -5.2546504747e+00    0.3680873    0.3065366 -42.87  0.001202971    1.334    0.251
       111  -9.0041    159.0297    229.2271   1.1746008820e+02   2.9525370728e+00    0.2499474    0.2094933 -21.26 0.0005432129    1.428    0.300
       112  -9.5017     45.0616    229.1598   1.4060532849e+02   2.1122026756e+01    0.2132308    0.1914588  71.63 0.0004256261    1.286    0.222
       113  -7.9050    144.4879    229.2485   1.2048565464e+02   5.5314134332e+00     0.244296    0.1563753  32.43  0.000913594    1.592    0.372
       114  -9.1594    114.1435    228.8925   1.2676199256e+02   1.0867976505e+01    0.2909229    0.1935442  51.79 0.0007453238    1.331    0.249
       115  -8.9312     79.3328    228.5391   1.3385220586e+02   1.6506773460e+01    0.2157363    0.2043742  74.87  0.000393581    1.269    0.212
       116  -8.6749     29.5789    228.9323   1.4345984898e+02   2.3047416220e+01    0.1706854    0.1611573  52.86 0.0005833152    1.505    0.335
       117  -9.8867    236.3887    226.4291   1.0170275351e+02  -9.6141560730e+00    0.2529063    0.2252739  15.23  0.001033701    1.172    0.147
       118  -8.4446    153.0500    227.9751   1.1850492308e+02   4.2514307456e+00    0.2001788     0.182637  40.45 0.0003634916    1.039    0.038
       119  -7.8677    107.4195    228.2712   1.2807550227e+02   1.2118919213e+01    0.1626457    0.1222149 -83.35  0.000290987    1.403    0.287
       120  -9.7695     19.6352    226.7621   1.4509816398e+02   2.4613978167e+01    0.2258407    0.1957579 -79.73 0.0006713407    1.384    0.277
       121  -8.4039    175.5131    227.0817   1.1371294628e+02   4.1264385339e-01    0.2134954    0.1672443  29.62 0.0003742576    1.194    0.162
       122  -7.3574    139.2550    227.3024   1.2128627210e+02   6.8335764283e+00    0.1236625    0.1061943  -2.75 0.0002268367    1.506    0.336
       123  -8.0211     59.8294    227.2395   1.3758814395e+02   1.9579368604e+01    0.1559881    0.1411074 -71.05 0.0005164576    1.367    0.269
       124  -9.1082    229.3787    225.6165   1.0285477363e+02  -8.4135673288e+00    0.2147437    0.1784773  -4.92 0.0004412403    1.077    0.072
       125  -9.3406    200.2535    225.0250   1.0836427836e+02  -3.5474352691e+00    0.2360943    0.2036668 -17.41 0.0003706212    1.177    0.151
       126  -8.1374    185.1523    226.1410   1.1158844626e+02  -1.1214705016e+00    0.1929045    0.1673842   7.55  0.000302843    1.161    0.139
       127  -8.3290    163.1955    225.1153   1.1593319614e+02   2.9705782387e+00    0.2733746    0.2421559 -71.87 0.0008581627    1.319    0.242
       128  -9.6395    160.7368    222.0004   1.1593598890e+02   3.9997322185e+00    0.3277126      0.27259 -10.52  0.001614169    1.464    0.317
       129  -9.2182    160.1430    218.1405   1.1541951333e+02   4.8468559761e+00    0.3552911    0.2013938  52.60 0.0006806412    1.860    0.462
       130  -8.3935    120.9253    224.8158   1.2478028046e+02   1.0538831096e+01    0.1884751    0.1704757  43.29 0.0002992622    1.153    0.132
       131 -10.0309    249.0425    223.1111   9.8815056782e+01  -1.1000320248e+01    0.2408918    0.2118348 -13.36 0.0003931326    1.180    0.153
       132  -8.4207    191.7965    224.0550   1.0988529646e+02  -1.9218036283e+00    0.1938515     0.176488  14.29  0.000468419    1.034    0.033
       133  -7.6546    170.9621    223.6987   1.1408496863e+02   1.8371321646e+00    0.1854928    0.1593339  34.78 0.0002628284    1.055    0.052
       134  -8.1600    156.0588    223.8381   1.1721797807e+02   4.4959529894e+00     0.198909     0.170558  60.53 0.0003580355    1.190    0.160
       135  -9.5140    129.7304    223.5124   1.2272974311e+02   9.2677382740e+00    0.2407551    0.2210462 -15.09 0.0004243536    1.369    0.270
       136  -8.0496    104.4189    223.7262   1.2810573581e+02   1.3556449335e+01    0.1642028    0.1253148 -54.67 0.0004360334    1.481    0.325
       137  -9.3201     78.7089    235.9869   1.3478345219e+02   1.5061501287e+01     0.260177    0.1924136  62.83 0.0003990758    1.128    0.114
       138  -7.9672    136.1161    223.1354   1.2131929272e+02   8.2128948075e+00    0.1972896    0.1777607  28.37 0.0005159453    1.204    0.169
       139  -8.2479     83.0171    222.9426   1.3246223541e+02   1.7132338259e+01    0.1918742    0.1647031  74.00 0.0003525979    1.046    0.044
       140  -9.6492     50.2039    221.5215   1.3892238757e+02   2.2081578987e+01    0.3260274    0.3158018  83.12  0.001274284    1.405    0.288
       141  -9.9462     48.8351    217.5041   1.3880853100e+02   2.3126197973e+01    0.4986178    0.3389161 -84.21  0.003023124    1.284    0.221
       142  -8.5253    175.1753    221.2535   1.1279774489e+02   1.5277964270e+00    0.2459488    0.1941952 -52.09 0.0009888485    1.435    0.303
       143  -8.2836     97.8177    221.8681   1.2924956037e+02   1.5028962594e+01    0.1824905    0.1730804  77.24 0.0003634946    1.182    0.154
       144  -8.0856     75.4247    222.4003   1.3395761409e+02   1.8389766375e+01    0.1582431    0.1467431 -52.19  0.001019586    1.429    0.300
       145  -9.3335     16.0312    221.1064   1.4534795050e+02   2.6177712908e+01    0.2370896    0.1984075 -64.41 0.0006169125    1.527    0.345
       146  -8.5170    216.9299    220.7036   1.0432867144e+02  -5.6383081741e+00    0.2344459    0.1991027 -13.59 0.0003697858    1.126    0.112
       147 -10.5408    203.6320    216.2184   1.0611616242e+02  -2.6311842785e+00    0.5503026    0.3175222 -46.99  0.002674445    1.938    0.484
       148 -10.5695    211.5234    217.1752   1.0473486364e+02  -4.1500441017e+00    0.6679376    0.4183812  26.02  0.002338557    1.622    0.383
       149  -8.1187    181.0293    220.6955   1.1149310538e+02   5.7729289670e-01    0.1935729    0.1638544  31.19 0.0004149121    1.078    0.073
       150  -7.0783    124.6967    221.2683   1.2346940273e+02   1.0608587185e+01    0.1381764   0.09723991  67.34 0.0001789804    1.529    0.346
       151  -7.8943    115.3043    221.5621   1.2551131549e+02   1.2175234452e+01    0.1704116    0.1251854  36.18 0.0003518413    1.403    0.287
       152  -7.6176     92.7204    221.6957   1.3029605227e+02   1.5884441734e+01    0.1172745    0.1064645 -26.25 0.0003058795    1.551    0.355
       153  -7.8062     68.4896    220.9080   1.3520584417e+02   1.9719358489e+01    0.1734332     0.115193 -72.41 0.0003626107    1.439    0.305
       154  -8.7879     59.8757    220.5470   1.3690716655e+02   2.1002517804e+01    0.2173712    0.1766412 -68.26 0.0005795098    1.334    0.250
       155  -9.1671     40.4076    220.6364   1.4074715913e+02   2.3506974292e+01      0.21285    0.1782452 -75.78 0.0004243449    1.298    0.230
       156  -8.8425    186.0756    220.0612   1.1034760117e+02  -2.1082399949e-01    0.2015497     0.184853  26.45 0.0003466968    1.027    0.026
       157  -8.5272    141.5253    220.1649   1.1970982386e+02   7.8371324511e+00    0.2078884    0.1709476  45.42  0.001170619    1.102    0.093
       158  -8.3991    109.1074    219.4852   1.2654107765e+02   1.3664683712e+01    0.1931255    0.1707451 -83.01 0.0004924761    1.142    0.124
       159  -7.5830     88.0153    220.2380   1.3109896514e+02   1.6938661546e+01    0.1627013    0.1021645  43.86 0.0003456669    1.493    0.330
       160  -8.2824    110.0212    224.3106   1.2700693845e+02   1.2500707965e+01    0.1911144    0.1514675  51.47 0.0003982045    1.128    0.113
       161  -8.2577    104.4668    219.0353   1.2746859727e+02   1.4538190044e+01    0.1845046    0.1301226 -65.70 0.0003761276    1.470    0.320
       162  -8.4419    137.0432    218.1532   1.2035406095e+02   9.0505199309e+00    0.2024005    0.1807647  17.70 0.0004271885    1.293    0.226
       163  -9.6601    194.6468    216.4862   1.0796771820e+02  -1.0994973941e+00    0.2786359    0.2350909 -23.73 0.0002177282    1.225    0.183
       164  -8.1436    120.1702    217.1621   1.2383635476e+02   1.2253316416e+01    0.1930365    0.1858273  32.47 0.0004645288    1.205    0.170
       165  -7.2041     77.3016    217.3314   1.3298672702e+02   1.9206803386e+01    0.1198291    0.1033478 -36.16 0.0004736965    1.651    0.394
       166  -7.7494     72.6205    217.1080   1.3393420123e+02   1.9947191639e+01    0.1711699    0.1102309 -58.20 0.0004304067    1.663    0.399
       167  -8.3183     21.8492    216.6999   1.4395017356e+02   2.6489953004e+01     0.182843    0.1330691 -73.52 0.0006394208    1.325    0.245
       168  -9.6698    179.7432    215.8917   1.1091769950e+02   1.6883929457e+00    0.3250619    0.1668124  41.50  0.001043409    1.803    0.445
       169  -8.1979    124.8248    215.8060   1.2262830813e+02   1.1719109114e+01    0.1915297    0.1492673  70.11 0.0003466813    1.316    0.240
       170  -7.3885     91.2807    216.3296   1.2991836860e+02   1.7268168068e+01    0.1221773    0.1064912 -31.63 0.0003535746    1.603    0.376
       171  -8.7143     83.0521    215.5826   1.3156890985e+02   1.8717572938e+01    0.2125691    0.1747497 -56.73 0.0003946748    1.404    0.288
       172  -8.8001    171.9831    214.1958   1.1224140130e+02   3.4278651481e+00    0.2110932    0.2033187 -51.24 0.0005191685    1.141    0.123
       173  -7.1444    166.3043    215.2639   1.1362576964e+02   4.2697058323e+00    0.1349967    0.1063694   9.39            0    1.524    0.344
       174  -8.2367    144.0580    214.8839   1.1832164260e+02   8.4404427362e+00    0.2084105    0.1898389  45.30 0.0004721094    1.041    0.039
       175  -8.2751    132.8497    213.6212   1.2054865755e+02   1.0739906503e+01    0.2127596    0.1862816 -46.93  0.000402614    1.285    0.222
       176  -9.2788    248.7260    212.7204   9.6955393561e+01  -9.4009975897e+00    0.2736261     0.197111 -10.72  0.001228279    1.322    0.244
       177  -9.7381    187.0283    212.5407   1.0881024586e+02   9.8073816956e-01    0.2833241     0.184557 -27.94 0.0004717186    1.802    0.445
       178  -7.5888    155.4647    213.4393   1.1562478172e+02   6.6296527320e+00    0.1408425    0.1290294  43.87 6.539844e-05    1.008    0.008
       179  -8.4340    117.9336    212.8459   1.2368100142e+02   1.3559494392e+01    0.1954475    0.1888999  25.02 0.0003965446    1.225    0.184
       180  -8.3183    111.7936    213.1781   1.2506825903e+02   1.4553208753e+01    0.1733776    0.1655037  -9.27 0.0003590115    1.334    0.250
       181  -7.6886     74.5668    212.9099   1.3303749341e+02   2.0584154496e+01    0.1852724     0.118873 -68.73 0.0003924372    1.503    0.335
       182  -7.6260     63.5276    213.4826   1.3541180864e+02   2.2041608537e+01    0.1297985    0.1088149  80.51 -3.175985e-05    1.040    0.038
       183  -8.3831     41.8667    212.8000   1.3974706836e+02   2.5028009667e+01    0.1719593    0.1495382 -82.66 0.0004868665    1.235    0.190
       184  -8.6626     98.7634    211.3906   1.2765105835e+02   1.7136387486e+01    0.2303605    0.2038993  -4.01 0.0008080683    1.610    0.379
       185  -9.0816     17.6171    211.2106   1.4432462736e+02   2.8116296902e+01    0.2230499    0.1691382 -84.05 0.0005335254    1.149    0.130
       186  -8.4038     16.3099    207.3663   1.4427629611e+02   2.9082624782e+01    0.2091111    0.1304523 -71.37  0.001046419    1.417    0.294
       187  -8.0395    125.2297    210.9956   1.2180203602e+02   1.2663491217e+01    0.1880435     0.171987  64.76 0.0003143119    1.017    0.017
       188  -9.6119     67.4819    208.4948   1.3401665703e+02   2.2595129936e+01    0.3907627    0.2292847 -76.37  0.001167765    1.645    0.392
       189  -8.6269     25.2738    211.1121   1.4285367772e+02   2.7321177491e+01    0.1864042    0.1503198  65.32  0.000605092    1.194    0.162
       190  -9.9465    193.9839    208.7628   1.0668921704e+02   4.0858687091e-01    0.2853937    0.2378792  -5.75  0.000667499    1.271    0.213
       191 -10.2956    184.0313    206.8894   1.0839752557e+02   2.5856361646e+00    0.4294567    0.2694785 -32.08  0.002030223    1.818    0.450
       192  -7.9740    107.3427    209.9678   1.2557514556e+02   1.6011789381e+01    0.1857429     0.168128 -84.97 0.0004262924    1.104    0.094
       193  -8.5398    200.7830    209.2841   1.0540732457e+02  -9.1092023022e-01    0.1831776    0.1491815   0.89 0.0006189564    1.288    0.224
       194  -7.4148    161.8219    208.8723   1.1346896195e+02   6.3542885989e+00    0.1895857    0.1617571  69.39 0.0005425572    1.302    0.232
       195  -8.8132     93.7133    208.9445   1.2841636177e+02   1.8501222583e+01    0.1891073    0.1633848 -87.98  0.000401182    1.092    0.084
       196 -10.1280    206.7493    206.1683   1.0362703089e+02  -1.4190164450e+00      0.34408    0.2377496 -11.87  0.001218461    1.767    0.434
       197  -7.8803    149.5400    207.8770   1.1596000889e+02   8.8577664258e+00    0.1955429    0.1419332 -50.24 0.0004223908    1.478    0.323
       198  -7.4678    134.2503    208.3428   1.1939492337e+02   1.1593866577e+01    0.1338915    0.1119781 -17.86 0.0005099766    1.575    0.365
       199  -8.2227     78.9676    208.0793   1.3150650504e+02   2.1002921556e+01    0.2036721    0.1735903  76.88 0.0003990526    1.007    0.007
       200  -8.2594     72.3484    208.0412   1.3292514242e+02   2.1995288523e+01    0.1864572    0.1535245  83.32 0.0005231078    1.045    0.043
       201  -8.7347    120.1502    206.6945   1.2225263666e+02   1.4496417762e+01     0.196522    0.1683627  49.53 0.0004544409    1.106    0.096
       202  -8.2512    115.1378    207.2404   1.2344938081e+02   1.5262418475e+01    0.1985029    0.1904955  43.19 0.0005528614    1.175    0.149
       203  -8.3355    126.9170    206.1338   1.2066010114e+02   1.3402692557e+01    0.2148525    0.1781572  68.82 0.0003841871    1.194    0.162
       204  -8.1123     47.7392    206.0847   1.3789301586e+02   2.5787772242e+01    0.1747683     0.138066 -87.39 0.0003846694    1.080    0.074
       205  -7.6784     39.4190    205.8219   1.3957506796e+02   2.6868645581e+01    0.1610158    0.1001199 -65.40 0.0002717023    1.523    0.343
       206  -8.8564    247.1054    204.5300   9.5697233719e+01  -7.8800633379e+00    0.2272309    0.1654686 -30.57 0.0004938846    1.262    0.207
       207  -8.6370    224.4016    204.6695   9.9903918014e+01  -4.2234319998e+00    0.4068441    0.2128386  45.03  0.001428547    2.049    0.512
       208  -8.7364    219.5135    202.0011   1.0032731099e+02  -2.9287027576e+00    0.2316923    0.1673066 -12.30  0.001219579    1.522    0.343
       209  -9.8135    196.6048    194.0341   1.0333743252e+02   2.6756902671e+00    0.3441092    0.2689111  43.06  0.001214673    1.279    0.218
       210  -9.8249    199.6610    201.3334   1.0413013065e+02   7.3712815854e-01    0.3884683    0.2678017 -25.04 0.0003469518    1.613    0.380
       211 -12.5340    206.9147    194.1295   1.0126598578e+02   7.3561418659e-01     1.287277    0.9779204   3.97  0.006699471    1.516    0.340
       212  -9.7408    179.3215    202.3585   1.0854537521e+02   4.3385254312e+00    0.3797868    0.2709549 -60.73  0.001868527    1.719    0.418
       213  -7.5362    141.3709    203.7585   1.1705361957e+02   1.1247193128e+01    0.1819394    0.1352826 -42.86  0.000254978    1.498    0.332
       214  -9.5913      7.3828    203.5535   1.4568923878e+02   3.0784911001e+01    0.2073755    0.1814003 -66.16 0.0006551993    1.448    0.309
       215  -8.9140     93.8284    203.1790   1.2759072696e+02   1.9775083578e+01    0.2215461     0.170821  72.58  0.001037672    1.243    0.195
       216 -10.0712     81.1952    200.9387   1.3009189426e+02   2.2281565755e+01     0.398453    0.3002225  63.66  0.001201063    1.228    0.186
       217  -7.4212     43.4788    203.4652   1.3850768489e+02   2.6905999162e+01    0.1272519    0.1031522  85.56 0.0001192246    1.027    0.026
       218  -8.2653     21.3828    202.3124   1.4287936410e+02   2.9667196388e+01    0.1819229    0.1574966 -84.35 0.0005034305    1.238    0.192
       219  -7.7233    110.4977    202.4279   1.2374799260e+02   1.7136745220e+01    0.1398057    0.1299384  66.30 0.0001553849    1.070    0.066
       220  -8.3842     98.6192    201.9907   1.2634967995e+02   1.9255979288e+01    0.2370284    0.1932749  29.76 0.0005191169    1.450    0.310
       221 -10.7424     64.2095    195.5063   1.3315972902e+02   2.6018962426e+01    0.5299477    0.3340278  62.68  0.001135346    1.563    0.360
       222  -7.6300     29.3550    201.7192   1.4123242670e+02   2.8942344231e+01    0.1703736   0.09193952 -66.11 0.0006303331    1.660    0.397
       223  -9.7374    194.0706    200.4813   1.0510948781e+02   1.9287773136e+00    0.3398462    0.2317934  12.44 0.0009794183    1.895    0.472
       224  -7.9682    187.2593    201.5418   1.0672309098e+02   3.0004663452e+00    0.1899992    0.1304575  28.55 0.0003107311    1.507    0.337
       225  -7.3452    145.2970    201.3017   1.1575606296e+02   1.1029813377e+01    0.1396354    0.1154314  -2.45 0.0003613226    1.579    0.367
       226  -8.5969    131.5164    201.0822   1.1880101501e+02   1.3656573462e+01    0.2192767    0.1857878  48.14 0.0006333591    1.112    0.101
       227  -7.5111    121.3311    201.7121   1.2119702522e+02   1.5377776073e+01    0.1490246    0.1044787  70.55  0.000701513    1.621    0.383
       228  -7.3021     34.5362    201.4769   1.4015505735e+02   2.8413137413e+01    0.1258147   0.09919824  85.93  0.000122438    1.007    0.007
       229  -7.9351    224.1059    200.1608   9.9090962867e+01  -3.4024013856e+00    0.2113396    0.1689139  -5.88 0.0007818605    1.251    0.201
       230  -7.3125     16.9884    201.0000   1.4363694109e+02   3.0407544790e+01    0.1642619   0.06470312  33.22 0.0007912681    2.866    0.651
       231  -8.9779    250.3793    199.0997   9.4077709905e+01  -7.5226704841e+00    0.1850205    0.1452038 -17.76  0.000551412    1.129    0.114
       232  -9.9744    211.5306    198.8678   1.0127739270e+02  -9.6745723942e-01    0.2437026    0.1893821  34.28 0.0004760793    1.258    0.205
       233  -8.7785    243.3777    198.1149   9.5129146792e+01  -6.2595020041e+00    0.2011571    0.1756851  19.70 0.0004337579    1.161    0.139
       234  -9.5203     69.5653    200.9021   1.3265169984e+02   2.4017947182e+01    0.3451641    0.2670159  69.92  0.001234709    1.164    0.141
       235  -7.7645     42.3607    198.9219   1.3827539445e+02   2.8069880207e+01    0.1796268   0.09620251 -61.51 0.0009295785    1.766    0.434
       236  -8.4991     89.6853    196.9964   1.2764026688e+02   2.1855730332e+01    0.1968717    0.1651121 -81.42 0.0002106299    1.118    0.106
       237  -7.7319     21.9253    197.4858   1.4235523353e+02   3.0683865847e+01    0.1561634    0.1139676  42.95 0.0005393726    1.524    0.344
       238  -7.3267      7.4909    197.5324   1.4521931347e+02   3.2087130350e+01    0.1185369   0.08855199  87.91 8.521019e-05    1.012    0.012
       239  -8.5986    238.0651    195.9694   9.5671851573e+01  -5.0400588753e+00    0.1946783     0.169726  -9.47 0.0003413887    1.010    0.010
       240  -9.6527    186.9651    193.5322   1.0524331607e+02   4.6081400128e+00    0.3955786    0.2437609  -1.43 0.0007773215    3.313    0.698
       241 -10.3672    190.5919    191.2437   1.0403327401e+02   4.3597225674e+00    0.5996522    0.3256354 -64.09   0.00210723    3.492    0.714
       242  -8.1350    134.6884    195.6882   1.1715916228e+02   1.4246004922e+01    0.1421912    0.1177892  -6.20 0.0004904022    1.629    0.386
       243  -9.0514    114.0555    194.9065   1.2174744174e+02   1.8205755202e+01    0.2118351    0.1790803 -16.45 0.0005027821    1.624    0.384
       244  -8.5684     74.8445    193.8344   1.3056098792e+02   2.4879963776e+01     0.189861    0.1401153  72.34 0.0003243378    1.300    0.231
       245  -7.8514      5.7217    193.6679   1.4526899327e+02   3.3097937816e+01    0.1109718   0.07465424 -59.21 0.0003004867    1.604    0.376
       246  -7.6797     27.4737    192.4242   1.4075110685e+02   3.1241469787e+01    0.1265272   0.09606037  82.78 -0.000107102    1.078    0.072
       247 -10.2907    154.8275    188.3475   1.1124879202e+02   1.1963667952e+01    0.5605936    0.3662703  64.25   0.00243146    1.945    0.486
       248  -7.1253      9.4683    190.5220   1.4427529886e+02   3.3454923119e+01    0.1193955   0.09105243 -87.34 0.0002967271    1.047    0.045
       249  -8.7719     94.6145    188.7683   1.2527623196e+02   2.2966421421e+01    0.2775527    0.2134347  66.00 0.0006940139    1.271    0.213
       250  -7.3190     14.3844    188.7536   1.4312767840e+02   3.3392105838e+01    0.1237513   0.07087491  65.73 0.0006944215    1.654    0.395
       251  -7.3758      1.2158    187.9782   1.4572236638e+02   3.4746515866e+01    0.1494662   0.07371095 -78.60 0.0003402907    1.572    0.364
       252 -10.0720    231.5005    185.4986   9.4800945940e+01  -2.1236227044e+00    0.4387076    0.3067848  14.48   0.00204932    1.680    0.405
       253  -9.8576    229.5307    182.4691   9.4554344223e+01  -1.2384465827e+00    0.3036706    0.2370949 -14.79 0.0009194354    1.305    0.234
       254  -9.7268    233.3848    181.2319   9.3591644545e+01  -1.6985303705e+00    0.4009289    0.3701635 -85.73  0.002194562    1.418    0.295
       255  -7.5881     56.9625    202.5026   1.3556719371e+02   2.5399592669e+01    0.1734349    0.1225466  42.43 0.0004659098    1.480    0.324
       256  -9.0793    224.2329    182.9766   9.5651880918e+01  -3.8116866990e-01    0.2122535     0.159289 -67.48 0.0006412184    1.936    0.483
       257  -7.6992    104.1342    205.4236   1.2562088578e+02   1.7560084516e+01    0.1812367    0.1670654 -68.64 0.0004876298    1.176    0.150
       258 -10.4766    117.0629    179.1230   1.1832847778e+02   2.1307532041e+01    0.6174334    0.3990487  57.13  0.001954708    1.636    0.389
       259  -9.4313     29.5157    180.4298   1.3910370750e+02   3.3783068841e+01    0.5260844    0.2339456  56.80  0.002450681    2.446    0.591
       260  -8.3864      8.1006    182.5154   1.4388567692e+02   3.5371621901e+01    0.1509627    0.1123573  42.97  0.001015309    1.539    0.350
       261  -8.0014      3.4660    182.5047   1.4483806443e+02   3.5773185211e+01    0.1186304   0.08958069 -84.40 0.0001552233    1.054    0.051
       262  -7.4644     68.7086    183.3237   1.3053072732e+02   2.8247981431e+01    0.1429804   0.09474489  76.09 0.0003656531    1.612    0.380
       263  -7.5243     43.5249    179.5010   1.3585423265e+02   3.2436435857e+01    0.1329772    0.1077603  89.33 0.0008098487    1.039    0.038
       264  -8.2768     10.4894    177.4623   1.4293923604e+02   3.6305343905e+01    0.1208324    0.0937098 -81.03  0.000808297    1.074    0.069
       265  -8.5754    199.7135    175.5611   9.8952399386e+01   5.6725772878e+00    0.2029166    0.1405075  53.20 0.0009520836    1.604    0.377
       266  -8.4056     10.0628    172.8779   1.4260858776e+02   3.7388362989e+01    0.3496633    0.1495961  56.03  0.001222665    2.531    0.605
       267  -7.4065     77.2879    172.3230   1.2684556693e+02   2.9632903422e+01    0.1368434    0.1068829 -36.93  0.000678952    1.604    0.376
       268  -9.0627     40.5164    171.4827   1.3557173029e+02   3.4685139365e+01    0.2403192    0.1912788 -80.80 0.0008634779    1.045    0.043
       269 -11.2604    184.7890    166.6644   1.0019314832e+02   1.0509098891e+01    0.7713031     0.472634  38.45  0.003368711    1.691    0.409
       270  -9.6810      6.5056    163.2320   1.4247416583e+02   3.9893326961e+01    0.3698449    0.2254892 -70.36  0.001388447    1.294    0.227
       271  -9.9554    148.6054    166.8023   1.0838314475e+02   1.7996068002e+01    0.4789135    0.3038236  41.88   0.00209235    1.573    0.364
       272 -10.1808    217.4426    161.4152   9.2434761349e+01   4.9450383259e+00    0.6559497    0.4087646  48.81  0.002858244    1.735    0.424
       273  -9.7687    171.9784    158.5084   1.0122133382e+02   1.4943626357e+01    0.3825225    0.3326148  71.30  0.001932628    1.264    0.209
       274  -9.5997    217.0552    156.9211   9.1537629627e+01   5.8916993056e+00    0.3088124    0.2634741 -25.03  0.001060312    1.163    0.140
       275  -7.6487    160.3284    159.2795   1.0403790846e+02   1.7247085583e+01    0.1538376     0.124624   3.23 0.0002555476    1.598    0.374
       276  -8.7083    101.0211    156.2439   1.1801664441e+02   2.9677642426e+01    0.2889899    0.2300594 -13.27  0.001389313    1.756    0.431
       277  -7.9377    229.0060    155.9853   8.9119422829e+01   3.7340828050e+00    0.1677299    0.1600882 -19.75 0.0004375449    1.048    0.046
       278  -9.2187    123.9200    155.3211   1.1198700612e+02   2.5639897524e+01    0.3640191    0.2903976  45.06   0.00108327    1.265    0.210
       279  -9.2466     84.4220    154.5009   1.2199439803e+02   3.2874451944e+01    0.2683172    0.2403128 -74.71 0.0007857376    1.024    0.023
       280  -8.8101    245.8122    149.8243   8.4893619406e+01   1.7194555606e+00    0.2318981    0.1884099  54.06 0.0008172123    1.430    0.301
       281 -11.0316     84.3311    146.0234   1.2041025925e+02   3.4959368165e+01    0.5904788    0.5785105  18.88  0.001842842    1.161    0.138
       282  -8.3827     57.8608    150.3903   1.2823586272e+02   3.7686106288e+01    0.1715701    0.1357125  11.17 0.0006497662    1.688    0.407
       283  -8.7944     26.8891    148.6185   1.3595552052e+02   4.1543845753e+01    0.2276441    0.1414979 -62.74 0.0007478388    1.333    0.250
       284  -8.4510    133.8850    147.6954   1.0783275649e+02   2.5440195533e+01    0.3041447    0.2298614 -60.28 0.0007139624    1.355    0.262
       285  -8.7900     12.3407    146.0877   1.3926594782e+02   4.3395736916e+01    0.2085305    0.1706687  53.31 0.0008870574    1.385    0.278
       286  -7.5916    236.4180    145.4650   8.5551569714e+01   4.2783957809e+00    0.1418806    0.1262242 -29.73 0.0001871389    1.065    0.061
       287  -9.3761     48.4013    143.4466   1.2960376714e+02   4.0526848552e+01    0.4032297    0.2678563  33.20  0.002149274    1.725    0.420
       288  -7.2716    150.5288    141.5092   1.0233518992e+02   2.3352382253e+01    0.1559673    0.1539188 -63.62 0.0001299878    1.028    0.027
       289  -8.6287    225.2252    138.4720   8.5979764282e+01   7.8101417469e+00    0.3251051    0.2396015 -23.38  0.001606007    1.521    0.343
       290  -9.5035     98.9535    137.5725   1.1471268492e+02   3.4561003861e+01    0.3681328    0.3187439 -83.06   0.00097378    1.204    0.170
       291  -9.2761     42.4350    134.1430   1.2968761246e+02   4.3431774941e+01    0.2757536     0.220787 -78.44 0.0009707098    1.164    0.141
       292  -8.1389    249.5670    134.4596   8.1039118786e+01   3.7971178028e+00    0.1380979    0.1207832 -35.67 2.580128e-06    1.060    0.057
       293  -7.6756    244.4721    133.0109   8.1537461475e+01   5.0246171185e+00    0.1954658    0.1170576 -19.65 0.0008088253    2.467    0.595
       294  -7.2973    234.3177    132.7251   8.3140738612e+01   7.0649523812e+00    0.1391621     0.108187 -74.43 0.0003291566    1.568    0.362
       295  -8.6011    145.8144    130.8015   1.0093072149e+02   2.6798104199e+01    0.2261589    0.1899958  89.03  0.001075112    1.370    0.270
       296  -8.3718    173.0892    129.9446   9.4364088247e+01   2.0895906867e+01     0.257147    0.2001259   4.72  0.001135706    1.794    0.443
       297  -7.5925    242.3738    125.7577   8.0308637504e+01   6.7548457924e+00    0.1930567    0.1224674 -33.36 0.0004468174    1.559    0.359
       298  -7.8221    150.5224    123.4774   9.7982564902e+01   2.7388572847e+01    0.1570214     0.153166 -77.55 7.805973e-05    1.005    0.005
       299  -8.4783    165.4983    120.5069   9.3742128233e+01   2.4639683991e+01    0.1578839    0.1513546 -78.80 -3.66017e-05    1.032    0.031
       300 -10.3638    100.6979    116.5327   1.0934182745e+02   3.9202653874e+01    0.5431516    0.4019195 -51.70  0.000766424    1.297    0.229
       301 -10.4134     18.1210    115.1890   1.3343939962e+02   5.0101431564e+01    0.4205347    0.2682239 -73.02  0.001101694    1.398    0.285
       302  -8.0979    231.6588    116.4146   7.9971679780e+01   1.0644570947e+01    0.2589257    0.1417851  60.66  0.001120671    2.142    0.533
       303  -8.6947     34.0247    109.3516   1.2766562741e+02   5.0082705248e+01     0.317428    0.1680321 -51.14   0.00123639    1.564    0.360
       304  -8.3896    129.1651    109.2788   9.9695663513e+01   3.5173133857e+01    0.3096149    0.2077049 -72.99 0.0008900551    2.175    0.540
       305  -8.8048    144.8803    106.1807   9.4901097036e+01   3.2375946374e+01    0.2425126    0.2156717  80.01  0.000659778    1.213    0.176
       306  -8.0905    250.6026    102.7875   7.4147246134e+01   9.2238396684e+00    0.2010292    0.1103179 -49.23 0.0009467461    1.621    0.383
       307 -10.1015      8.0460     99.2051   1.3379560963e+02   5.4373323635e+01    0.3396815    0.2940168 -34.59  0.001230095    1.223    0.183
       308  -9.3101      2.4086     94.2173   1.3469814959e+02   5.5786557916e+01    0.2515758    0.1931062 -71.16  0.001737103    1.195    0.163
       309  -8.3502    142.2081     98.3980   9.3464664353e+01   3.4584566761e+01    0.2166286    0.1463385  59.55 0.0007064056    1.615    0.381
       310  -8.1921     72.2909     98.1659   1.1317139280e+02   4.8005742739e+01    0.2307706    0.1591907 -35.03 0.0005417171    1.441    0.306
       311  -8.3458    113.6819     95.8858   1.0023770396e+02   4.1233726995e+01    0.2684141    0.2012747  31.26  0.000806177    1.428    0.300
       312  -8.2505     54.1965     95.5628   1.1828402288e+02   5.1002865806e+01    0.2257242    0.1431651 -47.10 0.0007937383    1.372    0.271
       313  -7.4507    237.6482     95.3080   7.4366004747e+01   1.3187927394e+01    0.1476852   0.09955841 -72.11 0.0007043259    1.714    0.417
       314  -8.5813    158.2386     91.0164   8.7699013496e+01   3.2327727110e+01    0.2549115    0.2175108  51.01 0.0005285447    1.162    0.139
       315  -8.1969     20.8263     86.3990   1.2721275512e+02   5.6261195749e+01    0.4225778    0.2032119 -17.52  0.001877331    3.232    0.691
       316  -9.2412     16.3479     89.0278   1.2925214628e+02   5.6029538796e+01    0.3531736     0.199801 -73.23  0.001891314    1.920    0.479
       317  -8.6823     16.4615     85.4923   1.2848687017e+02   5.6773189504e+01     0.282126    0.1571337 -64.20 0.0009246946    1.612    0.380
       318  -8.2752     34.0010     88.9133   1.2335356703e+02   5.4608980829e+01    0.1924037    0.1559492 -42.30 0.0003810382    1.039    0.038
       319  -9.5146    154.8123     82.1944   8.6047904092e+01   3.4788628242e+01    0.3567905    0.3327646  43.36  0.001140673    1.093    0.085
       320  -9.8926    156.8629     77.8875   8.4403412015e+01   3.5077610427e+01    0.4631833    0.3517728   6.56 0.0008173432    1.871    0.466
       321  -8.3511    243.6680     82.7198   7.0793723846e+01   1.4068213066e+01    0.1231278    0.1086294  18.01 0.0002285155    1.607    0.378
       322  -9.7513    220.7416     79.6532   7.3315757396e+01   1.9598163912e+01     0.349144    0.2489215  75.29 0.0006217859    1.464    0.317
       323 -12.1833     80.0618     75.8382   1.0446050088e+02   5.1395042849e+01    0.3584164     0.346802 -19.37 0.0003267512    1.122    0.109
       324 -11.7990     22.1772     74.2925   1.2397619345e+02   5.8665668827e+01    0.4040226    0.3886398 -15.26  0.002207004    1.242    0.195
       325 -10.7239    115.9247     74.2282   9.3322282476e+01   4.4981592665e+01    0.4991092    0.3999794  74.64  0.001820752    1.593    0.372
       326  -9.4428     45.2152     75.0092   1.1598266904e+02   5.6341016888e+01    0.3020411    0.2760427  78.69  0.001125537    1.487    0.328
       327  -8.6606    101.7343     73.1140   9.6983101266e+01   4.8039417722e+01    0.2848617    0.2047553 -42.70  0.001452235    1.411    0.291
       328  -9.6523    239.2790     72.4366   6.9145829447e+01   1.6690255463e+01     0.298633    0.2221449  46.51  0.001636727    1.688    0.408
       329 -10.1551    227.4040     70.6619   7.0321298952e+01   1.9585818050e+01     0.355608    0.2833751 -69.83 0.0006012431    1.152    0.132
       330  -7.5818    184.4799     77.5495   7.8793618463e+01   2.8490474166e+01    0.1467787     0.139567  84.03 0.0002595912    1.043    0.041
       331 -10.4440    143.8313     63.7297   8.3248926138e+01   4.0558793288e+01    0.5235451    0.3847192 -23.13  0.001619454    1.572    0.364
       332  -8.2483    237.6581     63.6660   6.7455791927e+01   1.8432001002e+01    0.1254985    0.1070704  23.88 0.0007050869    1.757    0.431
       333  -9.1125     58.7588     60.7229   1.0693271954e+02   5.7370086498e+01    0.3363915    0.2186991  -1.11  0.001435477    1.863    0.463
       334 -10.8923     80.3213     54.0611   9.7424375300e+01   5.5198637372e+01    0.8523928    0.4805681  18.25  0.001368014    2.434    0.589
       335  -8.6253     27.7027     55.6048   1.1686714839e+02   6.1795678834e+01    0.1869754    0.1501197  24.86 0.0009410577    1.458    0.314
       336  -8.2723     34.2271     53.7721   1.1378863311e+02   6.1502755482e+01    0.2016934   0.07009315 -40.49 0.0008862195    2.466    0.594
       337  -8.5699     51.8357     64.9468   1.1071297834e+02   5.7500893200e+01    0.2607257    0.2137778  63.35  0.001128023    1.868    0.465
       338  -7.7451    246.3284     46.7019   6.2911783142e+01   1.9100291213e+01    0.1363467   0.08170838 -70.03 0.0003128501    1.637    0.389
       339  -9.4518     15.5044     55.8434   1.2167687852e+02   6.2741203305e+01    0.3779818    0.1839175 -26.49  0.001876791    2.121    0.528
       340  -9.8210     31.6862     34.8103   1.0840262501e+02   6.4900212745e+01    0.5785078    0.3080932  -3.50   0.00289318    2.451    0.592
       341  -9.6830    225.3250    247.7336   1.0744151169e+02  -1.1034150024e+01    0.2238861    0.2032328   4.97 0.0004533308    1.209    0.173
       342  -9.9489     13.9433     26.7732   1.1304624420e+02   6.7769653379e+01    0.4188798    0.2027389   6.81  0.002347201    2.381    0.580
       343  -9.8996     24.5079     38.4916   1.1266380158e+02   6.5024883304e+01    0.2194774     0.140923 -28.63 0.0006427779    1.269    0.212
       344 -11.9976     19.6712     41.0330   1.1552305716e+02   6.5030092374e+01    0.5583609    0.3003483 -15.70  0.001459226    2.015    0.504
       345 -12.0756     12.9909     38.8480   1.1761097297e+02   6.5919706592e+01    0.5572081    0.3375336  -4.30  0.001866769    1.674    0.403
       346  -7.6205     75.5895     42.1817   9.4847204064e+01   5.7811915525e+01    0.1806789    0.1120476 -20.63 0.0009474001    1.693    0.409
       347  -7.7520     49.5451     41.0057   1.0361659187e+02   6.1860507390e+01    0.1838122    0.1063493 -36.61  0.001031461    1.598    0.374
       348  -8.5521     32.3650     40.3777   1.1010335104e+02   6.3956214121e+01    0.2037607    0.1317183  22.57 0.0008851373    1.583    0.368
       349  -8.3501     45.0198     37.7982   1.0418269657e+02   6.2922181830e+01    0.2416168    0.1282397  10.48  0.001180037    2.463    0.594
       350  -9.0599     45.7831     33.1225   1.0215619066e+02   6.3515144483e+01    0.2658749    0.1843726 -35.15 0.0008800653    1.423    0.298
       351  -8.9731    145.9412     34.2796   7.4131950625e+01   4.4244046797e+01    0.3257089    0.2149714  60.13  0.001061003    1.359    0.264
       352  -9.4633      5.2006     32.9732   1.1905900668e+02   6.7429863893e+01    0.2960704    0.1994343  -2.54  0.001568904    1.420    0.296
       353  -8.2518    205.8731     31.3185   6.4129475681e+01   3.0284988297e+01    0.2295811    0.1622891 -57.35   0.00116605    1.359    0.264
       354  -9.0586     77.0949     31.4680   9.0465648521e+01   5.9011674339e+01    0.5077711    0.2125704  36.88    0.0023018    2.302    0.566
       355  -8.6806     66.6278     30.2328   9.3457534168e+01   6.0913221702e+01    0.2353884    0.1993584  -6.26 0.0007100508    1.105    0.095
       356  -8.7866     66.6901     25.2974   9.1548590804e+01   6.1522404512e+01    0.3345501    0.1627663  19.59  0.001454266    2.939    0.660
       357  -7.5365     54.7509     31.6020   9.8194463426e+01   6.2521408097e+01    0.1527836    0.1070802  39.86 0.0006699706    1.590    0.371
       358  -8.2193    110.5435     29.6961   8.0409438412e+01   5.2750481635e+01    0.2507193    0.1085933  54.42  0.001096055    2.110    0.526
       359  -8.8284     53.9048     35.9610   1.0014509342e+02   6.2027570419e+01    0.3155327    0.1796521  15.06  0.001471394    2.011    0.503
       360  -7.7079    221.4649    248.3974   1.0826908683e+02  -1.0551017765e+01     0.122489   0.09958396  16.42 7.578961e-05    1.020    0.020
       361  -7.6093    190.5982    249.5042   1.1432634310e+02  -5.8743386251e+00    0.1257823    0.1066217  22.03  0.000802046    1.040    0.038
       362  -7.8918    108.5359    249.4585   1.3045740922e+02   7.7888616909e+00    0.1279827     0.105446  58.50 0.0001004402    1.013    0.013
       363  -9.9778     33.1613    248.0218   1.4422028650e+02   1.8781841937e+01    0.2280549    0.1947803  74.56 0.0004548036    1.282    0.220
       364  -8.9017     24.9863    248.7345   1.4565591676e+02   1.9607981349e+01     0.195379    0.1708533  24.69  0.001312323    1.885    0.470
       365  -8.1456    210.5730    241.6836   1.0920915513e+02  -7.8950100263e+00    0.1667679    0.1502329 -56.13 0.0003721741    1.515    0.340
       366 -10.6422    211.6354    246.7130   1.0984001295e+02  -8.8072128189e+00    0.2763034    0.2177224  19.84 0.0004500779    1.081    0.075
       367  -7.4921    206.2855    245.6493   1.1068520170e+02  -7.8102004890e+00     0.113244   0.09952299  71.04 0.0007020776    1.659    0.397
       368  -9.0756    140.8190    247.0283   1.2378741718e+02   2.8859455910e+00    0.2166934    0.2112175  82.51 0.0003857511    1.173    0.147
       369  -8.3625    120.0270    248.4905   1.2809516198e+02   6.0986640115e+00     0.179905    0.1096954  43.17 9.091113e-05    1.407    0.289
       370  -7.4725    128.5313     22.4997   7.4007478199e+01   4.9606749821e+01    0.1309673    0.1145738  51.52 0.0001987658    1.008    0.008
       371  -8.1617     83.2495     19.3182   8.4043534685e+01   5.9325541905e+01    0.1986665     0.129498  32.68 0.0007400608    1.353    0.261
       372  -9.2892     75.0210     17.9903   8.6016128952e+01   6.0950104072e+01    0.2845033    0.1635761 -15.04   0.00153461    1.882    0.469
       373  -8.9353     58.2696     18.1613   9.1644548108e+01   6.3688695403e+01    0.2327209    0.1586026  12.03 0.0006851044    1.345    0.256
       374  -8.1320     75.8667    246.5928   1.3640567862e+02   1.3363934040e+01    0.1834566    0.1531181 -74.41 0.0005985288    1.331    0.249
       375  -9.5515    243.2633    245.0837   1.0372251416e+02  -1.3255918009e+01    0.2410296    0.1728708 -15.36 0.0003734094    1.289    0.224
       376  -7.6551    171.2231    246.5652   1.1767267482e+02  -2.1930788304e+00    0.1688018    0.1096971  31.19  0.000326697    1.427    0.299
       377  -8.0338    147.6894    245.0721   1.2214435363e+02   2.0645468549e+00    0.2357293    0.1218585 -60.15  0.001097018    2.518    0.603
       378  -9.6699     94.7965    244.7556   1.3259395726e+02   1.0861498187e+01    0.2339903    0.2015155  67.78 0.0003531131    1.081    0.075
       379  -8.2674     90.6984    245.3024   1.3344713209e+02   1.1390471713e+01    0.1942045     0.143649  52.93 0.0009277979    1.149    0.129
