#   1 NUMBER                 Running object number                                     
#   2 MAG_AUTO               Kron-like elliptical aperture magnitude                    [mag]
#   3 X_IMAGE                Object position along x                                    [pixel]
#   4 Y_IMAGE                Object position along y                                    [pixel]
#   5 X_WORLD                Barycenter position along world x axis                     [deg]
#   6 Y_WORLD                Barycenter position along world y axis                     [deg]
#   7 A_WORLD                Profile RMS along major axis (world units)                 [deg]
#   8 B_WORLD                Profile RMS along minor axis (world units)                 [deg]
#   9 THETA_WORLD            Position angle (CCW/world-x)                               [deg]
#  10 FWHM_WORLD             FWHM assuming a gaussian core                              [deg]
#  11 ELONGATION             A_IMAGE/B_IMAGE                                           
#  12 ELLIPTICITY            1 - B_IMAGE/A_IMAGE                                       
         1 -13.8265     12.9459     48.4808   6.8099598141e+01   6.5813600307e+01    0.7960949    0.3708629 -44.84  0.001126552    1.723    0.420
         2 -12.1367      4.1651     50.6653   7.2814067418e+01   6.5961340254e+01    0.7478248    0.4393544 -57.17  0.004562336    1.500    0.333
         3 -11.9104     75.2145     35.4276   3.7127671122e+01   5.9812084159e+01    0.4533167    0.4216237 -50.87  0.001641788    1.358    0.264
         4 -12.3631     56.3355     37.5511   4.4944884920e+01   6.2729920462e+01    0.9517143    0.4035769 -31.70  0.004208398    2.566    0.610
         5 -10.6771    140.4705     35.4228   2.0128696253e+01   4.5509195725e+01    0.3559658    0.2170558 -13.37  0.001630181    2.396    0.583
         6 -11.5193      7.5124     28.6088   6.4262325593e+01   6.9770312725e+01    0.8049256     0.327898 -62.73  0.003191538    4.807    0.792
         7 -12.5503      3.9792     13.8872   6.0410350344e+01   7.2379801981e+01     0.445466     0.365952  -7.11  0.001894774    1.189    0.159
         8 -11.3095     14.4110     17.5700   5.6178816192e+01   7.0946265689e+01    0.5185952    0.2505569  18.29   0.00296447    2.053    0.513
         9 -11.1339     10.5933     11.2387   5.5467102957e+01   7.2212476568e+01    0.3785962    0.3646501  52.69  0.002994685    1.847    0.458
        10 -11.1440    137.2404     15.1634   1.4567808500e+01   4.8565200523e+01    0.3274664    0.2213663 -89.17 0.0004295432    1.619    0.382
        11 -11.1386    130.3629     15.5096   1.5879780471e+01   5.0165738419e+01    0.2719588    0.2256445  19.01  0.001666082    1.437    0.304
        12 -12.2362     65.2493     11.8487   3.0946489071e+01   6.4488160069e+01    0.2341007    0.1901671  18.83  0.000358929    1.077    0.072
        13 -10.3561     60.0266     12.5826   3.3117665737e+01   6.5345212606e+01     0.855929    0.2258496 -27.62  0.003200593    4.382    0.772
        14 -10.9669     53.7621     14.1759   3.6191936523e+01   6.6236356793e+01    0.3660766     0.322932 -13.90  0.002604742    1.263    0.209
        15 -10.8928     55.5983     19.7267   3.7910235594e+01   6.5283173814e+01    0.3336319    0.2488575 -54.34  0.001358651    2.146    0.534
        16 -11.9779     28.8577     19.7267   4.9688090959e+01   6.9097460981e+01    0.2853934    0.1852164   5.99 0.0003686136    1.470    0.319
        17 -10.8054     32.7347     15.2665   4.5809371206e+01   6.9215249852e+01     0.326585    0.2559681  35.40  0.001848228    1.487    0.328
        18 -12.1271    248.8767     20.1492   3.2860813434e+00   2.2470038999e+01    0.4295426    0.1830388 -50.00 0.0004494344    1.884    0.469
        19 -10.7722    169.5143     17.5481   1.0454342648e+01   4.0548858579e+01     0.526486    0.1423068 -33.74  0.001993171    3.608    0.723
        20 -11.7759    165.0360     12.1700   9.6174919129e+00   4.2185724135e+01    0.4585604    0.2578459  86.13  0.002302102    1.763    0.433
        21 -11.7199    154.6847      8.6853   1.0039015214e+01   4.5010576551e+01    0.6078051    0.3371585 -52.88  0.002160942    1.993    0.498
        22 -11.0185    160.0987      8.9640   9.3973684787e+00   4.3685927192e+01    0.2645289    0.2008026  81.86 0.0003762204    1.121    0.108
        23 -11.8553     75.4363     11.2024   2.7356326801e+01   6.2627619996e+01    0.6372404    0.4060373  21.42  0.003424365    1.651    0.394
        24 -12.4939    240.2997     14.6672   2.8683282606e+00   2.4865181308e+01    0.4464556    0.2399911 -47.55 0.0008003143    1.595    0.373
        25 -12.1218    248.6387      8.2854   1.0866754214e+00   2.3912664101e+01     0.540503    0.3643447 -55.59  0.003687009    1.232    0.188
        26 -12.3933    241.1707      4.0341   7.8150501274e-01   2.5893240185e+01    0.7265928    0.3239387  74.19  0.002984187    2.016    0.504
        27 -11.6083    232.5251     13.2512   3.1740823046e+00   2.6649033556e+01    0.3631264    0.1350048 -46.57  0.001003698    2.227    0.551
        28 -11.4843    235.1186      9.8841   2.3188116779e+00   2.6489482312e+01    0.2823059     0.188169 -89.79 0.0009117345    1.257    0.205
        29 -11.0584    145.7061     12.2223   1.2333248293e+01   4.6826562641e+01    0.3053042    0.1891002 -34.23  0.001665175    1.818    0.450
        30 -10.8446    145.2409      8.0255   1.1185379155e+01   4.7333725175e+01    0.3070649    0.1957811  71.04 0.0003051644    1.324    0.245
        31  -9.8913    124.7654     13.7913   1.6366443244e+01   5.1650834132e+01    0.3312487    0.2011537 -87.24  0.001592735    2.200    0.545
        32 -11.0100    227.1502     11.9845   3.3367216076e+00   2.7935914348e+01    0.3213499    0.1657906 -34.27  0.001750599    2.112    0.527
        33 -11.0238    228.1896      6.4082   2.1401134343e+00   2.8335829570e+01    0.2343148    0.1676275 -27.12  0.001486412    1.879    0.468
        34 -10.5890    177.0865     11.6449   8.0195409000e+00   3.9359813909e+01    0.3310565    0.1999597 -88.74 0.0008308815    1.579    0.367
        35 -10.7292    139.0595     10.3882   1.2827414404e+01   4.8590952336e+01    0.2497734    0.1917509  89.88 0.0007171083    1.287    0.223
        36 -10.0102    119.9164      9.9616   1.6035187253e+01   5.3137371639e+01    0.2470449    0.1753358  -4.42 0.0007658788    1.797    0.444
        37 -10.1192     28.1340     10.9256   4.6018338584e+01   7.0353889642e+01    0.2450585    0.1992345  39.36  0.001739027    1.646    0.393
        38 -10.1663    100.8258     10.1199   2.0121026806e+01   5.7439932543e+01    0.3144663    0.1597266  56.52 0.0007541151    1.632    0.387
        39 -10.0676    101.1744      5.7463   1.8445889375e+01   5.7745401782e+01     0.354212    0.2050941 -59.60  0.001644631    2.776    0.640
        40 -10.3309     97.5442      3.4842   1.8432710748e+01   5.8727088544e+01    0.2458801    0.1621771   1.73  0.001030113    1.866    0.464
        41 -10.3997     36.3566      6.5155   3.9978652246e+01   6.9773874273e+01    0.2826872     0.169092  -0.30  0.001675666    1.796    0.443
        42  -9.2894     19.7686      8.3396   4.9071262909e+01   7.1671166308e+01    0.1497799     0.100445  -6.52 0.0003172615    1.284    0.221
        43 -10.7384     16.5278      7.6839   5.0499224054e+01   7.2108335903e+01    0.5437781    0.2004297 -29.11   0.00263207    2.868    0.651
        44 -10.8992     28.3188      3.7869   4.2439262809e+01   7.1180201480e+01     0.269497    0.2414235  82.54  0.001862063    2.386    0.581
        45 -10.5624     22.4373      1.5260   4.4265764865e+01   7.2182575376e+01    0.3694255    0.1725852  17.77   0.00193362    2.454    0.593
        46  -9.4485    113.9673      8.5339   1.6720562226e+01   5.4633583231e+01    0.1904157    0.1095567  64.53 0.0004468916    1.510    0.338
        47  -9.7039     90.3588      7.9324   2.1854043995e+01   5.9892413236e+01     0.240481    0.1369809  37.62  0.001229297    1.632    0.387
        48 -11.4147     82.2283      6.9979   2.3651887277e+01   6.1662948087e+01    0.2083728    0.1564118  44.32 0.0002600717    1.104    0.094
        49 -10.2140    223.0386      5.3466   2.3101295754e+00   2.9553663755e+01     0.188479    0.1449703 -56.09  0.001282383    1.236    0.191
        50 -11.5829    179.4047      3.7775   5.8238810108e+00   3.9594182300e+01    0.3137664    0.2131104  68.81 0.0002412022    1.286    0.222
        51  -9.0072     64.7018      4.2859   2.7825535044e+01   6.5317346643e+01    0.1854418    0.1068076  52.21  0.001054407    1.605    0.377
        52 -11.1829    164.5277      4.7581   7.7289403251e+00   4.3024696643e+01    0.2367254    0.1817248 -86.13 0.0003433747    1.161    0.138
        53  -9.8942     58.9709      5.4281   3.0305983638e+01   6.6250826764e+01    0.1725183   0.09904771  45.91 0.0003925258    1.516    0.340
        54  -9.9564    133.6110      3.7775   1.1689564759e+01   5.0470771917e+01    0.3284157    0.1541225  85.88  0.001370086    2.785    0.641
        55 -10.3951    126.8187      2.7871   1.2480882625e+01   5.2148046423e+01    0.3212384    0.1930422  52.36  0.001789091    1.440    0.306
        56 -10.5515    230.1721      1.5117   1.0347045885e+00   2.8444457735e+01    0.1910728    0.1155972  77.14  0.000667992    1.466    0.318
        57  -9.3721     91.1426      2.1687   1.9437019743e+01   6.0210621638e+01    0.1836066    0.1346615  37.10 0.0004334658    1.220    0.180
        58  -9.8281     14.2622      2.0158   4.8934194116e+01   7.3063579718e+01    0.1464416     0.107194 -12.98            0    1.128    0.114
        59 -10.1584     68.5211      5.3615   2.7052720393e+01   6.4505371195e+01    0.2216669    0.1606293  32.61 0.0008005698    1.156    0.135
        60  -9.4633    110.1063      5.1149   1.6322175186e+01   5.5804052112e+01    0.1996945    0.1429502  42.05   0.00120013    1.296    0.228
        61 -10.5221     73.6029      1.4467   2.3817488222e+01   6.3862135429e+01    0.2284307   0.09969806  54.54 0.0007110194    1.947    0.486
        62  -9.9346    226.0212    188.2929   4.0699836184e+01  -5.2149114474e-01    0.1828684    0.1616957   2.82 0.0004822285    1.074    0.069
        63 -11.9938    248.2276    248.8619   4.7384291598e+01  -1.2643291875e+01    0.6041449    0.3539491   4.26  0.003668784    1.721    0.419
        64 -12.0749    225.9400    246.6314   5.0958087361e+01  -9.5471955654e+00    0.5985408    0.3325698 -23.95  0.003400783    1.859    0.462
        65  -9.2837    168.5354    250.5151   6.2603477723e+01  -1.8406427292e+00    0.1271789    0.1058943  25.86 7.418783e-05    1.012    0.012
        66  -9.6436    109.9994    250.2725   7.4608350307e+01   7.3272700361e+00    0.1849641    0.1422404  45.08 0.0005405479    1.075    0.070
        67 -10.2662     91.5877    249.7215   7.8347879717e+01   1.0209219967e+01    0.2063058     0.150745  89.09  0.001243424    1.501    0.334
        68 -11.7254     22.2908    248.7588   9.1901612223e+01   1.9477320948e+01    0.4041856    0.1887704  50.84  0.001401313    1.649    0.394
        69  -9.7657     13.3055    249.6629   9.3591555791e+01   2.0278769069e+01    0.1862705     0.113308  61.79 0.0006203519    1.232    0.188
        70 -10.4104      6.8301    249.2162   9.4729505021e+01   2.1041945970e+01    0.2246972    0.1569064 -86.57 0.0007568105    1.323    0.244
        71 -10.1712     10.3248    248.3019   9.4060353876e+01   2.0859226076e+01    0.1759856    0.1381087  50.88 0.0008784211    1.298    0.230
        72  -9.8067    211.8174    187.1876   4.3135670036e+01   2.0200144263e+00    0.1920729    0.1495237  -4.84 0.0005190065    1.367    0.268
        73  -9.5322      2.3228    187.2922   9.2136296637e+01   3.4718716071e+01    0.1128162    0.0827689 -53.63 0.0003623487    1.612    0.380
        74  -9.8763     61.9032    184.6808   7.7647513012e+01   2.8814035955e+01    0.2358884    0.1776494 -62.49  0.001009652    1.327    0.246
        75 -11.3686    249.6141    179.6872   3.4994988322e+01  -2.7435658188e+00    0.3614715    0.1339571 -44.67  0.001510729    2.640    0.621
        76 -11.0741     22.9948    180.2099   8.6776181272e+01   3.4497601607e+01    0.3966944    0.1607481  59.13  0.001535199    2.735    0.634
        77 -10.1734      1.4850    180.4906   9.1855612908e+01   3.6361667838e+01    0.1945025   0.09806152 -78.38 0.0001665729    1.622    0.384
        78 -10.4724      4.3591    179.3215   9.1110479453e+01   3.6400247833e+01    0.2237096    0.1342068 -42.12  0.001209073    2.282    0.562
        79  -9.6629     96.0008    178.4834   6.8028242910e+01   2.5113613309e+01    0.1874209    0.1336814   2.62 0.0004025669    2.253    0.556
        80 -10.8612     10.0288    177.7194   8.9660027284e+01   3.6297372994e+01    0.1717649    0.1454713  77.35 0.0005678255    1.094    0.086
        81  -9.5714    172.2924    175.3394   4.8926671585e+01   1.1544238535e+01    0.1504315    0.1152375  -7.49 0.0007026756    1.649    0.394
        82  -9.9029     54.0932    175.1622   7.8416905551e+01   3.2187606919e+01    0.2043967    0.1785504 -58.21 0.0007346786    1.238    0.192
        83 -12.1114      7.9212    172.8505   8.9767578645e+01   3.7631066184e+01    0.3417302    0.2448397 -80.64  0.001583917    1.154    0.134
        84 -10.9947     17.8973    173.1167   8.7364065624e+01   3.6690502707e+01     0.203476    0.1464085  73.47 0.0008166467    1.252    0.201
        85 -11.1689      1.4599    165.6762   9.0754829197e+01   3.9845705339e+01    0.4689848    0.1095543 -79.84  0.001566869    4.128    0.758
        86  -9.0305     93.3184    166.7535   6.6743496345e+01   2.8433539870e+01     0.150317    0.1080361  65.73 0.0002173732    1.523    0.343
        87 -10.2122     67.6965    165.8606   7.3502572111e+01   3.2654078986e+01    0.2699248     0.185297 -88.22 0.0007950293    1.561    0.359
        88 -10.5132      8.1020    163.3865   8.8920000130e+01   3.9877403428e+01    0.2763781    0.1795933 -22.77  0.001490577    2.383    0.580
        89  -9.0787     15.6467    163.7159   8.7040817042e+01   3.9165693760e+01    0.1243096   0.08788556 -45.00 0.0004442399    1.662    0.398
        90 -10.1276     51.3598    161.0541   7.7243845553e+01   3.6049001949e+01    0.2062108    0.1988002  -7.80 0.0003840598    1.262    0.208
        91 -10.7995    247.4766    157.9935   3.1138449301e+01   1.1965659330e+00    0.1853588    0.1753032   0.40 0.0005182613    1.150    0.131
        92  -9.2777     19.6479    157.7449   8.5394562664e+01   4.0267550962e+01    0.1227793   0.09074385 -41.80 0.0006960706    1.602    0.376
        93 -10.0507    185.9952    166.0023   4.4063905971e+01   1.0798764209e+01    0.1793552    0.1737964  -8.13  0.001012789    1.007    0.007
        94 -10.4087    215.9484    154.3365   3.5741969082e+01   7.3433357983e+00     0.286332    0.2752128  13.87  0.001404577    1.097    0.088
        95 -10.2307    158.8089    153.6843   4.7451213260e+01   1.8908955677e+01    0.3654486    0.2421865  35.29  0.001093543    1.604    0.377
        96 -10.2905     10.9104    152.7897   8.7199147890e+01   4.2214531152e+01    0.3676467    0.1569459  48.22  0.001707994    2.459    0.593
        97  -9.9858     40.7807    151.8955   7.8900486351e+01   3.9598409740e+01    0.2024665    0.1668671 -58.41 0.0004681346    1.192    0.161
        98 -10.2760    144.3816    149.6717   5.0027574199e+01   2.2808652076e+01    0.5153467    0.2697517 -67.53  0.001496808    3.324    0.699
        99  -9.8676     82.1208    150.1873   6.6842004121e+01   3.4405990065e+01    0.2918497    0.1855808   7.69  0.001141849    2.688    0.628
       100 -11.8641     13.8947    147.7680   8.5871784768e+01   4.3199922354e+01    0.2933576    0.1949089 -85.01 0.0002658898    1.319    0.242
       101 -10.6972     25.1452    147.7074   8.2746610659e+01   4.2240157129e+01    0.4176182    0.1337285  41.27  0.001648146    3.117    0.679
       102 -11.0234     40.4761    145.9895   7.8150935591e+01   4.1113072305e+01    0.3578973    0.1828729  36.32  0.001664203    2.035    0.509
       103 -10.7008    217.3624    145.0634   3.3531701421e+01   8.8170617165e+00    0.3547052    0.1879069  35.16  0.001371869    2.365    0.577
       104  -8.9159    181.6981    145.6769   4.0592115255e+01   1.5850067582e+01    0.1513721    0.1197336  -3.87 0.0007028645    1.633    0.388
       105 -10.6612      6.5009    145.2581   8.7628005137e+01   4.4374791255e+01     0.258403    0.1615267  30.48  0.001088313    1.828    0.453
       106 -11.0629     17.5154    143.5039   8.4385305492e+01   4.3948276227e+01    0.2931968     0.175137  67.90   0.00150857    1.840    0.457
       107 -10.7236     14.0018    140.0310   8.4974407949e+01   4.5082991088e+01    0.2600785    0.1594458 -45.86  0.001312058    1.720    0.419
       108 -10.1055    239.9192    140.0944   2.8726564803e+01   5.5727917710e+00     0.203501    0.1775269 -35.57 0.0005618986    1.031    0.030
       109 -10.2143    189.0502    139.7221   3.7739165202e+01   1.5537774013e+01    0.2576755    0.2064448 -45.66 0.0004484863    1.202    0.168
       110 -10.2131    235.7904    138.0178   2.8949628924e+01   6.6784949790e+00    0.2027193    0.1999401  64.58 0.0004235993    1.153    0.132
       111  -9.4124    144.1692    136.8313   4.7172038710e+01   2.5780664519e+01     0.213486     0.188273  -6.34 0.0003239412    1.344    0.256
       112 -13.3301     37.3365    134.9571   7.7426596237e+01   4.4210901557e+01    0.5126401    0.3598557 -67.11  0.002788944    1.253    0.202
       113 -11.5579     16.6919    131.1851   8.3104345424e+01   4.7035099047e+01    0.4198095    0.2579363  32.36  0.001873207    1.824    0.452
       114 -10.0800    241.2240    133.5865   2.7188359871e+01   6.4827993710e+00    0.1722819     0.127119  35.01 0.0009494409    1.640    0.390
       115 -12.3404     54.9316    132.4065   7.1619113685e+01   4.2805675752e+01    0.6652896    0.3397321  26.10  0.002080584    2.269    0.559
       116 -12.5622     81.4855    124.4838   6.1798913811e+01   4.0900469114e+01    0.8494189    0.5371258 -57.29  0.002641306    1.528    0.345
       117 -11.1644      4.7365    130.1723   8.6515857388e+01   4.8139791958e+01    0.2201943    0.1745733 -62.80 0.0003499457    1.125    0.111
       118 -11.4679      4.8498    125.4052   8.5931458045e+01   4.9278389869e+01    0.3933697    0.1360421 -67.94  0.001729897    2.210    0.548
       119  -9.7819    225.5405    129.4916   2.8806727954e+01   1.0133138842e+01    0.1398177     0.124657 -48.03 0.0001403257    1.023    0.023
       120  -9.9790    216.9996    129.2848   3.0193631230e+01   1.1846346747e+01    0.1887499    0.1855002 -63.02  0.000433346    1.079    0.073
       121 -11.1133     24.9203    127.6369   8.0115640996e+01   4.7219778448e+01    0.3629088    0.2462953 -50.85  0.002020993    1.380    0.275
       122 -10.6041     30.5926    123.6727   7.7733636774e+01   4.7676937790e+01    0.3346573    0.1572122 -46.67  0.001444929    2.089    0.521
       123  -9.7255     55.4919    127.4369   7.0522340331e+01   4.3973140618e+01    0.1413904    0.1291992 -56.30 0.0001701495    1.053    0.051
       124 -10.1360     20.5436    135.0263   8.2460907967e+01   4.5779158684e+01    0.2477566    0.1675979 -88.76 0.0008676661    1.431    0.301
       125 -10.1760    229.4936    124.9572   2.7200887776e+01   1.0193842352e+01    0.2191768     0.122874 -42.24  0.001030185    1.585    0.369
       126 -11.8913     47.1595    124.3108   7.2574608486e+01   4.5770396435e+01    0.2841055    0.2421066  36.33 0.0003001256    1.281    0.220
       127 -11.4044      2.0182    118.3199   8.5942241194e+01   5.1143337740e+01    0.3290405    0.2243674 -67.61  0.001019578    1.180    0.153
       128  -9.6584     14.3932    124.7717   8.2954960225e+01   4.8773187159e+01    0.1951633    0.1359317 -65.92  0.001127061    1.193    0.162
       129 -11.4180     10.6935    122.4636   8.3787963205e+01   4.9597507902e+01    0.4014465     0.250677 -67.92  0.002270903    1.313    0.238
       130 -10.5603      7.7082    118.9733   8.4257763630e+01   5.0636748453e+01    0.1886673    0.1865113  80.32  0.000639918    1.201    0.167
       131  -9.2067    219.3313    124.3002   2.8709721909e+01   1.2307483854e+01     0.137455    0.1110993   1.29 0.0005352808    1.648    0.393
       132 -10.0925    117.4707    123.9483   5.1102109609e+01   3.4362313142e+01    0.2413907    0.1525651 -48.82 0.0009766561    1.574    0.365
       133  -9.4784    225.9288    123.2032   2.7392193057e+01   1.1202527243e+01    0.1725059    0.1122254  54.40  0.000747525    1.715    0.417
       134 -10.8336     61.0850    121.6179   6.7596745412e+01   4.4671668667e+01    0.3151698    0.2187977 -44.55 0.0006127924    1.428    0.300
       135 -11.4634     68.6868    121.7231   6.5196061912e+01   4.3568051466e+01    0.4360299    0.2687479  19.57  0.001924348    2.053    0.513
       136  -9.8590     65.1469    119.8222   6.5918268468e+01   4.4545775026e+01     0.233537    0.2051663   8.84 0.0004544877    1.286    0.223
       137 -10.6915     56.9396    121.3687   6.8875839219e+01   4.5286496007e+01    0.2551883    0.1898705 -79.86 0.0003553222    1.451    0.311
       138  -9.7231     19.8379    122.1721   8.0898479516e+01   4.8983568642e+01    0.2059269    0.1661888 -63.34 0.0006486722    1.063    0.059
       139 -10.5753     23.3409    119.5648   7.9393800861e+01   4.9329165367e+01     0.409432    0.2299332 -58.15  0.001981852    1.495    0.331
       140  -9.4353     35.2309    121.5864   7.5908516345e+01   4.7737591729e+01    0.1669461    0.1307269  -2.24 0.0002997831    1.571    0.363
       141 -10.5968    249.3624    117.3095   2.2670517364e+01   7.8296460389e+00    0.2480806    0.1512219 -28.35  0.001238471    1.838    0.456
       142 -11.0089     20.3097    108.4485   7.8597679042e+01   5.2252622393e+01    0.3229124    0.2095978 -22.95  0.001171785    1.856    0.461
       143 -11.7058     15.8750    115.3494   8.1155106821e+01   5.0939187359e+01    0.2653161    0.2569862  79.32 0.0004270223    1.168    0.144
       144 -12.5406     14.2399    110.0175   8.0882048296e+01   5.2332511869e+01    0.4175915    0.3252984 -83.64 0.0003234301    1.251    0.201
       145 -12.0566     73.9571    128.7070   6.5026946776e+01   4.1055398183e+01    0.4477561    0.3745065  23.58  0.001009875    1.328    0.247
       146 -10.9204    182.2075    114.6884   3.3294979127e+01   2.2084044159e+01    0.4521306    0.2708625  45.32  0.001378311    1.766    0.434
       147 -10.5110     70.4922    115.1322   6.3162366059e+01   4.4901738776e+01    0.3294222    0.2066145  29.80  0.001520693    1.733    0.423
       148 -10.4898     75.6131    112.2149   6.0830746240e+01   4.4809240621e+01     0.264493    0.2103966  24.71 0.0007365322    1.369    0.270
       149 -10.0599     29.8855    112.9566   7.6159583069e+01   5.0353821482e+01    0.2573113    0.1876476   2.81  0.001402005    1.682    0.406
       150 -11.3929     31.8375    107.7822   7.4557333661e+01   5.1414585057e+01    0.4159295    0.3296863 -82.88   0.00146743    1.320    0.242
       151 -10.3240     38.9916    111.6752   7.2870808864e+01   4.9765935369e+01     0.234513    0.1707719 -61.61 0.0006037115    1.223    0.182
       152 -10.0995    225.1809    110.8963   2.4838749214e+01   1.3568257346e+01    0.2057208    0.1674345 -61.95 0.0002953115    1.187    0.157
       153  -9.1122    101.4998    111.3587   5.2557627835e+01   4.0454924703e+01    0.1490177    0.1443202  49.46 -0.001041157    1.043    0.041
       154 -11.3797     55.2226    109.6721   6.6981549480e+01   4.8350564083e+01    0.2901361    0.2254095 -48.46 0.0006217667    1.192    0.161
       155  -9.8679      3.3388    107.6956   8.4143664104e+01   5.3577111036e+01    0.2269418    0.1675398  64.68 0.0007395226    1.559    0.359
       156 -10.3258      3.5102    105.0000   8.3709513789e+01   5.4198513461e+01    0.2815227    0.1696164  24.87  0.001391161    1.953    0.488
       157 -10.5687     62.9122    106.8406   6.3748728074e+01   4.7987033374e+01     0.241178    0.1896246 -51.26 0.0003340127    1.184    0.155
       158 -11.3715     61.8739     99.6278   6.2368850059e+01   4.9818447543e+01     0.570752    0.2416842 -45.82  0.002258889    2.254    0.556
       159 -10.1306     81.6709    105.2628   5.7164217579e+01   4.5449899985e+01    0.4425552    0.2621009 -82.34  0.001495574    3.621    0.724
       160 -10.0627     59.0144    105.7394   6.4810850101e+01   4.8785363212e+01     0.187225    0.1851513 -25.63 0.0003590171    1.069    0.064
       161 -11.5495     51.0232    103.6798   6.7083228594e+01   5.0304115835e+01    0.2572731    0.2434411 -56.60 0.0004396307    1.051    0.049
       162 -10.1336     74.9776    104.0442   5.9042269881e+01   4.6830045211e+01    0.2140685    0.2033017 -44.63 0.0003086088    1.008    0.008
       163 -10.0996     75.5387    100.5246   5.7959587722e+01   4.7549837118e+01    0.2605337    0.2025293  77.22 0.0008656264    1.712    0.416
       164  -9.9717     76.6718     97.6923   5.6841881206e+01   4.8008540119e+01    0.2350942    0.1400116 -45.98  0.000328114    1.615    0.381
       165 -11.0937     69.6155    101.0799   6.0086848766e+01   4.8350227415e+01    0.3746978    0.2593922  36.14 0.0005862282    1.507    0.337
       166  -9.8742     67.0057     97.9700   6.0185876024e+01   4.9455970488e+01    0.2023123    0.1911476  77.85            0    1.181    0.154
       167  -9.8452     38.3626    103.8013   7.1515859507e+01   5.1713913432e+01    0.2075529    0.1021104 -51.64  0.000947081    1.756    0.431
       168 -11.9418     22.2695     99.8361   7.6399612758e+01   5.4130476941e+01     0.524303    0.3374817  15.77   0.00291139    1.813    0.449
       169 -11.6699     16.1623     96.5287   7.7967083751e+01   5.5364127652e+01    0.3818336     0.258256 -25.61  0.002199325    1.618    0.382
       170 -10.3921     40.8022     99.5232   6.9747988114e+01   5.2461283010e+01    0.2973942    0.1616205 -57.02 0.0009364167    1.620    0.383
       171  -9.6316    108.8165    100.6040   4.7551003812e+01   4.1417132647e+01    0.2103895    0.1415587  54.94 0.0003438691    1.620    0.383
       172 -11.7679     57.4708     90.5180   6.1610007263e+01   5.2494659989e+01    0.4020033    0.3071225 -12.12 0.0006523204    1.493    0.330
       173 -10.4993     52.1084     93.6369   6.4329406865e+01   5.2494845788e+01    0.2652333    0.2170433 -56.46 0.0003160537    1.171    0.146
       174  -9.9769     52.3339     97.2804   6.5136062891e+01   5.1632581769e+01    0.2001696     0.121824 -41.90 0.0002152799    1.582    0.368
       175  -9.6503    101.6269     95.2737   4.8217420675e+01   4.4016975402e+01    0.1528718    0.1184174  75.85 0.0007002141    1.685    0.406
       176 -10.0235     79.9478     93.7632   5.4692542106e+01   4.8338865537e+01     0.213089    0.1897927 -11.18 0.0003576324    1.176    0.149
       177  -9.5324     26.9149     93.8520   7.3554127033e+01   5.5130182190e+01    0.1600178    0.1442378  74.50   0.00101687    1.295    0.228
       178 -10.0951    226.1488     93.1491   2.0806666466e+01   1.6473843622e+01    0.2317117    0.1861811 -83.30 0.0004145288    1.288    0.224
       179 -10.2844     36.1625     91.0668   6.9541420796e+01   5.4896224223e+01    0.2879431    0.2176849  82.93  0.001573813    1.757    0.431
       180 -11.1839     11.7990     91.1153   7.8566382680e+01   5.6905312275e+01    0.3833908    0.1994844  19.59   0.00192129    2.212    0.548
       181  -9.7387     31.8566     92.7045   7.1496846025e+01   5.4944668774e+01    0.1676521    0.1617691 -19.21 0.0005277524    1.125    0.111
       182  -9.6881    105.4715     91.0348   4.5864385877e+01   4.4143159122e+01    0.2252371    0.1473196 -45.75 0.0005461606    1.541    0.351
       183 -10.7588     23.0179     89.0288   7.3995625479e+01   5.6559625081e+01    0.3783005    0.2997018  85.59   0.00227792    1.535    0.348
       184  -8.9318    177.3377     89.2707   2.7953086960e+01   2.8092822868e+01     0.144763     0.117785  24.97 0.0002567787    1.601    0.375
       185 -10.0198    112.3000     89.6822   4.3482147975e+01   4.3004603315e+01    0.2427966    0.1528541  48.23 0.0002292958    1.581    0.368
       186 -10.9802    109.5128     86.1079   4.3250713965e+01   4.4318531213e+01     0.303639    0.2643714  56.73  0.001596149    1.181    0.153
       187 -10.4134     97.1975     89.1330   4.7832012611e+01   4.6189718810e+01    0.3911576    0.1838997  44.94  0.001527766    2.146    0.534
       188 -10.3132     73.9621     88.9971   5.5396764123e+01   5.0373432679e+01    0.2067428    0.1931453 -24.75  0.001189687    1.023    0.023
       189 -10.8321     46.8766     86.8236   6.4532482563e+01   5.4667723296e+01    0.3728958    0.1644628 -55.75 0.0005510847    2.096    0.523
       190 -11.0638     30.1651     85.8895   7.0606790520e+01   5.6645565208e+01    0.4267718    0.2044955  42.20  0.001949367    2.591    0.614
       191 -10.4297     30.1341     81.8261   6.9666925069e+01   5.7549940077e+01    0.2561989    0.2147398 -50.65  0.000808795    1.079    0.073
       192  -9.3655    184.5972     85.4006   2.5631050477e+01   2.7085354765e+01    0.1457492    0.1329877 -78.67  8.45777e-05    1.021    0.021
       193 -10.0111     65.0417     84.2429   5.7189609315e+01   5.2788620930e+01    0.3270563     0.194929 -68.67  0.001295943    2.469    0.595
       194  -9.1251     34.3168     84.6649   6.8736360879e+01   5.6520108267e+01    0.1266257     0.100223  73.74 0.0007048008    1.695    0.410
       195 -10.2689    116.5031     83.1898   4.0406269702e+01   4.3402979468e+01    0.3100046    0.1905144  33.11  0.001310965    1.879    0.468
       196  -9.4954     42.2425     83.4030   6.5401867918e+01   5.5959494541e+01    0.1730569    0.1217036  37.24 0.0009405683    1.587    0.370
       197 -10.8093     21.2862     81.9815   7.3141189722e+01   5.8276575938e+01    0.2167971     0.184549 -40.62 0.0007186129    1.037    0.036
       198 -10.1840     75.8096     81.9331   5.2735716910e+01   5.1571132005e+01    0.3021258    0.2032003  47.45  0.001279767    1.639    0.390
       199 -10.8203     54.2917     75.0792   5.8525375549e+01   5.6247649027e+01    0.2747529    0.1812993  13.17 0.0007386868    1.751    0.429
       200 -11.3513     48.6146     77.3376   6.1340683167e+01   5.6511617292e+01    0.4056631    0.2388428  19.73  0.001994064    1.913    0.477
       201  -9.7087     99.1916     81.5654   4.4989488726e+01   4.7344368635e+01    0.2061136    0.1376777  31.96 0.0007222164    1.603    0.376
       202  -9.8087      7.8298     80.5776   7.8077921383e+01   5.9514137640e+01    0.2115399    0.1283338 -51.25  0.000414333    1.322    0.243
       203 -12.8233     88.4136     77.2341   4.7086640422e+01   5.0289881787e+01    0.3651349     0.314413  23.46 0.0005685171    1.166    0.142
       204  -9.6095     40.7962     79.6067   6.4972098777e+01   5.6947290745e+01    0.1811363    0.1177221  37.72 0.0009552222    1.730    0.422
       205  -8.8459      3.0000     78.9904   7.9649057116e+01   6.0131533923e+01    0.2013463   0.05737995 -66.45 0.0007997403    2.924    0.658
       206 -10.7814    203.5053     77.8172   2.0648324509e+01   2.4017456798e+01    0.2421188    0.2170108 -83.56 0.0003510995    1.042    0.040
       207  -9.5626    112.5017     77.9991   3.9983022216e+01   4.5271966312e+01    0.2069508    0.1317332 -15.42 0.0008100474    2.493    0.599
       208 -14.2428     16.7952     67.5348   7.1572810994e+01   6.1727856429e+01    0.7034552    0.6100171 -85.36   0.00121888    1.441    0.306
       209 -11.0077      6.3890     68.1461   7.6076717721e+01   6.2281093140e+01    0.2247905    0.1854677 -66.33 0.0003343433    1.239    0.193
       210 -11.5595      3.1359     62.6331   7.6219463632e+01   6.3611461286e+01    0.5943564    0.3041088 -38.60  0.003361909    1.659    0.397
       211 -10.0389     83.7315    248.4476   7.9831657334e+01   1.1605170163e+01    0.2354546   0.09683102  42.27 0.0005085142    1.950    0.487
       212 -10.1540    182.7919    246.6362   5.9181115094e+01  -3.4017291075e+00    0.1879942    0.1006587  41.61  0.000703895    1.743    0.426
       213 -11.7162    167.7936     73.4803   2.5668503158e+01   3.3175232191e+01    0.3904249    0.2513939 -52.95  0.000360096    1.608    0.378
       214 -10.1084    167.5842     69.5296   2.4652963171e+01   3.3892431022e+01    0.2391827    0.1379524  58.64 0.0001350794    1.663    0.399
       215 -10.3076     99.8466     76.1702   4.3148900631e+01   4.8268880382e+01    0.2157609    0.2027085  87.63 0.0007096858    1.202    0.168
       216  -9.6920     74.1849     75.3536   5.1324467934e+01   5.3185740026e+01     0.343177    0.1971883  -6.96  0.001091213    3.988    0.749
       217  -9.7651     37.3226     76.1783   6.5424171539e+01   5.8059351424e+01    0.2475656     0.154434 -14.88  0.001241478    1.952    0.488
       218 -10.2350     61.6436     72.4222   5.4962682339e+01   5.5749957219e+01    0.3785304    0.1227009 -48.47  0.001373449    2.946    0.661
       219 -10.1032     50.8131     81.3587   6.1616079518e+01   5.5377305542e+01    0.2842098    0.1678759 -54.47 0.0008323833    1.628    0.386
       220 -11.6823     46.3155     60.6033   5.7235641182e+01   6.0174103389e+01    0.3915141    0.3318957  -0.58 0.0001723984    1.117    0.105
       221  -9.9887     44.5008     74.4508   6.2126097707e+01   5.7618792378e+01    0.2068354    0.1231854  32.45 0.0001311291    1.783    0.439
       222 -11.1974     44.9695     70.7338   6.0876819607e+01   5.8332356553e+01    0.2531152    0.1870956 -42.48 0.0002738155    1.226    0.184
       223 -11.7854     50.2954     68.2135   5.8021678204e+01   5.8173943585e+01    0.3008883    0.2333471 -27.37 0.0004859919    1.212    0.175
       224 -11.6074     50.0311     63.7421   5.6738006417e+01   5.9089117290e+01    0.4095843    0.2687821   8.52 0.0004073365    1.764    0.433
       225  -9.5718    206.9617     73.2845   1.9066721287e+01   2.3981820750e+01    0.1857387     0.166064 -83.60 0.0002763859    1.048    0.045
       226 -11.6292    110.0886     64.4177   3.6452049052e+01   4.8257682776e+01    0.4954122    0.4509162  15.57  0.002802043    1.139    0.122
       227 -11.0736    119.1982     60.9663   3.2894565010e+01   4.6815752221e+01    0.4768293    0.2565749  60.01  0.001614475    2.017    0.504
       228 -12.4966    115.7079     55.2246   3.1975817884e+01   4.8527681845e+01    0.3790938    0.3185828  60.85 0.0007471181    1.183    0.155
       229 -10.8890    107.1374     71.9244   3.9660140527e+01   4.7555493665e+01    0.3085352    0.2027984  52.42 0.0008093122    1.539    0.350
       230 -11.4719    102.9756     70.1310   4.0322378114e+01   4.8758158256e+01    0.5023394    0.2811399 -36.82  0.001175353    1.887    0.470
       231  -9.0893     68.2684     72.3121   5.2495082612e+01   5.4755585956e+01    0.1380255     0.101318 -14.86 0.0004733404    1.546    0.353
       232  -9.2142    159.9757     72.0000   2.6802773158e+01   3.5315957796e+01    0.2345018   0.08103796  56.38 0.0004427681    2.784    0.641
       233 -11.2035     92.2709     68.2793   4.3028457263e+01   5.1258799546e+01    0.4480367     0.341687  -5.60  0.001415528    1.589    0.371
       234 -10.7962      7.0963     40.9636   6.8622250304e+01   6.7622152556e+01    0.3060789    0.1786109 -19.89  0.001193851    1.633    0.388
       235  -9.4900    244.9172     69.0000   1.3307387797e+01   1.6547692906e+01    0.1872572     0.070608  63.80   0.00079201    2.871    0.652
       236  -9.3111    199.5259     68.4953   1.9027940492e+01   2.6461201994e+01    0.1418524    0.1251573 -76.53 6.483189e-05    1.006    0.006
       237 -10.5094    122.9520     67.4167   3.3925784380e+01   4.4873899178e+01    0.2735116    0.2185126 -37.80 0.0007249977    1.318    0.241
       238 -11.2997    147.1526     65.7006   2.7702588551e+01   3.9471187725e+01    0.2949545    0.2323304 -62.81  0.000725425    1.375    0.273
       239 -12.8661     30.2538     63.4155   6.4781211539e+01   6.1421927027e+01    0.4295112    0.3816752 -20.83  0.001081964    1.068    0.064
       240  -9.2161    138.2975     66.3269   2.9854705199e+01   4.1484369078e+01     0.146632    0.1149794  19.64 0.0006012013    1.632    0.387
       241  -9.5571     85.8739     65.8160   4.4305133097e+01   5.2936069704e+01    0.1766313    0.1655996  86.40 0.0002566246    1.289    0.224
       242 -11.1154     81.8411     64.9396   4.5367553332e+01   5.3842682550e+01    0.2856162    0.1961964  36.69 0.0005350751    1.423    0.297
       243 -10.5340    210.0058     63.1311   1.6280902799e+01   2.4905957215e+01    0.2175636    0.1796432 -55.75  0.000360773    1.126    0.112
       244  -9.4708    186.6653     64.3007   1.9982761148e+01   3.0153347702e+01     0.150011    0.1017058 -75.36 0.0004341933    1.657    0.396
       245  -9.4264    179.8483     64.1258   2.1053215451e+01   3.1812265326e+01    0.1780955    0.1668648  45.83 0.0003656989    1.237    0.191
       246 -10.7998    159.4851     63.0398   2.4433843733e+01   3.6918894520e+01    0.3850716    0.3204381   2.13  0.002002737    1.617    0.382
       247 -10.9821    155.2356     63.3481   2.5356730726e+01   3.7901372353e+01    0.3222511    0.2655861  -1.65  0.001406989    1.620    0.383
       248  -9.2414     62.6675     63.6570   5.1809513615e+01   5.7304105331e+01     0.143207   0.09842127 -10.04 0.0006571949    1.755    0.430
       249  -9.4523    193.5335     62.5325   1.8479910620e+01   2.8805114941e+01    0.1410765    0.1253231 -81.20 6.349237e-05    1.006    0.006
       250 -10.1582     90.2455     61.0282   4.1301558307e+01   5.2950126044e+01    0.2661959    0.1934115  34.55 0.0006343219    1.341    0.254
       251 -10.6104     93.0301     58.2023   3.9473697551e+01   5.2882226986e+01    0.3513027      0.25257 -58.01  0.001405566    1.790    0.441
       252 -11.2857     89.4661     52.9439   3.8804374130e+01   5.4457474294e+01    0.6470391    0.3428628 -22.97  0.002685357    2.580    0.612
       253  -9.7636    119.3490     64.8566   3.4073524936e+01   4.6130097407e+01    0.1948219    0.1377947 -25.64 0.0003858093    1.637    0.389
       254  -9.3803    202.6505     60.6857   1.6715279512e+01   2.6964434818e+01    0.1329444    0.1075863  32.10   0.00034801    1.725    0.420
       255  -9.5831    150.7422     60.4210   2.5436782092e+01   3.9459079864e+01    0.2135662     0.126405  49.10 0.0009543592    1.655    0.396
       256 -10.7987    136.5063     58.6760   2.7985637338e+01   4.3157632400e+01    0.3668737    0.2700603  77.84  0.001808889    1.533    0.347
       257  -9.9376      7.0410     73.5851   7.6978269198e+01   6.1084274380e+01      0.24897    0.1457939 -23.45  0.001313153    1.800    0.445
       258 -10.8019     79.8708     56.4241   4.3173640908e+01   5.5706794003e+01    0.4282289    0.2717644   3.95  0.001227859    2.411    0.585
       259 -10.4986     82.4846     48.8076   3.9621939448e+01   5.6468740897e+01    0.3786202    0.2480248 -37.81  0.001008967    1.596    0.374
       260  -9.2481     78.5294     47.4945   4.0484012667e+01   5.7415895326e+01    0.2277369    0.1235829  42.06  0.000643187    1.743    0.426
       261  -9.6266    176.8255     56.1635   1.9492288196e+01   3.3776566096e+01    0.1871244    0.1611509  47.80 0.0004815379    1.300    0.231
       262  -9.8018     97.9930     56.3069   3.7313660823e+01   5.2186812645e+01    0.2820874    0.1496398  30.38  0.001105575    2.395    0.582
       263 -11.6694    148.4788     52.6510   2.3656657056e+01   4.1201169126e+01    0.6196646    0.3708053  49.99  0.002509702    1.609    0.378
       264 -11.4485    104.9816     52.5067   3.4000480632e+01   5.1316976541e+01    0.2723647    0.2517712 -83.33 0.0003553428    1.259    0.206
       265 -11.9461     39.3610     49.8050   5.6567498615e+01   6.3032936811e+01    0.4792949    0.3113963 -25.87  0.001145925    1.485    0.327
       266 -10.1347     73.1458     50.2777   4.3362885138e+01   5.7940284895e+01    0.3760056    0.1629166 -31.87  0.001528733    2.662    0.624
       267 -11.1390     62.8019     49.2124   4.6793898754e+01   5.9853533354e+01     0.530533    0.1564738 -42.24  0.001430148    3.404    0.706
       268 -11.7483     62.0299     41.5225   4.4245490446e+01   6.1215743311e+01    0.5891603    0.4333731 -43.04  0.003441601    1.523    0.343
       269 -11.8224     84.2888     36.6220   3.4585643149e+01   5.7913122042e+01    0.6382355    0.4027668  11.84  0.003065392    2.149    0.535
       270 -10.8462     73.3332    244.3475   8.1571781412e+01   1.3898470127e+01    0.2528189    0.2279712   8.15  0.001171937    1.557    0.358
       271 -11.5786     65.1325     36.7332   4.1235295279e+01   6.1419018158e+01     0.296146    0.2604178  61.03 0.0002609521    1.513    0.339
       272 -10.8342    132.7518     49.9379   2.6170782228e+01   4.5381127826e+01    0.4061415    0.2623278  84.35  0.001794807    2.136    0.532
       273 -10.6198     50.9260     42.3645   4.8982368249e+01   6.2784295796e+01    0.3667186    0.1983831 -29.39  0.001845143    1.916    0.478
       274 -12.4906     55.5305     49.0564   4.9574014810e+01   6.0999950457e+01    0.4160195    0.2919907  23.98 0.0004939423    1.387    0.279
       275 -12.2401     74.9232    239.7237   8.0801074803e+01   1.4603035321e+01    0.5815519    0.4392507 -66.64  0.003092828    1.472    0.321
       276 -10.1217     44.9146     38.3496   4.9987299858e+01   6.4269467834e+01    0.2995951     0.198953 -43.42  0.001745026    1.601    0.375
       277 -11.5110     46.3141     47.9534   5.2952759297e+01   6.2483420138e+01    0.4737443    0.2487059 -33.79  0.001780966    1.872    0.466
       278 -10.8704     44.0782     43.6643   5.2347070798e+01   6.3510628098e+01    0.2796345    0.2231939  -8.80  0.000454001    1.122    0.109
       279  -9.8470    181.6841     49.6871   1.7056010609e+01   3.3558801366e+01    0.2012521     0.189681  79.79 0.0005038694    1.138    0.121
       280  -9.5680    180.2399     47.0171   1.6590658413e+01   3.4287359713e+01    0.1902562    0.1613116 -68.61 0.0002542387    1.119    0.106
       281 -11.0151    141.4999     48.4539   2.3839194179e+01   4.3503079124e+01    0.3962916    0.2323156 -60.70 0.0005060327    2.262    0.558
       282 -10.4265    163.2427     44.1679   1.8542724578e+01   3.8815027910e+01    0.2146088    0.1858552 -57.82 0.0004016109    1.180    0.153
       283 -10.5301    126.3449     51.3512   2.8086603848e+01   4.6680607353e+01    0.3246031    0.2699212 -66.43  0.001770687    1.373    0.272
       284  -9.9391    222.1437     46.0454   1.0968557340e+01   2.4711827587e+01    0.1760585    0.1620864 -82.18            0    1.199    0.166
       285 -11.1455    121.6379     42.7753   2.6463433280e+01   4.9006393372e+01    0.4287572    0.2923746 -47.25  0.001719444    1.653    0.395
       286 -10.4126    116.1311     40.2393   2.6956718022e+01   5.0617569204e+01     0.373871    0.2540525   1.67  0.001190283    2.110    0.526
       287 -10.0791    112.2183     45.2009   2.9595340014e+01   5.0814730585e+01    0.2140023    0.1996783 -25.53 0.0006565557    1.160    0.138
       288 -10.4408    108.6181     40.8320   2.9059553958e+01   5.2228206450e+01    0.3509188    0.2371234  78.60  0.001408623    2.062    0.515
       289  -9.8312    236.9752     44.5343   9.1117245543e+00   2.1742824428e+01    0.2101402    0.1407516 -66.57 0.0007928081    1.296    0.229
       290 -11.1534     72.4531     43.0679   4.0979322830e+01   5.9202531430e+01    0.3089342    0.2622308   2.84  0.001897485    1.116    0.104
       291  -9.6570    131.2919     42.1973   2.4090197531e+01   4.6820277313e+01    0.2664706    0.1329218 -23.61  0.001088689    2.662    0.624
       292 -11.2801     96.5346     41.8096   3.2742148996e+01   5.4701950914e+01    0.3425336     0.261569  19.61  0.001518284    1.414    0.293
       293 -11.6936    247.9260     36.3446   6.4712445232e+00   2.0605277980e+01    0.2768345    0.2264621  60.67 0.0003453832    1.557    0.358
       294  -9.9676    143.6146     42.2558   2.1565508654e+01   4.3856581973e+01    0.1670896    0.1375833 -16.08 0.0002230321    1.479    0.324
       295 -10.6207     89.3658     41.4689   3.4773760837e+01   5.6224108549e+01     0.272182    0.2238037  50.93 0.0005566077    1.225    0.183
       296 -10.7171     92.3772     35.3593   3.1641954047e+01   5.6449266394e+01    0.4267193    0.2489631 -13.99  0.001985912    2.306    0.566
       297 -10.0596     23.5925     41.3023   6.0752013063e+01   6.6237316154e+01    0.2867382    0.2486599 -44.59 0.0008986164    1.315    0.240
       298 -12.4679     27.6655     37.6450   5.7512945198e+01   6.6460590725e+01    0.2788231    0.2052076  11.95 0.0002855654    1.293    0.227
       299 -11.0667     24.3795     34.7804   5.8016432248e+01   6.7277779633e+01    0.3907657    0.2237991  -0.30  0.000407847    1.989    0.497
       300  -9.5938    187.1967     40.9998   1.4073193203e+01   3.3447871468e+01     0.182253    0.1600807 -79.52            0    1.046    0.044
       301 -10.4871    148.5004     39.2078   1.9739135445e+01   4.3077443706e+01    0.4418267    0.1975976 -37.90  0.001884762    2.343    0.573
       302 -11.0739    233.8284     39.4198   8.3635926975e+00   2.3102453388e+01    0.3724414     0.170738  83.41 0.0009905848    2.496    0.599
       303 -10.7727    225.7918     39.4048   9.1541388988e+00   2.4826994548e+01    0.2700272    0.1579244 -62.30  0.001446267    1.570    0.363
       304 -10.4732    222.0338     37.5083   9.1318574185e+00   2.5901977448e+01    0.2376582    0.1514216 -56.44  0.001028182    1.381    0.276
       305  -9.2583    169.6880     40.6550   1.6544186161e+01   3.7720213753e+01    0.1369091    0.1032703  34.56 0.0004950081    1.708    0.414
       306  -9.6197    102.5348     40.5647   3.0602786568e+01   5.3597662540e+01     0.135441    0.1229546  42.62 4.119889e-05    1.028    0.027
       307  -9.7204    201.9964     37.2508   1.1285817540e+01   3.0464217798e+01    0.1687463    0.1020274  72.13 0.0005150067    1.526    0.345
       308 -10.1758      4.8186    244.2194   9.4853912170e+01   2.2227618003e+01    0.1893164    0.1129973  75.67 0.0005558495    1.301    0.231
       309  -9.8376    194.0289     35.7643   1.1902052979e+01   3.2521278549e+01     0.196471    0.1218843 -61.24 0.0004754348    1.591    0.371
       310 -10.5495    129.2488     35.9231   2.2556358041e+01   4.8128726600e+01    0.2373615    0.1752996  52.77 0.0002781787    1.218    0.179
       311 -10.8668    110.7242     34.8617   2.6481564089e+01   5.2545597741e+01    0.3626345    0.1908457  47.68  0.001097936    1.696    0.411
       312  -9.6020    101.9554     34.2768   2.8552091923e+01   5.4558073499e+01    0.1899743    0.1581752  48.66 0.0005110576    1.089    0.081
       313  -9.7531     34.0744     33.7428   5.3029967800e+01   6.6382476216e+01    0.1634208    0.1345399  -5.20 0.0006141115    1.024    0.024
       314  -9.6347    116.9963     33.4110   2.4475205100e+01   5.1302758711e+01    0.2780046    0.1025205  50.40   0.00109495    2.336    0.572
       315 -10.2408     11.0038     24.4410   6.0837867702e+01   7.0185954671e+01    0.2829092    0.1290049 -27.42 0.0008070305    2.158    0.537
       316  -9.6581      1.3725     24.2729   6.5985648543e+01   7.0914030758e+01    0.2757164   0.09102294 -44.36  0.001409417    2.278    0.561
       317  -9.9254     45.4546    244.3171   8.7185717794e+01   1.7620688078e+01    0.2163795     0.104097  54.33 0.0005933768    1.710    0.415
       318 -10.9016     12.1549     29.0881   6.2010209717e+01   6.9333609431e+01    0.2166052    0.1487245 -10.56  0.000364195    1.288    0.224
       319  -9.4577    102.3143    243.3320   7.5424857845e+01   9.8207819085e+00    0.1204107    0.1011765  -3.93 0.0003748645    1.681    0.405
       320 -10.3103     88.9923    241.0196   7.7979416459e+01   1.2291168304e+01    0.1847019    0.1588875 -17.93  0.001128786    1.695    0.410
       321 -10.3581    195.8571    238.3521   5.5314546432e+01  -4.0787392924e+00    0.2313854    0.2037885 -14.24 0.0009423769    1.170    0.145
       322 -10.3708     98.5875     32.2023   2.8727813537e+01   5.5547120554e+01    0.3204083    0.2056119  55.37  0.001679223    1.464    0.317
       323 -10.0704    101.3936     28.6511   2.6697721530e+01   5.5374837299e+01    0.2590675    0.2318892 -79.22  0.001599144    1.362    0.266
       324 -10.2174     15.9788     32.0287   6.1144898337e+01   6.8522606853e+01    0.1792111    0.1343812 -20.16 0.0004555293    1.077    0.071
       325 -10.2642     19.2748     31.0061   5.9102467896e+01   6.8396269391e+01    0.2085177    0.1699893 -17.40 0.0008070132    1.057    0.054
       326  -9.5573      3.2187     29.0398   6.6688341911e+01   6.9990860796e+01    0.1660836   0.07451718 -41.95 0.0004757456    1.743    0.426
       327  -9.9559    163.1270     29.0026   1.4409793062e+01   4.0793720631e+01    0.3081419    0.1597894 -20.59  0.001342255    2.754    0.637
       328  -9.3901    146.9748     30.1025   1.7350392854e+01   4.4588855569e+01    0.1568524    0.1477577 -86.98 0.0009722268    1.099    0.090
       329 -10.4085     80.8367     28.5201   3.2604470072e+01   5.9649300533e+01    0.4069792    0.3144912 -78.48   0.00220963    2.174    0.540
       330  -9.3917     49.4679     29.4970   4.4524703935e+01   6.4956718436e+01    0.1208727    0.1055064   5.81  0.000808028    1.096    0.087
       331 -12.3045    231.6676     26.5436   5.9187452978e+00   2.5233782854e+01    0.3530488    0.2239116 -89.66 0.0009259833    1.419    0.295
       332 -11.1213    197.9960     28.0470   9.5993790129e+00   3.2568908447e+01    0.3188093    0.1691335  82.57  0.001544813    1.861    0.463
       333  -9.6118    122.7826     26.0369   2.0748159015e+01   5.0836033258e+01    0.1723467    0.1657673  12.29 0.0004819067    1.163    0.140
       334  -9.6196     69.7026     37.0035   3.9667314223e+01   6.0587763879e+01    0.1737599    0.1294046 -26.77 0.0002370899    1.366    0.268
       335 -10.5680     60.8853     26.7104   3.8821749199e+01   6.3521682942e+01    0.3115425    0.2104192  36.70  0.001508185    1.345    0.256
       336 -11.9230    215.7479     25.8535   7.2408715995e+00   2.8788968446e+01    0.4784892    0.2416538  69.91  0.001655868    1.814    0.449
       337 -10.7215    119.5515     27.4806   2.1920890647e+01   5.1423012093e+01    0.2471792    0.1772119  58.59 0.0005695075    1.230    0.187
       338 -10.9228    176.5564     26.1596   1.1759818845e+01   3.7881306814e+01    0.3250491    0.2212456 -60.16  0.001028432    1.473    0.321
       339  -9.8979    241.5158     35.1290   6.7863571191e+00   2.2069603541e+01    0.2362399   0.09520486 -43.35  0.001142794    2.095    0.523
       340 -10.3660    112.4352     26.2803   2.3129424628e+01   5.3193178693e+01    0.3283658    0.2230136   3.73  0.001645453    1.984    0.496
       341  -9.2972     16.3968     26.3037   5.8742006341e+01   6.9422099952e+01     0.144454   0.09978924 -46.68 0.0009398685    1.547    0.354
       342 -10.0113      3.6159    238.3763   9.4793417894e+01   2.3515098041e+01    0.2097298    0.1094405 -81.71  0.001158074    1.682    0.405
       343 -11.2041    133.7665     18.7442   1.6274545886e+01   4.9030835218e+01    0.3277979    0.2196275  71.64 0.0009105211    1.366    0.268
       344 -11.0298     35.0799    237.8653   8.8767346305e+01   2.0202712407e+01    0.2794584     0.141576  57.29  0.001293347    1.640    0.390
       345  -9.9251    127.1660     19.6451   1.7791474158e+01   5.0501091997e+01    0.2381755    0.1710718 -50.71 0.0008469634    1.605    0.377
       346  -9.8461     90.0035     25.2678   2.8583967911e+01   5.8193769522e+01    0.2817553    0.1393809  56.15  0.001319852    1.950    0.487
       347  -9.9675    156.4758     21.5880   1.3368716644e+01   4.3259736962e+01    0.2359507    0.1764929  66.76 0.0006068453    1.161    0.139
       348 -10.2262    160.2405     23.9654   1.3463921794e+01   4.2081522089e+01    0.2780026    0.1895213 -52.21  0.001519657    1.543    0.352
       349 -10.0506    161.5931     20.2698   1.2256664752e+01   4.2165087253e+01    0.2075847    0.1803233  29.87 0.0004796138    1.442    0.306
       350  -9.8138     22.3087     24.5076   5.4992736851e+01   6.9127598604e+01    0.1538566   0.09572484   8.45 0.0007152492    1.556    0.358
       351 -10.8409     30.8156    234.0784   8.9349511264e+01   2.1487983256e+01     0.386056    0.1862661 -74.93  0.002087946    1.965    0.491
       352  -9.7463     40.9109    237.4894   8.7580791131e+01   1.9577550717e+01    0.1724443    0.1034263  41.74 0.0003699771    1.502    0.334
       353  -9.4452    191.1287    236.1403   5.5893735403e+01  -3.0104965589e+00    0.1969769    0.1527986   4.89 0.0009165384    1.262    0.208
       354 -11.0659    160.8196    234.3411   6.1806776957e+01   2.1041803296e+00    0.3882132    0.2848122 -37.26  0.002219566    1.541    0.351
       355 -11.9909     34.1920     22.6809   4.8419452318e+01   6.8026556642e+01     0.230828    0.1728111  -2.22 0.0002141627    1.148    0.129
       356 -10.1882     67.2676    236.2287   8.2068832542e+01   1.6395507604e+01    0.2722831    0.1679017  34.42  0.001247902    1.630    0.387
       357 -10.0010     24.4956     20.4283   5.2160707573e+01   6.9499134328e+01    0.1863342     0.101767 -40.38 0.0005003593    1.799    0.444
       358 -11.2557    182.8391    234.0972   5.7228930751e+01  -1.3886230303e+00    0.3017849    0.2548328  21.89  0.001063427    1.024    0.023
       359 -10.2667     59.6946    240.8407   8.4050444509e+01   1.6480275203e+01    0.1771423    0.1409849  49.34  0.001145723    1.166    0.143
       360 -10.9568    242.7037     21.9268   4.0914527346e+00   2.3502266827e+01    0.1734788    0.1274924 -64.21 0.0008281157    1.085    0.078
       361  -9.9896    224.5479     21.6882   5.5423532436e+00   2.7360621040e+01    0.1795838    0.1730249 -47.26 0.0006212172    1.422    0.297
       362 -10.2001    101.0471     22.0043   2.4392406128e+01   5.6207523148e+01    0.3797176    0.2347044  62.74  0.001988068    1.595    0.373
       363  -9.8470     82.4185     21.8416   2.9507683694e+01   6.0129637334e+01    0.2229622    0.1820493  -3.96 0.0009776285    1.280    0.218
       364 -10.2744     81.7924     18.1524   2.8241496977e+01   6.0660426350e+01     0.306016    0.1733136 -16.81  0.001582978    2.084    0.520
       365 -11.2910     69.3692     21.5876   3.3635154672e+01   6.2661774786e+01    0.2873382    0.2043906  47.37  0.001083734    1.364    0.267
       366 -10.5137    193.4756     20.7221   8.3818133899e+00   3.4498234292e+01    0.2372645    0.1817542  59.45 0.0005862731    1.388    0.280
       367  -9.1955    182.9433     21.0061   9.6590394575e+00   3.6951084316e+01    0.1560715    0.1292189  89.11 0.0003398549    1.007    0.007
       368  -9.0932    120.6589     21.2868   1.9632296773e+01   5.1851756404e+01    0.1307757   0.09747096 -81.81 0.0007019438    1.640    0.390
       369 -10.5669     54.5840    231.8710   8.4329454163e+01   1.9019340778e+01    0.2318368    0.1709563  86.85  0.001188037    1.254    0.202
       370 -10.9820     39.6245    229.3225   8.7222560637e+01   2.1448363067e+01    0.2789094    0.1493802  63.31  0.001145438    1.672    0.402
       371 -10.2991    248.6789    228.5069   4.3948351824e+01  -9.9987666684e+00    0.2103317   0.09482153 -36.07   0.00110108    2.063    0.515
       372  -9.2538     23.5001    232.5575   9.0693425841e+01   2.2632821264e+01    0.1183322   0.09342126  71.82 8.491643e-05    1.058    0.055
       373 -10.1142    109.0478     16.5652   2.0541900360e+01   5.4996873418e+01    0.2281285    0.1341457  54.47  0.001001374    1.429    0.300
       374 -10.0078     76.7224     15.9329   2.8900309496e+01   6.1897680688e+01    0.1999742    0.1472805  43.39 0.0002097362    1.176    0.150
       375 -10.4294    192.1810    226.2061   5.4060459110e+01  -1.5500387303e+00    0.2475157    0.1867092 -52.19  0.001422806    1.651    0.394
       376  -9.6822     54.0104     22.9807   3.9934177186e+01   6.5134933199e+01    0.1870686     0.152598  11.97 0.0004406346    1.031    0.030
       377 -10.4930      4.2184    225.6859   9.4039723465e+01   2.6069397294e+01    0.1884946    0.1858881  22.76  0.001481412    1.540    0.351
       378 -10.2213     79.7730    222.9465   7.8002812062e+01   1.7415258376e+01     0.245281    0.1699564   6.17  0.001164122    2.539    0.606
       379  -9.2862    123.6258    221.7318   6.8018032081e+01   1.0703245581e+01    0.2029166    0.1594348   1.50 0.0005919069    1.721    0.419
       380  -9.5340    126.3279    220.6631   6.7258874596e+01   1.0467448168e+01    0.2783585    0.1483023  65.67  0.001028854    3.240    0.691
       381 -10.2119     16.1871    222.1423   9.1483894615e+01   2.5625615725e+01    0.1674209    0.1389523  87.52 0.0004944159    1.181    0.154
       382 -10.4850    217.1101     16.1114   5.0247761060e+00   2.9647943423e+01      0.40955    0.1096305  61.13  0.001625625    3.391    0.705
       383  -9.1945    187.3601     16.3041   8.0032787197e+00   3.6431907751e+01    0.1276054   0.08859349  47.91 0.0007038628    1.726    0.421
       384 -11.7113     48.7250    218.7069   8.4409083537e+01   2.2624746109e+01    0.5186771    0.2483521  30.07  0.002442282    2.343    0.573
       385  -9.6408    211.9600    218.9860   4.8950455890e+01  -3.4394543808e+00    0.1794854    0.1631764  77.02 0.0006719813    1.655    0.396
       386 -11.7142      3.6094    205.3412   9.3012797832e+01   3.0523389783e+01    0.3719783    0.2684708  85.50  0.002495139    1.094    0.086
       387 -12.1440     11.5511    209.6301   9.1631260592e+01   2.8825269481e+01    0.3970728    0.2943208  83.76  0.001592143    1.078    0.072
       388 -11.8648      5.1994    211.0622   9.3027876122e+01   2.9115628368e+01    0.5172414      0.17523 -74.24  0.002435824    2.486    0.598
       389  -9.5829    135.9874    216.7548   6.4507798910e+01   9.6174294723e+00    0.1908281     0.108791  38.17 0.0008816056    1.584    0.369
       390 -11.0087     29.6605    214.9681   8.8197369950e+01   2.5738166502e+01    0.2730445    0.2348409   7.85  0.001597984    1.718    0.418
       391 -11.5808    128.9576     24.1451   1.8877583752e+01   4.9595267274e+01    0.2372376    0.2247225  21.35 0.0002801539    1.188    0.158
       392  -9.9255     23.9602    216.0113   8.9477592524e+01   2.6136280141e+01    0.1998503    0.1104707  65.44 0.0004100024    1.590    0.371
       393 -11.9052      8.2146    215.4168   9.2675605966e+01   2.7878831543e+01    0.3041749    0.2338427  64.16  0.002114255    1.119    0.106
       394  -9.1173    107.6759     10.3127   1.8649823088e+01   5.5900245708e+01    0.1234192   0.09434418 -77.96 0.0004120351    1.659    0.397
       395  -9.6142    110.3834    211.7896   6.9613573317e+01   1.5015146975e+01    0.1899348    0.1282393 -47.93 0.0009444014    1.692    0.409
       396 -10.2614     20.2951    212.1283   8.9969745066e+01   2.7386099914e+01    0.2457414    0.1100291  58.13  0.001223144    2.007    0.502
       397  -9.9659    217.0030    209.5032   4.6311406482e+01  -2.6669289064e+00    0.2054569    0.1582953 -30.93  0.000791295    1.252    0.201
       398 -10.5425     72.4959    208.5572   7.8008690280e+01   2.1678697086e+01    0.3133051    0.2126514  14.38  0.001517052    2.216    0.549
       399  -9.0918    132.3203    209.3024   6.4177453288e+01   1.1792270465e+01    0.1390372    0.1112729  -1.93 0.0005761175    1.628    0.386
       400  -9.9027    147.9500    206.0285   6.0084828240e+01   9.7094944826e+00    0.2282464    0.1743851  -4.90  0.001134397    1.722    0.419
       401 -11.0494     27.8716    205.4620   8.7834071858e+01   2.8075165248e+01    0.2254448    0.1556666 -85.14 0.0006928917    1.262    0.208
       402 -12.4894     20.4171    201.7084   8.9176750050e+01   2.9721501707e+01    0.7333638    0.2658306 -57.35  0.003193692    2.942    0.660
       403  -9.4586     67.7248    203.3625   7.8516507783e+01   2.3557456092e+01    0.1827565    0.1265782  29.24  0.000555407    1.630    0.386
       404 -10.4546    175.1455    202.0443   5.3395926824e+01   5.6505577256e+00     0.234217    0.1898413  32.45 0.0004154982    1.162    0.139
       405  -9.5356    185.3376    201.3330   5.1113014880e+01   3.9934452466e+00    0.1458202    0.1042814  -1.49 0.0007051947    1.742    0.426
       406  -8.9734    238.3164    200.7252   4.0836578963e+01  -4.4562788066e+00    0.1078734     0.101919 -80.67 0.0002831466    1.565    0.361
       407  -9.1259    120.3423    200.3129   6.5544143220e+01   1.5832693977e+01    0.1434079    0.1149333  -6.34 0.0007046774    1.703    0.413
       408 -10.2611     40.9819    197.9626   8.4202721615e+01   2.8312371409e+01    0.3603885     0.178279  86.45    0.0014493    2.273    0.560
       409 -10.0443    134.8679    196.4621   6.1474614819e+01   1.4087757643e+01      0.23735    0.2001843 -54.73  0.000481557    1.262    0.207
       410  -9.5902     56.8990    197.2165   8.0376577314e+01   2.6483278140e+01    0.1999908    0.1586364 -15.20  0.001076292    1.950    0.487
       411 -12.0982     15.5780    192.1131   8.9515602706e+01   3.2412912990e+01    0.3877891    0.3364316 -79.17  0.001697311    1.213    0.175
       412 -11.9053     15.8445    182.5111   8.8681963721e+01   3.4638948183e+01    0.5038279    0.2585828  79.15  0.001817812    1.928    0.481
       413 -10.0169    186.5136    193.4976   4.9411921659e+01   5.2683021301e+00    0.2051684    0.1297062 -32.51 0.0007108711    1.692    0.409
       414  -9.3535      1.6356    193.7029   9.2708369415e+01   3.3310689466e+01    0.1127631   0.08270392 -50.58 0.0007032218    1.719    0.418
       415  -9.7875     60.5181    192.0137   7.8899003008e+01   2.7233980015e+01     0.245105    0.1746815  32.24  0.001155436    1.528    0.346
       416 -10.1636    145.5428    190.0107   5.7835821428e+01   1.3524656720e+01    0.2597331    0.2002079  21.67 0.0003823194    1.440    0.306
       417 -10.5508    244.8377    188.1339   3.7380360404e+01  -3.4006745831e+00    0.1798292    0.1655525 -28.14 0.0004833795    1.210    0.173
