#   1 NUMBER                 Running object number                                     
#   2 MAG_AUTO               Kron-like elliptical aperture magnitude                    [mag]
#   3 X_IMAGE                Object position along x                                    [pixel]
#   4 Y_IMAGE                Object position along y                                    [pixel]
#   5 X_WORLD                Barycenter position along world x axis                     [deg]
#   6 Y_WORLD                Barycenter position along world y axis                     [deg]
#   7 A_WORLD                Profile RMS along major axis (world units)                 [deg]
#   8 B_WORLD                Profile RMS along minor axis (world units)                 [deg]
#   9 THETA_WORLD            Position angle (CCW/world-x)                               [deg]
#  10 FWHM_WORLD             FWHM assuming a gaussian core                              [deg]
#  11 ELONGATION             A_IMAGE/B_IMAGE                                           
#  12 ELLIPTICITY            1 - B_IMAGE/A_IMAGE                                       
         1 -14.8656      3.0170    131.1021   1.4332317333e+02   4.7887632049e+01     6.616135    0.6760097 -74.20   0.01753053    7.365    0.864
         2 -13.4887    198.5099     27.2545   6.6300241178e+01   3.1576784985e+01     1.589023     1.331715  16.37  0.007504996    1.540    0.351
         3 -13.4250    213.5442      9.5138   6.0121560169e+01   2.9786843709e+01    0.9984969    0.8646565  56.64  0.003801217    1.299    0.230
         4 -11.9795      4.2299      3.2284   1.1445026820e+02   7.3915737557e+01    0.5199788    0.2792347  21.43  0.003403353    1.958    0.489
         5 -10.5893     81.5109    249.0230   1.3703879459e+02   1.4783977264e+01    0.2475241    0.1526651  60.47  0.001595172    1.318    0.241
         6 -12.4921    246.2430    247.7847   1.0708023751e+02  -1.0412835623e+01    0.7241218    0.4209514  26.63  0.004721765    1.343    0.255
         7 -10.2246    112.0914    250.3684   1.3158734305e+02   1.0057961072e+01    0.2260555    0.1278197  31.36  0.001236659    1.977    0.494
         8  -9.5867     66.4980    250.1843   1.3980355616e+02   1.6644406433e+01    0.1992125    0.1216294  47.38 0.0005572529    1.300    0.231
         9 -10.8436     46.2636    249.4153   1.4326058863e+02   1.9357708331e+01    0.2574763    0.1536412  66.11  0.001771694    1.300    0.231
        10 -10.6540     28.9833    248.7665   1.4613054834e+02   2.1494778818e+01    0.2813158    0.2038347 -70.19  0.001235564    1.697    0.411
        11 -12.1708     34.5133    244.4582   1.4496791237e+02   2.1611613804e+01    0.6309199     0.398503  88.73  0.004550098    1.419    0.295
        12 -12.0308      6.3175    249.0760   1.4980609509e+02   2.3844111275e+01    0.7217129    0.3025663  39.53  0.004629452    2.129    0.530
        13 -11.7038     99.2496    247.9517   1.3371330038e+02   1.2389674140e+01    0.3568263    0.2962973  29.50  0.002503675    1.501    0.334
        14 -10.3981     22.6310    245.4141   1.4701122629e+02   2.2775448082e+01    0.1774712     0.109934  87.70 0.0007631263    1.394    0.282
        15 -10.1614    181.3990    244.8097   1.1803452389e+02  -2.3720782843e-01    0.1515995    0.1110209 -19.17 0.0009561499    1.723    0.420
        16 -11.0172     18.6286    241.8295   1.4749890283e+02   2.3830922088e+01    0.2171299    0.1294157  74.40 0.0006455654    1.278    0.217
        17 -11.6324      4.6782    241.1055   1.4974917186e+02   2.5379054926e+01    0.3421125    0.2002055  42.43  0.001637993    1.625    0.385
        18 -10.4345    183.6391    239.0690   1.1680459804e+02   1.7385875575e-01    0.2251562    0.1418208  45.01 0.0007312596    1.392    0.282
        19 -11.6294    119.6908    237.9042   1.2882170792e+02   1.0891810530e+01    0.5021046    0.2528996 -79.76  0.002087675    4.142    0.759
        20 -12.6839    110.2147    231.2095   1.2990034084e+02   1.3538844445e+01      1.30004    0.1199128  42.52  0.003428137    6.400    0.844
        21 -10.2622    156.3450    250.1775   1.2337447820e+02   3.0805300546e+00    0.1755501    0.1251107  35.72  0.001129078    1.156    0.135
        22 -13.2713     47.0479    203.6004   1.3977880623e+02   2.7846802265e+01     4.937561     1.313041  60.91   0.01002943   13.643    0.927
        23 -13.7243      9.3052    156.6787   1.4401191630e+02   4.1747209319e+01     2.193292    0.9967787  83.14   0.01116819    2.186    0.543
        24 -13.8787     36.7491    225.5048   1.4341140474e+02   2.4789240809e+01    0.9083694    0.5237801  59.02  0.003788178    1.347    0.257
        25 -10.3802    233.3794    236.5608   1.0748303218e+02  -7.3483958809e+00    0.1786658    0.1477878 -62.68  0.001141286    2.382    0.580
        26 -11.3431     11.1298    232.9354   1.4833088791e+02   2.6189664023e+01    0.2684208    0.1329962  39.12  0.001748358    1.923    0.480
        27 -12.1640     89.2171    226.5963   1.3351809002e+02   1.7601138108e+01     1.119335    0.1593953  46.79  0.003366859    5.193    0.807
        28 -12.7557     31.6109    232.3169   1.4476298737e+02   2.4115183253e+01     0.287493    0.2258246 -77.64 0.0007846687    1.444    0.308
        29  -9.2098    172.6529    222.6851   1.1646303847e+02   4.4086548881e+00    0.1317218   0.09157281  15.24 0.0007047458    1.720    0.419
        30  -8.6414    152.4920    213.0021   1.1900889694e+02   9.5383840252e+00    0.1635775     0.134301 -50.06 -1.527421e-05    1.446    0.309
        31 -10.8700     57.0152    206.3660   1.3799710380e+02   2.6030799261e+01    0.5867506    0.1893467  55.52  0.002357406    3.211    0.689
        32 -12.4123      9.9091    206.9482   1.4723347052e+02   3.1202364969e+01     0.607083    0.3775455  30.78   0.00310912    1.980    0.495
        33 -11.4003     11.7093    195.0701   1.4620225620e+02   3.3401113553e+01    0.2361554    0.1607822  59.37 0.0002521827    1.234    0.189
        34  -9.4032    191.8886    193.0115   1.0767768401e+02   5.6336722247e+00    0.2926427    0.1800036 -64.39  0.001219666    3.171    0.685
        35 -11.5588     58.9398    198.5768   1.3685947352e+02   2.7370336089e+01    0.2531373    0.2192416 -72.74 0.0005189872    1.309    0.236
        36 -11.9320     65.4814    190.1800   1.3457769836e+02   2.8253271508e+01    0.2699445    0.2358993 -68.84 0.0004972084    1.296    0.228
        37 -13.1559     62.5669    175.3604   1.3352601820e+02   3.1860260588e+01    0.4914237    0.2792017 -46.39  0.001896778    2.318    0.569
        38 -10.7916     76.0022    177.3875   1.3065674467e+02   2.9525279459e+01    0.2325148    0.2034667  76.80 0.0003215836    1.030    0.029
        39 -10.0625     96.3379    173.1895   1.2527354323e+02   2.7269947034e+01    0.2467154    0.2124108  63.06 0.0003405645    1.045    0.043
        40 -11.7791     83.8457    168.2418   1.2752040356e+02   3.0367892791e+01    0.6252571    0.5780216  28.94  0.003839715    1.297    0.229
        41 -11.2504    139.0674    248.6864   1.2640187797e+02   6.0797295434e+00    0.3654491    0.2038757 -60.61  0.002054957    2.448    0.592
        42 -10.1601     96.6679    152.3895   1.2174838673e+02   3.1861790758e+01    0.3097538    0.2777189  36.51 0.0009892927    1.210    0.173
        43 -11.9794     85.1295    151.4803   1.2454721497e+02   3.3968787040e+01    0.2942587    0.2479661 -50.35 0.0005357467    1.292    0.226
        44  -9.1381     99.7289    148.0453   1.2016942856e+02   3.2322459322e+01    0.1946288    0.1783018 -67.72 0.0003208821    1.101    0.092
        45 -12.1440     67.4767    143.6234   1.2786798853e+02   3.8422337314e+01    0.6809136    0.4232427  64.26  0.002830605    1.823    0.451
        46  -9.7317    108.8649    137.3474   1.1566809080e+02   3.3104357621e+01    0.4528365    0.2892842 -21.42  0.001693271    2.880    0.653
        47 -10.4139     95.8762    134.6162   1.1857189111e+02   3.6073765625e+01    0.2501613    0.2186361 -48.47 0.0004489816    1.196    0.164
        48  -9.2642     76.6694    129.7524   1.2290996051e+02   4.0330665007e+01    0.2651128    0.1603708  61.91 0.0008468267    2.031    0.508
        49 -10.6901     28.5044    130.1335   1.3643942677e+02   4.6087003618e+01    0.3243152     0.142146  43.89  0.001493771    2.385    0.581
        50 -11.9131     21.4022    126.0665   1.3787302027e+02   4.7649530863e+01    0.5247807    0.2404666  52.63  0.001553094    2.487    0.598
        51  -8.9272    106.2390    123.9715   1.1345339363e+02   3.6633223391e+01    0.1918151    0.1818901 -65.46  0.000263458    1.045    0.043
        52 -10.3049     83.2188    125.6947   1.2025738523e+02   4.0257174476e+01    0.3433005    0.2195159  67.03  0.001398197    2.028    0.507
        53 -10.3878    167.9245    113.0436   9.5282415184e+01   2.5542948886e+01    0.3159719    0.2726085 -81.05 0.0005513679    1.335    0.251
        54 -10.4136     42.5028     97.0308   1.2678996476e+02   5.2355977432e+01    0.4732014    0.2212968  50.84  0.002028703    2.909    0.656
        55  -9.8608    158.2969     77.0105   8.7487520482e+01   3.4649854318e+01     0.217302    0.2047177 -40.13  0.000455347    1.094    0.086
        56  -9.7876     47.7766     70.0875   1.1846945129e+02   5.7697765300e+01     0.252593    0.1690925  48.20 0.0008587924    1.876    0.467
        57 -12.8068      6.4910     51.2758   1.2998692635e+02   6.5148663627e+01    0.5949557     0.524182  84.99  0.001047748    1.433    0.302
        58 -11.1365    198.3481    247.1329   1.1527915739e+02  -3.2428024083e+00    0.3394584    0.1979153 -29.47   0.00200613    2.118    0.528
        59  -9.7811    217.3253    248.3149   1.1208774700e+02  -6.3023390814e+00     0.120622   0.07352927  14.97 0.0007042966    1.667    0.400
        60 -12.7150     46.6420    214.8784   1.4078160284e+02   2.5647676411e+01     1.075099    0.6155447  71.92  0.006440779    1.570    0.363
