#   1 NUMBER                 Running object number                                     
#   2 MAG_AUTO               Kron-like elliptical aperture magnitude                    [mag]
#   3 X_IMAGE                Object position along x                                    [pixel]
#   4 Y_IMAGE                Object position along y                                    [pixel]
#   5 X_WORLD                Barycenter position along world x axis                     [deg]
#   6 Y_WORLD                Barycenter position along world y axis                     [deg]
#   7 A_WORLD                Profile RMS along major axis (world units)                 [deg]
#   8 B_WORLD                Profile RMS along minor axis (world units)                 [deg]
#   9 THETA_WORLD            Position angle (CCW/world-x)                               [deg]
#  10 FWHM_WORLD             FWHM assuming a gaussian core                              [deg]
#  11 ELONGATION             A_IMAGE/B_IMAGE                                           
#  12 ELLIPTICITY            1 - B_IMAGE/A_IMAGE                                       
         1 -13.2762    159.0507     35.8505   5.5887904488e-01   4.0383824829e+01     1.221336    0.5484476 -63.01  0.004640684    2.834    0.647
         2 -12.6457    246.5916     23.4832   3.5020433631e+02   2.3330834701e+01    0.6354518    0.3508496 -89.59  0.003931018    1.942    0.485
         3 -14.5406    244.8404      8.9445   3.4738040271e+02   2.5177875818e+01     1.762715     0.978166 -31.79   0.01130093    1.650    0.394
         4 -13.3835    226.9603     22.6320   3.5111156007e+02   2.7026788777e+01    0.7643182    0.4517468  57.89  0.004577106    2.177    0.541
         5 -13.3903    206.7321     18.7428   3.5149849423e+02   3.1517851772e+01     1.174676    0.4310746 -51.44   0.00550907    2.204    0.546
         6 -13.6996    203.1625      6.3780   3.4879433858e+02   3.3567077940e+01     1.245587    0.7897392  82.78  0.007677606    1.529    0.346
         7 -12.3735    193.0309      5.7228   3.4921278099e+02   3.5825436240e+01    0.7134914    0.4406291 -24.82  0.004099257    1.806    0.446
         8 -13.3653    173.9899      5.1137   3.5028484597e+02   4.0224183693e+01     1.326745    0.4715389 -50.21  0.005821864    2.369    0.578
         9 -12.2514    182.9589      4.3625   3.4948499803e+02   3.8218591149e+01    0.7860225    0.3216447 -78.63  0.003470923    2.528    0.604
        10 -12.4011      9.7387     25.1252   5.2823164217e+01   7.4754106307e+01    0.5254328    0.3193569  47.82  0.002633884    2.194    0.544
        11 -11.2182    149.4888     14.8876   3.5531603515e+02   4.5220817578e+01    0.4426614    0.2637767 -22.18  0.001488556    1.970    0.492
        12 -11.7425    224.4592     13.9990   3.4937859064e+02   2.8446307636e+01    0.2762817    0.1671105 -46.49  0.001227492    1.264    0.209
        13 -10.8166    221.0199     10.5059   3.4879338892e+02   2.9485920652e+01    0.2679853    0.1282191  87.61  0.001087414    2.102    0.524
        14 -10.4518    144.2551      9.3530   3.5411847118e+02   4.7099521122e+01    0.2180976    0.1674238 -11.72 0.0008888512    1.663    0.399
        15  -9.6670     25.8182     10.2206   3.0524573873e+01   7.5478458290e+01    0.1796722    0.1371162   6.97  0.000547956    1.319    0.242
        16 -11.4829    228.5934      8.3959   3.4797168031e+02   2.8230593566e+01     0.282354    0.1913067 -17.26  0.001115529    1.948    0.487
        17 -12.4812    222.9606      2.5979   3.4698039552e+02   2.9900929478e+01     0.651969    0.2996463 -85.27   0.00274902    2.111    0.526
        18 -11.9263    117.1683      6.5500   3.5644800992e+02   5.4358097653e+01    0.2933545     0.234809 -19.89 0.0003501532    1.477    0.323
        19  -9.9260     47.2971      8.3216   1.6061750273e+01   7.1588854409e+01    0.1378078   0.09245363  25.38 0.0002874222    1.620    0.383
        20 -10.0231     63.3732      7.1861   8.7640330257e+00   6.8039723411e+01    0.1766154    0.1207231 -39.58 0.0004847352    1.659    0.397
        21 -10.8967      2.6470      6.3664   4.9663195644e+01   7.9123184397e+01    0.2472737    0.1871043 -17.43  0.000979989    1.165    0.142
        22 -10.1138     76.6738      5.2838   3.6996453979e+00   6.4954828121e+01    0.2020392    0.1650607  10.65 0.0003278508    1.426    0.299
        23 -10.4265    163.8092      1.9881   3.5014328677e+02   4.2942156366e+01    0.2377349     0.166327  87.33  0.001393431    1.258    0.205
        24  -9.5973     88.0858      1.1567   3.5901555140e+02   6.2395471240e+01    0.1795564      0.08447  69.03 0.0003014731    1.803    0.445
        25 -10.9842     95.0560     89.4746   3.2236629784e+01   4.6379775228e+01    0.3109364    0.1997472  31.38 0.0008967465    1.796    0.443
        26 -10.4348    176.9543     92.0000   1.3190954720e+01   2.7585041960e+01    0.2213399   0.08083485  55.02 0.0008061199    2.968    0.663
        27 -10.4291    127.6223     90.0353   2.2924700941e+01   3.8968957586e+01    0.2569041    0.2093639  64.48 0.0005353841    1.266    0.210
        28 -10.8927     88.5155     89.8615   3.4576703414e+01   4.7665483049e+01    0.2751881    0.2226851  65.97  0.001299164    1.352    0.260
        29 -12.3903    238.0197     80.8890   2.6421190826e+00   1.7682384072e+01    0.4181086    0.2658315 -61.68  0.002506375    1.689    0.408
        30 -12.4528    237.3899     87.2878   4.0298444007e+00   1.6901607550e+01    0.3335376    0.2897351 -30.73  0.001574794    1.172    0.147
        31  -9.7295    106.7016     87.3159   2.7904463035e+01   4.4306525030e+01     0.159365    0.1236632 -88.90 0.0002401119    1.610    0.379
        32  -9.9203     21.8622     87.3450   6.2687302682e+01   5.8490372651e+01    0.1913607    0.1836201 -10.75 0.0005554383    1.088    0.081
        33 -10.7580    148.0193     85.5225   1.6935008993e+01   3.5147162246e+01    0.2924003     0.200647 -56.68 0.0008938927    1.522    0.343
        34 -10.3561    120.7720     86.5659   2.3690861331e+01   4.1256691508e+01    0.2193249    0.1472782  62.72 0.0009429987    1.632    0.387
        35 -12.0214    177.3744     83.2070   1.0903418639e+01   2.8986640437e+01    0.4290753    0.2878134 -21.76  0.002060671    1.839    0.456
        36  -9.9975     47.9812     85.4975   4.9733049145e+01   5.5976302764e+01    0.2197547    0.1484271  29.80 0.0003438813    1.492    0.330
        37 -12.2461    248.8963     83.1382   2.0477832562e+00   1.5611452404e+01    0.2402956    0.1877683 -47.83 0.0003534519    1.090    0.082
        38 -10.9018    162.0563     83.9262   1.3737190980e+01   3.2240508584e+01    0.3035206    0.2067279  52.68  0.001315757    1.544    0.352
        39 -10.8620    124.5645     83.0760   2.1660144210e+01   4.1081977623e+01    0.3206333    0.1996279  36.13  0.001321279    1.943    0.485
        40 -11.1933     66.9966     83.0130   4.0701429449e+01   5.3498675505e+01     0.239629    0.2353001  69.03  0.001288306    1.019    0.019
        41  -9.8414    197.0724     80.6609   7.3565004367e+00   2.5278609139e+01    0.1739443    0.1622953 -64.55 0.0005316599    1.093    0.085
        42 -11.1743    169.4370     80.9349   1.1633009731e+01   3.1107131943e+01    0.3002979    0.2348834  63.12 0.0008331154    1.346    0.257
        43 -11.4921    170.7725     76.5511   1.0252020482e+01   3.1544246768e+01    0.3481524    0.1858653 -33.28  0.001521165    1.904    0.475
        44 -10.1871    114.0378     81.0102   2.3843564729e+01   4.3959160928e+01     0.251662    0.1911433 -87.94  0.000851342    1.653    0.395
        45 -11.8303    147.2368     79.0707   1.5279360676e+01   3.6512356716e+01    0.3675159    0.2456925 -48.08 0.0006440418    1.451    0.311
        46 -11.0417     12.2822     79.2986   6.6152356970e+01   6.1373604705e+01    0.3109508    0.2010221   2.94  0.001519646    1.707    0.414
        47 -11.5959     39.1337     76.9552   5.1690796948e+01   5.9380448675e+01    0.3309049    0.2681389  52.78 0.0005518629    1.336    0.251
        48 -10.9706    248.1588     74.8131   4.4857265293e-01   1.6832586305e+01     0.275908    0.1482881  50.07  0.001598281    2.502    0.600
        49 -12.8250    123.8688     68.8687   1.7428921850e+01   4.3975599669e+01     0.828748    0.3946692 -42.40  0.003215774    2.094    0.522
        50 -13.0421    117.4755     61.8752   1.6718765711e+01   4.6808985552e+01    0.5966622    0.5578571   6.03 0.0006775061    1.258    0.205
        51 -11.4031     73.1235     74.3718   3.5452511065e+01   5.4373221137e+01    0.2942388    0.2282541 -62.22  0.000670923    1.401    0.286
        52  -9.4970    226.4944     74.4586   2.4502420932e+00   2.0572084683e+01    0.1237186    0.1004241 -45.79 8.998275e-05    1.018    0.018
        53 -11.3115     66.7618     74.2268   3.8022972663e+01   5.5635357156e+01    0.3212361    0.2137248  29.32  0.001072382    1.611    0.379
        54 -10.3885      2.9987     73.9939   7.0320168296e+01   6.3288311452e+01    0.2273955    0.1478392  54.72  0.001134414    1.714    0.417
        55 -11.4852    177.9772     72.0135   7.9271101745e+00   3.0677887051e+01    0.3165407    0.2571213 -65.13 0.0006970457    1.182    0.154
        56 -11.9183     96.3710     69.4672   2.5373491771e+01   5.0417887602e+01    0.6050437    0.2453522 -36.20  0.001969493    3.048    0.672
        57 -11.2241      7.3368     70.1524   6.7301440926e+01   6.4084478363e+01     0.460045     0.133778 -75.95  0.001519905    3.424    0.708
        58 -13.0106    144.1164     60.4036   1.0383578603e+01   4.0477764308e+01    0.7796733    0.4142686  31.31  0.002557205    3.983    0.749
        59 -12.3570    162.1871     58.4866   6.6834184728e+00   3.6415484479e+01    0.4160885    0.3347771 -59.39 0.0003571718    1.155    0.134
        60 -12.6154    172.5867     57.6642   4.8985463295e+00   3.4106201235e+01    0.7054005    0.4485029  84.23  0.003440276    1.777    0.437
        61 -13.5974    150.8680     59.5923   8.8976568703e+00   3.8960855389e+01    0.6427301    0.5680516 -28.03  0.001861443    1.269    0.212
        62 -14.0977    163.2391     65.1179   8.3816737539e+00   3.5129728598e+01     1.166248    0.6571134  61.46  0.005352623    1.815    0.449
        63 -10.5110     24.8189     70.1138   5.7445296176e+01   6.2764762911e+01    0.2061543    0.1584558 -32.27 0.0006753577    1.320    0.242
        64 -10.4409    201.3644     69.0085   4.0205322646e+00   2.6167370460e+01    0.2571381    0.1757629  67.32 0.0007097779    1.623    0.384
        65 -11.7488    245.6398     66.5826   3.5900330881e+02   1.8319326140e+01    0.2733955    0.1676966 -45.36  0.001733016    1.245    0.197
        66 -10.2569    208.8861     66.9923   2.6697406093e+00   2.4949539422e+01     0.187831      0.15563 -50.20 0.0002846195    1.012    0.012
        67 -12.8376    155.2884     65.3171   9.7907517287e+00   3.6974653446e+01    0.4765391    0.3336657 -31.21  0.002343193    1.529    0.346
        68 -10.9855    101.8829     66.8928   2.2762494546e+01   4.9644986749e+01    0.2278586    0.2108237  17.23 0.0003626229    1.223    0.182
        69 -10.1316     19.9805     66.0000   5.9163006298e+01   6.4266304085e+01    0.2317359   0.07971619  19.07 0.0001240472    3.016    0.668
        70 -12.1930     58.9675     62.0478   3.7218699340e+01   5.9857858674e+01    0.7453682    0.4706948  82.20  0.002576914    3.534    0.717
        71 -10.1050     50.9744     56.5408   3.9002599024e+01   6.2497739657e+01    0.2873251    0.1446086  30.71  0.000717269    2.100    0.524
        72 -10.3779     54.7044     55.1272   3.6602394895e+01   6.2147613987e+01    0.2986382    0.2235082 -69.86  0.001431288    1.689    0.408
        73 -11.0925    180.1724     61.6799   4.9128375898e+00   3.1783493541e+01    0.4267858    0.2206238 -41.40   0.00198345    1.714    0.417
        74 -10.0387    136.3112     62.3155   1.2532522762e+01   4.2079478864e+01    0.1462916    0.1181569  23.06 0.0002934543    1.637    0.389
        75 -10.0222     16.6410     62.6953   6.0319115876e+01   6.5386127321e+01    0.1533629   0.09264205 -32.60 0.0007039382    1.724    0.420
        76 -10.5660      1.6427     60.5734   6.9031071145e+01   6.6832257468e+01    0.2518839    0.1573369 -79.29 0.0006722257    1.564    0.361
        77 -12.6751     76.3547     58.7480   2.8561533761e+01   5.7071709726e+01    0.7820864    0.3086478  44.95  0.001010862    2.440    0.590
        78 -10.3052    209.8617     58.6345   6.1801163452e-01   2.5925462753e+01    0.1728196    0.1436916 -70.26 0.0005736313    1.141    0.124
        79 -11.6527     38.6791     58.2418   4.6144946568e+01   6.4037304830e+01    0.3868875    0.2115458  41.80  0.001675898    1.914    0.478
        80 -13.0807    238.6604     50.4872   3.5624708837e+02   2.1566052926e+01    0.5747162    0.3571115 -67.45  0.003390315    1.603    0.376
        81 -12.7669    228.9629     48.2507   3.5653168005e+02   2.3605365330e+01    0.4985504     0.296364 -74.04 0.0002918017    1.823    0.451
        82 -11.9739    233.9969     46.3035   3.5572030538e+02   2.2922580581e+01     0.296544    0.2247652 -22.23  0.001883252    1.547    0.354
        83 -11.7587      6.4365     56.0747   6.5137492545e+01   6.7744587612e+01    0.4850706     0.255383 -14.97     0.002196    2.133    0.531
        84  -9.2488    215.9922     55.9531   3.5938773772e+02   2.5077763992e+01    0.1468196    0.1194092 -53.49 0.0009499033    1.009    0.009
        85 -11.3715    141.5345     55.1264   9.2422376420e+00   4.1960871467e+01    0.2922592    0.2430591 -16.54 0.0009807325    1.478    0.323
        86 -12.2813    246.8913     55.5234   3.5665741071e+02   1.9516196155e+01    0.4385451    0.2452998 -42.35  0.002714918    1.330    0.248
        87  -9.5620    196.5481     55.4515   1.2926478860e+00   2.9110374159e+01    0.1340881    0.1092404 -58.41 0.0001263516    1.051    0.048
        88  -9.6388    102.0152     53.4571   1.7902509605e+01   5.2102387252e+01     0.218394    0.1193913  35.58 0.0005323777    2.459    0.593
        89 -10.7134    203.2547     51.7557   3.5967181569e+02   2.8208070636e+01    0.4594091     0.115071 -43.80  0.001695408    3.069    0.674
        90 -10.1711    122.9884     53.2561   1.2467515559e+01   4.6906482331e+01    0.2071762    0.1894025  80.13 0.0004434197    1.026    0.026
        91 -11.2670     48.5142     52.2705   3.8585457991e+01   6.3850234471e+01     0.320149    0.2801314  -4.23  0.001412649    1.196    0.164
        92 -11.6385    174.9608     51.6837   2.9489067808e+00   3.4430005553e+01    0.3194614    0.2418235  61.64  0.001379224    1.405    0.288
        93 -11.7551    145.0284     51.3268   7.4195819108e+00   4.1680736850e+01    0.3348052    0.1843087 -45.26  0.001333613    1.749    0.428
        94 -12.6779     78.0379     48.9799   2.4019492999e+01   5.8582547545e+01    0.9007619     0.589949  48.53   0.00418009    1.446    0.308
        95 -10.9273     75.9585     42.4525   2.2024905707e+01   6.0215585855e+01    0.3794441     0.237532  45.92  0.001058912    1.510    0.338
        96 -11.4655     81.4507     40.9673   1.9391970990e+01   5.9189783638e+01    0.5763707    0.2957775  51.49  0.001985734    1.807    0.446
        97 -11.8256    149.0903     47.1273   5.4316220166e+00   4.1295475977e+01    0.3018076    0.2190066 -30.16  0.001528774    1.500    0.333
        98 -10.7189    115.6201     50.6121   1.3272267886e+01   4.9193462853e+01    0.3046316       0.2629 -80.39  0.001525361    1.174    0.148
        99 -11.7839     16.0742     47.3167   5.6386654217e+01   6.9212970745e+01    0.2729909    0.2388855  20.07 0.0006533909    1.181    0.153
       100 -10.7165    212.6504    242.1735   3.5498211819e+01  -1.7056456102e+00    0.2478009    0.1289981  27.28   0.00159617    1.740    0.425
       101 -13.1245    173.8662     42.3358   5.3577799038e-01   3.5977062503e+01    0.6871409    0.4958981 -20.91  0.003098214    1.681    0.405
       102 -12.3873    170.0615     38.3785   3.5989924413e+02   3.7397146605e+01    0.6348492    0.4390453   5.10  0.002904759    2.483    0.597
       103 -11.8884    133.8217     46.1817   7.8269652990e+00   4.5268322733e+01    0.3573993    0.3199596  13.45  0.001959045    1.407    0.289
       104 -12.2505     51.2044     44.6486   3.3967871429e+01   6.4957585893e+01    0.5860873    0.3463446  19.37  0.001802286    2.362    0.577
       105 -10.9033    214.8319     44.4573   3.5686443779e+02   2.6806672252e+01    0.3357132     0.131679 -45.84 0.0009443439    2.016    0.504
       106  -9.8171    124.7670     46.4295   9.7311290714e+00   4.7532799331e+01    0.2091442    0.1283839  51.69 0.0009359685    1.628    0.386
       107 -12.1565      9.7374     42.1111   5.9228396285e+01   7.0944098067e+01    0.3401804    0.1649571 -35.85  0.001522677    2.055    0.513
       108 -11.6810    242.5414     44.4210   3.5470570251e+02   2.1627832422e+01    0.2106156    0.1534586 -46.84 0.0005528856    1.050    0.048
       109 -10.1030    120.6675     44.4196   9.9083773593e+00   4.8882641459e+01    0.2949645    0.1411563  67.80  0.001138326    2.177    0.541
       110 -12.1422     61.0158     43.2903   2.8602106811e+01   6.3311414690e+01    0.2708276    0.2614932  36.75 0.0003387087    1.040    0.038
       111 -11.3458    186.0415     39.1893   3.5831831621e+02   3.3594509902e+01    0.2948619     0.156593 -40.82 0.0008384066    1.634    0.388
       112  -9.9976     97.8290     43.1148   1.5122960331e+01   5.4862897558e+01    0.2037595    0.1717167  35.21 0.0007219126    1.293    0.227
       113 -11.9647     27.1351     46.8141   4.8864374430e+01   6.8184519923e+01    0.5177011    0.3496739 -84.62  0.002411658    2.194    0.544
       114  -9.7324    132.6883     40.6997   6.2077835318e+00   4.6351730762e+01    0.1423602    0.1099311  35.41 0.0003299211    1.605    0.377
       115 -11.4870    146.3620     38.6097   3.2149385837e+00   4.3171381160e+01    0.3199543    0.2469619  42.88  0.001102263    1.549    0.354
       116 -10.5946      6.4835     39.5154   6.0861124731e+01   7.1770882225e+01    0.1323285    0.1167817 -33.54 -3.103239e-05    1.004    0.004
       117 -10.3208    220.4828     38.0360   3.5494706763e+02   2.6489586377e+01    0.1734435    0.1394461 -70.82 0.0003298493    1.143    0.125
       118 -10.9099    200.3553     37.7538   3.5656054091e+02   3.0638806261e+01    0.2052418    0.1793208 -66.30 0.0002901388    1.092    0.084
       119  -9.2059     48.2395     38.6497   3.2765178308e+01   6.6671608823e+01    0.1326809    0.1125191 -82.88 0.0002328627    1.573    0.364
       120 -11.8999    233.4652     35.8460   3.5353476501e+02   2.4285308219e+01    0.2971521    0.2359149 -46.46  0.001557095    1.119    0.106
       121 -10.3381     61.1697     36.7874   2.5514735417e+01   6.4450884522e+01     0.208505    0.1920005  62.74 0.0004345512    1.156    0.135
       122 -10.1771     50.8516     36.8077   3.0505360483e+01   6.6526732038e+01    0.1929146    0.1649821  62.34 0.0003803815    1.350    0.259
       123 -10.3027     26.5816     36.3229   4.4899864670e+01   7.0555902291e+01    0.2564523    0.2161414 -15.62 0.0008242264    1.143    0.125
       124 -10.8984    131.4102     33.3723   3.9417632169e+00   4.7676882063e+01    0.3423682    0.2260831 -61.30  0.001467858    1.577    0.366
       125 -10.3762    119.2499     34.6331   6.6757666788e+00   5.0649233690e+01     0.274322    0.1649031 -46.15   0.00125876    1.699    0.411
       126 -11.0407     90.9286     34.1411   1.3410443789e+01   5.7948285984e+01      0.46821    0.3078996  40.68  0.002196911    1.615    0.381
       127  -9.7518    138.5051    240.5094   4.9395174993e+01   6.8573570050e+00    0.1234818   0.09631532  14.42 0.0008102375    1.042    0.040
       128 -10.9444    245.1550    210.5232   2.5636597002e+01  -1.0945618354e+00    0.1728447    0.1144568 -45.82  0.001137251    2.276    0.561
       129 -11.8124    215.9538     32.3200   3.5399721395e+02   2.8073760500e+01    0.4573321    0.2192792  73.71  0.002413303    2.220    0.550
       130 -11.8226     12.3899     32.3093   5.3704670220e+01   7.2970585248e+01      0.26346    0.2295998 -43.62 0.0007336258    1.117    0.105
       131 -11.2725    141.0191     31.9808   1.9098346915e+00   4.5394061588e+01    0.3466624    0.2090395 -80.33  0.001344036    1.863    0.463
       132 -11.8713    145.5717     31.2000   9.8231270986e-01   4.4336900569e+01    0.3542132    0.2554768  79.14  0.001875079    1.296    0.229
       133 -10.2125    198.0682    204.7572   3.2402686178e+01   4.9385525986e+00    0.2170528    0.1878135  16.51   0.00153581    1.287    0.223
       134 -12.0843      3.3215     27.3978   5.9383812106e+01   7.4733440643e+01    0.3541694    0.1994398 -48.85  0.001865172    1.550    0.355
       135  -9.7082    238.1450    204.3777   2.5710846071e+01   3.8841996580e-01    0.1277655   0.09368696  28.42 0.0003266807    1.609    0.379
       136 -10.1387    229.4938    203.1091   2.6838372172e+01   1.4853180389e+00    0.1595771   0.09040791 -31.57  0.000455385    1.507    0.336
       137  -9.5589    175.6555    137.6708   2.4083199058e+01   1.9591076261e+01    0.1444941    0.1049507  -3.04 0.0005132472    1.751    0.429
       138 -10.5761    250.4196    131.3030   1.1233768191e+01   8.7797919670e+00    0.2240664   0.08920498 -32.80  0.001121533    2.046    0.511
       139  -9.3172    238.2526    124.6746   1.1462082661e+01   1.1424896811e+01    0.1150816   0.07798127 -50.54 0.0002253573    1.545    0.353
       140 -11.6176    174.7557     26.0578   3.5596047836e+02   3.7812588265e+01    0.3839742    0.2582197 -63.11  0.002127845    1.330    0.248
       141 -11.6664    159.2184     26.4117   3.5773398786e+02   4.1512991052e+01    0.3195221    0.2196309  60.15  0.001711506    1.512    0.338
       142 -10.9007    229.2945    119.0164   1.1486378500e+01   1.3610084869e+01    0.1792686    0.1738322 -55.69 0.0003028843    1.241    0.194
       143 -10.0542     52.4622     25.5011   2.3845186525e+01   6.8132484418e+01    0.1389808    0.1270175  30.97 5.234461e-05    1.005    0.005
       144 -10.7551     29.8186     24.1273   3.6450523525e+01   7.2500038016e+01     0.212964    0.1943019  11.21 0.0003744526    1.050    0.048
       145  -9.3184    124.2820     20.7111   6.5988049536e-01   5.1066721549e+01    0.1772873    0.1177324 -29.94 0.0008823097    1.639    0.390
       146  -9.8750     97.7803     21.6297   6.2073978887e+00   5.7860384918e+01    0.3436874    0.2111644  -8.67  0.001527865    2.308    0.567
       147 -11.6265     82.0256     21.7165   1.0423741926e+01   6.1845129156e+01    0.3520676    0.2380548  77.61  0.001707434    1.618    0.382
       148 -10.0431     32.5374     19.5111   3.1859466359e+01   7.2865881638e+01    0.1324691    0.1197554  15.52 3.567509e-05    1.038    0.037
       149  -9.8557     56.3081     25.3225   2.1910028983e+01   6.7350804443e+01    0.1435329    0.1036851  18.02 0.0007035122    1.645    0.392
       150 -10.6179    247.5371    117.8658   9.0184214671e+00   1.1049037818e+01    0.1938257    0.1536738 -88.50  0.001234281    1.908    0.476
       151  -9.3971    103.3403    118.2663   3.7359741938e+01   3.7884634680e+01    0.1560366    0.1255954  -0.58 0.0003975225    1.598    0.374
       152 -10.3452    196.3723    113.2409   1.5012362576e+01   2.0121942287e+01    0.2497248    0.1521704 -44.79  0.001270126    1.490    0.329
       153  -9.5606    101.7273     14.3389   2.2242930701e+00   5.7646206211e+01    0.1430723   0.09784743 -64.41 0.0002222615    1.607    0.378
       154  -9.5252     69.6515     13.6775   1.0260799385e+01   6.5834876879e+01    0.1493004   0.09422141  33.90 0.0007049147    1.744    0.426
       155 -10.3283     24.9307    111.5903   6.5173817739e+01   5.1580170413e+01    0.2366483    0.1894221 -61.40 0.0004212904    1.204    0.169
       156 -10.5039    198.8827    107.8264   1.3404450349e+01   2.0559414692e+01    0.2048603     0.177188 -11.76  0.001239923    1.264    0.209
       157 -10.7536     85.7307    107.2785   4.0353017108e+01   4.4003602360e+01    0.2801888    0.2640116  19.78 0.0004399401    1.121    0.108
       158 -10.1665    208.9901    104.9816   1.1282361477e+01   1.9174275975e+01    0.3070208    0.1460411 -53.91  0.001309311    2.565    0.610
       159 -10.4039    199.3117     96.4412   1.0746457141e+01   2.2336977191e+01    0.2710264     0.185938 -30.71  0.001125369    1.406    0.289
       160 -11.1000    170.0718     97.3359   1.5739794572e+01   2.8102656807e+01    0.3259657    0.2625312   7.12  0.001682736    1.651    0.394
       161  -9.2376    249.3140     97.3135   4.8163768958e+00   1.3630723185e+01    0.1096046   0.08208626  -9.87 0.0003322952    1.638    0.390
       162 -10.5356    102.1703     96.3275   3.1942191609e+01   4.3290235189e+01    0.2509451    0.2139848 -35.52 0.0004093401    1.262    0.207
       163 -10.1079    159.2448     95.8078   1.7412243594e+01   3.0713721571e+01    0.2512568    0.1551918 -75.91 0.0006392408    2.775    0.640
       164  -9.7726    124.4773     95.4580   2.5278662246e+01   3.8559528945e+01    0.1549841    0.1485635 -88.80 1.437382e-05    1.028    0.027
