#   1 NUMBER                 Running object number                                     
#   2 MAG_AUTO               Kron-like elliptical aperture magnitude                    [mag]
#   3 X_IMAGE                Object position along x                                    [pixel]
#   4 Y_IMAGE                Object position along y                                    [pixel]
#   5 X_WORLD                Barycenter position along world x axis                     [deg]
#   6 Y_WORLD                Barycenter position along world y axis                     [deg]
#   7 A_WORLD                Profile RMS along major axis (world units)                 [deg]
#   8 B_WORLD                Profile RMS along minor axis (world units)                 [deg]
#   9 THETA_WORLD            Position angle (CCW/world-x)                               [deg]
#  10 FWHM_WORLD             FWHM assuming a gaussian core                              [deg]
#  11 ELONGATION             A_IMAGE/B_IMAGE                                           
#  12 ELLIPTICITY            1 - B_IMAGE/A_IMAGE                                       
         1 -10.5172    102.7807     22.3667   4.0240671821e+01   5.3421778960e+01    0.3629941    0.1909058  55.17  0.001693658    1.774    0.436
         2 -12.3892      2.5347     20.4357   6.9083674360e+01   6.7834423798e+01    0.2743047    0.1792691 -34.43 0.0005291169    1.480    0.324
         3 -11.2046     37.7812     18.4236   5.5778362349e+01   6.4215449426e+01    0.5495489    0.2703886  51.59  0.002878439    3.387    0.705
         4 -10.6595     39.5124     15.0012   5.3921677482e+01   6.4327917434e+01    0.2419853    0.1403552 -27.77  0.001583841    1.677    0.404
         5 -11.3979     34.3782     12.1972   5.4472013686e+01   6.5266761426e+01    0.3830086    0.2243655  21.06  0.002008775    1.529    0.346
         6 -11.3778     30.5642      7.5623   5.3881994649e+01   6.6179265074e+01    0.3598958    0.2223999  23.71  0.002612008    1.371    0.271
         7 -11.1550     70.7288     18.5331   4.6348992446e+01   5.9377561870e+01    0.2696238    0.1802103  21.18 0.0003821571    1.397    0.284
         8 -12.1478    125.2917     16.9876   3.4439359230e+01   4.9592710223e+01    0.2243588    0.1999017 -89.87 0.0003325799    1.239    0.193
         9 -12.1668    126.0325     10.9054   3.2618033907e+01   4.9973621561e+01    0.2344367    0.2120629 -71.84 0.0003372359    1.252    0.201
        10 -10.3423     60.2986     15.3702   4.7976147860e+01   6.1312995098e+01    0.2665256    0.1706448 -36.05  0.001754109    1.866    0.464
        11 -11.0703      6.1917      7.8601   6.2653750853e+01   6.8900761377e+01    0.5640839    0.2968794  44.11  0.003082535    3.314    0.698
        12 -12.5484     19.3102      3.0250   5.5840134891e+01   6.7947956498e+01    0.4207301    0.1999762  -4.66  0.002185942    2.441    0.590
        13 -10.5708     14.0429      3.2126   5.7792304311e+01   6.8528182252e+01    0.2422567     0.181825  46.00   0.00184895    2.226    0.551
        14  -9.7918     14.4782     12.4893   6.1442636675e+01   6.7575130276e+01    0.1555418    0.1019336  15.56 0.0004930499    1.316    0.240
        15  -9.0282    108.9978     12.1757   3.5924311512e+01   5.3157772332e+01    0.1659475    0.1219101 -84.15 0.0008295837    1.919    0.479
        16  -9.9449    148.6966     10.4027   2.9127990014e+01   4.5484926835e+01    0.1867398     0.127276 -43.74 0.0006595866    1.596    0.373
        17 -11.3739     55.7244      9.4505   4.7064586437e+01   6.2523333368e+01    0.2113323    0.1640854  18.35 0.0002255365    1.024    0.024
        18 -10.3668     45.4933      9.5419   5.0010184091e+01   6.4008249039e+01    0.2009151    0.1484535   1.66 0.0007853722    1.132    0.117
        19 -10.3479     42.4646      9.4058   5.0863115830e+01   6.4442540679e+01     0.196688    0.1529484 -25.51 -5.731593e-05    1.485    0.327
        20 -11.5079    191.9580      9.7836   2.3913442178e+01   3.6733316936e+01    0.2928523     0.151296  68.19  0.001114651    1.702    0.412
        21 -12.1118    195.7031      5.0958   2.2570153145e+01   3.6434590002e+01    0.5434276    0.2618061  76.99  0.003065115    1.897    0.473
        22  -9.5352     86.3823     10.2258   3.9844441227e+01   5.7444846565e+01    0.1292907   0.09743303 -29.70            0    1.500    0.333
        23  -9.7110    215.5035      9.5607   2.1668165777e+01   3.2054395987e+01    0.1122551   0.08818408 -80.58 6.589155e-05    1.022    0.021
        24  -9.5966     23.0565      8.8804   5.6934615580e+01   6.6974212565e+01    0.1875354    0.1015137  33.64   0.00128159    1.741    0.426
        25  -9.7576     98.0476      6.9767   3.6412228746e+01   5.5606660290e+01    0.1604555    0.1320864  35.75 0.0003466725    1.045    0.043
        26 -11.0011     88.9538      6.1013   3.7957288473e+01   5.7310050432e+01     0.170162    0.1384861  13.55 0.0003715973    1.176    0.149
        27 -10.3043    247.0810      5.9731   1.8559682102e+01   2.6422794201e+01    0.1602684    0.1150509 -74.42 0.0003503999    1.049    0.047
        28  -9.9503    111.6284      5.8585   3.3585308881e+01   5.3158767242e+01    0.1847104    0.1263958  46.66 0.0005777518    1.259    0.206
        29 -10.6536    123.4730      3.0545   3.0848286507e+01   5.1092497720e+01    0.2590152     0.188171 -45.94  0.001784847    1.617    0.382
        30 -10.1625    104.8053      4.2419   3.4311558908e+01   5.4562560604e+01    0.1489567    0.1303732  55.21 0.0004350834    1.113    0.102
        31 -10.6529    164.2176      3.3899   2.5485259966e+01   4.2942963056e+01    0.1586877   0.09299792  81.50 0.0008268701    1.663    0.399
        32 -10.9662    148.5130      2.4340   2.7162049200e+01   4.6186483019e+01    0.1882105    0.1650904  67.91 0.0005484297    1.026    0.026
        33 -10.0379    138.1254      2.3327   2.8515068348e+01   4.8267386759e+01     0.164856    0.1455604  26.17 0.0003061292    1.252    0.201
        34 -10.4438     50.9494     10.5215   4.8796263538e+01   6.3140835130e+01    0.2165355    0.1445592  46.03 0.0009317952    1.588    0.370
        35 -10.0034     29.5567      1.3239   5.1698795971e+01   6.6839460592e+01    0.2071647   0.08458678  45.93 0.0008861644    2.632    0.620
        36  -9.3003     18.6161    195.2030   1.0265019855e+02   3.0884409846e+01     0.192342   0.08798407 -62.14 0.0009564715    1.725    0.420
        37 -10.2865    110.0312    250.5729   9.1640333088e+01   6.1836795899e+00    0.1837537    0.1177905  43.31  0.000446065    1.526    0.345
        38 -11.1527     29.1927    250.3011   1.0613873945e+02   1.7346084436e+01    0.2545237    0.1661793  47.91  0.001642405    1.588    0.370
        39 -12.3638      3.7721    232.8810   1.0895988398e+02   2.3822315012e+01    0.3812859    0.2962426  77.03  0.001104996    1.179    0.152
        40 -13.0696     10.9482    244.4218   1.0867891897e+02   2.0620351527e+01    0.7651522    0.3409011 -67.32   0.00428956    1.868    0.465
        41 -12.4215      5.0196    241.0752   1.0939067135e+02   2.1945302643e+01    0.4074723    0.3976714  67.41  0.003278047    1.616    0.381
        42  -9.0570     69.7145    177.6511   8.9094637870e+01   2.9032704351e+01    0.1444018   0.09916671 -40.62 0.0007020302    1.655    0.396
        43 -11.2115      6.5027    154.9565   1.0024995543e+02   4.1581833986e+01    0.4425349    0.2197908  59.05  0.002105267    2.856    0.650
        44  -9.4849     23.4931    155.5067   9.6343094369e+01   3.9952344409e+01    0.1343677     0.102702 -64.87 0.0008104849    1.025    0.025
        45  -9.7850     23.3141    147.3440   9.5096205876e+01   4.1929568020e+01    0.1376051   0.07968521 -43.88 0.0007047378    1.710    0.415
        46 -10.9677      6.5676    145.0318   9.8819614055e+01   4.3918192705e+01    0.2654861    0.1740886 -70.27 0.0006243332    1.188    0.158
        47 -10.3366     57.9785    143.4580   8.5651453733e+01   3.9030293311e+01    0.1947752    0.1660767 -57.77 0.0004374123    1.034    0.033
        48  -9.2105     29.0145    143.0000   9.2945846111e+01   4.2418668318e+01    0.1723563    0.0781873  27.99 0.0004274719    2.830    0.647
        49  -9.3464    235.6957    138.3316   4.6054034838e+01   7.7776219944e+00    0.1440588    0.0986671 -66.29 0.0007036997    1.658    0.397
        50  -9.1973     25.3593    136.2462   9.2688995281e+01   4.4371661269e+01    0.1271109    0.0845238 -36.85 0.0003947451    1.601    0.376
        51  -8.8342     38.2744    135.6705   8.9225613312e+01   4.3209484979e+01    0.1304965   0.09542827 -86.38 0.0002403791    1.591    0.371
        52  -9.7240     95.8624    133.8666   7.3834076341e+01   3.5736905983e+01    0.2030177    0.1666196 -71.42 0.0005550422    1.297    0.229
        53  -9.2738      4.4650    129.5124   9.6923962941e+01   4.7677205352e+01    0.1276264   0.09318459 -59.53 8.009297e-05    1.025    0.024
        54 -10.4959     28.0540    127.7889   9.0411331282e+01   4.6090009603e+01     0.232232    0.1536983 -57.49 0.0005348661    1.175    0.149
        55 -10.3876     41.3801    126.7899   8.6624916490e+01   4.4952644558e+01    0.1980216   0.09779935 -49.55  0.000327339    1.627    0.385
        56  -9.4637     58.9502    123.9993   8.1251974760e+01   4.3500105044e+01    0.1679284    0.1362342 -50.43            0    1.025    0.025
        57 -11.5872     24.8229    122.4741   9.0248292059e+01   4.7613047807e+01     0.366706    0.2362978 -89.29  0.001362383    2.211    0.548
        58 -10.5720     18.0729    121.5228   9.1901466527e+01   4.8425686235e+01    0.1849673    0.1357288 -56.34 0.0003615709    1.040    0.039
        59  -9.2543     75.2836    121.6603   7.6293341083e+01   4.1779813974e+01    0.1393937    0.1077905 -80.33 0.0003324689    1.631    0.387
        60 -10.8986     69.2323    116.9614   7.6794290358e+01   4.3707141620e+01    0.2154683    0.1992666  -9.75 0.0002198181    1.189    0.159
        61 -11.5833      9.3750    120.6472   9.4095256673e+01   4.9323333222e+01    0.3226521    0.2430511 -85.28 0.0009180414    1.495    0.331
        62 -12.0252      2.8958    112.3401   9.4339368474e+01   5.1637089159e+01    0.3345079    0.2237665 -69.50 0.0004990321    1.356    0.263
        63  -9.8644     41.8392    116.0292   8.4178764617e+01   4.7353104775e+01    0.2647687    0.1563098 -23.11  0.001253541    2.287    0.563
        64  -9.1911     51.6735    114.7315   8.1123710717e+01   4.6505160867e+01    0.1342829   0.09249774 -27.86 0.0006972647    1.574    0.365
        65 -10.1198     39.9237    112.6149   8.3949104844e+01   4.8320903969e+01    0.2289238    0.1293487  14.16  0.001103646    2.519    0.603
        66 -10.3875     27.6653    108.1473   8.6452579401e+01   5.0539957382e+01    0.2300872      0.13569 -64.35 0.0005623674    1.650    0.394
        67 -10.2780     24.0317    112.2568   8.8382695738e+01   4.9976097815e+01    0.1327157    0.1113648  10.27 0.0003452017    1.473    0.321
        68 -11.8668     13.4003    108.2068   9.0567003093e+01   5.1762890625e+01    0.5310801    0.1889891 -67.46  0.001971927    3.537    0.717
        69 -10.9880     13.1147    103.7442   8.9716385438e+01   5.2746075742e+01    0.2298289    0.1345875 -51.83 0.0002251439    1.273    0.214
        70  -9.8625     35.6154    110.2015   8.4628966209e+01   4.9306580161e+01    0.1969472   0.09422228 -47.77 0.0009465827    1.649    0.394
        71  -9.2864     65.3025    109.7040   7.6085433526e+01   4.5848122751e+01     0.128649     0.105833 -83.33 0.0001846228    1.578    0.366
        72  -9.6884     66.4668    104.5268   7.4437845008e+01   4.6793561065e+01    0.1394063     0.116765 -36.84 2.635248e-05    1.038    0.037
        73 -11.1561      5.4863    102.4964   9.1678251956e+01   5.3580714926e+01    0.2700182   0.09463567 -60.13   0.00122338    2.218    0.549
        74 -10.7561    247.0668    101.6844   3.6771072283e+01   1.2567360167e+01    0.1834374    0.1575064 -61.11 0.0008686111    1.088    0.081
        75 -10.0781     61.2106     99.9455   7.4735149324e+01   4.8466465097e+01    0.1891317    0.0949657 -49.18  0.000558508    1.720    0.419
        76 -11.9782     20.4773     93.1027   8.5112780876e+01   5.4360861055e+01    0.5995344    0.2922719 -35.10   0.00306325    1.961    0.490
        77  -9.5079    217.7975     98.6015   4.0143023297e+01   1.8792506605e+01    0.1740411    0.1286247  80.03 0.0003310019    1.532    0.347
        78 -10.5897      7.2609     95.6081   8.9692559050e+01   5.4897554970e+01    0.2034993    0.1353613 -61.01 0.0005539655    1.328    0.247
        79 -11.7041     10.8094     93.7632   8.8209329742e+01   5.5013951143e+01    0.2836058    0.1709706 -53.58 0.0003230206    1.281    0.219
        80  -9.9739      7.3976     90.7615   8.8567299479e+01   5.5879510710e+01    0.2318312    0.1525049 -50.44 0.0006533929    1.145    0.127
        81  -9.8201    147.5602     96.5036   5.2064699985e+01   3.3897783264e+01    0.1449209    0.1338641 -52.02 3.344483e-07    1.019    0.019
        82  -9.8245     36.9541     96.3472   8.0928296587e+01   5.2110746533e+01    0.1795253    0.1476831 -31.51 0.0007139558    1.101    0.092
        83 -10.6318     29.0338     93.9806   8.2724532855e+01   5.3396515916e+01    0.3062836    0.1528262 -54.23 0.0009634388    1.689    0.408
        84 -12.0097    125.2442     93.0345   5.6049845863e+01   3.9077438544e+01    0.2481198    0.2361986   0.02   0.00031366    1.099    0.090
        85 -10.6100    105.6261     91.2147   6.0277352140e+01   4.3140839822e+01    0.3095331    0.2197646 -62.40 0.0009523898    1.762    0.432
        86 -11.4496     57.9159     91.5053   7.3425237713e+01   5.0607006036e+01    0.2738596    0.2231935  -6.81 0.0006798839    1.290    0.225
        87  -9.8206     54.5058     89.5422   7.3891987718e+01   5.1433253093e+01    0.2137032    0.1747694 -37.62 0.0006613978    1.045    0.043
        88 -11.4537    159.8219     89.1308   4.7677147717e+01   3.2683179093e+01    0.2493073    0.2203018 -58.53 0.0002667092    1.083    0.076
        89 -10.0041     92.0255     87.0670   6.2609515666e+01   4.6309321138e+01    0.1961134    0.1764423 -27.03  0.001176883    1.005    0.005
        90 -10.2240     17.5140     85.1411   8.4076074009e+01   5.6207691367e+01    0.2413426    0.1288671 -46.20 0.0007095693    1.419    0.295
        91 -13.5113     65.4418     81.7419   6.8461580199e+01   5.1440546895e+01    0.3448849    0.3269732 -38.86 0.0007892844    1.213    0.175
        92 -11.9064     12.6173     76.5176   8.3427034760e+01   5.8266138993e+01    0.3961661      0.22304 -22.35  0.001212796    1.895    0.472
        93 -10.2294      7.4939     84.0066   8.6953321407e+01   5.7219304550e+01    0.2268224    0.1472797 -14.85  0.001423387    1.708    0.415
        94 -10.0137    187.6000     82.9039   4.1196953670e+01   2.7855223150e+01    0.2063244    0.1856903  56.18 0.0003925122    1.231    0.187
        95 -11.4311      8.5922     79.7245   8.5550599761e+01   5.7968811943e+01    0.3076515    0.1880479 -63.91  0.001393811    1.813    0.449
        96  -9.0189     27.7235     82.2666   8.0114986650e+01   5.5841819282e+01    0.1037582    0.0917279 -70.15 0.0006874121    1.480    0.324
        97  -9.6155    125.1558     80.6940   5.2651255910e+01   4.1320684781e+01    0.2577933   0.09275206 -41.04 0.0006489883    2.639    0.621
        98  -9.8158    250.4608     80.5219   3.2098045580e+01   1.5560450625e+01    0.1300619    0.1024786 -60.32 0.0001803128    1.006    0.006
        99  -9.7581    159.3611     80.1927   4.5455086700e+01   3.4342059706e+01    0.2032118    0.1184278 -48.77 0.0004078034    1.692    0.409
       100  -9.9294     85.8031     78.8979   6.1897450879e+01   4.8825458716e+01    0.2853986     0.228147  39.84  0.001675404    1.364    0.267
       101  -9.1859     87.5280     75.4442   6.0406646732e+01   4.9136788310e+01    0.1328689    0.1169813 -13.53  7.48814e-05    1.050    0.048
       102  -9.9960     47.9486     78.9054   7.2871777158e+01   5.4266197074e+01    0.1920245    0.1411138 -23.33 0.0003782166    1.247    0.198
       103 -10.1482     52.7445     75.8602   7.0515462220e+01   5.4218916465e+01    0.2648548     0.223841  64.60 0.0009330919    1.809    0.447
       104  -9.4440     22.5122     76.5617   8.0234031847e+01   5.7409753633e+01    0.1194406   0.09559146 -36.65 0.0001150936    1.064    0.060
       105  -9.8503    176.9901     76.3318   4.1348431988e+01   3.1223794425e+01    0.1928933    0.1744963  74.99 0.0007178314    1.122    0.108
       106 -11.4086      4.6124     74.3274   8.5473222387e+01   5.9281361671e+01    0.3087706    0.1935792   1.27   0.00197536    1.872    0.466
       107 -11.2087      9.4027     70.5195   8.2884937951e+01   5.9627999255e+01    0.2175543    0.1641384 -33.84 0.0007333089    1.031    0.030
       108 -10.1463     35.0649     73.5315   7.5347787218e+01   5.6717107753e+01    0.2304291    0.2096275  37.34  0.001200001    1.472    0.321
       109  -9.4730    105.8024     71.6998   5.4609816686e+01   4.6537680219e+01    0.1737279     0.119846  54.59 0.0005632896    1.649    0.394
       110 -12.7178     81.0370     66.8890   5.9566520815e+01   5.1618683428e+01    0.4739899    0.3286737  -1.15 0.0004490135    1.729    0.421
       111  -9.7566     85.9690     67.0192   5.8272211150e+01   5.0785460063e+01    0.1566559     0.147375 -45.69  0.001012144    1.238    0.192
       112 -10.1794     45.4922     69.9289   7.0979838859e+01   5.6162710838e+01     0.270512    0.1853598 -22.90  0.001629502    1.342    0.255
       113  -9.9832     39.0039     70.6823   7.3254778605e+01   5.6789499856e+01    0.1617115    0.1384338  -9.01 0.0003643029    1.141    0.123
       114  -9.4527     91.8238     70.5871   5.7810692989e+01   4.9217073473e+01    0.1598845    0.1258279  54.02 0.0004788874    1.512    0.339
       115  -9.2401     70.0588     69.9839   6.3603129658e+01   5.2826722641e+01    0.1483316    0.1255177 -22.10 0.0009344718    1.031    0.030
       116 -11.0349      5.4635     70.0383   8.4068574126e+01   6.0011513052e+01    0.1723669    0.1180027 -42.43  0.001168886    1.103    0.094
       117 -11.4044      5.8362     64.9991   8.2568970569e+01   6.0888049091e+01    0.4177608    0.1629245 -33.88  0.002086014    2.349    0.574
       118 -12.0283    211.9013     67.4669   3.4085566534e+01   2.5271468366e+01    0.2380946    0.2094335 -75.41 0.0003275636    1.053    0.051
       119 -10.1437     58.8167     66.1277   6.5715558825e+01   5.5079074393e+01     0.247249    0.1454277 -32.09 0.0009021919    1.527    0.345
       120 -11.1017     16.9412     50.5153   7.4364312312e+01   6.2377353026e+01    0.3518114    0.1432891 -49.45 0.0007554385    2.571    0.611
       121 -13.8693     20.5782     58.5323   7.5637105258e+01   6.0755161117e+01    0.4492257    0.2660469 -27.51 0.0009527561    1.446    0.309
       122 -12.5011     11.7966     59.6946   7.8999066841e+01   6.1336282369e+01    0.4610637    0.3235174 -56.38  0.002233603    1.692    0.409
       123  -9.9607    128.4598     63.1036   4.6962124847e+01   4.3485950156e+01    0.1862243    0.1260553 -34.17 0.0003402504    1.471    0.320
       124 -10.9004     55.0137     61.0339   6.5261305617e+01   5.6415786836e+01    0.2020204    0.1548402 -31.42 0.0003059863    1.166    0.143
       125 -11.3755     58.4621     58.9815   6.3557560723e+01   5.6263258881e+01     0.258056     0.170698  28.40 0.0007604199    1.565    0.361
       126  -9.6170    172.4783     59.0041   3.7796888115e+01   3.4874040752e+01    0.1627559    0.1169632  -0.93  0.000431133    2.234    0.552
       127 -10.9698    145.3392     58.8813   4.2440524244e+01   4.0637315620e+01    0.2220028    0.2068152  50.72 0.0001912381    1.078    0.072
       128  -9.6105     90.9218     59.2809   5.4580095112e+01   5.1125022027e+01     0.169853    0.1511346  15.03 0.0003298978    1.075    0.070
       129  -9.3041    130.7123     57.2850   4.4848432581e+01   4.3874210397e+01    0.1238278    0.0995898 -72.99 0.0002540111    1.530    0.346
       130 -10.3548     71.9496     57.0162   5.8984840174e+01   5.4575237918e+01    0.1763432    0.1566412 -17.80 0.0003133401    1.104    0.094
       131  -9.2120    229.4467     56.5139   2.9639756815e+01   2.3371537325e+01    0.1260228    0.1029679 -67.55 0.0003576114    1.008    0.008
       132  -9.2266    159.3656     56.3135   3.9264424351e+01   3.8049442968e+01    0.1328542   0.09880583  26.21 0.0007039086    1.765    0.433
       133  -9.7128    151.2051     55.9888   4.0596006229e+01   3.9818254444e+01    0.1706333    0.1601261 -39.88  0.001089106    1.088    0.081
       134  -9.9807    225.2124     53.8703   2.9571370628e+01   2.4601687728e+01    0.3281552    0.1482928 -30.44  0.001406184    3.029    0.670
       135 -13.3063    114.5200     53.2554   4.7106865794e+01   4.7638019532e+01    0.3009855    0.2776297  32.31 0.0005954331    1.053    0.051
       136 -11.2059     86.9786     54.0420   5.3956223810e+01   5.2555002597e+01    0.4198149     0.215028  35.51  0.001353396    2.053    0.513
       137 -11.7452     67.1222     52.4141   5.8868332327e+01   5.5978582210e+01    0.4674729    0.2102428  36.00  0.002096294    2.306    0.566
       138 -10.0464    148.9561     52.0830   3.9956179035e+01   4.0827349613e+01    0.1872596    0.1766573  80.97 0.0004328212    1.041    0.040
       139 -10.9896    137.6455     50.0261   4.1461472236e+01   4.3448861107e+01    0.4475864    0.3615835  13.83  0.001432809    1.468    0.319
       140  -9.4982     44.8708     52.4251   6.5628370140e+01   5.9051601480e+01    0.1454109   0.09946575  10.84 0.0009000607    1.495    0.331
       141 -11.5669      3.0310     46.4091   7.8014936128e+01   6.4188000539e+01    0.5888169    0.2774878 -58.34  0.002775104    3.729    0.732
       142 -12.9051    106.3108     50.4170   4.8100431034e+01   4.9581008778e+01    0.4347568    0.2994713 -49.25 0.0003751191    1.716    0.417
       143 -10.4268    119.7104     47.4132   4.4270446078e+01   4.7397000043e+01    0.2134388     0.149204 -16.19 0.0006475128    1.613    0.380
       144 -10.0119     37.9744     52.2245   6.7789993613e+01   5.9917142659e+01    0.3703578    0.1603009 -20.98   0.00147365    3.788    0.736
       145 -10.4378     53.3889     48.2504   6.1567184098e+01   5.8538257726e+01    0.2741634    0.2184457  55.65  0.001766329    1.917    0.478
       146 -10.4997     74.0224     47.6220   5.5349112403e+01   5.5568786788e+01    0.1982221    0.1799699  -1.39  0.001074284    1.110    0.099
       147 -10.4301     10.4961     47.7955   7.5766000803e+01   6.3369723418e+01    0.3180679    0.1124855  26.64  0.001629684    3.145    0.682
       148  -9.2298    160.6411     47.2839   3.6734704279e+01   3.9004681194e+01    0.1304768   0.09275457 -76.81 0.0004490752    1.674    0.403
       149 -10.2242    155.5609     46.7219   3.7415752912e+01   4.0148768162e+01    0.2852836    0.1947001  52.84 0.0007539505    1.430    0.301
       150 -10.7795     79.2716     45.5806   5.3258464043e+01   5.4986463469e+01    0.2110711    0.1944397  -6.26 0.0002722759    1.131    0.116
       151 -10.4591     26.2715     44.3515   6.9074356475e+01   6.2378978306e+01    0.3053172    0.2116337 -32.87  0.001762675    1.257    0.205
       152 -10.6110     16.7217     43.6991   7.2192486561e+01   6.3428555061e+01    0.2535207    0.2213932 -87.82  0.001456153    2.418    0.586
       153  -9.3910    220.8437     43.4014   2.7900035454e+01   2.6941181708e+01    0.1505072    0.1051911  60.89 0.0001018157    1.542    0.352
       154 -10.3216     67.6105     39.8289   5.4527532480e+01   5.7574583120e+01    0.1792413    0.1354468 -54.88 0.0004438171    2.014    0.503
       155  -8.8163     57.4947     43.4713   5.8702141265e+01   5.8613653529e+01    0.1175448   0.09760288  -4.10 0.0008099356    1.012    0.012
       156 -12.1843    141.8126     41.1037   3.8259214394e+01   4.3717240365e+01    0.2235299    0.2096628  61.88 0.0003844938    1.018    0.017
       157 -11.0010     37.5526     41.2988   6.4218650687e+01   6.1529118261e+01    0.3449384    0.2028904  13.05  0.001705079    1.857    0.462
       158 -10.3458    184.5855     40.5832   3.1612401174e+01   3.4804233785e+01     0.287875    0.2069787 -79.93  0.001707767    1.441    0.306
       159 -10.1338    170.4667     40.2000   3.3470160300e+01   3.7829017557e+01    0.2141813    0.1723679 -87.84  0.001343973    1.239    0.193
       160 -12.0256    120.6067     37.7630   4.1265175093e+01   4.8392541243e+01    0.5844502      0.32578  28.06  0.002837054    2.403    0.584
       161  -9.8002    110.9946     41.5078   4.4359605630e+01   4.9818312125e+01    0.1725005    0.1140524  51.27 3.108923e-05    1.460    0.315
       162 -10.9650      4.8467     39.9613   7.5236256579e+01   6.5018743649e+01    0.3044703     0.123043 -43.00   0.00172367    2.024    0.506
       163  -9.7483     43.8569     39.8848   6.1678915999e+01   6.0932824574e+01    0.1389646    0.1219301 -17.81 0.0003500617    1.264    0.209
       164  -9.2879     97.2405     38.3956   4.6470746108e+01   5.2750218423e+01    0.1222908   0.08457476   7.78 0.0006925453    1.667    0.400
       165 -10.5031     81.9834     37.0232   4.9739083914e+01   5.5584896243e+01    0.2925484    0.1866453 -32.52 0.0008673287    1.588    0.370
       166 -10.8916      2.3181     35.3267   7.4598400350e+01   6.5890785721e+01    0.4053614   0.09140937 -36.03  0.001667198    3.874    0.742
       167  -9.9863    132.3541     36.0235   3.8543173356e+01   4.6245497857e+01    0.2777458    0.1719387   5.66 0.0007458595    2.572    0.611
       168  -9.3977     77.3365     37.2999   5.1033169836e+01   5.6327306505e+01    0.1230234   0.08066577  14.55 0.0003301782    1.659    0.397
       169 -13.0990      9.7826     29.6681   6.9789498635e+01   6.6020013628e+01    0.3144896    0.2291442   9.91   0.00243761    1.313    0.238
       170 -12.0686     45.7165     32.8537   5.8595726436e+01   6.1571854480e+01    0.2779773    0.1849831  32.85 0.0007080593    1.495    0.331
       171 -10.4582     45.4785     26.9893   5.6544380052e+01   6.2282733617e+01     0.308778     0.126452 -32.09  0.001218705    2.295    0.564
       172  -8.9742     36.6054     34.2840   6.2045389656e+01   6.2558624271e+01   0.09263583   0.09078046  78.19 0.0006999523    1.763    0.433
       173 -10.4471     28.1446     33.4093   6.4579887515e+01   6.3661268964e+01    0.1915465    0.1155994 -17.77 0.0007676182    1.461    0.315
       174 -10.6187    206.0176     32.2010   2.7176451010e+01   3.1393569416e+01    0.1834659    0.1526358 -61.39 0.0003874515    1.117    0.105
       175 -10.5465     89.7076     31.7872   4.6126093510e+01   5.4839022585e+01    0.3231533    0.1564303 -29.20  0.001235534    2.094    0.522
       176 -11.8034     91.1808     26.6947   4.4134720284e+01   5.5110387133e+01    0.2171111    0.1997052   9.14 0.0002318819    1.094    0.086
       177  -9.2821     55.2901     33.2951   5.5825632917e+01   6.0196081753e+01    0.1146799   0.07511666   5.59 0.0002915915    1.553    0.356
       178  -9.5560    188.1921     30.0285   2.8745865972e+01   3.5332412171e+01    0.1734435    0.1225868  49.51   0.00105412    1.589    0.371
       179 -11.3541    135.7035     29.1019   3.6038176498e+01   4.6325563678e+01    0.2008056    0.1694813  60.72 0.0002807113    1.107    0.097
       180  -9.8872     39.0827     30.2309   5.9764430178e+01   6.2745624445e+01    0.1652255    0.1170013   2.45 0.0005615305    1.230    0.187
       181  -9.7795    209.2612     28.0038   2.5953310051e+01   3.1239619497e+01     0.158423    0.1317662 -71.19 0.0002878903    1.052    0.049
       182 -10.4511    144.8830     27.9787   3.4230136108e+01   4.4570326124e+01    0.2367029    0.1558031  53.38 0.0008550999    1.404    0.288
       183  -9.9816    102.9645     26.3730   4.1442415850e+01   5.2997249002e+01    0.1843601    0.1583126 -11.60 0.0006221451    1.195    0.163
       184 -10.6192    188.6626    248.3168   7.6337849959e+01  -5.7339542182e+00     0.181995    0.1280456  51.58 0.0008402231    1.681    0.405
       185  -9.6079     68.3955     27.1697   4.9962834442e+01   5.8898215229e+01    0.2322107     0.175964 -82.60  0.001304928    2.995    0.666
       186  -9.1880     59.2404     30.6741   5.3742592755e+01   5.9921209324e+01   0.09844144   0.08449443 -39.65 0.0002163842    1.528    0.346
       187  -9.6021     18.5632     26.3255   6.5337238639e+01   6.5581980157e+01    0.1426602   0.07969524 -22.71 0.0009280891    1.503    0.335
       188  -9.8040     19.7876     16.5493   6.1140656712e+01   6.6571680375e+01    0.1351031   0.08787852  24.20 0.0003672825    1.441    0.306
       189  -9.7837     21.3453     22.3210   6.2826080619e+01   6.5759363171e+01    0.2236947    0.1222643   7.58  0.001372127    1.983    0.496
       190 -11.6666     17.6678     20.5000   6.3441835474e+01   6.6363253703e+01    0.4098381    0.1871161  30.02 0.0006953053    2.163    0.538
       191 -10.1483      2.5051     26.5006   7.1375770887e+01   6.7074160470e+01       0.1543   0.08959071  20.15 0.0009353515    1.750    0.429
       192 -11.7206     18.7196    248.0499   1.0769058445e+02   1.9013509950e+01    0.2962191    0.2596435   6.20  0.001567911    2.068    0.516
       193  -9.4908      7.5186     20.5408   6.7215041901e+01   6.7370395989e+01      0.13919   0.08420254 -38.37 0.0005978466    1.746    0.427
       194  -9.5805    216.5821     25.5073   2.4708298356e+01   3.0062035979e+01    0.1164339   0.09458052 -75.61 -0.0001426662    1.015    0.015
       195  -9.7928     51.3079     24.0420   5.3690750088e+01   6.1794825452e+01    0.1532126    0.1215802  -9.34 0.0008774176    1.133    0.117
       196 -10.3488    128.0687     22.9924   3.5651097983e+01   4.8479913588e+01    0.1730496    0.1534181  45.47 0.0003489594    1.045    0.043
       197 -10.3889    199.4829     22.0271   2.5726617163e+01   3.3918255791e+01    0.1835122     0.132932  76.54 0.0005677169    1.244    0.196
       198 -10.5152    111.9948     20.8500   3.7950291980e+01   5.1825022468e+01    0.1781172    0.1493564  25.28 0.0003568753    1.159    0.137
       199  -9.5658    230.1660    247.1922   6.8583888676e+01  -1.1570792137e+01    0.1494738     0.138721 -30.46  0.000433206    1.282    0.220
       200  -9.8478    170.8046    246.8273   7.9465278946e+01  -2.6926313936e+00    0.1970315    0.1689769  -9.55 0.0009279478    1.254    0.203
       201  -9.6437    116.2131    246.9128   8.9966394808e+01   5.9644143271e+00    0.1834684    0.1567624 -71.54  0.001137324    1.145    0.127
       202 -10.1139     52.3722    244.2095   1.0154412684e+02   1.5769698478e+01    0.1887162    0.1363713 -63.50 0.0007871768    1.392    0.282
       203  -9.5159     31.2698     20.9717   5.8885710164e+01   6.4764940745e+01    0.1468309    0.1045887 -12.98 0.0003405287    1.156    0.135
       204  -9.5537    132.0235     20.3663   3.4255079006e+01   4.7942521143e+01     0.157951    0.1331733  56.36 0.0004626993    1.071    0.067
       205 -11.2150     77.5067     19.1992   4.4886179596e+01   5.8197714284e+01    0.3900212    0.2112432  64.82  0.002004713    2.866    0.651
       206  -9.6752     39.6441    243.3146   1.0371172490e+02   1.7568501969e+01    0.1313517   0.07430202  73.13 0.0007044855    1.742    0.426
       207 -10.4195    237.9687     19.3267   2.1612553413e+01   2.6614143424e+01    0.1588635    0.1222035 -85.46 0.0006976759    1.102    0.093
       208  -9.1010    140.3210     18.2263   3.2359640460e+01   4.6473344247e+01    0.1138715   0.07603975  42.93 0.0006830121    1.501    0.334
       209  -9.2529    202.4608    241.4633   7.2589279928e+01  -6.6391557445e+00    0.1270645    0.1135685 -10.97 0.0001215961    1.013    0.013
       210 -12.1469      2.5572    247.6478   1.1027375674e+02   2.0823536898e+01    0.5246148    0.3885604 -87.12  0.002813713    1.123    0.109
       211  -9.7682     50.0976     17.7400   5.1732396702e+01   6.2603689620e+01    0.1696647    0.1235325 -21.29  0.001226959    1.350    0.259
       212  -8.9960    208.5538    191.4746   6.1945968873e+01   1.8574977354e+00    0.1436576    0.1253119 -37.31 0.0002261461    1.009    0.008
       213  -9.6121    229.1797     16.3912   2.1799159937e+01   2.8640317998e+01    0.1526553   0.08832642 -89.83 0.0004236514    1.611    0.379
       214  -9.8522    171.0069     16.0497   2.7626635473e+01   4.0396785946e+01    0.1367031    0.1183204  81.94  0.000356041    1.012    0.012
       215 -10.8128    160.1333     15.9298   2.8970301161e+01   4.2644966088e+01    0.2620342     0.140917  62.61 0.0004693302    1.636    0.389
       216  -9.5804    243.1619    235.8361   6.4285725648e+01  -1.1517842238e+01    0.1764096    0.1241292 -14.98 0.0004548487    1.352    0.260
       217  -9.6422     59.1218    236.0855   9.9432956666e+01   1.6642955995e+01    0.1726974    0.1239565  82.70 0.0003845598    1.256    0.204
       218  -9.3528    238.8521    234.1760   6.4727951711e+01  -1.0664974095e+01    0.1687151    0.1246598 -13.91 0.0004039856    1.270    0.213
       219 -10.6284     14.0258     15.9700   6.2997339906e+01   6.7250842248e+01    0.1971583    0.1326122 -17.12 0.0003959647    1.177    0.151
       220 -10.1613     32.1746    233.2879   1.0406674368e+02   2.0645099968e+01    0.1960504    0.1368835 -71.80 0.0005658133    1.243    0.196
       221 -10.7776    235.3351     14.8677   2.1011306456e+01   2.7631212471e+01    0.1944658    0.1399536  77.18 0.0005978256    1.312    0.238
       222 -10.2100    197.1873     14.3503   2.4346939946e+01   3.5212197262e+01    0.1455172    0.1319524 -87.61 0.0004026419    1.141    0.123
       223  -9.8537     80.8136     26.8241   4.6644135804e+01   5.6898037122e+01    0.1685565    0.1349497  16.54 0.0004883494    1.116    0.104
       224  -9.6479      5.6757     14.4942   6.5546742239e+01   6.8241716436e+01    0.1000759   0.07007564 -13.72 0.0002682243    1.072    0.067
       225 -10.8558    207.9590     13.0243   2.3028801900e+01   3.3184606655e+01    0.1713873    0.1405336 -80.31 0.0004238874    1.018    0.017
       226  -9.9324     13.5788    180.8877   1.0201918365e+02   3.4781092212e+01    0.3006267    0.1040659 -77.51  0.001116761    3.128    0.680
       227 -10.3655    245.0699    230.1815   6.2922729637e+01  -1.0856953003e+01    0.3718014    0.1577816  33.20  0.001335311    2.663    0.624
       228  -9.5154    204.1840    235.4179   7.1198001046e+01  -5.8397777912e+00     0.161159    0.1217472  45.58 0.0006479403    1.511    0.338
       229 -10.5833    140.4035    227.9268   8.2313197651e+01   5.9806827725e+00     0.319484    0.2282707 -83.96  0.001028649    1.825    0.452
       230  -8.9743    152.2931    227.3036   7.9821561404e+01   4.1229314724e+00    0.1333465    0.1062475 -14.62 0.0005721081    1.575    0.365
       231 -11.6413      1.8041    224.6840   1.0863217600e+02   2.5802977523e+01    0.4167275     0.190077  88.53  0.001384363    2.061    0.515
       232 -11.3526      2.6079    219.9753   1.0809812647e+02   2.6766815967e+01    0.4627514    0.1705138  86.56   0.00173555    3.935    0.746
       233  -9.4201     97.4895     10.5038   3.7622282150e+01   5.5433740092e+01    0.1093735   0.09512424  36.80 0.0008104044    1.030    0.029
       234 -10.1608     12.4921    226.5478   1.0693272580e+02   2.4316393428e+01    0.1217205   0.08946503 -88.10 0.0001003838    1.005    0.005
       235  -9.0614     61.3007    224.6688   9.7677740917e+01   1.8906786863e+01    0.1369762   0.08699542  79.26 0.0004883797    1.649    0.393
       236 -11.7001      8.6092    219.1207   1.0695985281e+02   2.6368201618e+01    0.4902683    0.1246431 -63.86  0.001413823    2.870    0.652
       237  -9.7550    131.3484    221.1676   8.3030804535e+01   8.9435726877e+00    0.2598109    0.1038954  37.91 0.0009901137    2.703    0.630
       238 -10.3627     27.9149    219.7341   1.0349139975e+02   2.4175516806e+01    0.1888337    0.1514239  45.79  0.001246825    1.503    0.335
       239  -9.6961     85.7363    215.0443   9.1484045271e+01   1.7643457675e+01    0.1867584    0.1527481 -70.95 0.0001819621    1.089    0.081
       240  -9.5527    205.4365    211.7202   6.6551181587e+01  -1.6363573158e+00    0.1988659    0.1180374 -34.04 0.0009458124    1.633    0.388
       241  -9.1231    229.7135    209.3459   6.1654083681e+01  -5.0278299168e+00    0.1271416    0.1017596 -64.77 0.0007020941    1.650    0.394
       242  -9.6723     20.1269    209.3488   1.0388696333e+02   2.7413623388e+01    0.1699694    0.1320882  82.67  0.000908607    1.142    0.124
       243 -10.2529     39.3634    207.1025   9.9877320412e+01   2.5782866389e+01    0.1913869    0.1687135 -80.50  0.000603762    1.181    0.153
       244 -11.7621      2.7991    205.9323   1.0680972343e+02   2.9918733256e+01    0.3330047    0.2128987 -57.18  0.002068566    1.596    0.374
       245  -9.5347    124.0010    205.9783   8.1967469115e+01   1.3599080036e+01    0.1636635    0.1522491 -75.25            0    1.017    0.017
       246  -9.4393    193.9891    201.4762   6.6732454305e+01   2.3243748088e+00    0.2021378     0.141794  37.82 0.0006348408    1.564    0.360
       247 -10.2440    220.6649     10.6814   2.1440886990e+01   3.0924712249e+01     0.102044    0.0809807  48.80 0.0007048935    1.700    0.412
