#   1 NUMBER                 Running object number                                     
#   2 MAG_AUTO               Kron-like elliptical aperture magnitude                    [mag]
#   3 X_IMAGE                Object position along x                                    [pixel]
#   4 Y_IMAGE                Object position along y                                    [pixel]
#   5 X_WORLD                Barycenter position along world x axis                     [deg]
#   6 Y_WORLD                Barycenter position along world y axis                     [deg]
#   7 A_WORLD                Profile RMS along major axis (world units)                 [deg]
#   8 B_WORLD                Profile RMS along minor axis (world units)                 [deg]
#   9 THETA_WORLD            Position angle (CCW/world-x)                               [deg]
#  10 FWHM_WORLD             FWHM assuming a gaussian core                              [deg]
#  11 ELONGATION             A_IMAGE/B_IMAGE                                           
#  12 ELLIPTICITY            1 - B_IMAGE/A_IMAGE                                       
         1 -11.8582    212.5315     26.3179   3.0807899572e+01   2.8561338865e+01     2.100857    0.5735189 -42.83  0.005587782    3.092    0.677
         2 -11.1639    201.9657     23.8665   3.1211605171e+01   3.1347964678e+01      2.06216    0.5193067 -32.99  0.007290357    3.148    0.682
         3 -12.7408    246.8934     12.9976   2.4767676672e+01   2.2377428048e+01    0.9775349    0.3647366 -27.88  0.004427291    2.424    0.587
         4 -14.4367    233.5417    106.1904   4.8191084752e+01   1.3116875828e+01     3.062354     2.240554 -31.73   0.00896332    1.210    0.174
         5 -14.8756    178.5822     80.2286   5.0414180051e+01   2.9135499758e+01     4.828011     3.224596 -63.28  0.005422925    1.887    0.470
         6 -12.0671    124.8120    103.8650   6.8721650408e+01   3.6890744890e+01     1.359406     0.845852  72.49  0.005241208    2.623    0.619
         7 -13.6492    232.1191     35.4102   3.1254219499e+01   2.3052421176e+01     4.834289     1.682755 -24.55   0.01813844    3.087    0.676
         8 -13.0756    250.3363     64.0645   3.6303196638e+01   1.5645908227e+01      1.33272    0.3647018 -27.53 0.0008300832    3.756    0.734
         9 -14.4424    245.7086     59.9988   3.5834087041e+01   1.7103530576e+01     2.085282    0.7608663  53.04  0.008744347    3.071    0.674
        10  -9.6341    156.2307     11.5328   3.2843527458e+01   4.4077532225e+01     0.648364    0.2831547   1.80   0.00192501    5.344    0.813
        11  -9.8850    157.8732      5.3654   3.0594557804e+01   4.4239304346e+01     0.338896    0.2729813   7.27  0.001222169    1.459    0.315
        12 -10.8605    134.8188     13.2221   3.6624578990e+01   4.9345863210e+01    0.4271102    0.2596123   6.33  0.001918631    2.213    0.548
        13  -9.4448     98.6127     13.2215   4.3944218715e+01   5.8134955561e+01    0.3185354    0.1326149 -21.09  0.001275562    2.611    0.617
        14 -10.3480    139.6021     11.5235   3.5234792883e+01   4.8306672862e+01    0.4004815    0.2173886  -2.62   0.00168543    2.524    0.604
        15  -9.6603    144.4098     12.1495   3.4722924068e+01   4.7025900038e+01     0.283324    0.1751725 -87.30  0.001138076    1.904    0.475
        16 -10.7602    128.5580      3.7352   3.4087959081e+01   5.1805017504e+01    0.5878499    0.2556727 -18.80  0.002465119    2.500    0.600
        17 -13.3184    249.2882     33.5920   2.9329972225e+01   1.9612682043e+01     1.775788    0.6580081 -23.90  0.004419076    2.912    0.657
        18  -9.4854    118.6358      6.8102   3.6987977993e+01   5.3992961914e+01    0.1873549    0.1191175 -33.50 0.0004375208    1.634    0.388
        19  -9.2915    221.3920      2.4492   2.3963044369e+01   2.9007966920e+01    0.2708408    0.1802588  13.45  0.001411438    2.293    0.564
        20  -9.7370    182.4621      2.9398   2.7214377657e+01   3.8262458805e+01    0.6015489    0.2220216 -74.71  0.001771135    5.125    0.805
        21 -10.5585    228.0273      2.1256   2.3443296313e+01   2.7545297008e+01    0.3861964    0.2140912 -89.91  0.001557468    1.820    0.451
        22 -10.4177    112.4471      3.0978   3.6620769546e+01   5.5834996500e+01    0.3725438     0.180711  67.25   0.00166343    1.981    0.495
        23 -15.1616    215.8487     78.2133   4.3928956167e+01   2.0923779126e+01     8.947187     3.891561 -40.57   0.03715973    2.074    0.518
        24 -10.1417    235.2252    179.4709   6.3287808648e+01   2.4509931502e+00    0.2249037    0.2038451  30.03 0.0003965658    1.328    0.247
        25  -9.3275    250.2526    249.3456   7.2386422945e+01  -7.3380608465e+00    0.1847319    0.1031688 -11.27  0.001272602    1.754    0.430
        26 -12.2992    159.1072     91.4772   5.7351346109e+01   3.1727416310e+01     1.233622    0.5458698 -46.86 0.0006516511    2.381    0.580
        27 -13.0284    198.1598     85.4956   4.8483004950e+01   2.3755891932e+01     2.371779    0.8697681  39.99  0.007239975    4.281    0.766
        28  -9.0379    184.4159    242.0474   8.1958960206e+01   2.0424778998e+00    0.1992223    0.1853302  86.00 0.0009681644    1.638    0.390
        29 -10.3661    204.7709    236.2624   7.7709228442e+01  -1.2056267033e-01    0.1892705    0.1521505  20.45 0.0002859928    1.067    0.063
        30  -9.3158    171.9384    235.9863   8.3331033677e+01   4.5993076572e+00    0.1688772    0.1367757  29.60 0.0003952918    1.024    0.023
        31  -9.3502    173.6052    231.2333   8.2396004671e+01   4.9855651994e+00    0.2054847    0.1500966  29.91 0.0004505008    1.120    0.107
        32  -8.4864    194.4178    171.2231   6.8756360857e+01   1.0410985592e+01    0.1722463     0.122158 -46.82 0.0007025892    1.630    0.386
        33 -11.7624      3.0103    164.8182   1.1078187536e+02   4.0031107231e+01    0.6120359    0.2431743 -60.92   0.00288255    2.516    0.603
        34 -11.9100      2.8262    159.8311   1.1051735994e+02   4.1128672297e+01    0.6543121    0.3193817  78.32  0.002828873    1.827    0.453
        35  -7.8412    212.4797    166.4470   6.4589934405e+01   7.9854659379e+00    0.1266698    0.1152516   2.88  0.000349927    1.077    0.071
        36 -11.7683     17.4631    155.3440   1.0670635078e+02   4.0896774084e+01    0.7847939    0.3456089  72.24  0.003688489    2.463    0.594
        37  -9.9120    249.1841    157.6105   5.6925015346e+01   3.1325280303e+00     0.287752    0.1594865 -36.93  0.001531265    1.746    0.427
        38 -11.0555    191.7827    155.2174   6.6069327413e+01   1.3467260342e+01    0.3643198     0.325677 -71.09 0.0006080116    1.446    0.308
        39 -11.9320     64.9128    141.1660   9.2801074963e+01   3.8845113317e+01       2.0277     1.022285  44.28  0.009502212    1.951    0.487
        40 -12.4978     34.3241    149.6435   1.0194881853e+02   4.0555715293e+01    0.6215188    0.5109354  59.24  0.001389373    1.169    0.145
        41 -12.0521     48.4828    144.6945   9.7675323731e+01   4.0118413061e+01    0.6212831    0.4213102 -85.78  0.001793464    1.404    0.288
        42 -10.9617    172.3392    153.3034   6.9463864268e+01   1.7482929062e+01    0.4755905     0.272314 -29.73 0.0004090936    2.025    0.506
        43 -11.2642    177.6924    150.3474   6.7777360120e+01   1.6975478656e+01    0.4411494    0.3513313  40.23  0.002062195    1.228    0.186
        44 -10.1823    133.8951    146.0330   7.6299354584e+01   2.6270495277e+01     0.787015    0.2883882 -55.00  0.002636993    3.413    0.707
        45  -8.9551    132.5973    138.7952   7.5095656453e+01   2.8006582777e+01    0.2686884    0.1454846 -54.30  0.001038864    1.997    0.499
        46  -9.9159    144.5324    146.8524   7.4046303260e+01   2.4068855332e+01    0.4892458    0.2910066 -69.73  0.001913529    2.866    0.651
        47  -8.4755    115.8246    149.1404   8.1185252956e+01   2.8953000001e+01    0.1736417    0.1607985  -4.65            0    1.260    0.206
        48 -10.4949    192.1887    143.5158   6.3521848192e+01   1.5339834206e+01    0.3648547    0.2545531 -39.61 0.0005912867    1.432    0.302
        49 -10.9852    177.0146    140.1738   6.5725403558e+01   1.8911151065e+01    0.3753507    0.2982641  71.10  0.001949052    1.618    0.382
        50 -12.5800     41.8948    146.7886   9.9667043410e+01   4.0393259936e+01    0.8705814    0.6002563 -82.14  0.003149858    1.310    0.236
        51  -9.9772    209.4973    137.9963   5.9199963237e+01   1.2903704692e+01    0.4719452     0.227262 -55.18   0.00161752    4.076    0.755
        52 -10.4868    206.0117    136.4975   5.9477057966e+01   1.3812872461e+01    0.2810329    0.2465996   9.48  0.001102323    1.117    0.105
        53 -10.7132    155.3063    137.3683   6.9633429252e+01   2.3797813103e+01    0.5334733    0.2915029  39.80  0.002309041    1.862    0.463
        54  -9.4468    211.9869    134.5216   5.8007829895e+01   1.2976378662e+01    0.2293153    0.1690518 -30.38 0.0008029244    1.273    0.214
        55 -10.3464    190.6113    132.0627   6.1275461504e+01   1.7596412787e+01    0.3778481    0.2996519  88.10  0.001920387    1.832    0.454
        56  -9.3330    158.3968    143.1129   7.0219131662e+01   2.2079605670e+01    0.2796034    0.2048335  50.19 0.0009364696    1.385    0.278
        57  -9.9670    203.1622    131.0526   5.8761889930e+01   1.5253494070e+01    0.2557855    0.1862902 -53.11  0.001130328    1.616    0.381
        58 -10.6915    225.5998    129.3842   5.4637198869e+01   1.1184818055e+01    0.4266842    0.2938698 -39.11  0.001624795    1.402    0.287
        59 -10.5303    160.8625    128.2118   6.6352016713e+01   2.4418891407e+01     0.411978    0.3016809 -53.95  0.002027557    1.488    0.328
        60  -9.4039    136.0000    129.4456   7.2236164758e+01   2.9268341160e+01    0.3663623    0.1035591 -45.15  0.001115907    3.572    0.720
        61  -9.5370    209.2265    127.6664   5.6941425890e+01   1.4602298986e+01    0.3660577    0.2303137 -41.30  0.001816895    1.563    0.360
        62  -9.7904    197.4268    127.1081   5.8886053333e+01   1.7055163064e+01    0.4079795    0.1318511 -36.58  0.001328854    2.986    0.665
        63  -7.9486     92.5104    126.5678   8.2682875519e+01   3.8012718905e+01    0.1398575    0.1347768 -80.32 0.0001508227    1.044    0.042
        64  -9.6069    214.2469    121.6024   5.4713076868e+01   1.4571765926e+01    0.3045073    0.2008166 -23.11 0.0009765402    1.526    0.345
        65 -10.2341    170.3985    122.2149   6.2936059106e+01   2.3540886241e+01     0.382833    0.2425264  61.13  0.001541418    1.919    0.479
        66  -9.0363    174.3226    226.9493   8.1675796035e+01   5.4570938750e+00     0.153531    0.1340993  15.37 0.0004465086    1.111    0.100
        67  -9.5259    135.1893    119.7931   7.0171431977e+01   3.1425479240e+01    0.3276798    0.1898486 -44.59  0.001103028    1.722    0.419
        68 -10.3082    162.0374    119.3968   6.4000320562e+01   2.5848479113e+01    0.4061304    0.2508689  75.44  0.001509182    2.991    0.666
        69  -8.5548     29.4395    117.7427   9.9375691588e+01   4.8525635627e+01    0.2509631    0.1131417 -77.76  0.001115466    2.169    0.539
        70  -9.8446    201.6265    116.2067   5.5584720934e+01   1.8003801166e+01    0.3260367    0.2183505 -44.63  0.001214281    1.504    0.335
        71 -11.3435    204.7607    110.5398   5.3688307423e+01   1.8276808314e+01    0.5808854    0.4977852  28.16  0.002595536    1.233    0.189
        72 -11.1475    129.8241     88.0948   6.3091682543e+01   3.9018598901e+01    0.5097592    0.2718615  32.92  0.001648376    2.560    0.609
        73 -11.6237    132.2099     93.6839   6.4096602089e+01   3.7385146977e+01    0.7683542    0.3985055 -34.91  0.003015638    2.100    0.524
        74  -9.8155    135.0000    110.5141   6.7918665724e+01   3.3374784875e+01    0.6564829    0.2031216 -43.94  0.002065513    3.201    0.688
        75 -11.2709    135.2272    101.6534   6.5547463481e+01   3.5128643801e+01     1.014534    0.3305384 -42.09  0.002661296    3.044    0.671
        76 -11.6510    113.8082    103.3618   7.1460483646e+01   3.9248549266e+01    0.7859069    0.5525021 -71.47  0.003555677    1.812    0.448
        77 -10.0740    141.3403    220.0058   8.6857233709e+01   1.1484295668e+01    0.2039252    0.1898706  44.05 0.0004752422    1.122    0.109
        78 -11.2589    118.7250     94.7398   6.7826394061e+01   4.0063167305e+01    0.3599775    0.3055953 -59.81  0.001530132    1.211    0.174
        79  -8.3304     99.8971    106.5507   7.6092575723e+01   4.1232615160e+01    0.2118765    0.1323435  16.09 0.0003244447    2.812    0.644
        80 -10.5093    167.7053    114.4099   6.1583794392e+01   2.5563288025e+01    0.5637046    0.3148749 -37.88  0.002424767    1.771    0.435
        81  -9.6249    149.5931    104.4339   6.2933329076e+01   3.1432617614e+01    0.2918053    0.2558671   6.93  0.000565402    1.298    0.230
        82 -10.6529    160.6795    100.2412   5.9402774970e+01   2.9753672806e+01    0.6200434    0.3287504  42.71  0.002525811    2.007    0.502
        83 -10.3697     84.1013     98.7943   7.8760678754e+01   4.5784731211e+01    0.2386152    0.2298356 -75.83 0.0002450226    1.031    0.030
        84 -14.0790    231.3539     73.0813   4.0604643660e+01   1.8322400649e+01     1.801165     1.109347  73.41  0.008955845    2.021    0.505
        85  -8.2644     65.5073    115.9742   8.8228785680e+01   4.4678708120e+01    0.2007184    0.1268551 -61.65 0.0003100342    1.463    0.317
        86 -10.3985    143.3903     94.8301   6.1751291319e+01   3.4676931302e+01    0.3554041    0.3161537  80.67   0.00141262    1.239    0.193
        87 -10.8741    142.7605     89.6586   6.0442319035e+01   3.5812897740e+01    0.4997083    0.3076192  65.14  0.002074774    2.028    0.507
        88  -9.9516    179.0261    108.1898   5.7759510639e+01   2.4216928401e+01    0.5440164    0.3205265  -4.94  0.001833061    3.656    0.727
        89 -10.1291    151.0715     71.4687   5.3230124038e+01   3.7176289993e+01    0.2865551    0.2433208 -39.70 0.0005079506    1.154    0.134
        90  -9.9536    240.8221    218.5124   6.9154841207e+01  -3.0474663897e+00    0.2198194    0.1644322  47.91  0.001076281    1.919    0.479
        91  -9.4712    125.8992     63.4925   5.6428349621e+01   4.4516517292e+01    0.2733945    0.2118123 -35.87 0.0003164854    1.276    0.216
        92  -9.3298     33.8584    218.1667   1.0764371484e+02   2.6299055369e+01    0.1348231    0.1252896  65.56  0.001077736    1.343    0.256
        93  -9.5490    174.8935    176.6607   7.3494836424e+01   1.2986050070e+01     0.309665    0.2387913  68.51  0.001017456    1.791    0.442
        94 -10.7381      6.1013     54.1680   9.6519887970e+01   6.5183479515e+01    0.2528708    0.1802085 -35.09  0.001615056    1.377    0.274
        95  -9.3104    148.9454     50.9947   4.7198564632e+01   4.1007090752e+01    0.2175029    0.2144353 -33.49  0.000383659    1.026    0.026
        96  -9.4415    177.4052     49.2785   4.1674714017e+01   3.4178450714e+01    0.3365814    0.1898718 -53.82  0.001349965    1.980    0.495
        97 -10.0408    192.0685     48.2037   3.9210123274e+01   3.0729876494e+01    0.3767178    0.2762517  49.16  0.001256437    1.466    0.318
        98  -8.3488     93.1269    214.1528   9.5638886641e+01   1.9629921330e+01    0.1608821    0.1443191  42.03 0.0002731576    1.189    0.159
        99  -9.9960    118.0012     43.1715   5.1261758689e+01   4.9699691283e+01    0.2354513     0.202723 -28.59  0.000312678    1.163    0.140
       100  -9.3871    191.6219     40.6627   3.7126200207e+01   3.1835867942e+01    0.3167984    0.2338398  67.04 0.0004090786    1.374    0.272
       101 -11.3062    121.7676     37.6042   4.8306503889e+01   4.9621899190e+01      0.49157    0.2801192  42.37  0.002159352    1.839    0.456
       102  -8.9045    165.9472     35.0758   3.9090852242e+01   3.8949151911e+01    0.3678583    0.2050386  -9.79  0.001474707    2.528    0.604
       103  -9.3968    190.0497     35.3687   3.5812485592e+01   3.2890687057e+01    0.2501896    0.1948187 -34.01 0.0004916476    1.248    0.199
       104  -8.8645    187.9674     30.7939   3.4751646175e+01   3.3961718738e+01    0.2379452    0.1818993 -27.10 0.0008361218    1.333    0.250
       105 -10.4389    144.8656     29.6698   4.0775799406e+01   4.4961857468e+01    0.3914135    0.2031474 -18.28  0.001605187    2.282    0.562
       106  -9.6494    159.7228     29.1642   3.8152513992e+01   4.1258515386e+01    0.2620702    0.2341068 -13.06 0.0005218929    1.210    0.174
       107 -10.4754    133.9283     28.9803   4.2557244920e+01   4.7791704941e+01    0.3097697    0.2129339 -22.14 0.0005933288    1.539    0.350
       108  -8.1836    112.5134     28.4834   4.6967046787e+01   5.3068777722e+01    0.1422125    0.1313087  26.43 8.212409e-05    1.064    0.060
       109 -10.1460    179.5515     24.0460   3.3801994302e+01   3.6843777147e+01    0.4809188    0.3933321 -88.27  0.002099619    1.209    0.173
       110  -9.2807      3.4079     22.7850   8.8559052954e+01   7.1918534217e+01    0.1814757    0.0777796 -47.45 0.0008648174    1.777    0.437
       111 -10.3616    143.7584     21.7333   3.8196877582e+01   4.6179174764e+01    0.2558344    0.2187154 -65.14 0.0009479357    1.226    0.184
       112  -9.0114    237.4808    172.4753   6.1612197865e+01   3.0174834473e+00    0.2075106    0.1028534 -41.40  0.001026216    2.261    0.558
       113 -10.3002    149.2633     19.2296   3.6445003908e+01   4.5058135269e+01    0.3213783    0.2339178  87.39  0.001147357    1.464    0.317
       114  -9.2703    250.5470    171.1088   5.9337960778e+01   1.1843504239e+00    0.1835474    0.1025724 -28.96  0.001034286    1.610    0.379
       115  -8.2828    218.1717     19.5133   2.8518848059e+01   2.8007887092e+01    0.1601609    0.1230113  82.46 0.0002725953    1.305    0.233
       116  -8.3366    189.8326     14.8726   2.9943577909e+01   3.5278561422e+01     0.191758    0.1408596 -56.50 0.0006130257    1.302    0.232
       117  -8.8918     19.4095    211.9859   1.1004433562e+02   2.8951829093e+01    0.1598839    0.1500831  17.87  0.001286726    1.584    0.369
       118  -9.2964    243.5061    208.0442   6.7020742277e+01  -2.2416017143e+00    0.1906888    0.1486544  39.74 0.0007913143    1.564    0.361
       119  -8.7337    164.2222    205.9960   8.0484968729e+01   1.0071117922e+01     0.170961    0.1497229  48.53 0.0003048696    1.201    0.168
       120  -9.7595    250.5741    204.3285   6.5305858275e+01  -2.7848337628e+00     0.282238    0.1402343 -36.74  0.001039997    2.212    0.548
       121  -8.8699     79.3158     13.9202   4.9537417083e+01   6.2309163963e+01    0.1873766    0.1581538 -10.20 0.0005730906    1.147    0.129
       122  -8.1415    163.0274     13.0318   3.2450968889e+01   4.2198905155e+01    0.1571192    0.1486291 -47.92 0.0003153062    1.082    0.076
       123 -10.3118    241.0667    199.1292   6.5886438356e+01  -8.6512812751e-01    0.3259341    0.2090269  47.06   0.00198241    1.970    0.492
       124  -8.5700    206.8164     12.5332   2.7685207590e+01   3.1403730612e+01    0.1833296    0.1223526  75.09 0.0009885856    1.476    0.323
       125  -7.8592    221.5148    205.5157   7.0138628866e+01   1.1939566188e+00    0.1164396   0.09724023  12.32 0.0001702623    1.071    0.067
       126  -9.7717     25.1624    199.3755   1.0817927047e+02   3.0820734620e+01    0.2315415    0.1732959 -75.95  0.001645791    1.372    0.271
       127  -9.2762    204.1542    200.1384   7.2201564419e+01   4.5422828945e+00    0.1928291    0.1462018  11.49 0.0008784384    1.227    0.185
       128  -9.4789    194.4812    197.9968   7.3562052354e+01   6.3781106887e+00     0.320039    0.2257647 -70.37  0.001601527    2.998    0.666
       129 -10.0862    191.3187    191.6916   7.3059846614e+01   7.8122180107e+00    0.5655106    0.3716838 -70.64  0.002447446    3.829    0.739
       130 -10.6744    218.7818    186.3715   6.7265033974e+01   4.1105378778e+00    0.4391025    0.2685068  22.11  0.001863018    1.667    0.400
       131  -8.4433     28.0487    183.7351   1.0649833675e+02   3.3714921806e+01    0.1509762    0.1250968  66.96 0.0002669713    1.093    0.085
       132  -9.6934    210.5683    180.7854   6.7655003225e+01   6.2192870229e+00    0.3179387    0.1944448  56.96  0.001575922    2.429    0.588
