#   1 NUMBER                 Running object number                                     
#   2 MAG_AUTO               Kron-like elliptical aperture magnitude                    [mag]
#   3 X_IMAGE                Object position along x                                    [pixel]
#   4 Y_IMAGE                Object position along y                                    [pixel]
#   5 X_WORLD                Barycenter position along world x axis                     [deg]
#   6 Y_WORLD                Barycenter position along world y axis                     [deg]
#   7 A_WORLD                Profile RMS along major axis (world units)                 [deg]
#   8 B_WORLD                Profile RMS along minor axis (world units)                 [deg]
#   9 THETA_WORLD            Position angle (CCW/world-x)                               [deg]
#  10 FWHM_WORLD             FWHM assuming a gaussian core                              [deg]
#  11 ELONGATION             A_IMAGE/B_IMAGE                                           
#  12 ELLIPTICITY            1 - B_IMAGE/A_IMAGE                                       
         1 -12.5257    179.5588     59.5192   1.5601333163e+01   3.2339984786e+01      1.56164     1.052874  29.72  0.005062631    2.472    0.595
         2 -12.9172    195.5609     47.1345   1.0505785029e+01   3.0547462360e+01    0.9409096    0.8558961 -65.45  0.003892957    1.145    0.127
         3 -13.1943    222.3535     18.5933   1.5799923427e+00   2.8453330988e+01     1.027226    0.8335105 -31.25  0.005262944    1.381    0.276
         4 -10.9094    119.0732     10.1261   7.9787754281e+00   5.4123239255e+01     0.666342    0.3984421  50.72   0.00318335    1.807    0.447
         5 -11.4712      7.4936      9.2396   5.8855675201e+01   7.9324382184e+01    0.4851467    0.3798303 -67.53  0.002979025    1.556    0.357
         6  -9.2202     64.3363      4.6635   1.6860839595e+01   6.9017827996e+01    0.1418016   0.09851451 -68.52  0.000705175    1.748    0.428
         7  -8.5044    171.3577      2.6680   5.0476252478e-01   4.1407047933e+01    0.1503065   0.07144262 -59.77 0.0007042685    1.795    0.443
         8 -11.2387    234.7881      2.2529   3.5743866882e+02   2.7761704680e+01    0.5759026    0.2332176  80.40  0.003121452    2.583    0.613
         9  -9.1206     70.7391    190.6182   7.0162468989e+01   2.5661531617e+01    0.2985023    0.2011366 -64.73  0.001397388    1.642    0.391
        10 -12.6320    246.2825    240.3737   4.0961928942e+01  -4.1910040493e+00     1.425595    0.5082483 -30.50  0.008638225    2.400    0.583
        11 -10.3774     46.7825    177.5687   7.5658113570e+01   3.1837120794e+01    0.5520412    0.3932635 -85.41  0.002204432    1.449    0.310
        12 -11.1493     42.1622    174.4882   7.6755627325e+01   3.3148552305e+01    0.5332612    0.3916272 -50.21 0.0005202879    1.620    0.383
        13 -11.3506     53.0206    189.9146   7.4994042850e+01   2.8092982511e+01     0.402569    0.2888407  54.33 0.0005668715    1.236    0.191
        14 -11.3196     54.9250    185.7635   7.4071795233e+01   2.8846018854e+01    0.6280661    0.2687566  48.93  0.002166836    2.124    0.529
        15 -10.8105     50.5393    181.0324   7.4880929973e+01   3.0530825506e+01    0.6551341    0.2838846 -84.75 0.0008056925    2.853    0.650
        16 -10.0656     81.0672    182.9667   6.6421156707e+01   2.5998378983e+01    0.4522939    0.2514621  36.55   0.00147899    1.557    0.358
        17  -8.8724     38.9703    187.4903   7.8750092679e+01   3.0306265421e+01    0.2458051    0.1546709  65.04 0.0006063755    1.507    0.336
        18 -15.6641     68.1836    142.0591   6.4439613067e+01   3.8129497818e+01     12.88408     5.509514  64.19   0.03397893    4.930    0.797
        19  -9.8134    181.5611    181.8976   4.2602514724e+01   1.0884735004e+01    0.4786533    0.1550701 -42.02  0.001932912    2.997    0.666
        20  -9.7559    180.3594    175.4217   4.1691689737e+01   1.2139145880e+01    0.2909898    0.1508194 -46.12  0.001084453    2.008    0.502
        21  -8.6793     56.4497    211.3338   7.5887320230e+01   2.2845822776e+01    0.4743782     0.271934 -82.51  0.002422878    2.036    0.509
        22  -9.3772     52.7522    205.2242   7.6361788949e+01   2.4617887887e+01    0.3018757    0.1817567  69.24  0.001244177    1.761    0.432
        23  -9.4115     58.8782    196.9289   7.4022086416e+01   2.5744201162e+01    0.1968566    0.1746232  62.95 0.0002884466    1.101    0.092
        24 -10.5000    144.6475    182.5486   5.0338806351e+01   1.6329504152e+01    0.3395119     0.261431  64.92  0.001517609    1.783    0.439
        25  -9.8409    221.1705    176.2046   3.4814168112e+01   6.3639880683e+00    0.2968156    0.1423369 -31.54  0.001610236    1.836    0.455
        26  99.0000     42.0409    249.4613   8.1718105537e+01   1.6872633310e+01    0.1691098    0.1335989 -24.56  0.001117453    1.839    0.456
        27  -8.5416    188.1994    171.1970   3.9467844846e+01   1.1677277818e+01    0.1628132    0.1462323 -49.76 0.0008700354    1.352    0.260
        28 -10.7427    230.8198    168.3820   3.2002036841e+01   6.2407622726e+00     0.361954    0.1763944 -49.39  0.001785295    2.840    0.648
        29  -9.8415    143.1491    166.1907   4.7811880280e+01   1.9774078914e+01    0.3017164    0.2420553  55.84  0.001445614    1.425    0.298
        30  -9.0017    179.2616    169.5816   4.0844557840e+01   1.3298479736e+01    0.1802491    0.1166259  24.30 0.0009558238    1.636    0.389
        31 -10.2070    246.6776    167.0040   2.9559963242e+01   4.4915926241e+00    0.1742582    0.1588064 -52.98  0.001362125    1.632    0.387
        32  -9.1150     85.8117    187.4011   6.5690553132e+01   2.4302860404e+01    0.2738243    0.2080977  73.34 0.0007590163    1.479    0.324
        33  -9.8652    145.4469    169.4863   4.7887526141e+01   1.8735176917e+01    0.2338348    0.2085698 -48.43 0.0005800935    1.203    0.169
        34  -9.6548     38.4016    210.6883   8.0475898064e+01   2.5029439440e+01    0.3454461    0.1915234  12.01   0.00163206    2.230    0.552
        35 -10.1092    112.1841    155.2146   5.3508491954e+01   2.7497260868e+01    0.3072163    0.2602179 -83.07 0.0009709161    1.335    0.251
        36 -11.5451    111.0780    150.4983   5.2923628675e+01   2.8786185416e+01    0.7399676    0.4138834  61.37  0.002054681    2.582    0.613
        37  -9.5291    123.1025    156.0115   5.0782109470e+01   2.5392163128e+01    0.2192159     0.211972  62.42 0.0005100804    1.062    0.058
        38 -11.1993    133.8320    145.4786   4.6000814472e+01   2.5749647751e+01     1.402865    0.3494295 -54.74  0.003344458    6.241    0.840
        39  -8.5612    167.1908    224.2308   5.1980257512e+01   6.1321893756e+00    0.1471588    0.1312947  31.60 0.0007630018    1.357    0.263
        40  -9.4914    138.1142    144.6382   4.4786519251e+01   2.5131855119e+01    0.3960987    0.2536192 -76.67  0.001425947    2.670    0.625
        41  -9.0873    114.2530    145.0403   5.0988256973e+01   2.9481806682e+01     0.209145    0.1981081 -88.98 0.0005463462    1.088    0.081
        42  -8.7671    250.0000    144.0160   2.5068382664e+01   7.1446689329e+00    0.1923471   0.05036754 -36.30 0.0008060779    2.968    0.663
        43 -10.3825    115.3061    140.8048   4.9839142928e+01   3.0271677687e+01    0.3770398    0.2584846  86.98   0.00156307    2.191    0.544
        44  -9.4723    124.8512    141.1510   4.7369412827e+01   2.8391280389e+01    0.2207878    0.2006309  72.48 0.0003567275    1.165    0.142
        45 -10.2511    121.5027    136.2778   4.7212714037e+01   3.0136004041e+01     0.425179    0.2684423 -41.60  0.001010437    1.704    0.413
        46 -10.4732    135.4519    129.0392   4.2040441409e+01   2.9003355422e+01    0.6006892    0.2750573 -46.10  0.002301966    2.176    0.540
        47 -10.0058    113.6809    128.2484   4.7578123948e+01   3.3527941603e+01    0.3487227    0.2834342  -5.22 0.0007972237    1.631    0.387
        48 -10.0322    101.0150    124.2216   5.0366726528e+01   3.6984441619e+01    0.4153683    0.2893678 -42.16 0.0006840131    1.586    0.370
        49  -9.9766    120.0756    122.5952   4.4508821965e+01   3.3557953327e+01    0.4702284    0.3314002  12.63  0.001949473    2.171    0.539
        50  -8.1617    232.6533    120.2751   2.2711943739e+01   1.2901040871e+01    0.1142542   0.08443648 -60.10 0.0007002339    1.629    0.386
        51  -7.8984    172.0061    120.2493   3.2093890598e+01   2.3492226723e+01    0.1600995    0.1212494  48.07 0.0002379525    1.420    0.296
        52  -9.9219     72.9821    204.9804   7.1062660561e+01   2.2165945221e+01    0.2267302    0.1828624  81.70 0.0004612893    1.363    0.266
        53  -7.7687    185.2313    118.9797   2.9417453557e+01   2.1188247949e+01    0.1752773    0.1037892 -40.52 0.0003100196    1.523    0.343
        54  -8.7627    109.3475    118.0697   4.6443542347e+01   3.6810884608e+01    0.2403978    0.2120383  32.22 0.0004834332    1.213    0.175
        55  -8.5162    102.2390    115.9863   4.8061547148e+01   3.8757129245e+01    0.2227948     0.187116  82.04 0.0004312425    1.283    0.221
        56  -8.7496    100.2355    113.0090   4.7949944665e+01   3.9888759949e+01    0.3143539    0.2385564 -78.26   0.00110035    1.506    0.336
        57 -10.6806    118.7056    110.5961   4.1934516481e+01   3.6593102174e+01    0.7808087    0.4436253  71.60  0.002564143    3.239    0.691
        58  -9.5993     41.5553    205.7698   7.9341704772e+01   2.5774620185e+01    0.2303409    0.1600823  38.70  0.000854229    1.178    0.151
        59  -9.7007    125.9249    108.7549   3.9531789425e+01   3.5448475073e+01    0.3880436    0.2487324  89.08  0.001410336    2.743    0.635
        60  -8.3222     99.3963    108.7121   4.7131531144e+01   4.1107798804e+01    0.2228305    0.1480566 -43.09 0.0009400661    1.634    0.388
        61 -10.9070    119.6282    103.5342   3.9834926121e+01   3.7988315862e+01    0.5054039    0.4028028 -68.56  0.002020035    1.328    0.247
        62  -9.6077     64.0985     99.9133   5.7488404479e+01   5.0075579325e+01    0.4951909    0.1591441  45.22  0.001475729    3.222    0.690
        63  -8.5160     73.3137     90.9918   5.1489708385e+01   5.0727698253e+01    0.2109276    0.1988018 -75.62 0.0004755441    1.051    0.049
        64  -7.8992     38.7974    202.1562   7.9830166752e+01   2.6891602861e+01    0.4296876    0.2339941  25.34  0.002117118    1.702    0.412
        65  -8.7042     14.1086     86.8596   7.7843376266e+01   5.9816196950e+01    0.2607149    0.1744523  22.88 0.0005229124    1.558    0.358
        66  -8.0468     86.5592    204.7865   6.7564773357e+01   2.0409363980e+01    0.1346596   0.09555405   5.78            0    1.714    0.417
        67  -8.4248    181.4941    194.4702   4.4731511048e+01   8.8640524488e+00    0.1232328    0.1037661  -0.62 0.0008098898    1.009    0.009
        68  -8.0665    124.8900     76.6141   3.0666166649e+01   4.2475774502e+01    0.2003074    0.1429514  71.58 0.0002136175    1.504    0.335
        69  -8.5884     90.3432    202.1581   6.6304162587e+01   2.0445309715e+01    0.1929684    0.1652206 -37.69 0.0007387015    1.379    0.275
        70 -10.3459    151.0283    247.0126   5.8071844728e+01   4.7395754386e+00    0.2533232    0.1679108 -47.42  0.001104406    1.895    0.472
        71 -10.2319    204.9820     34.3346   6.4545506350e+00   3.0182984462e+01    0.2253301    0.1661687 -35.76 0.0006810307    1.311    0.237
        72 -10.4223     45.5072    244.3814   8.0682280012e+01   1.7444440050e+01     0.213682    0.1104605 -68.94  0.001193893    2.352    0.575
        73  -9.7518    191.9126    193.4327   4.2639882825e+01   7.6295961112e+00    0.5873454    0.3749661 -67.90  0.002428938    4.772    0.790
        74  -9.8453    164.6425     61.5517   1.8292470091e+01   3.5497235660e+01    0.2508462    0.2318863  53.72 0.0006037017    1.270    0.213
        75 -18.2654     15.2869    227.6789   8.6962861825e+01   2.3727295978e+01      5.73948     4.772626  71.93   0.02140414    1.232    0.188
        76 -11.9350    201.0164     41.3749   8.5332091817e+00   3.0133794348e+01    0.4938265    0.4138773 -86.55  0.001060882    1.208    0.172
        77  -7.9215     41.3047     59.6591   5.6475785183e+01   6.4043107719e+01    0.1516576    0.1125729  70.91 0.0007040756    1.680    0.405
        78  -9.0947    141.8146     42.1834   1.6026936805e+01   4.4141845693e+01    0.1898393    0.1706973  49.00 0.0003403236    1.311    0.237
        79  -8.2338     67.5278    242.5869   7.5565932970e+01   1.5349949302e+01    0.1250562   0.09356355  37.59  0.000130531    1.020    0.019
        80  -8.3741    190.0103     15.5146   2.7961900987e+00   3.5699696089e+01    0.1848583    0.1140686  86.05 0.0006393093    1.549    0.354
        81  -8.3995     92.9567     13.7182   1.4155147351e+01   6.0729264668e+01    0.1985128    0.1649492  78.39  0.001098661    1.077    0.072
        82 -10.0951     34.2126    191.9167   8.0398808416e+01   2.9764157764e+01    0.3837791    0.2027343  41.84 0.0008866696    1.527    0.345
        83  -8.3265    109.0063     13.0031   1.0711347698e+01   5.6527209583e+01    0.1654236    0.1512065 -68.23 0.0003446375    1.105    0.095
        84 -11.1330     62.3413    238.1017   7.6439505309e+01   1.6770355671e+01    0.2359264     0.178182  69.16 0.0008378343    1.414    0.293
        85  -8.1273     58.2170    239.2847   7.7472709447e+01   1.7013631937e+01    0.1458488    0.1017292  42.12 0.0003715102    1.108    0.098
        86  -9.0355     58.1819    234.0331   7.7129509431e+01   1.8016796678e+01    0.1843124    0.1061257 -48.69 0.0009367394    2.342    0.573
