#   1 NUMBER                 Running object number                                     
#   2 MAG_AUTO               Kron-like elliptical aperture magnitude                    [mag]
#   3 X_IMAGE                Object position along x                                    [pixel]
#   4 Y_IMAGE                Object position along y                                    [pixel]
#   5 X_WORLD                Barycenter position along world x axis                     [deg]
#   6 Y_WORLD                Barycenter position along world y axis                     [deg]
#   7 A_WORLD                Profile RMS along major axis (world units)                 [deg]
#   8 B_WORLD                Profile RMS along minor axis (world units)                 [deg]
#   9 THETA_WORLD            Position angle (CCW/world-x)                               [deg]
#  10 FWHM_WORLD             FWHM assuming a gaussian core                              [deg]
#  11 ELONGATION             A_IMAGE/B_IMAGE                                           
#  12 ELLIPTICITY            1 - B_IMAGE/A_IMAGE                                       
         1 -14.4057    165.4657     54.3554   7.2432244119e+01   3.7096392516e+01     1.963465     1.525846  14.06  0.006779951    1.847    0.459
         2 -14.0691    179.4474     38.3032   6.6038032274e+01   3.5989256193e+01    0.8516371    0.7211665  88.41  0.002677141    1.049    0.047
         3 -13.7318    183.6997     31.3971   6.3752501454e+01   3.5859623517e+01    0.5804025    0.5041652  67.43  0.001418878    1.158    0.137
         4 -13.6619    189.3194     13.8203   5.8939897793e+01   3.6563591447e+01    0.7654842     0.408235 -72.99  0.003176995    2.129    0.530
         5 -14.5840    199.3186      6.2687   5.6221719528e+01   3.5089476862e+01     1.021826     0.882701 -63.88  0.004708518    1.232    0.188
         6 -10.4097     70.7512      8.5830   7.9755604449e+01   6.2744962501e+01     0.152237    0.1015657  54.60 0.0004662336    1.580    0.367
         7 -11.4520     20.0840    214.3552   1.4164348968e+02   2.6911314410e+01    0.1735649   0.08391482  51.01 0.0009134163    1.885    0.470
         8 -13.1919    248.3414    246.1806   9.8691098461e+01  -1.3905969807e+01    0.8293561    0.3741727 -31.50  0.004318647    2.103    0.525
         9 -12.6470    152.1163    192.2738   1.0852026849e+02   1.1667297097e+01    0.4004176    0.3336326 -85.70  0.001219779    1.420    0.296
        10 -12.0533     59.3627    201.9438   1.3197022647e+02   2.5075278883e+01    0.2294432    0.1868734  65.20 0.0004715609    1.129    0.114
        11 -11.7809    151.3430    183.3046   1.0696273812e+02   1.3832495900e+01    0.3044408    0.2591248  85.02 0.0005297704    1.355    0.262
        12  -9.3904    176.2852    186.6153   1.0194759216e+02   8.2340107066e+00     0.151017    0.1190305 -86.64 0.0007010007    1.740    0.425
        13 -10.5962     63.6036    180.7585   1.2817934647e+02   2.9646030679e+01      0.32333    0.2104791  69.66   0.00156728    1.693    0.409
        14 -11.1202    204.3016    175.6259   9.3779440767e+01   5.1399179475e+00    0.6460296     0.268913 -56.41  0.001996539    3.945    0.747
        15 -10.7559    201.3347    168.6964   9.2927673713e+01   7.1160802305e+00    0.3510454    0.2344618 -64.90  0.001397302    2.005    0.501
        16 -11.5559    204.5589    165.4978   9.1601476029e+01   7.1435375690e+00    0.5202804    0.3586841 -50.55  0.001459828    1.451    0.311
        17 -10.2845    168.4158    177.1248   1.0177421946e+02   1.1836051070e+01    0.2899432    0.2253862 -74.67 0.0006277181    1.603    0.376
        18 -10.5636    165.9254    172.9425   1.0147101388e+02   1.3263316109e+01     0.274105    0.2226161 -70.25  0.000793252    1.409    0.290
        19 -11.6959    189.2623    154.9987   9.2458555356e+01   1.2404441264e+01    0.4759184    0.4387494 -47.98  0.001627837    1.046    0.044
        20 -11.8281    193.6401    166.2755   9.3993317630e+01   9.1307162420e+00    0.3511158    0.3218878 -58.03 0.0007254466    1.127    0.113
        21 -11.2266    190.2030    161.1740   9.3613262660e+01   1.0897949236e+01    0.4016623    0.3304025 -83.52  0.001111089    1.518    0.341
        22 -19.0950     36.7643    100.2874   1.2166802891e+02   5.2406551941e+01     16.03199    0.9939674 -59.11   0.02757407   13.759    0.927
        23  99.0000     12.4647    205.9107   1.4251237094e+02   2.9588840890e+01    0.4531745    0.2051323  36.09  0.002385971    2.310    0.567
        24 -12.0170    193.5984    195.5591   1.0000535394e+02   3.1350591389e+00     1.241961    0.6586364 -68.15  0.003346441    6.332    0.842
        25 -10.4999    113.0435    160.2352   1.1182075237e+02   2.6737070148e+01    0.2577111    0.2148551 -59.56 0.0005610805    1.168    0.144
        26  -9.9189    128.2768    155.8421   1.0694748757e+02   2.4873322805e+01     0.263638    0.1686155  80.75 0.0009412254    2.705    0.630
        27 -12.2726    133.9716    145.8074   1.0326223344e+02   2.6124301729e+01     1.353144    0.3494201 -55.01  0.003085796    5.609    0.822
        28 -11.0680    164.0381    151.6781   9.7279399254e+01   1.8438517466e+01    0.3886585    0.2578516  71.48  0.001541497    2.188    0.543
        29 -12.2020    148.9674    149.2956   1.0031503590e+02   2.2177928414e+01    0.7148153    0.3340375  60.38  0.002105316    3.748    0.733
        30 -10.6909    174.3837    148.8259   9.4289814075e+01   1.6871351448e+01    0.3260536    0.2715293 -89.19  0.000774432    1.426    0.299
        31 -10.6209    157.4295    199.2547   1.0861609813e+02   9.1272481404e+00    0.2018703    0.1435846 -62.95 0.0009450975    1.626    0.385
        32 -12.6835    100.7100    137.7415   1.1035743210e+02   3.4527333353e+01    0.3279139    0.3048945 -31.59 0.0005650017    1.133    0.117
        33 -10.0163    160.2740    197.6451   1.0767122873e+02   8.9369174985e+00    0.1473255    0.1171141  86.31 0.0007003094    1.644    0.392
        34 -12.0249    105.9681    130.8401   1.0729784018e+02   3.5229466232e+01    0.4760684    0.3589275 -58.08  0.001241262    1.317    0.241
        35 -11.3498    105.7094    125.0046   1.0597745367e+02   3.6661877597e+01    0.3005586    0.2540158 -30.82 0.0006222539    1.258    0.205
        36 -10.3090    135.0000    119.9834   9.6783858187e+01   3.1881319969e+01    0.3300767    0.1202623 -46.40  0.001060485    2.713    0.631
        37 -11.1455    136.0000    129.0198   9.8775647652e+01   2.9622259792e+01    0.4284528    0.1737862 -47.57  0.001453867    2.429    0.588
        38 -10.8868    135.3807    125.1977   9.7992817867e+01   3.0625846303e+01     0.423586      0.15637 -47.27  0.001372729    2.674    0.626
        39 -11.3773    117.4248    129.1945   1.0373348661e+02   3.3410052891e+01    0.3310097    0.2745661 -31.93 0.0007527323    1.298    0.230
        40  -9.2906    127.2516    123.3171   9.9645477749e+01   3.2770423527e+01    0.1522101    0.1227993 -16.33 0.0001801258    1.528    0.346
        41 -10.9098    160.8807    127.8750   9.2428490711e+01   2.4442302522e+01    0.4100056    0.3166186 -85.02  0.001852503    1.628    0.386
        42 -10.3654    112.1138    118.3968   1.0253493507e+02   3.6964201768e+01    0.2439728    0.2051571 -37.21 0.0002842532    1.204    0.170
        43 -11.1273    167.7626    112.7009   8.7132761155e+01   2.6126233683e+01    0.4010982    0.2955423 -83.22  0.001423394    1.758    0.431
        44 -10.7364    205.4323    110.0879   7.9065061406e+01   1.8138998288e+01     0.308795    0.2228242  49.58  0.001010852    1.493    0.330
        45 -10.6399    134.5604    105.7424   9.3201311861e+01   3.5071152319e+01    0.3857776    0.1487841 -46.73  0.001298553    2.621    0.618
        46 -11.2084     80.3697    105.8626   1.0875240063e+02   4.5500366674e+01    0.2512485    0.2190679 -32.71 0.0005986695    1.104    0.094
        47 -10.1500     66.5188     98.8950   1.1140120359e+02   4.9141330197e+01    0.2205763    0.1277614 -50.18  0.001032416    1.592    0.372
        48  -9.6983    150.3845     80.7360   8.2611108164e+01   3.6368802524e+01    0.1972915    0.1435853 -28.59 0.0005637513    1.576    0.366
        49 -10.3146     82.9662     76.2941   9.9637746598e+01   5.1194198203e+01    0.1901023    0.1707142  18.19 0.0003608248    1.084    0.078
        50 -11.6412    175.8254     74.1710   7.5697623703e+01   3.1511308589e+01    0.3558863    0.2619496 -85.33 0.0005993546    1.551    0.355
        51 -17.8225     60.6978    238.3277   1.3560444991e+02   1.6672861141e+01     9.629552     7.522707 -81.59   0.05833489    1.226    0.185
        52 -10.1244     64.4212    195.4760   1.2998829432e+02   2.5930870814e+01    0.1370446    0.1211604 -85.18 0.0001460877    1.067    0.062
        53 -11.8427    158.3198    234.4184   1.1447057747e+02   1.8178615790e+00    0.3170737    0.2467237  26.72  0.001773868    1.252    0.201
        54 -10.4306     13.4683     59.8138   1.2034580633e+02   6.2719695007e+01    0.1781278     0.147496 -10.77 0.0004315806    1.187    0.158
        55 -11.6527    167.9787    232.8520   1.1216996902e+02   4.5858840774e-01     0.322152    0.2418248  46.46 0.0008169074    1.307    0.235
        56  -9.7496    228.2708    233.3514   1.0014539894e+02  -9.2720407533e+00    0.1299122   0.08593824  -7.56 0.0002823121    1.630    0.386
        57 -10.2271    111.0819     20.9065   7.3572157957e+01   5.3658126305e+01    0.1854348    0.1587931  75.32 0.0005195793    1.296    0.229
